Time	Channel A	Channel B	Channel C
(us)	(V)	(mV)	(mV)

-4.59999956	0.00000000	17.39050000	3.15575800
-4.39999957	0.00000000	17.39050000	3.15575800
-4.19999958	0.00000000	17.39050000	3.15575800
-3.99999959	0.00000000	17.39050000	3.15575800
-3.79999960	0.00000000	17.39050000	3.15575800
-3.59999962	0.00000000	17.39050000	3.15575800
-3.39999963	0.00000000	17.39050000	3.15575800
-3.19999964	0.00000000	17.39050000	3.15575800
-2.99999965	0.00000000	17.39050000	3.15575800
-2.79999966	0.00000000	17.39050000	3.15575800
-2.59999968	0.00000000	17.43356000	3.19881900
-2.39999969	0.00000000	17.76575000	3.53100400
-2.19999970	0.00000000	18.13484000	3.90009800
-1.99999971	0.00000000	17.76575000	3.53100400
-1.79999972	0.00000000	17.43356000	3.19881900
-1.59999973	0.00000000	17.39050000	3.15575800
-1.39999975	0.00000000	17.39050000	3.15575800
-1.19999976	0.00000000	17.39050000	3.15575800
-0.99999977	0.00000000	17.39050000	3.19881900
-0.79999978	0.00000000	17.39050000	3.57406500
-0.59999979	0.00000000	17.39050000	4.31840500
-0.39999981	0.00000000	17.39050000	4.69365100
-0.19999982	0.47736220	17.39050000	4.69365100
0.00000017	0.79601380	17.39050000	4.31840500
0.20000016	0.95533960	17.39050000	3.57406500
0.40000015	0.95533960	17.39050000	3.19881900
0.60000013	0.79601380	17.39050000	3.15575800
0.80000012	0.00000000	17.39050000	3.15575800
1.00000011	-0.79601380	17.39050000	3.15575800
1.20000010	-1.75196900	17.39050000	3.15575800
1.40000009	-2.54859700	17.39050000	3.19881900
1.60000008	-2.70792300	17.39050000	3.57406500
1.80000006	-2.22994600	17.39050000	4.31840500
2.00000005	-0.79601380	17.39050000	4.69365100
2.20000004	1.11466500	17.39050000	4.69365100
2.40000003	3.18590100	17.39050000	4.31840500
2.60000002	4.77854300	17.39050000	3.57406500
2.80000000	5.25652100	17.39050000	3.19881900
2.99999999	4.45989200	17.39050000	3.15575800
3.19999998	2.07062000	17.39050000	3.15575800
3.39999997	-1.11466500	17.39050000	3.15575800
3.59999996	-4.45989200	17.39050000	3.19881900
3.79999994	-7.00848900	17.39050000	3.57406500
3.99999993	-7.96444400	17.39050000	4.31840500
4.19999992	-7.00848900	17.39050000	4.69365100
4.39999991	-3.98191400	17.39050000	4.73671200
4.59999990	0.31803640	17.39050000	4.73671200
4.79999989	4.61921700	17.39050000	4.69365100
4.99999987	7.96444400	17.39050000	4.31840500
5.19999986	9.39837600	17.39050000	3.53100400
5.39999985	8.60174700	17.39050000	2.82357300
5.59999984	5.41584600	17.39050000	2.41141700
5.79999983	0.95533960	17.39050000	2.78051200
5.99999981	-3.82258900	17.39050000	3.11269700
6.19999980	-7.48646600	17.39050000	3.15575800
6.39999979	-9.39837600	17.39050000	3.19881900
6.59999978	-8.92039900	17.39050000	3.57406500
6.79999977	-6.21247500	17.39050000	4.31840500
6.99999975	-2.07062000	17.39050000	4.69365100
7.19999974	2.22994600	17.39050000	4.69365100
7.39999973	5.73449800	17.39050000	4.31840500
7.59999972	7.64579200	17.39050000	3.57406500
7.79999971	7.48646600	17.39050000	3.19881900
7.99999970	5.41584600	17.39050000	3.15575800
8.19999968	2.38927200	17.39050000	3.15575800
8.39999967	-0.79601380	17.39050000	3.15575800
8.59999966	-3.50393700	17.39050000	3.15575800
8.79999965	-4.93786900	17.39050000	3.15575800
8.99999964	-5.09719500	17.39050000	3.15575800
9.19999962	-3.98191400	17.39050000	3.15575800
9.39999961	-2.07062000	17.39050000	3.15575800
9.59999960	-0.15871060	17.39050000	3.15575800
9.79999959	1.43331700	17.39050000	3.15575800
9.99999958	2.38927200	17.39050000	3.15575800
10.19999956	2.54859700	17.39050000	3.15575800
10.39999955	2.07062000	17.39050000	3.15575800
10.59999954	1.11466500	17.39050000	3.15575800
10.79999953	0.31803640	17.39050000	3.15575800
10.99999952	-0.47736220	17.39050000	3.15575800
11.19999951	-0.79601380	17.39050000	3.15575800
11.39999949	-0.95533960	17.39050000	3.15575800
11.59999948	-0.95533960	17.39050000	3.15575800
11.79999947	-0.63668800	17.39050000	3.15575800
11.99999946	-0.31803640	17.39050000	3.15575800
12.19999945	-0.15871060	17.39050000	3.15575800
12.39999943	-0.15871060	17.39050000	3.15575800
12.59999942	0.00000000	17.39050000	3.15575800
12.79999941	0.00000000	17.39050000	3.15575800
12.99999940	0.00000000	17.39050000	3.15575800
13.19999939	0.00000000	17.39050000	3.15575800
13.39999937	0.00000000	17.39050000	3.15575800
13.59999936	0.00000000	17.39050000	3.15575800
13.79999935	0.00000000	17.39050000	3.15575800
13.99999934	-0.15871060	17.39050000	3.15575800
14.19999933	-0.15871060	17.39050000	3.15575800
14.39999932	-0.15871060	17.39050000	3.15575800
14.59999930	-0.15871060	17.39050000	3.15575800
14.79999929	0.00000000	17.39050000	3.15575800
14.99999928	0.00000000	17.39050000	3.15575800
15.19999927	0.00000000	17.39050000	3.15575800
15.39999926	0.00000000	17.39050000	3.15575800
15.59999924	0.00000000	17.39050000	3.15575800
15.79999923	0.00000000	17.39050000	3.15575800
15.99999922	0.00000000	17.39050000	3.15575800
16.19999921	0.00000000	17.39050000	3.15575800
16.39999920	-0.15871060	17.39050000	3.15575800
16.59999919	0.00000000	17.39050000	3.15575800
16.79999917	-0.15871060	17.39050000	3.15575800
16.99999916	-0.15871060	17.43356000	3.15575800
17.19999915	0.00000000	17.80881000	3.15575800
17.39999914	0.00000000	18.55315000	3.15575800
17.59999913	0.00000000	18.92839000	3.15575800
17.79999911	0.00000000	18.92839000	3.15575800
17.99999910	0.00000000	18.50394000	3.15575800
18.19999909	0.00000000	17.29823000	3.15575800
18.39999908	0.00000000	15.43430000	3.15575800
18.59999907	0.00000000	13.48425000	3.15575800
18.79999905	0.00000000	12.36466000	3.15575800
18.99999904	0.00000000	11.90330000	3.15575800
19.19999903	0.00000000	12.40773000	3.15575800
19.39999902	0.00000000	13.95177000	3.15575800
19.59999901	0.00000000	17.10753000	3.15575800
19.79999900	0.00000000	20.92766000	3.15575800
19.99999898	0.00000000	24.82775000	3.15575800
20.19999897	0.00000000	27.86048000	3.15575800
20.39999896	0.00000000	28.97392000	3.15575800
20.59999895	0.00000000	27.34990000	3.15575800
20.79999894	0.00000000	22.69316000	3.15575800
20.99999892	0.00000000	15.71727000	3.15575800
21.19999891	0.00000000	7.99704600	3.15575800
21.39999890	0.00000000	1.02116100	3.15575800
21.59999889	0.00000000	-3.50024600	3.15575800
21.79999888	0.00000000	-3.77706700	3.15575800
21.99999886	0.00000000	1.66092500	3.15575800
22.19999885	0.00000000	11.66339000	3.15575800
22.39999884	0.00000000	23.71432000	3.15575800
22.59999883	0.00000000	35.72219000	3.15575800
22.79999882	0.00000000	45.26328000	3.19881900
22.99999881	0.00000000	49.02805000	3.57406500
23.19999879	0.00000000	45.12795000	4.31840500
23.39999878	0.00000000	34.28272000	4.69365100
23.59999877	0.00000000	18.37475000	4.77977300
23.79999876	0.00000000	0.64591530	5.11195900
23.99999875	0.00000000	-14.79454000	5.47490100
24.19999873	0.00000000	-23.96653000	5.06274600
24.39999872	0.00000000	-24.33563000	4.31840500
24.59999871	0.00000000	-14.94833000	3.11269700
24.79999870	0.00000000	2.46063000	1.57480300
24.99999869	0.00000000	24.87697000	0.04306102
25.19999867	0.00000000	46.75196000	-1.11343500
25.39999866	0.00000000	62.19857000	-1.48253000
25.59999865	0.00000000	67.22440000	-1.06422200
25.79999864	0.00000000	61.03592000	0.51058070
25.99999863	0.00000000	44.75270000	3.24803100
26.19999862	0.00000000	21.57972000	6.72982200
26.39999860	0.00000000	-3.12500000	10.58686000
26.59999859	0.00000000	-23.54823000	13.60728000
26.79999858	0.00000000	-34.76255000	14.76993000
26.99999857	0.00000000	-34.01820000	13.52116000
27.19999856	0.00000000	-22.01649000	9.61491000
27.39999854	0.00000000	-1.16879900	3.02042300
27.59999853	0.00000000	23.85581000	-4.64443900
27.79999852	0.00000000	46.28445000	-11.61417000
27.99999851	0.00000000	61.45423000	-16.16634000
28.19999850	0.00000000	66.84916000	-16.91068000
28.39999848	0.00000000	61.07898000	-12.96752000
28.59999847	0.00000000	45.68159000	-4.83513700
28.79999846	0.00000000	24.83391000	6.40378900
28.99999845	0.00000000	3.15575800	18.30093000
29.19999844	0.00000000	-14.61614000	27.96506000
29.39999843	0.00000000	-24.75394000	32.89862000
29.59999841	0.00000000	-25.54749000	31.72982000
29.79999840	0.00000000	-17.49508000	23.92962000
29.99999839	0.00000000	-2.47293300	11.19587000
30.19999838	0.00000000	15.34203000	-4.27534400
30.39999837	0.00000000	32.37574000	-18.90994000
30.59999835	0.00000000	45.53395000	-29.31840000
30.79999834	0.00000000	51.40255000	-33.16929000
30.99999833	0.00000000	49.95694000	-29.26919000
31.19999832	0.00000000	42.18750000	-18.44242000
31.39999831	0.00000000	29.44143000	-2.55905500
31.59999829	0.00000000	14.82529000	15.18824000
31.79999828	0.00000000	1.99311000	30.98548000
31.99999827	0.00000000	-6.56988100	41.02485000
32.19999826	0.00000000	-10.10089000	42.97490000
32.39999825	0.00000000	-7.77559000	36.79257000
32.59999824	0.00000000	-0.47367120	23.64665000
32.79999822	0.00000000	9.95324800	6.26845500
32.99999821	0.00000000	21.16142000	-11.52190000
33.19999820	0.00000000	30.46875000	-26.16265000
33.39999819	0.00000000	36.28199000	-34.28272000
33.59999818	0.00000000	37.44463000	-33.96284000
33.79999816	0.00000000	33.63066000	-26.29183000
33.99999815	0.00000000	26.36565000	-13.10285000
34.19999814	0.00000000	17.85802000	3.15575800
34.39999813	0.00000000	10.08243000	19.37131000
34.59999812	0.00000000	4.31840500	32.10507000
34.79999810	0.00000000	1.99311000	38.23819000
34.99999809	0.00000000	3.89394600	36.37426000
35.19999808	0.00000000	8.83366100	27.17766000
35.39999807	0.00000000	15.39124000	13.65650000
35.59999806	0.00000000	21.53666000	-1.39640700
35.79999805	0.00000000	25.81201000	-14.86836000
35.99999803	0.00000000	27.34990000	-23.00074000
36.19999802	0.00000000	25.81201000	-24.62475000
36.39999801	0.00000000	21.62278000	-19.97416000
36.59999800	0.00000000	16.22785000	-9.99015700
36.79999799	0.00000000	11.24508000	2.69439000
36.99999797	0.00000000	7.76328700	14.59153000
37.19999796	0.00000000	7.01279500	22.67470000
37.39999795	0.00000000	8.87672100	24.62475000
37.59999794	0.00000000	12.78297000	20.48474000
37.79999793	0.00000000	17.76575000	12.07554000
37.99999791	0.00000000	22.74237000	2.08538400
38.19999790	0.00000000	25.81201000	-6.74212600
38.39999789	0.00000000	26.27953000	-12.13091000
38.59999788	0.00000000	24.78469000	-12.50615000
38.79999787	0.00000000	21.99803000	-7.90477300
38.99999786	0.00000000	18.13484000	0.51058070
39.19999784	0.00000000	13.48425000	10.03322000
39.39999783	0.00000000	9.66412400	17.32899000
39.59999782	0.00000000	7.29576700	20.39862000
39.79999781	0.00000000	6.92052100	18.44242000
39.99999780	0.00000000	8.45841400	11.56496000
40.19999778	0.00000000	11.57726000	1.99926200
40.39999777	0.00000000	15.80955000	-7.20349400
40.59999776	0.00000000	20.08489000	-13.74877000
40.79999775	0.00000000	23.57899000	-15.66191000
40.99999774	0.00000000	25.94734000	-12.54921000
41.19999772	0.00000000	26.64862000	-4.87819900
41.39999771	0.00000000	25.52903000	5.43184000
41.59999770	0.00000000	22.41634000	14.63459000
41.79999769	0.00000000	18.59621000	20.48474000
41.99999768	0.00000000	14.64690000	22.02264000
42.19999767	0.00000000	11.20202000	18.95300000
42.39999765	0.00000000	8.87672100	12.03248000
42.59999764	0.00000000	8.45841400	3.24803100
42.79999763	0.00000000	9.57800100	-4.87819900
42.99999762	0.00000000	11.53420000	-10.27313000
43.19999761	0.00000000	14.27165000	-12.26009000
43.39999759	0.00000000	17.29823000	-10.31619000
43.59999758	0.00000000	19.62352000	-5.38262700
43.79999757	0.00000000	20.46014000	1.15649600
43.99999756	0.00000000	20.50935000	7.29576700
44.19999755	0.00000000	20.13410000	11.61417000
44.39999753	0.00000000	19.38976000	13.56422000
44.59999752	0.00000000	19.01451000	13.18898000
44.79999751	0.00000000	18.97145000	10.49459000
44.99999750	0.00000000	18.97145000	6.31151500
45.19999749	0.00000000	18.92839000	2.08538400
45.39999748	0.00000000	18.46087000	-1.02116100
45.59999746	0.00000000	16.87992000	-2.60211600
45.79999745	0.00000000	14.18553000	-2.64517700
45.99999744	0.00000000	11.10974000	-1.48868100
46.19999743	0.00000000	8.41535400	0.41830710
46.39999742	0.00000000	6.92052100	2.78051200
46.59999740	0.00000000	7.34498000	5.06274600
46.79999739	0.00000000	10.03937000	7.01279500
46.99999738	0.00000000	14.36393000	7.75713500
47.19999737	0.00000000	19.80807000	7.42495000
47.39999736	0.00000000	25.94734000	6.22539300
47.59999734	0.00000000	30.51181000	4.31840500
47.79999733	0.00000000	32.04355000	1.99311000
47.99999732	0.00000000	30.08735000	0.09227362
48.19999731	0.00000000	24.64936000	-1.11343500
48.39999730	0.00000000	16.92298000	-1.43946800
48.59999729	0.00000000	8.41535400	-0.69512790
48.79999727	0.00000000	1.15649600	1.29183100
48.99999726	0.00000000	-2.65748000	3.94931100
49.19999725	-0.15871060	-1.50098400	7.05585600
49.39999724	0.00000000	4.22613100	9.33809000
49.59999723	0.00000000	12.73991000	10.49459000
49.79999721	0.00000000	21.99803000	10.07628000
49.99999720	0.00000000	30.13656000	7.75713500
50.19999719	0.00000000	35.07628000	4.31840500
50.39999718	0.00000000	35.48843000	0.46751960
50.59999717	0.00000000	30.84399000	-2.64517700
50.79999715	0.00000000	22.78543000	-4.55831700
50.99999714	0.00000000	13.15822000	-4.92125900
51.19999713	0.00000000	4.73671200	-2.97736200
51.39999712	0.00000000	0.07997046	0.46751960
51.59999711	0.00000000	0.03690945	4.69365100
51.79999710	0.00000000	4.26919300	8.54453700
51.99999708	0.00000000	11.57726000	10.86983000
52.19999707	0.00000000	19.99877000	11.65723000
52.39999706	0.00000000	26.92544000	10.49459000
52.59999705	0.00000000	30.41954000	7.80019600
52.79999704	0.00000000	30.08735000	4.31840500
52.99999702	0.00000000	26.18725000	0.46751960
53.19999701	0.00000000	19.66658000	-2.55905500
53.39999700	0.00000000	12.03863000	-3.76476400
53.59999699	0.00000000	6.27460600	-3.02042300
53.79999698	0.00000000	3.89394600	-1.11343500
53.99999696	0.00000000	4.69365100	1.62401600
54.19999695	0.00000000	8.92593500	4.64443900
54.39999694	0.00000000	15.39124000	6.92052100
54.59999693	0.00000000	21.53666000	7.33882900
54.79999692	0.00000000	25.81201000	6.26845500
54.99999691	0.00000000	27.34990000	4.73671200
55.19999689	0.00000000	25.81201000	3.15575800
55.39999688	0.00000000	21.62278000	1.66707700
55.59999687	0.00000000	16.22785000	0.92888770
55.79999686	0.00000000	11.20202000	1.71013800
55.99999685	0.00000000	7.38804100	3.57406500
56.19999683	0.00000000	6.22539300	5.85014700
56.39999682	0.00000000	8.13238100	7.33882900
56.59999681	0.00000000	11.95251000	7.33882900
56.79999680	0.00000000	16.97219000	5.80093500
56.99999679	0.00000000	21.53666000	3.06348400
57.19999677	0.00000000	24.27411000	-0.33218500
57.39999676	0.00000000	24.69857000	-3.38951800
57.59999675	0.00000000	23.16068000	-4.50910400
57.79999674	0.00000000	20.08489000	-3.76476400
57.99999673	0.00000000	16.27707000	-0.97810030
58.19999672	0.00000000	13.15822000	3.62327700
58.39999670	0.00000000	11.20202000	8.96284400
58.59999669	0.00000000	10.41462000	13.18898000
58.79999668	0.00000000	11.20202000	15.09596000
58.99999667	0.00000000	13.11516000	14.30241000
59.19999666	0.00000000	15.76649000	10.40846000
59.39999664	0.00000000	18.04257000	4.26919300
59.59999663	0.00000000	18.87918000	-2.69439000
59.79999662	0.00000000	18.97145000	-8.74138700
59.99999661	0.00000000	18.92839000	-11.84178000
60.19999660	0.00000000	18.50394000	-10.69144000
60.39999658	0.00000000	17.34744000	-6.50221400
60.59999657	0.00000000	15.90182000	0.13533460
60.79999656	0.00000000	15.11442000	7.80019600
60.99999655	0.00000000	15.47736000	14.72687000
61.19999654	0.00000000	16.18479000	18.90994000
61.39999653	0.00000000	16.97219000	18.95300000
61.59999651	0.00000000	17.34744000	15.10212000
61.79999650	0.00000000	17.34744000	8.54453700
61.99999649	0.00000000	16.92298000	0.46751960
62.19999648	0.00000000	15.80955000	-6.82824800
62.39999647	0.00000000	14.69611000	-11.52190000
62.59999645	0.00000000	14.27165000	-13.01058000
62.79999644	0.00000000	14.22859000	-10.68528000
62.99999643	0.00000000	14.27165000	-4.55831700
63.19999642	0.00000000	14.69611000	3.11269700
63.39999641	0.00000000	15.85261000	10.49459000
63.59999639	0.00000000	17.34744000	16.25861000
63.79999638	0.00000000	18.50394000	18.95300000
63.99999637	0.00000000	18.92839000	17.83957000
64.19999636	0.00000000	18.87918000	13.61343000
64.39999635	0.00000000	18.08563000	7.43110200
64.59999634	0.00000000	16.22785000	0.51058070
64.79999632	0.00000000	14.69611000	-5.29650500
64.99999631	0.00000000	13.89641000	-8.82750900
65.19999630	0.00000000	13.48425000	-9.99015700
65.39999629	0.00000000	13.89641000	-8.45226300
65.59999628	0.00000000	14.64690000	-4.64443900
65.79999626	0.00000000	15.85261000	0.00000000
65.99999625	0.00000000	17.34744000	4.69365100
66.19999624	0.00000000	18.46087000	8.96284400
66.39999623	0.00000000	18.46087000	12.03248000
66.59999622	0.00000000	17.34744000	13.23819000
66.79999620	0.00000000	15.80955000	12.49385000
66.99999619	0.00000000	14.27165000	10.58686000
67.19999618	0.00000000	13.15822000	7.84940900
67.39999617	0.00000000	13.20128000	4.73671200
67.59999616	0.00000000	14.73917000	1.58095500
67.79999615	0.00000000	17.39050000	-1.53174200
67.99999613	0.00000000	20.04183000	-4.22613100
68.19999612	0.00000000	21.62278000	-5.75787400
68.39999611	0.00000000	21.99803000	-5.80093500
68.59999610	0.00000000	21.16142000	-4.60137700
68.79999609	0.00000000	18.46087000	-2.22687000
68.99999607	0.00000000	14.64690000	1.62401600
69.19999606	0.00000000	11.10974000	5.89320800
69.39999605	0.00000000	8.04010800	9.79945900
69.59999604	0.00000000	6.18233200	13.23819000
69.79999603	0.00000000	6.96973400	14.72687000
69.99999601	0.00000000	10.03937000	13.60728000
70.19999600	0.00000000	14.69611000	10.53765000
70.39999599	0.00000000	20.08489000	6.21924200
70.59999598	0.00000000	24.69857000	1.19955700
70.79999597	0.00000000	27.39296000	-3.76476400
70.99999596	0.00000000	27.39296000	-6.82824800
71.19999594	0.00000000	24.69857000	-7.29576700
71.39999593	0.00000000	20.04183000	-5.75787400
71.59999592	0.00000000	14.22859000	-2.64517700
71.79999591	0.00000000	8.45841400	1.62401600
71.99999590	0.00000000	4.22613100	6.21924200
72.19999588	0.00000000	2.68823800	10.07628000
72.39999587	0.00000000	4.22613100	11.98327000
72.59999586	0.00000000	8.45841400	11.65723000
72.79999585	0.00000000	14.22859000	9.38115100
72.99999584	0.00000000	20.04183000	6.31151500
73.19999582	0.00000000	24.69857000	3.19881900
73.39999581	0.00000000	27.39296000	0.55364170
73.59999580	0.00000000	27.39296000	-0.64591530
73.79999579	0.00000000	24.74163000	-0.32603340
73.99999578	0.00000000	20.50935000	0.41830710
74.19999577	0.00000000	15.85261000	1.62401600
74.39999575	0.00000000	11.57726000	3.06348400
74.59999574	0.00000000	8.50147600	3.80782500
74.79999573	0.00000000	7.29576700	3.11269700
74.99999572	0.00000000	8.08316900	1.99311000
75.19999571	0.00000000	10.37155000	1.24877000
75.39999569	0.00000000	13.85334000	0.87967510
75.59999568	0.00000000	17.29823000	1.66707700
75.79999567	0.00000000	19.99877000	3.19881900
75.99999566	0.00000000	21.16142000	5.15501900
76.19999565	0.00000000	20.50935000	7.47416300
76.39999563	0.00000000	19.38976000	9.33809000
76.59999562	0.00000000	18.50394000	10.07628000
76.79999561	0.00000000	17.01525000	8.87057000
76.99999560	0.00000000	15.48966000	5.80093500
77.19999559	0.00000000	15.10212000	1.57480300
77.39999558	0.00000000	15.02214000	-2.69439000
77.59999556	0.00000000	15.43430000	-6.13312000
77.79999555	0.00000000	15.76649000	-8.03395600
77.99999554	0.00000000	15.76649000	-7.20349400
78.19999553	0.00000000	15.39124000	-3.76476400
78.39999552	0.00000000	14.60384000	1.62401600
78.59999550	0.00000000	13.89641000	7.38188900
78.79999549	0.00000000	13.53346000	12.03248000
78.99999548	0.00000000	14.32087000	14.72072000
79.19999547	0.00000000	15.80955000	14.72072000
79.39999546	0.00000000	17.39050000	12.07554000
79.59999544	0.00000000	18.97145000	7.80019600
79.79999543	0.00000000	20.46014000	2.78051200
79.99999542	0.00000000	21.16142000	-2.22687000
80.19999541	0.00000000	19.99877000	-5.67175200
80.39999540	0.00000000	17.39050000	-6.92052100
80.59999539	0.00000000	14.64690000	-6.17618100
80.79999537	0.00000000	12.31545000	-4.22613100
80.99999536	0.00000000	10.41462000	-1.11343500
81.19999535	0.00000000	10.08243000	2.73745100
81.39999534	0.00000000	11.53420000	6.22539300
81.59999533	0.00000000	13.85334000	8.96284400
81.79999531	0.00000000	16.18479000	10.49459000
81.99999530	0.00000000	18.55315000	10.53765000
82.19999529	0.00000000	20.41708000	9.42421200
82.39999528	0.00000000	21.20448000	7.84940900
82.59999527	0.00000000	20.41708000	5.85014700
82.79999525	0.00000000	18.55315000	3.11269700
82.99999524	0.00000000	16.22785000	0.04306102
83.19999523	0.00000000	14.32087000	-2.64517700
83.39999522	0.00000000	13.11516000	-4.22613100
83.59999521	0.00000000	12.73991000	-4.64443900
83.79999520	0.00000000	13.11516000	-4.22613100
83.99999518	0.00000000	14.22859000	-2.60211600
84.19999517	0.00000000	15.39124000	0.51058070
84.39999516	0.00000000	16.18479000	4.69365100
84.59999515	0.00000000	16.97219000	8.54453700
84.79999514	0.00000000	17.29823000	10.91289000
84.99999512	0.00000000	16.97219000	12.07554000
85.19999511	0.00000000	16.27707000	11.61417000
85.39999510	0.00000000	16.27707000	8.91978400
85.59999509	0.00000000	16.97219000	4.69365100
85.79999508	0.00000000	17.34744000	0.09227362
85.99999506	0.00000000	17.39050000	-3.80782500
86.19999505	0.00000000	17.34744000	-6.13312000
86.39999504	0.00000000	16.92298000	-6.87130900
86.59999503	0.00000000	15.80955000	-5.29650500
86.79999502	0.00000000	14.64690000	-1.48868100
86.99999501	0.00000000	13.85334000	3.11269700
87.19999499	0.00000000	13.06594000	7.43110200
87.39999498	0.00000000	12.73991000	10.86983000
87.59999497	0.00000000	13.11516000	12.77067000
87.79999496	0.00000000	14.27165000	11.94021000
87.99999495	0.00000000	15.80955000	8.54453700
88.19999493	0.00000000	17.34744000	3.57406500
88.39999492	0.00000000	18.50394000	-1.07037400
88.59999491	0.00000000	18.87918000	-4.55831700
88.79999490	0.00000000	18.50394000	-6.45300100
88.99999489	0.00000000	17.34744000	-5.67175200
89.19999487	0.00000000	15.80955000	-2.60211600
89.39999486	0.00000000	14.27165000	1.99311000
89.59999485	0.00000000	13.15822000	7.00664300
89.79999484	0.00000000	13.11516000	10.82677000
89.99999483	0.00000000	13.85334000	12.77067000
90.19999482	0.00000000	14.60384000	11.94021000
90.39999480	0.00000000	15.43430000	8.54453700
90.59999479	0.00000000	16.18479000	3.53100400
90.79999478	0.00000000	16.97219000	-1.39640700
90.99999477	0.00000000	17.34744000	-4.92125900
91.19999476	0.00000000	17.34744000	-6.04084600
91.39999474	0.00000000	16.97219000	-4.92125900
91.59999473	0.00000000	16.22785000	-1.43946800
91.79999472	0.00000000	15.90182000	3.11269700
91.99999471	0.00000000	16.22785000	7.38188900
92.19999470	0.00000000	16.92298000	10.45152000
92.39999468	0.00000000	16.92298000	11.56496000
92.59999467	0.00000000	16.22785000	10.07628000
92.79999466	0.00000000	15.85261000	6.59448800
92.99999465	0.00000000	15.76649000	2.36220500
93.19999464	0.00000000	15.34203000	-2.22687000
93.39999463	0.00000000	14.22859000	-5.24729300
93.59999461	0.00000000	13.15822000	-5.67175200
93.79999460	0.00000000	13.15822000	-3.80782500
93.99999459	0.00000000	14.27165000	-0.33218500
94.19999458	0.00000000	15.85261000	3.53100400
94.39999457	0.00000000	17.76575000	7.38188900
94.59999455	0.00000000	19.71580000	10.03322000
94.79999454	0.00000000	20.83538000	10.45152000
94.99999453	0.00000000	21.20448000	8.91978400
95.19999452	0.00000000	19.99877000	5.80093500
95.39999451	0.00000000	17.34744000	1.62401600
95.59999449	0.00000000	14.27165000	-2.18380900
95.79999448	0.00000000	11.53420000	-4.09079700
95.99999447	0.00000000	9.57800100	-3.76476400
96.19999446	0.00000000	8.45841400	-1.48868100
96.39999445	0.00000000	8.87672100	1.58095500
96.59999444	0.00000000	11.20202000	4.64443900
96.79999442	0.00000000	14.64690000	6.96358300
96.99999441	0.00000000	18.55315000	7.75713500
97.19999440	0.00000000	21.99803000	7.38188900
97.39999439	0.00000000	24.32333000	5.85014700
97.59999438	0.00000000	24.69857000	3.57406500
97.79999436	0.00000000	23.16068000	1.62401600
97.99999435	0.00000000	20.04183000	0.09227362
98.19999434	0.00000000	15.85261000	-0.69512790
98.39999433	0.00000000	11.95251000	-0.32603340
98.59999432	0.00000000	9.20275500	0.41830710
98.79999430	0.00000000	7.29576700	1.57480300
98.99999429	0.00000000	7.34498000	2.73745100
99.19999428	0.00000000	9.57800100	3.53100400
99.39999427	0.00000000	12.69070000	4.31840500
99.59999426	0.00000000	16.18479000	4.69365100
99.79999425	0.00000000	19.66658000	4.73671200
99.99999423	0.00000000	21.99803000	4.73671200
100.19999422	0.00000000	23.20374000	4.77977300
100.39999421	0.00000000	23.16068000	5.11195900
100.59999420	0.00000000	21.57972000	5.43184000
100.79999419	0.00000000	18.55315000	4.68750000
100.99999417	0.00000000	15.11442000	3.53100400
101.19999416	0.00000000	12.73991000	2.31914400
101.39999415	0.00000000	11.10974000	0.41830710
101.59999414	0.00000000	9.99630800	-1.06422200
101.79999413	0.00000000	9.99630800	-1.48253000
101.99999411	0.00000000	11.15896000	-1.11343500
102.19999410	0.00000000	13.06594000	0.09227362
102.39999409	0.00000000	15.39124000	2.04232300
102.59999408	0.00000000	17.39050000	4.73671200
102.79999407	0.00000000	19.30364000	7.38188900
102.99999406	0.00000000	20.78617000	8.91978400
103.19999404	0.00000000	20.41708000	8.91978400
103.39999403	0.00000000	18.97145000	7.38188900
103.59999402	0.00000000	17.34744000	4.68750000
103.79999401	0.00000000	15.39124000	1.62401600
103.99999400	0.00000000	13.11516000	-1.11343500
104.19999398	0.00000000	11.57726000	-3.02042300
104.39999397	0.00000000	11.15896000	-3.76476400
104.59999396	0.00000000	11.53420000	-2.60211600
104.79999395	0.00000000	12.69070000	0.04306102
104.99999394	0.00000000	14.22859000	3.11269700
105.19999392	0.00000000	15.80955000	5.85014700
105.39999391	0.00000000	17.29823000	7.75713500
105.59999390	0.00000000	18.08563000	8.54453700
105.79999389	0.00000000	17.72268000	7.75713500
105.99999388	0.00000000	17.01525000	5.85014700
106.19999387	0.00000000	16.18479000	3.15575800
106.39999385	0.00000000	15.39124000	0.51058070
106.59999384	0.00000000	14.27165000	-1.02116100
106.79999383	0.00000000	13.53346000	-1.06422200
106.99999382	0.00000000	13.89641000	0.04306102
107.19999381	0.00000000	14.64690000	1.57480300
107.39999379	0.00000000	15.80955000	3.15575800
107.59999378	0.00000000	16.92298000	4.68750000
107.79999377	0.00000000	17.34744000	5.80093500
107.99999376	0.00000000	17.34744000	5.80093500
108.19999375	0.00000000	16.92298000	4.68750000
108.39999374	0.00000000	15.76649000	3.15575800
108.59999372	0.00000000	14.27165000	1.62401600
108.79999371	0.00000000	13.11516000	0.46136810
108.99999370	0.00000000	12.73991000	0.09227362
109.19999369	0.00000000	13.11516000	0.46136810
109.39999368	0.00000000	14.27165000	1.62401600
109.59999366	0.00000000	15.80955000	3.15575800
109.79999365	0.00000000	17.29823000	4.68750000
109.99999364	0.00000000	18.08563000	5.85014700
110.19999363	0.00000000	17.76575000	6.21924200
110.39999362	0.00000000	17.39050000	5.85014700
110.59999360	0.00000000	16.92298000	4.68750000
110.79999359	0.00000000	15.80955000	3.15575800
110.99999358	0.00000000	14.64690000	1.62401600
111.19999357	0.00000000	13.89641000	0.46136810
111.39999356	0.00000000	13.48425000	0.04306102
111.59999355	0.00000000	13.85334000	0.04306102
111.79999353	0.00000000	14.22859000	0.46136810
111.99999352	0.00000000	14.64690000	1.57480300
112.19999351	0.00000000	15.39124000	2.73745100
112.39999350	0.00000000	15.80955000	3.53100400
112.59999349	0.00000000	16.18479000	4.31840500
112.79999347	0.00000000	16.55389000	4.69365100
112.99999346	0.00000000	16.18479000	4.69365100
113.19999345	0.00000000	15.85261000	4.31840500
113.39999344	0.00000000	15.76649000	3.57406500
113.59999343	0.00000000	15.43430000	3.19881900
113.79999341	0.00000000	15.02214000	3.11269700
113.99999340	0.00000000	15.05905000	2.73745100
114.19999339	0.00000000	14.97908000	1.99311000
114.39999338	0.00000000	15.05905000	1.57480300
114.59999337	0.00000000	15.02214000	1.19955700
114.79999336	0.00000000	15.43430000	0.83661410
114.99999334	0.00000000	15.76649000	1.19955700
115.19999333	0.00000000	15.80955000	1.53174200
115.39999332	0.00000000	15.80955000	1.61786400
115.59999331	0.00000000	15.80955000	1.99311000
115.79999330	0.00000000	15.80955000	2.78051200
115.99999328	0.00000000	15.76649000	3.53100400
116.19999327	0.00000000	15.39124000	4.31840500
116.39999326	0.00000000	14.64690000	4.69365100
116.59999325	0.00000000	14.27165000	4.73671200
116.79999324	0.00000000	14.22859000	4.69365100
116.99999322	0.00000000	14.27165000	4.26919300
117.19999321	0.00000000	14.64690000	3.15575800
117.39999320	0.00000000	15.43430000	1.99311000
117.59999319	0.00000000	16.18479000	1.19955700
117.79999318	0.00000000	16.97219000	0.41830710
117.99999317	0.00000000	17.34744000	0.09227362
118.19999315	0.00000000	17.34744000	0.41830710
118.39999314	0.00000000	16.92298000	1.19955700
118.59999313	0.00000000	15.80955000	1.95004900
118.79999312	0.00000000	14.64690000	2.78051200
118.99999311	0.00000000	13.85334000	3.53100400
119.19999309	0.00000000	13.06594000	4.31840500
119.39999308	0.00000000	12.73991000	4.69365100
119.59999307	0.00000000	13.06594000	4.69365100
119.79999306	0.00000000	13.85334000	4.31840500
119.99999305	0.00000000	14.64690000	3.57406500
120.19999303	0.00000000	15.80955000	3.15575800
120.39999302	0.00000000	16.97219000	2.73745100
120.59999301	0.00000000	17.72268000	1.99311000
120.79999300	0.00000000	18.13484000	1.61786400
120.99999299	0.00000000	17.72268000	1.57480300
121.19999298	0.00000000	16.97219000	1.57480300
121.39999296	0.00000000	15.76649000	1.57480300
121.59999295	0.00000000	14.27165000	1.61786400
121.79999294	0.00000000	13.11516000	1.99311000
121.99999293	0.00000000	12.69070000	2.73745100
122.19999292	0.00000000	12.69070000	3.15575800
122.39999290	0.00000000	13.06594000	3.57406500
122.59999289	0.00000000	13.85334000	4.31840500
122.79999288	0.00000000	14.64690000	4.69365100
122.99999287	0.00000000	15.80955000	4.69365100
123.19999286	0.00000000	16.92298000	4.31840500
123.39999284	0.00000000	17.34744000	3.57406500
123.59999283	0.00000000	17.39050000	3.15575800
123.79999282	0.00000000	17.34744000	2.73745100
123.99999281	0.00000000	16.97219000	1.99311000
124.19999280	0.00000000	16.18479000	1.61786400
124.39999279	0.00000000	15.43430000	1.57480300
124.59999277	0.00000000	14.64690000	1.61786400
124.79999276	0.00000000	14.22859000	1.99311000
124.99999275	0.00000000	13.81028000	2.73745100
125.19999274	0.00000000	13.11516000	3.11269700
125.39999273	0.00000000	13.11516000	3.15575800
125.59999271	0.00000000	13.85334000	3.19881900
125.79999270	0.00000000	14.60384000	3.53100400
125.99999269	0.00000000	15.43430000	3.85088600
126.19999268	0.00000000	16.22785000	3.19881900
126.39999267	0.00000000	17.34744000	2.83587600
126.59999265	0.00000000	18.08563000	3.47564000
126.79999264	0.00000000	17.72268000	3.06348400
126.99999263	0.00000000	16.97219000	2.04232300
127.19999262	0.00000000	15.76649000	1.61786400
127.39999261	0.00000000	14.27165000	1.57480300
127.59999260	0.00000000	13.11516000	1.57480300
127.79999258	0.00000000	12.69070000	1.57480300
127.99999257	0.00000000	12.69070000	1.61786400
128.19999256	0.00000000	13.06594000	1.99311000
128.39999255	0.00000000	13.85334000	2.73745100
128.59999254	0.00000000	14.64690000	3.11269700
128.79999252	0.00000000	15.80955000	3.15575800
128.99999251	0.00000000	16.92298000	3.15575800
129.19999250	0.00000000	17.29823000	3.15575800
129.39999249	0.00000000	16.97219000	3.11269700
129.59999248	0.00000000	16.18479000	2.73745100
129.79999246	0.00000000	15.39124000	1.99311000
129.99999245	0.00000000	14.22859000	1.61786400
130.19999244	0.00000000	13.11516000	1.61786400
130.39999243	0.00000000	12.73991000	1.99311000
130.59999242	0.00000000	13.06594000	2.73745100
130.79999241	0.00000000	13.85334000	3.11269700
130.99999239	0.00000000	14.60384000	3.15575800
131.19999238	0.00000000	15.43430000	3.15575800
131.39999237	0.00000000	16.14173000	3.15575800
131.59999236	0.00000000	16.55389000	3.15575800
131.79999235	0.00000000	16.18479000	3.11269700
131.99999233	0.00000000	15.80955000	2.73745100
132.19999232	0.00000000	15.39124000	1.99311000
132.39999231	0.00000000	14.64690000	1.61786400
132.59999230	0.00000000	14.27165000	1.57480300
132.79999229	0.00000000	14.22859000	1.61786400
132.99999227	0.00000000	14.22859000	1.99311000
133.19999226	0.00000000	14.22859000	2.73745100
133.39999225	0.00000000	14.22859000	3.11269700
133.59999224	0.00000000	14.22859000	3.19881900
133.79999223	0.00000000	14.27165000	3.53100400
133.99999222	0.00000000	14.60384000	3.90009800
134.19999220	0.00000000	14.97293000	3.48794300
134.39999219	0.00000000	14.64690000	2.78051200
134.59999218	0.00000000	14.64690000	1.95004900
134.79999217	0.00000000	15.01599000	1.19955700
134.99999216	0.00000000	15.02214000	0.41830710
135.19999214	0.00000000	15.43430000	0.09227362
135.39999213	0.00000000	15.76649000	0.41830710
135.59999212	0.00000000	15.80955000	1.19955700
135.79999211	0.00000000	15.76649000	1.95004900
135.99999210	0.00000000	15.39124000	2.78051200
136.19999208	0.00000000	14.64690000	3.53100400
136.39999207	0.00000000	14.27165000	4.31840500
136.59999206	0.00000000	14.22859000	4.64443900
136.79999205	0.00000000	14.22859000	4.31840500
136.99999204	0.00000000	14.27165000	3.53100400
137.19999203	0.00000000	14.64690000	2.78051200
137.39999201	0.00000000	15.39124000	1.99311000
137.59999200	0.00000000	15.76649000	1.61786400
137.79999199	0.00000000	15.85261000	1.57480300
137.99999198	0.00000000	16.18479000	1.57480300
138.19999197	0.00000000	16.50467000	1.57480300
138.39999195	0.00000000	15.76649000	1.57480300
138.59999194	0.00000000	14.69611000	1.61786400
138.79999193	0.00000000	14.22859000	1.99311000
138.99999192	0.00000000	13.85334000	2.73745100
139.19999191	0.00000000	13.48425000	3.15575800
139.39999189	0.00000000	13.85334000	3.57406500
139.59999188	0.00000000	14.18553000	4.26919300
139.79999187	0.00000000	14.27165000	4.26919300
139.99999186	0.00000000	14.64690000	3.57406500
140.19999185	0.00000000	15.39124000	3.15575800
140.39999184	0.00000000	15.76649000	2.73745100
140.59999182	0.00000000	15.80955000	1.99311000
140.79999181	0.00000000	15.76649000	1.61786400
140.99999180	0.00000000	15.39124000	1.57480300
141.19999179	0.00000000	14.64690000	1.57480300
141.39999178	0.00000000	14.27165000	1.61786400
141.59999176	0.00000000	14.22859000	1.99311000
141.79999175	0.00000000	14.22859000	2.73745100
141.99999174	0.00000000	14.27165000	3.15575800
142.19999173	0.00000000	14.64690000	3.57406500
142.39999172	0.00000000	15.39124000	4.31840500
142.59999170	0.00000000	15.76649000	4.64443900
142.79999169	0.00000000	15.80955000	4.26919300
142.99999168	0.00000000	15.76649000	3.15575800
143.19999167	0.00000000	15.39124000	2.04232300
143.39999166	0.00000000	14.64690000	1.57480300
143.59999165	0.00000000	14.27165000	1.19955700
143.79999163	0.00000000	14.22859000	0.83661410
143.99999162	0.00000000	14.22859000	1.19955700
144.19999161	0.00000000	14.27165000	1.57480300
144.39999160	0.00000000	14.64690000	1.99311000
144.59999159	0.00000000	15.39124000	2.73745100
144.79999157	0.00000000	15.76649000	3.15575800
144.99999156	0.00000000	15.76649000	3.53100400
145.19999155	0.00000000	15.39124000	3.90009800
145.39999154	0.00000000	14.64690000	3.53100400
145.59999153	0.00000000	14.27165000	3.15575800
145.79999151	0.00000000	14.22859000	2.73745100
145.99999150	0.00000000	14.22859000	1.99311000
146.19999149	0.00000000	14.22859000	1.61786400
146.39999148	0.00000000	14.22859000	1.57480300
146.59999147	0.00000000	14.27165000	1.57480300
146.79999146	0.00000000	14.64690000	1.61786400
146.99999144	0.00000000	15.39124000	1.99311000
147.19999143	0.00000000	15.76649000	2.73745100
147.39999142	0.00000000	15.80955000	3.11269700
147.59999141	0.00000000	15.76649000	3.15575800
147.79999140	0.00000000	15.39124000	3.15575800
147.99999138	0.00000000	14.64690000	3.15575800
148.19999137	0.00000000	14.27165000	3.15575800
148.39999136	0.00000000	14.22859000	3.11269700
148.59999135	0.00000000	14.22859000	2.73745100
148.79999134	0.00000000	14.22859000	1.99311000
148.99999132	0.00000000	14.27165000	1.61786400
149.19999131	0.00000000	14.64690000	1.57480300
149.39999130	0.00000000	15.39124000	1.57480300
149.59999129	0.00000000	15.76649000	1.61786400
149.79999128	0.00000000	15.80955000	1.99311000
149.99999127	0.00000000	15.80955000	2.73745100
150.19999125	0.00000000	15.80955000	3.11269700
150.39999124	0.00000000	15.76649000	3.15575800
150.59999123	0.00000000	15.39124000	3.15575800
150.79999122	0.00000000	14.64690000	3.15575800
150.99999121	0.00000000	14.27165000	3.15575800
151.19999119	0.00000000	14.22859000	3.15575800
151.39999118	0.00000000	14.22859000	3.11269700
151.59999117	0.00000000	14.22859000	2.73745100
151.79999116	0.00000000	14.22859000	1.99311000
151.99999115	0.00000000	14.22859000	1.61786400
152.19999113	0.00000000	14.27165000	1.57480300
152.39999112	0.00000000	14.64690000	1.57480300
152.59999111	0.00000000	15.39124000	1.61786400
152.79999110	0.00000000	15.76649000	1.99311000
152.99999109	0.00000000	15.80955000	2.73745100
153.19999108	0.00000000	15.80955000	3.11269700
153.39999106	0.00000000	15.76649000	3.15575800
153.59999105	0.00000000	15.39124000	3.15575800
153.79999104	0.00000000	14.64690000	3.15575800
153.99999103	0.00000000	14.27165000	3.15575800
154.19999102	0.00000000	14.22859000	3.15575800
154.39999100	0.00000000	14.22859000	3.15575800
154.59999099	0.00000000	14.22859000	3.11269700
154.79999098	0.00000000	14.22859000	2.73745100
154.99999097	0.00000000	14.27165000	1.99311000
155.19999096	0.00000000	14.64690000	1.61786400
155.39999094	0.00000000	15.39124000	1.57480300
155.59999093	0.00000000	15.76649000	1.57480300
155.79999092	0.00000000	15.80955000	1.57480300
155.99999091	0.00000000	15.80955000	1.61786400
156.19999090	0.00000000	15.76649000	1.99311000
156.39999089	0.00000000	15.39124000	2.73745100
156.59999087	0.00000000	14.64690000	3.11269700
156.79999086	0.00000000	14.22859000	3.15575800
156.99999085	0.00000000	13.85334000	3.15575800
157.19999084	0.00000000	13.48425000	3.15575800
157.39999083	0.00000000	13.85334000	3.15575800
157.59999081	0.00000000	14.13632000	3.11269700
157.79999080	0.00000000	13.85334000	2.73745100
157.99999079	0.00000000	13.53346000	1.99311000
158.19999078	0.00000000	14.27165000	1.61786400
158.39999077	0.00000000	15.34203000	1.57480300
158.59999075	0.00000000	15.76649000	1.57480300
158.79999074	0.00000000	15.76649000	1.57480300
158.99999073	0.00000000	15.39124000	1.61786400
159.19999072	0.00000000	14.64690000	1.99311000
159.39999071	0.00000000	14.27165000	2.73745100
159.59999070	0.00000000	14.22859000	3.11269700
159.79999068	0.00000000	14.22859000	3.15575800
159.99999067	0.00000000	14.22859000	3.15575800
160.19999066	0.00000000	14.22859000	3.15575800
160.39999065	0.00000000	14.22859000	3.15575800
160.59999064	0.00000000	14.22859000	3.11269700
160.79999062	0.00000000	14.22859000	2.73745100
160.99999061	0.00000000	14.22859000	1.99311000
161.19999060	0.00000000	14.22859000	1.61786400
161.39999059	0.00000000	14.27165000	1.57480300
161.59999058	0.00000000	14.64690000	1.61786400
161.79999056	0.00000000	15.39124000	1.95004900
161.99999055	0.00000000	15.76649000	2.36220500
162.19999054	0.00000000	15.80955000	2.36835600
162.39999053	0.00000000	15.76649000	2.78051200
162.59999052	0.00000000	15.39124000	3.11269700
162.79999051	0.00000000	14.64690000	3.15575800
162.99999049	0.00000000	14.27165000	3.15575800
163.19999048	0.00000000	14.22859000	3.11269700
163.39999047	0.00000000	14.18553000	2.73745100
163.59999046	0.00000000	13.85334000	1.99311000
163.79999045	0.00000000	13.48425000	1.61786400
163.99999043	0.00000000	13.85334000	1.57480300
164.19999042	0.00000000	14.18553000	1.57480300
164.39999041	0.00000000	14.22859000	1.57480300
164.59999040	0.00000000	14.27165000	1.57480300
164.79999039	0.00000000	14.64690000	1.57480300
164.99999037	0.00000000	15.39124000	1.57480300
165.19999036	0.00000000	15.71727000	1.57480300
165.39999035	0.00000000	15.39124000	1.61786400
165.59999034	0.00000000	14.64690000	1.99311000
165.79999033	0.00000000	14.27165000	2.73745100
165.99999032	0.00000000	14.22859000	3.11269700
166.19999030	0.00000000	14.22859000	3.11269700
166.39999029	0.00000000	14.22859000	2.73745100
166.59999028	0.00000000	14.27165000	2.04232300
166.79999027	0.00000000	14.60384000	1.99311000
166.99999026	0.00000000	14.97293000	2.31914400
167.19999024	0.00000000	14.60384000	1.95004900
167.39999023	0.00000000	14.27165000	1.61786400
167.59999022	0.00000000	14.22859000	1.57480300
167.79999021	0.00000000	14.22859000	1.57480300
167.99999020	0.00000000	14.27165000	1.57480300
168.19999018	0.00000000	14.60384000	1.57480300
168.39999017	0.00000000	14.97293000	1.57480300
168.59999016	0.00000000	14.60384000	1.57480300
168.79999015	0.00000000	14.27165000	1.57480300
168.99999014	0.00000000	14.22859000	1.57480300
169.19999013	0.00000000	14.22859000	1.57480300
169.39999011	0.00000000	14.22859000	1.61786400
169.59999010	0.00000000	14.22859000	1.95004900
169.79999009	0.00000000	14.22859000	2.31914400
169.99999008	0.00000000	14.22859000	1.95004900
170.19999007	0.00000000	14.22859000	1.61786400
170.39999005	0.00000000	14.22859000	1.61786400
170.59999004	0.00000000	14.22859000	1.95004900
170.79999003	0.00000000	14.22859000	2.31914400
170.99999002	0.00000000	14.22859000	1.95004900
171.19999001	0.00000000	14.22859000	1.61786400
171.39998999	0.00000000	14.22859000	1.57480300
171.59998998	0.00000000	14.22859000	1.57480300
171.79998997	0.00000000	14.22859000	1.57480300
171.99998996	0.00000000	14.22859000	1.57480300
172.19998995	0.00000000	14.22859000	1.57480300
172.39998994	0.00000000	14.22859000	1.57480300
172.59998992	0.00000000	14.22859000	1.57480300
172.79998991	0.00000000	14.22859000	1.61786400
172.99998990	0.00000000	14.22859000	1.99311000
173.19998989	0.00000000	14.22859000	2.68823800
173.39998988	0.00000000	14.22859000	2.68823800
173.59998986	0.00000000	14.22859000	2.04232300
173.79998985	0.00000000	14.22859000	2.04232300
173.99998984	0.00000000	14.22859000	2.73745100
174.19998983	0.00000000	14.18553000	3.11269700
174.39998982	0.00000000	13.85334000	3.15575800
174.59998980	0.00000000	13.48425000	3.11269700
174.79998979	0.00000000	13.85334000	2.78051200
174.99998978	0.00000000	14.18553000	2.41141700
175.19998977	0.00000000	14.22859000	2.73745100
175.39998976	0.00000000	14.22859000	2.68823800
175.59998975	0.00000000	14.22859000	1.99311000
175.79998973	0.00000000	14.22859000	1.61786400
175.99998972	0.00000000	14.22859000	1.57480300
176.19998971	0.00000000	14.22859000	1.57480300
176.39998970	0.00000000	14.22859000	1.57480300
176.59998969	0.00000000	14.22859000	1.57480300
176.79998967	0.00000000	14.22859000	1.57480300
176.99998966	0.00000000	14.22859000	1.57480300
177.19998965	0.00000000	14.22859000	1.57480300
177.39998964	0.00000000	14.22859000	1.57480300
177.59998963	0.00000000	14.22859000	1.57480300
177.79998961	0.00000000	14.22859000	1.57480300
177.99998960	0.00000000	14.18553000	1.57480300
178.19998959	0.00000000	13.85334000	1.57480300
178.39998958	0.00000000	13.48425000	1.61786400
178.59998957	0.00000000	13.85334000	1.95004900
178.79998956	0.00000000	14.18553000	2.31914400
178.99998954	0.00000000	14.22859000	1.95004900
179.19998953	0.00000000	14.22859000	1.61786400
179.39998952	0.00000000	14.22859000	1.57480300
179.59998951	0.00000000	14.22859000	1.57480300
179.79998950	0.00000000	14.22859000	1.57480300
179.99998948	0.00000000	14.22859000	1.57480300
180.19998947	0.00000000	14.22859000	1.57480300
180.39998946	0.00000000	14.22859000	1.57480300
180.59998945	0.00000000	14.22859000	1.57480300
180.79998944	0.00000000	14.22859000	1.61786400
180.99998942	0.00000000	14.22859000	1.95004900
181.19998941	0.00000000	14.22859000	2.36220500
181.39998940	0.00000000	14.22859000	2.36835600
181.59998939	0.00000000	14.22859000	2.78051200
181.79998938	0.00000000	14.22859000	3.11269700
181.99998937	0.00000000	14.22859000	3.15575800
182.19998935	0.00000000	14.22859000	3.15575800
182.39998934	0.00000000	14.22859000	3.11269700
182.59998933	0.00000000	14.22859000	2.73745100
182.79998932	0.00000000	14.22859000	1.99311000
182.99998931	0.00000000	14.22859000	1.61786400
183.19998929	0.00000000	14.22859000	1.57480300
183.39998928	0.00000000	14.22859000	1.57480300
183.59998927	0.00000000	14.22859000	1.57480300
183.79998926	0.00000000	14.22859000	1.61786400
183.99998925	0.00000000	14.22859000	1.99311000
184.19998923	0.00000000	14.22859000	2.73745100
184.39998922	0.00000000	14.22859000	3.11269700
184.59998921	0.00000000	14.22859000	3.15575800
184.79998920	0.00000000	14.22859000	3.15575800
184.99998919	0.00000000	14.22859000	3.15575800
185.19998918	0.00000000	14.22859000	3.11269700
185.39998916	0.00000000	14.22859000	2.73745100
185.59998915	0.00000000	14.22859000	1.99311000
185.79998914	0.00000000	14.22859000	1.61786400
185.99998913	0.00000000	14.22859000	1.57480300
186.19998912	0.00000000	14.22859000	1.57480300
186.39998910	0.00000000	14.22859000	1.57480300
186.59998909	0.00000000	14.22859000	1.61786400
186.79998908	0.00000000	14.22859000	1.95004900
186.99998907	0.00000000	14.18553000	2.36220500
187.19998906	0.00000000	13.85334000	2.36835600
187.39998904	0.00000000	13.48425000	2.78051200
187.59998903	0.00000000	13.85334000	3.11269700
187.79998902	0.00000000	14.18553000	3.15575800
187.99998901	0.00000000	14.22859000	3.15575800
188.19998900	0.00000000	14.22859000	3.11269700
188.39998899	0.00000000	14.22859000	2.73745100
188.59998897	0.00000000	14.22859000	1.99311000
188.79998896	0.00000000	14.22859000	1.61786400
188.99998895	0.00000000	14.22859000	1.57480300
189.19998894	0.00000000	14.22859000	1.57480300
189.39998893	0.00000000	14.22859000	1.57480300
189.59998891	0.00000000	14.22859000	1.57480300
189.79998890	0.00000000	14.22859000	1.61786400
189.99998889	0.00000000	14.18553000	1.95004900
190.19998888	0.00000000	13.85334000	2.31914400
190.39998887	0.00000000	13.48425000	1.99311000
190.59998885	0.00000000	13.85334000	2.04232300
190.79998884	0.00000000	14.22859000	2.73745100
190.99998883	0.00000000	14.60384000	3.11269700
191.19998882	0.00000000	14.97293000	3.15575800
191.39998881	0.00000000	14.60384000	3.15575800
191.59998880	0.00000000	14.27165000	3.11269700
191.79998878	0.00000000	14.22859000	2.73745100
191.99998877	0.00000000	14.22859000	1.99311000
192.19998876	0.00000000	14.22859000	1.61786400
192.39998875	0.00000000	14.22859000	1.57480300
192.59998874	0.00000000	14.22859000	1.57480300
192.79998872	0.00000000	14.22859000	1.57480300
192.99998871	0.00000000	14.22859000	1.57480300
193.19998870	0.00000000	14.18553000	1.61786400
193.39998869	0.00000000	13.85334000	1.95004900
193.59998868	0.00000000	13.48425000	2.31914400
193.79998866	0.00000000	13.85334000	1.99311000
193.99998865	0.00000000	14.18553000	1.99311000
194.19998864	0.00000000	14.22859000	2.31914400
194.39998863	0.00000000	14.22859000	1.99311000
194.59998862	0.00000000	14.22859000	1.99311000
194.79998861	0.00000000	14.22859000	2.31914400
194.99998859	0.00000000	14.22859000	1.99311000
195.19998858	0.00000000	14.22859000	1.99311000
195.39998857	0.00000000	14.18553000	2.31914400
195.59998856	0.00000000	13.85334000	1.95004900
195.79998855	0.00000000	13.48425000	1.61786400
195.99998853	0.00000000	13.85334000	1.57480300
