Time	Channel A	Channel B	Channel C
(us)	(V)	(mV)	(mV)

-4.49999956	0.00000000	28.45718000	7.93553100
-4.29999957	0.00000000	28.45718000	7.89247000
-4.09999958	0.00000000	28.50024000	7.89247000
-3.89999959	0.00000000	28.83243000	7.89247000
-3.69999960	0.00000000	29.20152000	7.89247000
-3.49999962	0.00000000	28.83243000	7.89247000
-3.29999963	0.00000000	28.50024000	7.89247000
-3.09999964	0.00000000	28.45718000	7.89247000
-2.89999965	0.00000000	28.45718000	7.89247000
-2.69999966	0.00000000	28.45718000	7.93553100
-2.49999968	0.00000000	28.45718000	8.26771600
-2.29999969	0.00000000	28.45718000	8.63681000
-2.09999970	0.00000000	28.45718000	8.26771600
-1.89999971	0.00000000	28.45718000	7.93553100
-1.69999972	0.00000000	28.45718000	7.89247000
-1.49999973	0.00000000	28.45718000	7.89247000
-1.29999975	0.00000000	28.45718000	7.89247000
-1.09999976	0.00000000	28.45718000	7.89247000
-0.89999977	0.00000000	28.45718000	7.89247000
-0.69999978	0.00000000	28.45718000	7.89247000
-0.49999979	0.00000000	28.45718000	7.89247000
-0.29999981	0.31803640	28.45718000	7.89247000
-0.09999982	0.63668800	28.45718000	7.89247000
0.10000017	0.95533960	28.45718000	7.89247000
0.30000016	0.95533960	28.45718000	7.89247000
0.50000015	0.79601380	28.45718000	7.89247000
0.70000013	0.15871060	28.45718000	7.89247000
0.90000012	-0.63668800	28.45718000	7.89247000
1.10000011	-1.75196900	28.45718000	7.89247000
1.30000010	-2.54859700	28.45718000	7.93553100
1.50000009	-2.86724900	28.45718000	8.31077700
1.70000008	-2.22994600	28.41412000	9.05511800
1.90000006	-0.95533960	28.08194000	9.38115100
2.10000005	0.95533960	27.71284000	9.05511800
2.30000004	3.02657500	28.08194000	8.31077700
2.50000003	4.77854300	28.41412000	7.93553100
2.70000002	5.41584600	28.45718000	7.89247000
2.90000000	4.61921700	28.45718000	7.84940900
3.09999999	2.38927200	28.45718000	7.51722400
3.29999998	-0.79601380	28.45718000	7.14812900
3.49999997	-4.14124000	28.45718000	7.56028500
3.69999996	-6.84916400	28.45718000	8.22465500
3.89999994	-7.96444400	28.45718000	8.67987200
4.09999993	-7.00848900	28.45718000	8.68602300
4.29999992	-4.30056600	28.45718000	9.09817800
4.49999991	-0.15871060	28.45718000	9.43036400
4.69999990	4.14124000	28.45718000	9.43036400
4.89999989	7.80511800	28.45718000	9.05511800
5.09999987	9.39837600	28.45718000	8.31077700
5.29999986	8.76107300	28.45718000	7.93553100
5.49999985	5.89382400	28.45718000	7.89247000
5.69999984	1.43331700	28.45718000	7.89247000
5.89999983	-3.34522600	28.45718000	7.89247000
6.09999981	-7.32714100	28.45718000	7.89247000
6.29999980	-9.39837600	28.45718000	7.93553100
6.49999979	-9.07972400	28.45718000	8.31077700
6.69999978	-6.53112700	28.45718000	9.05511800
6.89999977	-2.54859700	28.45718000	9.38115100
7.09999975	1.91129400	28.45718000	9.05511800
7.29999974	5.57517200	28.45718000	8.31077700
7.49999973	7.48646600	28.45718000	7.93553100
7.69999972	7.48646600	28.45718000	7.89247000
7.89999971	5.73449800	28.45718000	7.89247000
8.09999970	2.70792300	28.45718000	7.89247000
8.29999968	-0.63668800	28.45718000	7.89247000
8.49999967	-3.34522600	28.45718000	7.89247000
8.69999966	-4.93786900	28.45718000	7.89247000
8.89999965	-5.09719500	28.45718000	7.89247000
9.09999964	-4.14124000	28.45718000	7.89247000
9.29999962	-2.22994600	28.45718000	7.89247000
9.49999961	-0.31803640	28.45718000	7.89247000
9.69999960	1.43331700	28.45718000	7.89247000
9.89999959	2.22994600	28.45718000	7.89247000
10.09999958	2.54859700	28.45718000	7.89247000
10.29999956	2.07062000	28.45718000	7.89247000
10.49999955	1.27399100	28.45718000	7.89247000
10.69999954	0.31803640	28.45718000	7.89247000
10.89999953	-0.31803640	28.45718000	7.89247000
11.09999952	-0.79601380	28.45718000	7.89247000
11.29999951	-0.95533960	28.45718000	7.89247000
11.49999949	-0.95533960	28.45718000	7.89247000
11.69999948	-0.63668800	28.45718000	7.89247000
11.89999947	-0.31803640	28.45718000	7.89247000
12.09999946	-0.15871060	28.45718000	7.89247000
12.29999945	-0.15871060	28.45718000	7.89247000
12.49999943	0.00000000	28.45718000	7.89247000
12.69999942	0.00000000	28.45718000	7.89247000
12.89999941	0.00000000	28.45718000	7.89247000
13.09999940	0.00000000	28.45718000	7.89247000
13.29999939	0.00000000	28.45718000	7.89247000
13.49999937	0.00000000	28.45718000	7.89247000
13.69999936	0.00000000	28.45718000	7.89247000
13.89999935	-0.15871060	28.45718000	7.89247000
14.09999934	-0.15871060	28.45718000	7.89247000
14.29999933	-0.15871060	28.45718000	7.89247000
14.49999932	-0.15871060	28.45718000	7.89247000
14.69999930	0.00000000	28.45718000	7.89247000
14.89999929	0.00000000	28.45718000	7.89247000
15.09999928	0.00000000	28.45718000	7.89247000
15.29999927	0.00000000	28.45718000	7.89247000
15.49999926	0.00000000	28.41412000	7.89247000
15.69999924	0.00000000	28.08194000	7.89247000
15.89999923	0.00000000	27.71284000	7.89247000
16.09999922	0.00000000	28.12500000	7.93553100
16.29999921	-0.15871060	28.78937000	8.26771600
16.49999920	-0.15871060	29.20152000	8.63681000
16.69999919	-0.15871060	28.87549000	8.26771600
16.89999917	0.00000000	28.92470000	7.93553100
17.09999916	0.00000000	29.61983000	7.89247000
17.29999915	0.00000000	29.99508000	7.89247000
17.49999914	0.00000000	30.03814000	7.89247000
17.69999913	0.00000000	29.99508000	7.89247000
17.89999911	0.00000000	29.57062000	7.89247000
18.09999910	0.00000000	28.41412000	7.89247000
18.29999909	0.00000000	26.87623000	7.89247000
18.49999908	0.00000000	25.29527000	7.89247000
18.69999907	0.00000000	23.75738000	7.89247000
18.89999905	0.00000000	22.64394000	7.89247000
19.09999904	0.00000000	22.68701000	7.89247000
19.29999903	0.00000000	24.26796000	7.89247000
19.49999902	0.00000000	27.38681000	7.89247000
19.69999901	0.00000000	31.61909000	7.89247000
19.89999900	0.00000000	35.85752000	7.89247000
20.09999898	0.00000000	38.93332000	7.89247000
20.29999897	0.00000000	40.04675000	7.89247000
20.49999896	0.00000000	38.42273000	7.89247000
20.69999895	0.00000000	33.76599000	7.89247000
20.89999894	0.00000000	26.79011000	7.89247000
21.09999892	0.00000000	19.06373000	7.89247000
21.29999891	0.00000000	12.13091000	7.89247000
21.49999890	0.00000000	7.94168200	7.89247000
21.69999889	0.00000000	7.98474400	7.89247000
21.89999888	0.00000000	12.68455000	7.89247000
22.09999886	0.00000000	21.61663000	7.89247000
22.29999885	0.00000000	33.24926000	7.89247000
22.49999884	0.00000000	45.25098000	7.89247000
22.69999883	0.00000000	55.21038000	7.89247000
22.89999882	0.00000000	60.09473000	7.93553100
23.09999881	0.00000000	57.30807000	8.31077700
23.29999879	0.00000000	46.88730000	9.05511800
23.49999878	0.00000000	31.02239000	9.43036400
23.69999877	0.00000000	13.24434000	9.47342500
23.89999876	0.00000000	-2.57135800	9.47342500
24.09999875	0.00000000	-12.57382000	9.43036400
24.29999873	0.00000000	-13.97638000	9.00590400
24.49999872	0.00000000	-5.40723400	7.84940900
24.69999871	0.00000000	12.30930000	6.31151500
24.89999870	0.00000000	34.31963000	4.73671200
25.09999869	0.00000000	55.63484000	3.24803100
25.29999867	0.00000000	72.15181000	2.50369100
25.49999866	0.00000000	78.99237000	3.29109200
25.69999865	0.00000000	73.64050000	5.19808000
25.89999864	0.00000000	57.77559000	7.98474400
26.09999863	0.00000000	34.97170000	11.46653000
26.29999862	0.00000000	9.89788300	15.32357000
26.49999860	0.00000000	-10.94365000	18.35015000
26.69999859	0.00000000	-22.95152000	19.50664000
26.89999858	0.00000000	-23.68971000	18.25787000
27.09999857	0.00000000	-12.52461000	14.35162000
27.29999856	0.00000000	7.52337600	7.80019600
27.49999854	0.00000000	31.53297000	0.46751960
27.69999853	0.00000000	54.69980000	-6.13312000
27.89999852	0.00000000	71.68430000	-11.10359000
28.09999851	0.00000000	78.29724000	-12.50000000
28.29999850	0.00000000	73.68356000	-9.01205700
28.49999848	0.00000000	59.02436000	-0.88582670
28.69999847	0.00000000	37.81373000	9.94094400
28.89999846	0.00000000	15.47121000	21.54897000
29.09999845	0.00000000	-2.75590500	31.53912000
29.29999844	0.00000000	-12.94906000	37.26009000
29.49999843	0.00000000	-14.57308000	36.84178000
29.69999841	0.00000000	-7.91707600	29.82899000
29.89999840	0.00000000	6.36072800	17.46432000
30.09999839	0.00000000	24.78469000	2.04232300
30.29999838	0.00000000	42.23056000	-12.59227000
30.49999837	0.00000000	55.07505000	-23.09301000
30.69999835	0.00000000	61.72490000	-27.69439000
30.89999834	0.00000000	60.98056000	-25.27682000
31.09999833	0.00000000	53.67864000	-15.19439000
31.29999832	0.00000000	41.67076000	0.59670270
31.49999831	0.00000000	27.38681000	18.35015000
31.69999829	0.00000000	14.22244000	34.19045000
31.89999828	0.00000000	4.87204700	44.59892000
32.09999827	0.00000000	0.59055110	47.33637000
32.29999826	0.00000000	2.17150600	41.90453000
32.49999825	0.00000000	9.43651600	29.53986000
32.69999824	0.00000000	20.22022000	12.54306000
32.89999822	0.00000000	31.44069000	-5.20423200
33.09999821	0.00000000	41.16019000	-19.93110000
33.29999820	0.00000000	47.30561000	-28.80782000
33.49999819	0.00000000	48.51131000	-29.97047000
33.69999818	0.00000000	44.74655000	-23.09301000
33.89999816	0.00000000	37.81373000	-10.31619000
34.09999815	0.00000000	29.66289000	5.57332700
34.29999814	0.00000000	21.52436000	22.15797000
34.49999813	0.00000000	15.42815000	35.26082000
34.69999812	0.00000000	13.05979000	41.86147000
34.89999810	0.00000000	14.91757000	41.11097000
35.09999809	0.00000000	19.52510000	32.98474000
35.29999808	0.00000000	25.71358000	19.55585000
35.49999807	0.00000000	32.22810000	4.13385800
35.69999806	0.00000000	36.83563000	-9.34424200
35.89999805	0.00000000	38.42273000	-17.93799000
36.09999803	0.00000000	36.92790000	-20.26329000
36.29999802	0.00000000	33.06471000	-16.40010000
36.49999801	0.00000000	28.08194000	-6.78518600
36.69999800	0.00000000	23.06225000	5.85014700
36.89999799	0.00000000	19.61737000	17.79035000
37.09999797	0.00000000	18.45472000	26.24877000
37.29999796	0.00000000	19.99262000	28.98622000
37.49999795	0.00000000	23.80659000	25.59670000
37.69999794	0.00000000	28.41412000	17.92569000
37.89999793	0.00000000	32.68946000	7.94168200
38.09999791	0.00000000	35.81446000	-1.63016700
38.29999790	0.00000000	37.30315000	-7.72022600
38.49999789	0.00000000	36.50959000	-8.55068800
38.69999788	0.00000000	33.06471000	-3.95546200
38.89999787	0.00000000	28.50024000	4.04158400
39.09999786	0.00000000	24.18184000	13.28125000
39.29999784	0.00000000	20.68774000	20.90305000
39.49999783	0.00000000	18.36245000	24.71703000
39.69999782	0.00000000	17.98720000	23.17913000
39.89999781	0.00000000	19.52510000	16.67692000
40.09999780	0.00000000	22.60088000	7.47416300
40.29999778	0.00000000	26.50098000	-2.09153500
40.49999777	0.00000000	30.41338000	-9.01205700
40.69999776	0.00000000	34.27657000	-11.29429000
40.89999775	0.00000000	36.92790000	-8.59375000
41.09999774	0.00000000	37.35236000	-0.93503930
41.29999772	0.00000000	35.85752000	8.96284400
41.49999771	0.00000000	33.11393000	17.88263000
41.69999770	0.00000000	29.61983000	24.06496000
41.89999769	0.00000000	25.71358000	26.34104000
42.09999768	0.00000000	22.26870000	23.68971000
42.29999767	0.00000000	19.94340000	17.18750000
42.49999765	0.00000000	19.52510000	9.09817800
42.69999764	0.00000000	20.64468000	0.97194880
42.89999763	0.00000000	22.60088000	-5.16117100
43.09999762	0.00000000	25.29527000	-7.85556000
43.29999761	0.00000000	27.98966000	-6.36687900
43.49999759	0.00000000	29.94586000	-1.43946800
43.69999758	0.00000000	31.15157000	4.73671200
43.89999757	0.00000000	31.52682000	10.91289000
44.09999756	0.00000000	31.20078000	15.92642000
44.29999755	0.00000000	30.45644000	18.25787000
44.49999753	0.00000000	30.08120000	17.92569000
44.69999752	0.00000000	30.03814000	15.27436000
44.89999751	0.00000000	29.99508000	11.42347000
45.09999750	0.00000000	29.61983000	7.56028500
45.29999749	0.00000000	28.78937000	4.03543200
45.49999748	0.00000000	27.57136000	1.75319900
45.69999746	0.00000000	25.25221000	0.97194880
45.89999745	0.00000000	22.55167000	2.08538400
46.09999744	0.00000000	20.22022000	4.36146600
46.29999743	0.00000000	18.31939000	6.68676100
46.49999742	0.00000000	18.03642000	9.05511800
46.69999740	0.00000000	19.99262000	10.96211000
46.89999739	0.00000000	24.26796000	12.11860000
47.09999738	0.00000000	30.08735000	12.11860000
47.29999737	0.00000000	36.23277000	10.96211000
47.49999736	0.00000000	41.20940000	9.05511800
47.69999734	0.00000000	43.11638000	6.68676100
47.89999733	0.00000000	41.53543000	4.40452700
48.09999732	0.00000000	36.50959000	2.50369100
48.29999731	0.00000000	28.74631000	2.17150600
48.49999730	0.00000000	20.26944000	3.61712600
48.69999729	0.00000000	12.59842000	5.93626900
48.89999727	0.00000000	8.40920300	8.31077700
49.09999726	0.00000000	9.14739100	11.04823000
49.29999725	0.00000000	14.13017000	13.65650000
49.49999724	0.00000000	22.26870000	14.81299000
49.69999723	0.00000000	31.53297000	14.07480000
49.89999721	0.00000000	39.99754000	12.11860000
50.09999720	0.00000000	45.39862000	8.96284400
50.29999719	0.00000000	46.14296000	4.77977300
50.49999718	0.00000000	42.32283000	0.97194880
50.69999717	0.00000000	34.60876000	-0.97810030
50.89999715	0.00000000	25.38755000	-0.97810030
51.09999714	0.00000000	16.87377000	0.97194880
51.29999713	0.00000000	11.14665000	4.77977300
51.49999712	0.00000000	9.99015700	9.00590400
51.69999711	0.00000000	13.80413000	12.53691000
51.89999710	0.00000000	21.06299000	15.23130000
52.09999708	0.00000000	29.52756000	16.34473000
52.29999707	0.00000000	36.83563000	15.23130000
52.49999706	0.00000000	41.11712000	12.53691000
52.69999705	0.00000000	41.49237000	9.05511800
52.89999704	0.00000000	38.04749000	5.19808000
53.09999702	0.00000000	31.53297000	2.12844500
53.29999701	0.00000000	24.22490000	0.59670270
53.49999700	0.00000000	18.07948000	0.97194880
53.69999699	0.00000000	14.64075000	3.24803100
53.89999698	0.00000000	15.38509000	6.26845500
54.09999696	0.00000000	19.56816000	8.96284400
54.29999695	0.00000000	25.71358000	10.53765000
54.49999694	0.00000000	32.22810000	10.95595000
54.69999693	0.00000000	36.83563000	10.53765000
54.89999692	0.00000000	38.42273000	9.00590400
55.09999691	0.00000000	36.92790000	6.77903500
55.29999689	0.00000000	33.06471000	5.29035400
55.49999688	0.00000000	28.03888000	5.24729300
55.69999687	0.00000000	22.64394000	6.40378900
55.89999686	0.00000000	18.45472000	8.31077700
56.09999685	0.00000000	16.91683000	10.58686000
56.29999683	0.00000000	18.41166000	12.07554000
56.49999682	0.00000000	22.22564000	12.07554000
56.69999681	0.00000000	26.83317000	10.53765000
56.89999680	0.00000000	31.10851000	7.84940900
57.09999679	0.00000000	34.18430000	4.77977300
57.29999677	0.00000000	35.34695000	2.08538400
57.49999676	0.00000000	34.23351000	0.55364170
57.69999675	0.00000000	31.53297000	0.63976370
57.89999674	0.00000000	28.08194000	2.97121000
58.09999673	0.00000000	24.60015000	7.56028500
58.29999672	0.00000000	22.26870000	12.53691000
58.49999670	0.00000000	21.10605000	16.81225000
58.69999669	0.00000000	21.52436000	19.42052000
58.89999668	0.00000000	23.75738000	19.00221000
59.09999667	0.00000000	26.40871000	15.14518000
59.29999666	0.00000000	28.36491000	9.05511800
59.49999664	0.00000000	29.57062000	2.46063000
59.69999663	0.00000000	29.94586000	-2.93430100
59.89999662	0.00000000	29.57062000	-6.36687900
60.09999661	0.00000000	28.41412000	-6.32381900
60.29999660	0.00000000	26.91929000	-2.46678100
60.49999658	0.00000000	25.80585000	4.08464600
60.69999657	0.00000000	25.76279000	12.11860000
60.89999656	0.00000000	26.50098000	19.04527000
61.09999655	0.00000000	27.25147000	22.95152000
61.29999654	0.00000000	28.03888000	23.68971000
61.49999653	0.00000000	28.41412000	20.53395000
61.69999651	0.00000000	28.41412000	13.65650000
61.89999650	0.00000000	27.98966000	5.24729300
62.09999649	0.00000000	26.87623000	-2.14074800
62.29999648	0.00000000	25.71358000	-7.16043300
62.49999647	0.00000000	24.96309000	-9.06126900
62.69999645	0.00000000	24.55093000	-6.74212600
62.89999644	0.00000000	24.96309000	-1.02116100
63.09999643	0.00000000	25.71358000	6.31766700
63.29999642	0.00000000	26.91929000	13.65650000
63.49999641	0.00000000	28.41412000	19.46358000
63.69999639	0.00000000	29.57062000	22.53322000
63.89999638	0.00000000	29.94586000	22.15797000
64.09999637	0.00000000	29.57062000	18.30093000
64.29999636	0.00000000	28.41412000	12.16781000
64.49999635	0.00000000	26.87623000	5.24729300
64.69999634	0.00000000	25.33834000	-0.55979330
64.89999632	0.00000000	24.18184000	-4.09079700
65.09999631	0.00000000	23.80659000	-5.29650500
65.29999630	0.00000000	24.18184000	-4.13385800
65.49999629	0.00000000	25.29527000	-1.02116100
65.69999628	0.00000000	26.45792000	3.62327700
65.89999626	0.00000000	27.25147000	9.00590400
66.09999625	0.00000000	27.98966000	13.61343000
66.29999624	0.00000000	27.98966000	16.39395000
66.49999623	0.00000000	27.25147000	17.23056000
66.69999622	0.00000000	26.45792000	16.85531000
66.89999620	0.00000000	25.29527000	15.27436000
67.09999619	0.00000000	24.22490000	12.58612000
67.29999618	0.00000000	24.22490000	9.47342500
67.49999617	0.00000000	25.38755000	6.31151500
67.69999616	0.00000000	27.29453000	3.19881900
67.89999615	0.00000000	29.61983000	0.51058070
68.09999613	0.00000000	31.52682000	-1.06422200
68.29999612	0.00000000	32.64640000	-1.43946800
68.49999611	0.00000000	32.22810000	-0.64591530
68.69999610	0.00000000	29.90280000	1.71013800
68.89999609	0.00000000	26.45792000	5.19808000
69.09999607	0.00000000	22.55167000	9.47342500
69.29999606	0.00000000	19.14985000	13.69956000
69.49999605	0.00000000	17.24902000	16.81225000
69.69999604	0.00000000	18.03642000	18.35015000
69.89999603	0.00000000	21.06299000	17.92569000
70.09999601	0.00000000	25.33834000	15.18824000
70.29999600	0.00000000	30.03814000	10.58686000
70.49999599	0.00000000	34.65182000	5.19808000
70.69999598	0.00000000	38.09055000	0.55364170
70.89999597	0.00000000	38.79798000	-2.55905500
71.09999596	0.00000000	36.50959000	-3.67249000
71.29999594	0.00000000	31.48376000	-2.18380900
71.49999593	0.00000000	25.38755000	1.29183100
71.69999592	0.00000000	19.90034000	5.53026500
71.89999591	0.00000000	16.03715000	10.21161000
72.09999590	0.00000000	14.08710000	13.98253000
72.29999588	0.00000000	14.91757000	15.97564000
72.49999587	0.00000000	18.36245000	15.60654000
72.69999586	0.00000000	23.80659000	13.74262000
72.89999585	0.00000000	29.90280000	11.00517000
73.09999584	0.00000000	34.97170000	7.93553100
73.29999582	0.00000000	37.67839000	5.24729300
73.49999581	0.00000000	38.09055000	3.70939900
73.69999580	0.00000000	35.76525000	3.66633800
73.89999579	0.00000000	31.57603000	4.77977300
74.09999578	0.00000000	26.91929000	6.26845500
74.29999577	0.00000000	22.64394000	7.42495000
74.49999575	0.00000000	19.52510000	7.80019600
74.69999574	0.00000000	17.98720000	7.42495000
74.89999573	0.00000000	18.36245000	6.31151500
75.09999572	0.00000000	20.68774000	5.19808000
75.29999571	0.00000000	24.08957000	4.82898600
75.49999569	0.00000000	27.57136000	5.24729300
75.69999568	0.00000000	29.94586000	6.82209600
75.89999567	0.00000000	31.48376000	9.47342500
76.09999566	0.00000000	31.85285000	12.16781000
76.29999565	0.00000000	30.37032000	14.07480000
76.49999563	0.00000000	28.50024000	14.81299000
76.69999562	0.00000000	26.91929000	13.60728000
76.89999561	0.00000000	25.76279000	10.53765000
77.09999560	0.00000000	25.33834000	6.26845500
77.29999559	0.00000000	25.33834000	1.66707700
77.49999558	0.00000000	25.71358000	-2.14074800
77.69999556	0.00000000	26.40871000	-3.67249000
77.89999555	0.00000000	26.36565000	-2.55905500
78.09999554	0.00000000	25.29527000	0.55364170
78.29999553	0.00000000	24.18184000	5.19808000
78.49999552	0.00000000	23.75738000	10.58686000
78.69999550	0.00000000	23.75738000	15.23130000
78.89999549	0.00000000	24.22490000	18.30093000
79.09999548	0.00000000	25.76279000	19.04527000
79.29999547	0.00000000	28.03888000	16.76919000
79.49999546	0.00000000	29.94586000	12.53691000
79.69999544	0.00000000	31.15157000	7.51722400
79.89999543	0.00000000	31.52682000	2.50369100
80.09999542	0.00000000	31.06545000	-0.97810030
80.29999541	0.00000000	29.10925000	-2.60211600
80.49999540	0.00000000	25.71358000	-2.55905500
80.69999539	0.00000000	22.68701000	-0.64591530
80.89999537	0.00000000	21.06299000	2.82972400
81.09999536	0.00000000	20.68774000	6.68676100
81.29999535	0.00000000	21.48130000	10.53765000
81.49999534	0.00000000	23.80659000	13.28125000
81.69999533	0.00000000	26.83317000	14.49311000
81.89999531	0.00000000	29.52756000	14.90526000
82.09999530	0.00000000	31.10851000	14.07480000
82.29999529	0.00000000	31.52682000	12.16781000
82.49999528	0.00000000	31.10851000	9.47342500
82.69999527	0.00000000	29.57062000	6.72982200
82.89999525	0.00000000	27.29453000	4.36146600
83.09999524	0.00000000	25.33834000	2.04232300
83.29999523	0.00000000	23.80659000	0.51058070
83.49999522	0.00000000	23.01919000	0.09227362
83.69999521	0.00000000	23.38214000	0.51058070
83.89999520	0.00000000	24.13263000	2.12844500
84.09999518	0.00000000	25.29527000	5.19808000
84.29999517	0.00000000	26.45792000	9.05511800
84.49999516	0.00000000	27.20841000	12.53691000
84.69999515	0.00000000	27.62057000	15.23130000
84.89999514	0.00000000	27.25147000	16.39395000
85.09999512	0.00000000	26.91929000	15.60654000
85.29999511	0.00000000	26.87623000	13.28125000
85.49999510	0.00000000	26.91929000	9.38115100
85.69999509	0.00000000	27.29453000	4.77977300
85.89999508	0.00000000	28.03888000	0.55364170
86.09999506	0.00000000	28.36491000	-2.14074800
86.29999505	0.00000000	27.98966000	-2.50984200
86.49999504	0.00000000	26.83317000	-0.64591530
86.69999503	0.00000000	25.33834000	2.82972400
86.89999502	0.00000000	24.18184000	6.72982200
87.09999501	0.00000000	23.75738000	11.00517000
87.29999499	0.00000000	23.71432000	14.81299000
87.49999498	0.00000000	23.80659000	16.71998000
87.69999497	0.00000000	24.60015000	16.30167000
87.89999496	0.00000000	26.50098000	13.23819000
88.09999495	0.00000000	28.36491000	8.31077700
88.29999493	0.00000000	29.57062000	3.66633800
88.49999492	0.00000000	29.94586000	0.17839570
88.69999491	0.00000000	29.52756000	-1.71628900
88.89999490	0.00000000	28.03888000	-0.97810030
89.09999489	0.00000000	26.13189000	1.71013800
89.29999487	0.00000000	24.96309000	5.61638700
89.49999486	0.00000000	24.13263000	10.62992000
89.69999485	0.00000000	23.75738000	15.14518000
89.89999484	0.00000000	23.75738000	17.46432000
90.09999483	0.00000000	24.18184000	16.72613000
90.29999482	0.00000000	25.29527000	13.65650000
90.49999480	0.00000000	26.45792000	9.00590400
90.69999479	0.00000000	27.20841000	3.66633800
90.89999478	0.00000000	27.62057000	-0.51673230
91.09999477	0.00000000	27.25147000	-2.09153500
91.29999476	0.00000000	26.91929000	-0.97810030
91.49999474	0.00000000	26.87623000	2.12844500
91.69999473	0.00000000	26.87623000	6.72982200
91.89999472	0.00000000	26.87623000	11.70029000
92.09999471	0.00000000	26.87623000	15.14518000
92.29999470	0.00000000	26.87623000	16.34473000
92.49999468	0.00000000	26.83317000	15.14518000
92.69999467	0.00000000	26.40871000	11.74336000
92.89999466	0.00000000	25.29527000	7.10506800
93.09999465	0.00000000	24.13263000	2.87278500
93.29999464	0.00000000	23.38214000	-0.55979330
93.49999463	0.00000000	22.96998000	-1.67322800
93.69999461	0.00000000	23.38214000	0.17839570
93.89999460	0.00000000	24.18184000	3.62327700
94.09999459	0.00000000	25.76279000	7.89247000
94.29999458	0.00000000	28.03888000	12.07554000
94.49999457	0.00000000	29.94586000	14.76993000
94.69999455	0.00000000	31.15157000	15.14518000
94.89999454	0.00000000	31.48376000	13.28125000
95.09999453	0.00000000	30.69020000	9.79945900
95.29999452	0.00000000	28.36491000	5.98548200
95.49999451	0.00000000	25.29527000	2.50369100
95.69999449	0.00000000	22.17643000	0.59670270
95.89999448	0.00000000	19.52510000	0.59670270
96.09999447	0.00000000	18.36245000	2.50369100
96.29999446	0.00000000	19.14985000	5.89320800
96.49999445	0.00000000	21.43824000	8.96284400
96.69999444	0.00000000	24.92003000	10.96211000
96.89999442	0.00000000	28.41412000	12.11860000
97.09999441	0.00000000	31.53297000	12.07554000
97.29999440	0.00000000	33.85827000	10.58686000
97.49999439	0.00000000	34.60876000	8.26771600
97.69999438	0.00000000	33.80905000	5.98548200
97.89999436	0.00000000	31.06545000	4.03543200
98.09999435	0.00000000	26.87623000	3.29109200
98.29999434	0.00000000	22.64394000	3.62327700
98.49999433	0.00000000	19.52510000	4.77977300
98.69999432	0.00000000	17.94414000	6.26845500
98.89999430	0.00000000	17.94414000	7.42495000
99.09999429	0.00000000	19.52510000	7.84940900
99.29999428	0.00000000	22.60088000	7.89247000
99.49999427	0.00000000	26.45792000	7.89247000
99.69999426	0.00000000	29.94586000	7.93553100
99.89999425	0.00000000	32.64640000	8.31077700
100.09999423	0.00000000	33.80905000	9.05511800
100.29999422	0.00000000	33.11393000	9.43036400
100.49999421	0.00000000	31.52682000	9.43036400
100.69999420	0.00000000	29.15231000	9.05511800
100.89999419	0.00000000	25.71358000	8.22465500
101.09999417	0.00000000	22.64394000	7.05585600
101.29999416	0.00000000	20.64468000	5.11195900
101.49999415	0.00000000	19.48204000	3.24803100
101.69999414	0.00000000	19.52510000	2.08538400
101.89999413	0.00000000	21.01993000	2.12844500
102.09999411	0.00000000	23.33907000	3.66633800
102.29999410	0.00000000	25.67052000	6.36072800
102.49999409	0.00000000	28.03888000	9.42421200
102.69999408	0.00000000	29.94586000	12.11860000
102.89999407	0.00000000	31.10851000	13.65650000
103.09999406	0.00000000	31.10851000	13.65650000
103.29999404	0.00000000	29.94586000	12.11860000
103.49999403	0.00000000	28.03888000	9.42421200
103.69999402	0.00000000	25.71358000	6.31151500
103.89999401	0.00000000	23.80659000	3.24803100
104.09999400	0.00000000	22.60088000	0.97194880
104.29999398	0.00000000	22.22564000	0.55364170
104.49999397	0.00000000	22.60088000	1.66707700
104.69999396	0.00000000	23.75738000	3.61712600
104.89999395	0.00000000	25.29527000	6.36072800
105.09999394	0.00000000	26.83317000	9.38115100
105.29999392	0.00000000	27.98966000	11.70029000
105.49999391	0.00000000	28.41412000	12.45079000
105.69999390	0.00000000	28.41412000	11.74951000
105.89999389	0.00000000	27.98966000	9.79945900
106.09999388	0.00000000	26.83317000	7.51722400
106.29999387	0.00000000	25.33834000	5.19808000
106.49999385	0.00000000	24.18184000	3.66633800
106.69999384	0.00000000	23.80659000	3.24803100
106.89999383	0.00000000	24.13263000	3.66633800
107.09999382	0.00000000	24.92003000	5.19808000
107.29999381	0.00000000	25.71358000	7.47416300
107.49999379	0.00000000	26.83317000	9.38115100
107.69999378	0.00000000	27.57136000	10.53765000
107.89999377	0.00000000	27.20841000	10.53765000
108.09999376	0.00000000	26.50098000	9.42421200
108.29999375	0.00000000	25.67052000	7.89247000
108.49999374	0.00000000	24.87697000	6.26845500
108.69999372	0.00000000	23.75738000	4.44758800
108.89999371	0.00000000	23.01919000	3.34030500
109.09999370	0.00000000	23.38214000	4.40452700
109.29999369	0.00000000	24.13263000	5.85014700
109.49999368	0.00000000	25.33834000	6.72982200
109.69999366	0.00000000	26.83317000	7.93553100
109.89999365	0.00000000	27.98966000	9.42421200
110.09999364	0.00000000	28.36491000	10.53765000
110.29999363	0.00000000	28.03888000	10.53765000
110.49999362	0.00000000	27.25147000	9.42421200
110.69999360	0.00000000	26.45792000	7.89247000
110.89999359	0.00000000	25.29527000	6.36072800
111.09999358	0.00000000	24.18184000	5.15501900
111.29999357	0.00000000	23.75738000	4.40452700
111.49999356	0.00000000	23.75738000	3.99237200
111.69999355	0.00000000	24.13263000	4.40452700
111.89999353	0.00000000	24.92003000	5.15501900
112.09999352	0.00000000	25.67052000	6.31151500
112.29999351	0.00000000	26.50098000	7.47416300
112.49999350	0.00000000	27.20841000	8.26771600
112.69999349	0.00000000	27.62057000	9.00590400
112.89999347	0.00000000	27.25147000	9.00590400
113.09999346	0.00000000	26.87623000	8.31077700
113.29999345	0.00000000	26.45792000	7.93553100
113.49999344	0.00000000	25.71358000	7.84940900
113.69999343	0.00000000	25.33834000	7.47416300
113.89999341	0.00000000	25.29527000	6.72982200
114.09999340	0.00000000	25.29527000	6.35457700
114.29999339	0.00000000	25.29527000	6.26845500
114.49999338	0.00000000	25.29527000	5.89320800
114.69999337	0.00000000	25.29527000	5.15501900
114.89999336	0.00000000	25.33834000	4.82898600
115.09999334	0.00000000	25.67052000	5.15501900
115.29999333	0.00000000	26.03961000	5.89320800
115.49999332	0.00000000	25.67052000	6.31151500
115.69999331	0.00000000	25.33834000	6.72982200
115.89999330	0.00000000	25.29527000	7.51722400
116.09999328	0.00000000	25.29527000	8.26771600
116.29999327	0.00000000	25.25221000	9.05511800
116.49999326	0.00000000	24.92003000	9.38115100
116.69999325	0.00000000	24.55093000	9.05511800
116.89999324	0.00000000	24.92003000	8.26771600
117.09999322	0.00000000	25.29527000	7.47416300
117.29999321	0.00000000	25.71358000	6.31151500
117.49999320	0.00000000	26.45792000	5.19808000
117.69999319	0.00000000	26.83317000	4.77977300
117.89999318	0.00000000	26.87623000	4.73671200
118.09999317	0.00000000	26.87623000	4.77977300
118.29999315	0.00000000	26.83317000	5.15501900
118.49999314	0.00000000	26.40871000	5.93626900
118.69999313	0.00000000	25.29527000	6.68676100
118.89999312	0.00000000	24.18184000	7.51722400
119.09999311	0.00000000	23.71432000	8.26771600
119.29999309	0.00000000	23.33907000	9.00590400
119.49999308	0.00000000	23.01919000	9.00590400
119.69999307	0.00000000	23.75738000	8.31077700
119.89999306	0.00000000	24.87697000	7.89247000
120.09999305	0.00000000	25.71358000	7.47416300
120.29999303	0.00000000	26.87623000	6.72982200
120.49999302	0.00000000	27.98966000	6.35457700
120.69999301	0.00000000	28.36491000	6.31151500
120.89999300	0.00000000	28.03888000	6.31151500
121.09999299	0.00000000	27.25147000	6.31151500
121.29999298	0.00000000	26.45792000	6.31151500
121.49999296	0.00000000	25.29527000	6.31151500
121.69999295	0.00000000	24.13263000	6.31151500
121.89999294	0.00000000	23.33907000	6.35457700
122.09999293	0.00000000	22.60088000	6.72982200
122.29999292	0.00000000	22.64394000	7.47416300
122.49999290	0.00000000	23.71432000	7.84940900
122.69999289	0.00000000	24.87697000	7.89247000
122.89999288	0.00000000	25.67052000	7.89247000
123.09999287	0.00000000	26.50098000	7.89247000
123.29999286	0.00000000	27.25147000	7.84940900
123.49999284	0.00000000	28.03888000	7.47416300
123.69999283	0.00000000	28.36491000	6.72982200
123.89999282	0.00000000	27.98966000	6.31151500
124.09999281	0.00000000	26.87623000	5.89320800
124.29999280	0.00000000	25.71358000	5.19808000
124.49999279	0.00000000	24.92003000	5.19808000
124.69999277	0.00000000	24.13263000	5.89320800
124.89999276	0.00000000	23.71432000	6.26845500
125.09999275	0.00000000	23.33907000	6.35457700
125.29999274	0.00000000	22.96998000	6.72982200
125.49999273	0.00000000	23.38214000	7.47416300
125.69999271	0.00000000	24.13263000	7.84940900
125.89999270	0.00000000	25.29527000	7.89247000
126.09999269	0.00000000	26.40871000	7.89247000
126.29999268	0.00000000	26.83317000	7.89247000
126.49999267	0.00000000	26.87623000	7.84940900
126.69999265	0.00000000	26.87623000	7.47416300
126.89999264	0.00000000	26.83317000	6.72982200
127.09999263	0.00000000	26.40871000	6.35457700
127.29999262	0.00000000	25.29527000	6.31151500
127.49999261	0.00000000	24.18184000	6.31151500
127.69999260	0.00000000	23.71432000	6.31151500
127.89999258	0.00000000	23.33907000	6.31151500
128.09999257	0.00000000	23.01919000	6.35457700
128.29999256	0.00000000	23.80659000	6.72982200
128.49999255	0.00000000	25.25221000	7.47416300
128.69999254	0.00000000	26.40871000	7.84940900
128.89999252	0.00000000	26.83317000	7.84940900
129.09999251	0.00000000	26.87623000	7.47416300
129.29999250	0.00000000	26.83317000	6.72982200
129.49999249	0.00000000	26.40871000	6.35457700
129.69999248	0.00000000	25.29527000	6.31151500
129.89999246	0.00000000	24.18184000	6.31151500
130.09999245	0.00000000	23.75738000	6.31151500
130.29999244	0.00000000	23.71432000	6.31151500
130.49999243	0.00000000	23.75738000	6.35457700
130.69999242	0.00000000	24.13263000	6.72982200
130.89999241	0.00000000	24.92003000	7.47416300
131.09999239	0.00000000	25.67052000	7.84940900
131.29999238	0.00000000	26.45792000	7.84940900
131.49999237	0.00000000	26.78395000	7.47416300
131.69999236	0.00000000	26.45792000	6.72982200
131.89999235	0.00000000	25.71358000	6.35457700
132.09999233	0.00000000	25.29527000	6.26845500
132.29999232	0.00000000	24.92003000	5.93626900
132.49999231	0.00000000	24.50787000	5.57332700
132.69999230	0.00000000	24.54478000	5.98548200
132.89999229	0.00000000	24.50787000	6.68676100
133.09999227	0.00000000	24.92003000	7.47416300
133.29999226	0.00000000	25.25221000	7.84940900
133.49999225	0.00000000	25.29527000	7.89247000
133.69999224	0.00000000	25.29527000	7.89247000
133.89999223	0.00000000	25.29527000	7.84940900
134.09999222	0.00000000	25.29527000	7.47416300
134.29999220	0.00000000	25.29527000	6.72982200
134.49999219	0.00000000	25.29527000	6.31151500
134.69999218	0.00000000	25.29527000	5.89320800
134.89999217	0.00000000	25.29527000	5.15501900
135.09999216	0.00000000	25.29527000	4.77977300
135.29999214	0.00000000	25.29527000	4.77977300
135.49999213	0.00000000	25.33834000	5.19808000
135.69999212	0.00000000	25.62746000	6.31151500
135.89999211	0.00000000	25.61516000	7.42495000
136.09999210	0.00000000	24.50787000	7.84940900
136.29999208	0.00000000	23.80659000	7.89247000
136.49999207	0.00000000	23.71432000	7.89247000
136.69999206	0.00000000	23.71432000	7.84940900
136.89999205	0.00000000	23.75738000	7.47416300
137.09999204	0.00000000	24.13263000	6.72982200
137.29999203	0.00000000	24.92003000	6.31151500
137.49999201	0.00000000	25.67052000	5.89320800
137.69999200	0.00000000	26.45792000	5.15501900
137.89999199	0.00000000	26.78395000	4.77977300
138.09999198	0.00000000	26.45792000	4.77977300
138.29999197	0.00000000	25.67052000	5.15501900
138.49999195	0.00000000	24.92003000	5.89320800
138.69999194	0.00000000	24.13263000	6.31151500
138.89999193	0.00000000	23.75738000	6.72982200
139.09999192	0.00000000	23.71432000	7.47416300
139.29999191	0.00000000	23.75738000	7.84940900
139.49999189	0.00000000	24.13263000	7.89247000
139.69999188	0.00000000	24.87697000	7.89247000
139.89999187	0.00000000	25.25221000	7.84940900
140.09999186	0.00000000	25.29527000	7.47416300
140.29999185	0.00000000	25.29527000	6.68676100
140.49999184	0.00000000	25.29527000	5.93626900
140.69999182	0.00000000	25.29527000	5.15501900
140.89999181	0.00000000	25.25221000	4.77977300
141.09999180	0.00000000	24.87697000	4.77977300
141.29999179	0.00000000	24.13263000	5.15501900
141.49999178	0.00000000	23.80659000	5.93626900
141.69999176	0.00000000	24.13263000	6.68676100
141.89999175	0.00000000	24.87697000	7.51722400
142.09999174	0.00000000	25.25221000	8.22465500
142.29999173	0.00000000	25.29527000	8.63681000
142.49999172	0.00000000	25.29527000	8.22465500
142.69999170	0.00000000	25.29527000	7.51722400
142.89999169	0.00000000	25.29527000	6.68676100
143.09999168	0.00000000	25.25221000	5.93626900
143.29999167	0.00000000	24.87697000	5.15501900
143.49999166	0.00000000	24.13263000	4.77977300
143.69999165	0.00000000	23.75738000	4.73671200
143.89999163	0.00000000	23.75738000	4.77977300
144.09999162	0.00000000	24.13263000	5.15501900
144.29999161	0.00000000	24.87697000	5.93626900
144.49999160	0.00000000	25.25221000	6.68676100
144.69999159	0.00000000	25.29527000	7.47416300
144.89999157	0.00000000	25.29527000	7.84940900
145.09999156	0.00000000	25.29527000	7.89247000
145.29999155	0.00000000	25.29527000	7.84940900
145.49999154	0.00000000	25.25221000	7.47416300
145.69999153	0.00000000	24.87697000	6.72982200
145.89999151	0.00000000	24.18184000	6.35457700
146.09999150	0.00000000	24.18184000	6.26845500
146.29999149	0.00000000	24.87697000	5.89320800
146.49999148	0.00000000	25.25221000	5.19808000
146.69999147	0.00000000	25.33834000	5.19808000
146.89999146	0.00000000	25.67052000	5.89320800
147.09999144	0.00000000	26.03961000	6.31151500
147.29999143	0.00000000	25.67052000	6.72982200
147.49999142	0.00000000	25.33834000	7.47416300
147.69999141	0.00000000	25.29527000	7.84940900
147.89999140	0.00000000	25.25221000	7.89247000
148.09999138	0.00000000	24.87697000	7.84940900
148.29999137	0.00000000	24.13263000	7.47416300
148.49999136	0.00000000	23.75738000	6.72982200
148.69999135	0.00000000	23.75738000	6.35457700
148.89999134	0.00000000	24.13263000	6.31151500
149.09999132	0.00000000	24.87697000	6.31151500
149.29999131	0.00000000	25.25221000	6.31151500
149.49999130	0.00000000	25.29527000	6.31151500
149.69999129	0.00000000	25.29527000	6.31151500
149.89999128	0.00000000	25.29527000	6.35457700
150.09999127	0.00000000	25.29527000	6.72982200
150.29999125	0.00000000	25.29527000	7.47416300
150.49999124	0.00000000	25.25221000	7.84940900
150.69999123	0.00000000	24.87697000	7.84940900
150.89999122	0.00000000	24.13263000	7.47416300
151.09999121	0.00000000	23.75738000	6.72982200
151.29999119	0.00000000	23.71432000	6.35457700
151.49999118	0.00000000	23.71432000	6.31151500
151.69999117	0.00000000	23.71432000	6.31151500
151.89999116	0.00000000	23.75738000	6.31151500
152.09999115	0.00000000	24.13263000	6.31151500
152.29999113	0.00000000	24.87697000	6.31151500
152.49999112	0.00000000	25.29527000	6.31151500
152.69999111	0.00000000	25.67052000	6.31151500
152.89999110	0.00000000	26.03961000	6.31151500
153.09999109	0.00000000	25.67052000	6.31151500
153.29999108	0.00000000	25.29527000	6.35457700
153.49999106	0.00000000	24.87697000	6.68676100
153.69999105	0.00000000	24.13263000	7.05585600
153.89999104	0.00000000	23.75738000	6.72982200
154.09999103	0.00000000	23.71432000	6.72982200
154.29999102	0.00000000	23.71432000	7.05585600
154.49999100	0.00000000	23.71432000	6.68676100
154.69999099	0.00000000	23.75738000	6.35457700
154.89999098	0.00000000	24.13263000	6.31151500
155.09999097	0.00000000	24.87697000	6.31151500
155.29999096	0.00000000	25.25221000	6.31151500
155.49999094	0.00000000	25.29527000	6.31151500
155.69999093	0.00000000	25.29527000	6.31151500
155.89999092	0.00000000	25.29527000	6.31151500
156.09999091	0.00000000	25.25221000	6.35457700
156.29999090	0.00000000	24.87697000	6.72982200
156.49999089	0.00000000	24.13263000	7.47416300
156.69999087	0.00000000	23.75738000	7.84940900
156.89999086	0.00000000	23.71432000	7.89247000
157.09999085	0.00000000	23.71432000	7.84940900
157.29999084	0.00000000	23.71432000	7.47416300
157.49999083	0.00000000	23.75738000	6.72982200
157.69999081	0.00000000	24.13263000	6.35457700
157.89999080	0.00000000	24.87697000	6.31151500
158.09999079	0.00000000	25.25221000	6.31151500
158.29999078	0.00000000	25.29527000	6.31151500
158.49999077	0.00000000	25.29527000	6.31151500
158.69999075	0.00000000	25.29527000	6.31151500
158.89999074	0.00000000	25.29527000	6.31151500
159.09999073	0.00000000	25.25221000	6.35457700
159.29999072	0.00000000	24.87697000	6.72982200
159.49999071	0.00000000	24.13263000	7.47416300
159.69999070	0.00000000	23.75738000	7.84940900
159.89999068	0.00000000	23.71432000	7.84940900
160.09999067	0.00000000	23.71432000	7.47416300
160.29999066	0.00000000	23.71432000	6.72982200
160.49999065	0.00000000	23.71432000	6.35457700
160.69999064	0.00000000	23.71432000	6.31151500
160.89999062	0.00000000	23.71432000	6.31151500
161.09999061	0.00000000	23.75738000	6.31151500
161.29999060	0.00000000	24.13263000	6.31151500
161.49999059	0.00000000	24.87697000	6.31151500
161.69999058	0.00000000	25.25221000	6.31151500
161.89999056	0.00000000	25.29527000	6.31151500
162.09999055	0.00000000	25.29527000	6.31151500
162.29999054	0.00000000	25.29527000	6.35457700
162.49999053	0.00000000	25.25221000	6.68676100
162.69999052	0.00000000	24.92003000	7.09891700
162.89999051	0.00000000	24.50787000	7.06200700
163.09999049	0.00000000	24.50172000	7.09891700
163.29999048	0.00000000	24.08957000	6.68676100
163.49999047	0.00000000	23.75738000	6.35457700
163.69999046	0.00000000	23.71432000	6.31151500
163.89999045	0.00000000	23.71432000	6.31151500
164.09999043	0.00000000	23.71432000	6.31151500
164.29999042	0.00000000	23.75738000	6.31151500
164.49999041	0.00000000	24.13263000	6.31151500
164.69999040	0.00000000	24.87697000	6.31151500
164.89999039	0.00000000	25.25221000	6.31151500
165.09999037	0.00000000	25.29527000	6.31151500
165.29999036	0.00000000	25.29527000	6.31151500
165.49999035	0.00000000	25.25221000	6.31151500
165.69999034	0.00000000	24.87697000	6.31151500
165.89999033	0.00000000	24.13263000	6.31151500
166.09999032	0.00000000	23.75738000	6.31151500
166.29999030	0.00000000	23.71432000	6.31151500
166.49999029	0.00000000	23.71432000	6.31151500
166.69999028	0.00000000	23.71432000	6.31151500
166.89999027	0.00000000	23.71432000	6.31151500
167.09999026	0.00000000	23.75738000	6.31151500
167.29999024	0.00000000	24.13263000	6.31151500
167.49999023	0.00000000	24.87697000	6.31151500
167.69999022	0.00000000	25.25221000	6.31151500
167.89999021	0.00000000	25.25221000	6.31151500
168.09999020	0.00000000	24.92003000	6.31151500
168.29999018	0.00000000	24.55093000	6.31151500
168.49999017	0.00000000	24.87697000	6.31151500
168.69999016	0.00000000	24.87697000	6.31151500
168.89999015	0.00000000	24.50787000	6.31151500
169.09999014	0.00000000	24.50172000	6.31151500
169.29999013	0.00000000	24.08957000	6.31151500
169.49999011	0.00000000	23.75738000	6.31151500
169.69999010	0.00000000	23.71432000	6.31151500
169.89999009	0.00000000	23.71432000	6.31151500
170.09999008	0.00000000	23.71432000	6.31151500
170.29999007	0.00000000	23.75738000	6.31151500
170.49999005	0.00000000	24.08957000	6.31151500
170.69999004	0.00000000	24.45866000	6.31151500
170.89999003	0.00000000	24.13263000	6.31151500
171.09999002	0.00000000	24.18184000	6.31151500
171.29999001	0.00000000	24.82775000	6.31151500
171.49998999	0.00000000	24.82775000	6.31151500
171.69998998	0.00000000	24.13263000	6.31151500
171.89998997	0.00000000	23.75738000	6.31151500
172.09998996	0.00000000	23.71432000	6.31151500
172.29998995	0.00000000	23.71432000	6.31151500
172.49998994	0.00000000	23.71432000	6.31151500
172.69998992	0.00000000	23.71432000	6.31151500
172.89998991	0.00000000	23.71432000	6.31151500
173.09998990	0.00000000	23.71432000	6.31151500
173.29998989	0.00000000	23.71432000	6.31151500
173.49998988	0.00000000	23.71432000	6.31151500
173.69998986	0.00000000	23.71432000	6.31151500
173.89998985	0.00000000	23.71432000	6.31151500
174.09998984	0.00000000	23.71432000	6.31151500
174.29998983	0.00000000	23.71432000	6.31151500
174.49998982	0.00000000	23.71432000	6.31151500
174.69998980	0.00000000	23.71432000	6.31151500
174.89998979	0.00000000	23.71432000	6.31151500
175.09998978	0.00000000	23.71432000	6.31151500
175.29998977	0.00000000	23.71432000	6.31151500
175.49998976	0.00000000	23.71432000	6.31151500
175.69998975	0.00000000	23.71432000	6.31151500
175.89998973	0.00000000	23.71432000	6.31151500
176.09998972	0.00000000	23.71432000	6.31151500
176.29998971	0.00000000	23.71432000	6.31151500
176.49998970	0.00000000	23.75738000	6.35457700
176.69998969	0.00000000	24.08957000	6.68676100
176.89998967	0.00000000	24.45866000	7.05585600
177.09998966	0.00000000	24.08957000	6.68676100
177.29998965	0.00000000	23.75738000	6.35457700
177.49998964	0.00000000	23.71432000	6.31151500
177.69998963	0.00000000	23.71432000	6.31151500
177.89998961	0.00000000	23.71432000	6.31151500
178.09998960	0.00000000	23.71432000	6.31151500
178.29998959	0.00000000	23.71432000	6.31151500
178.49998958	0.00000000	23.71432000	6.31151500
178.69998957	0.00000000	23.71432000	6.31151500
178.89998956	0.00000000	23.71432000	6.31151500
179.09998954	0.00000000	23.71432000	6.31151500
179.29998953	0.00000000	23.71432000	6.31151500
179.49998952	0.00000000	23.71432000	6.31151500
179.69998951	0.00000000	23.71432000	6.31151500
179.89998950	0.00000000	23.71432000	6.31151500
180.09998948	0.00000000	23.71432000	6.31151500
180.29998947	0.00000000	23.71432000	6.31151500
180.49998946	0.00000000	23.71432000	6.31151500
180.69998945	0.00000000	23.71432000	6.31151500
180.89998944	0.00000000	23.71432000	6.31151500
181.09998942	0.00000000	23.71432000	6.31151500
181.29998941	0.00000000	23.71432000	6.31151500
181.49998940	0.00000000	23.71432000	6.31151500
181.69998939	0.00000000	23.71432000	6.31151500
181.89998938	0.00000000	23.71432000	6.31151500
182.09998937	0.00000000	23.71432000	6.31151500
182.29998935	0.00000000	23.71432000	6.31151500
182.49998934	0.00000000	23.71432000	6.31151500
182.69998933	0.00000000	23.71432000	6.31151500
182.89998932	0.00000000	23.71432000	6.26845500
183.09998931	0.00000000	23.71432000	5.93626900
183.29998929	0.00000000	23.71432000	5.57332700
183.49998928	0.00000000	23.71432000	5.93626900
183.69998927	0.00000000	23.71432000	6.21924200
183.89998926	0.00000000	23.71432000	5.93626900
184.09998925	0.00000000	23.71432000	5.57332700
184.29998923	0.00000000	23.71432000	5.93626900
184.49998922	0.00000000	23.71432000	6.26845500
184.69998921	0.00000000	23.71432000	6.35457700
184.89998920	0.00000000	23.71432000	6.68676100
185.09998919	0.00000000	23.71432000	7.05585600
185.29998918	0.00000000	23.71432000	6.68676100
185.49998916	0.00000000	23.71432000	6.35457700
185.69998915	0.00000000	23.71432000	6.26845500
185.89998914	0.00000000	23.71432000	5.89320800
186.09998913	0.00000000	23.71432000	5.15501900
186.29998912	0.00000000	23.71432000	4.82898600
186.49998910	0.00000000	23.71432000	5.15501900
186.69998909	0.00000000	23.71432000	5.89320800
186.89998908	0.00000000	23.71432000	6.26845500
187.09998907	0.00000000	23.71432000	6.35457700
187.29998906	0.00000000	23.71432000	6.68676100
187.49998904	0.00000000	23.71432000	7.09891700
187.69998903	0.00000000	23.71432000	7.06200700
187.89998902	0.00000000	23.71432000	7.09891700
188.09998901	0.00000000	23.71432000	6.68676100
188.29998900	0.00000000	23.71432000	6.35457700
188.49998899	0.00000000	23.71432000	6.26845500
188.69998897	0.00000000	23.71432000	5.89320800
188.89998896	0.00000000	23.71432000	5.15501900
189.09998895	0.00000000	23.71432000	4.82898600
189.29998894	0.00000000	23.71432000	5.15501900
189.49998893	0.00000000	23.71432000	5.89320800
189.69998891	0.00000000	23.71432000	6.26845500
189.89998890	0.00000000	23.71432000	6.31151500
190.09998889	0.00000000	23.71432000	6.31151500
190.29998888	0.00000000	23.71432000	6.31151500
190.49998887	0.00000000	23.71432000	6.31151500
190.69998885	0.00000000	23.71432000	6.31151500
190.89998884	0.00000000	23.71432000	6.31151500
191.09998883	0.00000000	23.71432000	6.31151500
191.29998882	0.00000000	23.71432000	6.31151500
191.49998881	0.00000000	23.71432000	6.31151500
191.69998880	0.00000000	23.71432000	6.31151500
191.89998878	0.00000000	23.71432000	6.31151500
192.09998877	0.00000000	23.71432000	6.31151500
192.29998876	0.00000000	23.71432000	6.31151500
192.49998875	0.00000000	23.71432000	6.26845500
192.69998874	0.00000000	23.71432000	5.93626900
192.89998872	0.00000000	23.71432000	5.57332700
193.09998871	0.00000000	23.71432000	5.93626900
193.29998870	0.00000000	23.71432000	6.26845500
193.49998869	0.00000000	23.71432000	6.31151500
193.69998868	0.00000000	23.71432000	6.31151500
193.89998866	0.00000000	23.71432000	6.31151500
194.09998865	0.00000000	23.71432000	6.31151500
194.29998864	0.00000000	23.71432000	6.31151500
194.49998863	0.00000000	23.71432000	6.31151500
194.69998862	0.00000000	23.71432000	6.31151500
194.89998861	0.00000000	23.71432000	6.31151500
195.09998859	0.00000000	23.71432000	6.31151500
195.29998858	0.00000000	23.71432000	6.31151500
195.49998857	0.00000000	23.71432000	6.31151500
195.69998856	0.00000000	23.71432000	6.31151500
195.89998855	0.00000000	23.71432000	6.31151500
196.09998853	0.00000000	23.67126000	6.31151500
