Time	Channel A	Channel B	Channel C
(us)	(V)	(mV)	(mV)

-4.49999956	0.00000000	30.87475000	9.84867000
-4.29999957	0.00000000	31.24384000	10.21161000
-4.09999958	0.00000000	31.57603000	9.84867000
-3.89999959	0.00000000	31.61909000	9.51648500
-3.69999960	0.00000000	31.61909000	9.47342500
-3.49999962	0.00000000	31.61909000	9.47342500
-3.29999963	0.00000000	31.61909000	9.47342500
-3.09999964	0.00000000	31.57603000	9.47342500
-2.89999965	0.00000000	31.24384000	9.47342500
-2.69999966	0.00000000	30.87475000	9.47342500
-2.49999968	0.00000000	31.24384000	9.47342500
-2.29999969	0.00000000	31.57603000	9.47342500
-2.09999970	0.00000000	31.61909000	9.47342500
-1.89999971	0.00000000	31.57603000	9.47342500
-1.69999972	0.00000000	31.24384000	9.47342500
-1.49999973	0.00000000	30.87475000	9.47342500
-1.29999975	0.00000000	31.24384000	9.47342500
-1.09999976	0.00000000	31.57603000	9.47342500
-0.89999977	0.00000000	31.61909000	9.47342500
-0.69999978	0.00000000	31.57603000	9.43036400
-0.49999979	0.00000000	31.24384000	9.09817800
-0.29999981	0.15871060	30.87475000	8.72908400
-0.09999982	0.63668800	31.24384000	9.09817800
0.10000017	0.95533960	31.52682000	9.43036400
0.30000016	0.95533960	31.20078000	9.47342500
0.50000015	0.79601380	30.45644000	9.47342500
0.70000013	0.47736220	30.13041000	9.47342500
0.90000012	-0.47736220	30.41338000	9.47342500
1.10000011	-1.43331700	30.82554000	9.47342500
1.30000010	-2.22994600	30.83169000	9.47342500
1.50000009	-2.70792300	31.24384000	9.47342500
1.70000008	-2.54859700	31.57603000	9.51648500
1.90000006	-1.43331700	31.61909000	9.89173200
2.10000005	0.31803640	31.61909000	10.58686000
2.30000004	2.38927200	31.61909000	10.58686000
2.50000003	4.30056600	31.61909000	9.89173200
2.70000002	5.25652100	31.61909000	9.51648500
2.90000000	4.93786900	31.61909000	9.47342500
3.09999999	3.18590100	31.57603000	9.43036400
3.29999998	0.31803640	31.20078000	9.05511800
3.49999997	-3.18590100	30.45644000	8.35998900
3.69999996	-6.21247500	30.08120000	8.35998900
3.89999994	-7.80511800	30.08120000	9.05511800
4.09999993	-7.64579200	30.45644000	9.43036400
4.29999992	-5.41584600	31.15157000	9.47342500
4.49999991	-1.59264300	31.20078000	9.47342500
4.69999990	2.86724900	30.87475000	9.47342500
4.89999989	6.84916400	31.20078000	9.47342500
5.09999987	9.23905000	31.15157000	9.43036400
5.29999986	9.23905000	30.45644000	9.05511800
5.49999985	7.00848900	30.08120000	8.35998900
5.69999984	2.86724900	30.03814000	8.35998900
5.89999983	-1.91129400	30.03814000	9.05511800
6.09999981	-6.21247500	30.08120000	9.47342500
6.29999980	-8.92039900	30.41338000	9.84867000
6.49999979	-9.39837600	30.82554000	10.21161000
6.69999978	-7.48646600	30.83169000	9.84867000
6.89999977	-3.82258900	31.24384000	9.51648500
7.09999975	0.47736220	31.57603000	9.47342500
7.29999974	4.45989200	31.57603000	9.47342500
7.49999973	7.16781500	31.24384000	9.47342500
7.69999972	7.80511800	30.83169000	9.47342500
7.89999971	6.53112700	30.82554000	9.47342500
8.09999970	3.82258900	30.41338000	9.47342500
8.29999968	0.47736220	30.08120000	9.47342500
8.49999967	-2.54859700	30.08120000	9.47342500
8.69999966	-4.45989200	30.45644000	9.47342500
8.89999965	-5.25652100	31.20078000	9.47342500
9.09999964	-4.45989200	31.52682000	9.47342500
9.29999962	-2.86724900	31.24384000	9.47342500
9.49999961	-0.95533960	30.87475000	9.47342500
9.69999960	0.95533960	31.20078000	9.47342500
9.89999959	2.07062000	31.15157000	9.47342500
10.09999958	2.54859700	30.50566000	9.47342500
10.29999956	2.22994600	30.45644000	9.47342500
10.49999955	1.43331700	30.78248000	9.47342500
10.69999954	0.63668800	30.41338000	9.47342500
10.89999953	-0.15871060	30.08120000	9.47342500
11.09999952	-0.63668800	30.03814000	9.47342500
11.29999951	-0.95533960	30.03814000	9.47342500
11.49999949	-0.95533960	30.03814000	9.47342500
11.69999948	-0.79601380	30.03814000	9.47342500
11.89999947	-0.47736220	30.03814000	9.47342500
12.09999946	-0.15871060	30.03814000	9.47342500
12.29999945	-0.15871060	30.03814000	9.47342500
12.49999943	0.00000000	30.03814000	9.47342500
12.69999942	0.00000000	30.03814000	9.47342500
12.89999941	0.00000000	30.08120000	9.47342500
13.09999940	0.00000000	30.41338000	9.47342500
13.29999939	0.00000000	30.78248000	9.47342500
13.49999937	0.00000000	30.45644000	9.47342500
13.69999936	0.00000000	30.45644000	9.47342500
13.89999935	0.00000000	30.78248000	9.47342500
14.09999934	-0.15871060	30.41338000	9.47342500
14.29999933	-0.15871060	30.13041000	9.47342500
14.49999932	-0.15871060	30.41338000	9.47342500
14.69999930	0.00000000	30.78248000	9.47342500
14.89999929	0.00000000	30.41338000	9.47342500
15.09999928	0.00000000	30.08120000	9.47342500
15.29999927	0.00000000	30.03814000	9.47342500
15.49999926	0.00000000	30.08120000	9.51648500
15.69999924	0.00000000	30.41338000	9.84867000
15.89999923	0.00000000	30.78248000	10.21161000
16.09999922	0.00000000	30.41338000	9.84867000
16.29999921	0.00000000	30.08120000	9.51648500
16.49999920	0.00000000	30.08120000	9.47342500
16.69999919	-0.15871060	30.45644000	9.47342500
16.89999917	-0.15871060	31.20078000	9.47342500
17.09999916	0.00000000	31.57603000	9.47342500
17.29999915	0.00000000	31.61909000	9.47342500
17.49999914	0.00000000	31.61909000	9.47342500
17.69999913	0.00000000	31.61909000	9.47342500
17.89999911	0.00000000	31.57603000	9.47342500
18.09999910	0.00000000	31.15157000	9.47342500
18.29999909	0.00000000	29.99508000	9.47342500
18.49999908	0.00000000	28.45718000	9.47342500
18.69999907	0.00000000	26.91929000	9.47342500
18.89999905	0.00000000	25.80585000	9.47342500
19.09999904	0.00000000	25.80585000	9.47342500
19.29999903	0.00000000	27.01156000	9.47342500
19.49999902	0.00000000	29.34301000	9.43036400
19.69999901	0.00000000	32.87401000	9.09817800
19.89999900	0.00000000	36.69414000	8.72908400
20.09999898	0.00000000	40.18209000	9.09817800
20.29999897	0.00000000	42.00295000	9.43036400
20.49999896	0.00000000	41.25246000	9.47342500
20.69999895	0.00000000	37.67839000	9.47342500
20.89999894	0.00000000	31.85285000	9.47342500
21.09999892	0.00000000	24.08957000	9.47342500
21.29999891	0.00000000	16.45546000	9.47342500
21.49999890	0.00000000	11.06053000	9.47342500
21.69999889	0.00000000	9.56569900	9.47342500
21.89999888	0.00000000	12.72761000	9.47342500
22.09999886	0.00000000	20.50320000	9.43036400
22.29999885	0.00000000	31.75443000	9.09817800
22.49999884	0.00000000	44.13755000	8.72908400
22.69999883	0.00000000	55.25959000	9.09817800
22.89999882	0.00000000	61.72490000	9.43036400
23.09999881	0.00000000	60.88828000	9.51648500
23.29999879	0.00000000	52.74360000	9.89173200
23.49999878	0.00000000	38.37352000	10.62992000
23.69999877	0.00000000	20.64468000	11.00517000
23.89999876	0.00000000	3.66633800	11.04823000
24.09999875	0.00000000	-8.24926100	11.00517000
24.29999873	0.00000000	-12.06324000	10.58686000
24.49999872	0.00000000	-6.20078700	9.42421200
24.69999871	0.00000000	8.54453700	7.89247000
24.89999870	0.00000000	29.38607000	6.36072800
25.09999869	0.00000000	51.76550000	5.15501900
25.29999867	0.00000000	69.86958000	4.40452700
25.49999866	0.00000000	79.54601000	4.08464600
25.69999865	0.00000000	78.29724000	5.29035400
25.89999864	0.00000000	65.91412000	7.93553100
26.09999863	0.00000000	44.69734000	11.09744000
26.29999862	0.00000000	19.99262000	14.62844000
26.49999860	0.00000000	-2.43602300	18.43627000
26.69999859	0.00000000	-17.87647000	20.99532000
26.89999858	0.00000000	-22.48400000	20.62008000
27.09999857	0.00000000	-15.18209000	17.14444000
27.29999856	0.00000000	2.22071800	11.70029000
27.49999854	0.00000000	25.76279000	4.64443900
27.69999853	0.00000000	50.09227000	-2.97736200
27.89999852	0.00000000	69.40821000	-9.10433000
28.09999851	0.00000000	79.50295000	-11.34350000
28.29999850	0.00000000	78.38336000	-9.06126900
28.49999848	0.00000000	66.79995000	-2.38065900
28.69999847	0.00000000	47.53321000	7.66486200
28.89999846	0.00000000	25.11073000	19.64198000
29.09999845	0.00000000	5.05044300	30.38263000
29.29999844	0.00000000	-8.56914300	37.34621000
29.49999843	0.00000000	-12.85679000	38.79183000
29.69999841	0.00000000	-7.96628900	33.72293000
29.89999840	0.00000000	4.40452700	22.53322000
30.09999839	0.00000000	21.06299000	7.84940900
30.29999838	0.00000000	38.84104000	-7.20349400
30.49999837	0.00000000	53.90625000	-19.55585000
30.69999835	0.00000000	62.51845000	-26.11343000
30.89999834	0.00000000	64.14247000	-25.69513000
31.09999833	0.00000000	59.11663000	-17.89493000
31.29999832	0.00000000	48.28371000	-3.58636800
31.49999831	0.00000000	34.41191000	14.11786000
31.69999829	0.00000000	20.45399000	31.07775000
31.89999828	0.00000000	9.56569900	43.06717000
32.09999827	0.00000000	3.37721400	47.80388000
32.29999826	0.00000000	3.01427100	45.06028000
32.49999825	0.00000000	9.10433000	35.34695000
32.69999824	0.00000000	19.06373000	19.88189000
32.89999822	0.00000000	29.95201000	2.13459600
33.09999821	0.00000000	40.04675000	-14.12401000
33.29999820	0.00000000	47.39788000	-25.65207000
33.49999819	0.00000000	50.51673000	-29.59522000
33.69999818	0.00000000	48.97884000	-25.32603000
33.89999816	0.00000000	43.20866000	-14.49311000
34.09999815	0.00000000	34.78716000	1.71013800
34.29999814	0.00000000	26.27337000	19.00221000
34.49999813	0.00000000	19.66043000	32.98474000
34.69999812	0.00000000	15.80339000	41.53543000
34.89999810	0.00000000	15.80339000	43.06717000
35.09999809	0.00000000	19.61737000	37.30315000
35.29999808	0.00000000	25.76279000	25.73203000
35.49999807	0.00000000	32.64640000	11.04823000
35.69999806	0.00000000	38.04749000	-3.58636800
35.89999805	0.00000000	40.42199000	-14.73302000
36.09999803	0.00000000	40.04675000	-19.37746000
36.29999802	0.00000000	36.97096000	-16.77534000
36.49999801	0.00000000	31.99434000	-8.36614100
36.69999800	0.00000000	27.01156000	3.19881900
36.89999799	0.00000000	23.10531000	15.18824000
37.09999797	0.00000000	21.19833000	25.17839000
37.29999796	0.00000000	21.57357000	30.52411000
37.49999795	0.00000000	24.31102000	29.40452000
37.69999794	0.00000000	28.87549000	22.57628000
37.89999793	0.00000000	33.90133000	12.62918000
38.09999791	0.00000000	37.72145000	2.63902500
38.29999790	0.00000000	39.71457000	-4.65059000
38.49999789	0.00000000	39.30241000	-7.34498000
38.69999788	0.00000000	37.02018000	-4.69980300
38.89999787	0.00000000	33.11393000	2.22071800
39.09999786	0.00000000	28.50024000	11.38041000
39.29999784	0.00000000	24.22490000	20.15871000
39.49999783	0.00000000	21.14911000	25.13533000
39.69999782	0.00000000	19.99262000	25.17839000
39.89999781	0.00000000	21.10605000	20.52780000
40.09999780	0.00000000	23.80659000	12.07554000
40.29999778	0.00000000	27.34375000	2.12844500
40.49999777	0.00000000	31.61909000	-6.23154500
40.69999776	0.00000000	35.85752000	-10.08243000
40.89999775	0.00000000	38.93332000	-8.23080600
41.09999774	0.00000000	40.13902000	-2.09768700
41.29999772	0.00000000	39.39468000	6.82209600
41.49999771	0.00000000	37.39542000	16.76919000
41.69999770	0.00000000	33.90133000	24.76009000
41.89999769	0.00000000	29.29995000	27.91584000
42.09999768	0.00000000	25.43061000	26.06422000
42.29999767	0.00000000	22.68701000	20.66314000
42.49999765	0.00000000	21.52436000	12.53691000
42.69999764	0.00000000	22.26870000	3.75246000
42.89999763	0.00000000	24.18184000	-3.16190900
43.09999762	0.00000000	26.87623000	-6.32381900
43.29999761	0.00000000	29.61983000	-5.62253900
43.49999759	0.00000000	31.95128000	-2.14074800
43.69999758	0.00000000	33.85827000	3.66633800
43.89999757	0.00000000	34.27657000	10.53765000
44.09999756	0.00000000	33.57529000	16.30167000
44.29999755	0.00000000	32.82480000	19.42052000
44.49999753	0.00000000	32.03740000	19.50664000
44.69999752	0.00000000	31.66215000	17.23056000
44.89999751	0.00000000	31.61909000	13.74262000
45.09999750	0.00000000	31.61909000	9.51648500
45.29999749	0.00000000	31.52682000	5.66560000
45.49999748	0.00000000	30.69020000	3.33415300
45.69999746	0.00000000	28.41412000	2.50369100
45.89999745	0.00000000	25.71358000	3.29109200
46.09999744	0.00000000	23.33907000	5.19808000
46.29999743	0.00000000	21.06299000	7.89247000
46.49999742	0.00000000	20.03568000	10.58686000
46.69999740	0.00000000	21.57357000	12.53691000
46.89999739	0.00000000	25.43061000	13.69956000
47.09999738	0.00000000	30.50566000	13.69956000
47.29999737	0.00000000	36.31890000	12.53691000
47.49999736	0.00000000	41.67076000	10.58686000
47.69999734	0.00000000	44.74655000	7.93553100
47.89999733	0.00000000	44.69734000	5.61638700
48.09999732	0.00000000	41.16019000	4.40452700
48.29999731	0.00000000	34.14124000	3.62327700
48.49999730	0.00000000	25.01230000	3.70939900
48.69999729	0.00000000	16.55389000	5.24729300
48.89999727	0.00000000	11.89099000	7.93553100
49.09999726	0.00000000	11.10359000	11.00517000
49.29999725	0.00000000	14.64075000	13.74262000
49.49999724	0.00000000	22.31176000	15.64960000
49.69999723	0.00000000	31.57603000	16.39395000
49.89999721	0.00000000	40.46506000	15.18824000
50.09999720	0.00000000	46.97957000	12.11860000
50.29999719	0.00000000	48.93578000	7.93553100
50.49999718	0.00000000	46.23523000	4.08464600
50.69999717	0.00000000	39.67150000	1.71013800
50.89999715	0.00000000	30.41338000	0.55364170
51.09999714	0.00000000	21.19833000	1.01501000
51.29999713	0.00000000	14.26550000	3.70939900
51.49999712	0.00000000	11.61417000	7.89247000
51.69999711	0.00000000	14.22244000	12.11860000
51.89999710	0.00000000	20.73080000	15.23130000
52.09999708	0.00000000	28.83243000	16.81225000
52.29999707	0.00000000	36.92790000	16.76919000
52.49999706	0.00000000	42.65502000	14.81299000
52.69999705	0.00000000	44.23597000	11.00517000
52.89999704	0.00000000	41.58464000	6.82209600
53.09999702	0.00000000	35.81446000	3.70939900
53.29999701	0.00000000	28.50640000	2.12844500
53.49999700	0.00000000	21.61663000	2.12844500
53.69999699	0.00000000	17.38435000	3.66633800
53.89999698	0.00000000	16.96604000	6.31151500
54.09999696	0.00000000	20.03568000	9.05511800
54.29999695	0.00000000	25.76279000	11.33735000
54.49999694	0.00000000	32.27116000	12.86294000
54.69999693	0.00000000	37.34621000	12.49385000
54.89999692	0.00000000	40.42199000	11.00517000
55.09999691	0.00000000	40.74188000	9.09817800
55.29999689	0.00000000	37.30315000	7.19734200
55.49999688	0.00000000	31.61909000	6.44685000
55.69999687	0.00000000	25.84892000	6.82209600
55.89999686	0.00000000	21.57357000	8.35383800
56.09999685	0.00000000	19.61737000	10.62992000
56.29999683	0.00000000	20.03568000	12.49385000
56.49999682	0.00000000	23.10531000	13.23819000
56.69999681	0.00000000	28.03888000	12.07554000
56.89999680	0.00000000	32.64640000	9.42421200
57.09999679	0.00000000	35.81446000	6.31151500
57.29999677	0.00000000	37.35236000	3.24803100
57.49999676	0.00000000	36.97712000	1.01501000
57.69999675	0.00000000	34.65182000	1.01501000
57.89999674	0.00000000	31.20078000	3.33415300
58.09999673	0.00000000	27.38681000	7.19734200
58.29999672	0.00000000	24.68627000	12.21087000
58.49999670	0.00000000	23.84965000	16.81225000
58.69999669	0.00000000	24.22490000	19.88189000
58.89999668	0.00000000	25.76279000	20.57702000
59.09999667	0.00000000	28.03888000	17.83957000
59.29999666	0.00000000	29.99508000	12.11860000
59.49999664	0.00000000	31.57603000	5.20423200
59.69999663	0.00000000	32.68946000	-0.93503930
59.89999662	0.00000000	32.68946000	-4.78592500
60.09999661	0.00000000	31.57603000	-5.20423200
60.29999660	0.00000000	30.08120000	-2.46678100
60.49999658	0.00000000	28.92470000	2.97121000
60.69999657	0.00000000	28.50024000	10.62992000
60.89999656	0.00000000	28.45718000	17.88263000
61.09999655	0.00000000	28.50024000	22.57628000
61.29999654	0.00000000	28.87549000	24.10802000
61.49999653	0.00000000	29.61983000	22.15797000
61.69999651	0.00000000	29.99508000	16.72613000
61.89999650	0.00000000	29.99508000	9.05511800
62.09999649	0.00000000	29.61983000	0.97194880
62.29999648	0.00000000	28.83243000	-5.16117100
62.49999647	0.00000000	28.08194000	-7.89862200
62.69999645	0.00000000	27.29453000	-6.74212600
62.89999644	0.00000000	26.96850000	-2.14074800
63.09999643	0.00000000	27.34375000	4.82898600
63.29999642	0.00000000	28.50024000	12.54306000
63.49999641	0.00000000	30.03814000	19.46358000
63.69999639	0.00000000	31.57603000	23.68971000
63.89999638	0.00000000	32.68946000	24.10802000
64.09999637	0.00000000	32.68946000	21.08760000
64.29999636	0.00000000	31.57603000	15.64960000
64.49999635	0.00000000	30.03814000	9.09817800
64.69999634	0.00000000	28.50024000	2.55290300
64.89999632	0.00000000	27.34375000	-2.09768700
65.09999631	0.00000000	26.91929000	-4.09079700
65.29999630	0.00000000	26.91929000	-3.71555100
65.49999629	0.00000000	27.34375000	-1.02116100
65.69999628	0.00000000	28.50024000	3.24803100
65.89999626	0.00000000	29.99508000	8.26771600
66.09999625	0.00000000	31.10851000	13.28125000
66.29999624	0.00000000	31.10851000	16.76919000
66.49999623	0.00000000	29.99508000	18.39321000
66.69999622	0.00000000	28.45718000	18.43627000
66.89999620	0.00000000	26.91929000	17.23056000
67.09999619	0.00000000	25.80585000	14.90526000
67.29999618	0.00000000	25.80585000	11.42347000
67.49999617	0.00000000	26.96850000	7.93553100
67.69999616	0.00000000	28.92470000	4.77977300
67.89999615	0.00000000	31.57603000	2.04232300
68.09999613	0.00000000	33.90133000	0.13533460
68.29999612	0.00000000	35.02707000	-0.65206690
68.49999611	0.00000000	35.01476000	0.13533460
68.69999610	0.00000000	33.02165000	2.08538400
68.89999609	0.00000000	29.61983000	5.24729300
69.09999607	0.00000000	25.71358000	9.47342500
69.29999606	0.00000000	22.26870000	13.74262000
69.49999605	0.00000000	19.94340000	17.23056000
69.69999604	0.00000000	19.61737000	19.50664000
69.89999603	0.00000000	21.57357000	19.50664000
70.09999601	0.00000000	25.80585000	17.18750000
70.29999600	0.00000000	31.20078000	13.32431000
70.49999599	0.00000000	36.23277000	8.26771600
70.69999598	0.00000000	40.08981000	3.29109200
70.89999597	0.00000000	41.58464000	-0.60285430
71.09999596	0.00000000	40.04675000	-2.50984200
71.29999594	0.00000000	35.81446000	-2.14074800
71.49999593	0.00000000	30.03814000	0.59670270
71.69999592	0.00000000	24.18184000	5.15501900
71.89999591	0.00000000	19.19906000	10.16855000
72.09999590	0.00000000	16.12943000	14.03174000
72.29999588	0.00000000	16.49852000	16.39395000
72.49999587	0.00000000	19.52510000	16.76919000
72.69999586	0.00000000	24.22490000	15.27436000
72.89999585	0.00000000	29.99508000	12.58612000
73.09999584	0.00000000	35.39001000	9.51648500
73.29999582	0.00000000	38.88410000	6.82209600
73.49999581	0.00000000	40.08981000	5.24729300
73.69999580	0.00000000	38.93332000	4.82898600
73.89999579	0.00000000	35.81446000	5.19808000
74.09999578	0.00000000	31.20078000	6.31151500
74.29999577	0.00000000	26.18110000	7.47416300
74.49999575	0.00000000	22.31176000	8.22465500
74.69999574	0.00000000	19.99262000	8.58759800
74.89999573	0.00000000	19.99262000	7.80019600
75.09999572	0.00000000	22.26870000	6.36072800
75.29999571	0.00000000	25.71358000	5.24729300
75.49999569	0.00000000	29.57062000	5.33341500
75.69999568	0.00000000	32.64640000	7.19734200
75.89999567	0.00000000	34.23351000	10.25467000
76.09999566	0.00000000	34.27657000	12.95522000
76.29999565	0.00000000	33.15699000	15.27436000
76.49999563	0.00000000	31.61909000	16.34473000
76.69999562	0.00000000	30.08120000	15.18824000
76.89999561	0.00000000	28.92470000	12.16166000
77.09999560	0.00000000	28.50024000	8.26771600
77.29999559	0.00000000	28.41412000	4.36146600
77.49999558	0.00000000	28.08194000	0.51058070
77.69999556	0.00000000	27.71284000	-2.09153500
77.89999555	0.00000000	28.03888000	-2.09153500
78.09999554	0.00000000	27.98966000	0.59670270
78.29999553	0.00000000	27.29453000	5.19808000
78.49999552	0.00000000	26.91929000	10.58686000
78.69999550	0.00000000	26.91929000	15.23130000
78.89999549	0.00000000	27.34375000	18.35015000
79.09999548	0.00000000	28.50024000	19.50664000
79.29999547	0.00000000	30.03814000	18.35015000
79.49999546	0.00000000	31.61909000	15.23130000
79.69999544	0.00000000	33.15699000	10.58686000
79.89999543	0.00000000	34.23351000	5.24729300
80.09999542	0.00000000	33.80905000	1.02116100
80.29999541	0.00000000	31.53297000	-0.97810030
80.49999540	0.00000000	28.50024000	-1.02116100
80.69999539	0.00000000	25.76279000	0.51058070
80.89999537	0.00000000	23.80659000	3.24803100
81.09999536	0.00000000	22.68701000	6.72982200
81.29999535	0.00000000	23.10531000	10.58686000
81.49999534	0.00000000	25.38755000	13.69956000
81.69999533	0.00000000	28.41412000	15.64960000
81.89999531	0.00000000	31.15157000	16.43701000
82.09999530	0.00000000	33.11393000	15.69882000
82.29999529	0.00000000	34.27657000	14.16092000
82.49999528	0.00000000	34.23351000	12.16781000
82.69999527	0.00000000	32.73868000	9.42421200
82.89999525	0.00000000	30.45644000	6.36072800
83.09999524	0.00000000	28.50024000	3.61712600
83.29999523	0.00000000	26.91929000	1.66707700
83.49999522	0.00000000	25.80585000	0.51058070
83.69999521	0.00000000	25.76279000	0.55364170
83.89999520	0.00000000	26.50098000	2.08538400
84.09999518	0.00000000	27.29453000	4.82283400
84.29999517	0.00000000	28.45718000	8.31077700
84.49999516	0.00000000	29.57062000	12.16166000
84.69999515	0.00000000	29.99508000	15.23130000
84.89999514	0.00000000	30.03814000	16.81225000
85.09999512	0.00000000	29.99508000	16.81225000
85.29999511	0.00000000	29.66289000	15.23130000
85.49999510	0.00000000	29.29380000	12.11860000
85.69999509	0.00000000	29.66289000	7.89247000
85.89999508	0.00000000	29.99508000	3.66633800
86.09999506	0.00000000	29.99508000	0.55364170
86.29999505	0.00000000	29.57062000	-0.97810030
86.49999504	0.00000000	28.50024000	-0.55979330
86.69999503	0.00000000	27.66978000	2.12844500
86.89999502	0.00000000	27.24532000	6.35457700
87.09999501	0.00000000	26.08883000	11.00517000
87.29999499	0.00000000	25.43061000	15.23130000
87.49999498	0.00000000	25.76279000	17.88263000
87.69999497	0.00000000	26.91929000	17.88263000
87.89999496	0.00000000	28.45718000	15.23130000
88.09999495	0.00000000	29.99508000	11.00517000
88.29999493	0.00000000	31.15157000	6.35457700
88.49999492	0.00000000	31.52682000	2.12844500
88.69999491	0.00000000	31.15157000	-0.51673230
88.89999490	0.00000000	30.03814000	-0.55979330
89.09999489	0.00000000	28.87549000	1.71013800
89.29999487	0.00000000	28.03888000	5.24729300
89.49999486	0.00000000	26.87623000	9.89173200
89.69999485	0.00000000	25.80585000	14.76993000
89.89999484	0.00000000	25.80585000	17.46432000
90.09999483	0.00000000	26.87623000	17.13829000
90.29999482	0.00000000	28.03888000	14.85605000
90.49999480	0.00000000	28.83243000	10.95595000
90.69999479	0.00000000	29.61983000	6.35457700
90.89999478	0.00000000	29.99508000	2.12844500
91.09999477	0.00000000	30.03814000	-0.51673230
91.29999476	0.00000000	29.99508000	-0.51673230
91.49999474	0.00000000	29.61983000	2.12844500
91.69999473	0.00000000	28.92470000	6.35457700
91.89999472	0.00000000	28.87549000	10.95595000
92.09999471	0.00000000	29.24459000	14.85605000
92.29999470	0.00000000	29.20767000	17.13829000
92.49999468	0.00000000	29.24459000	17.46432000
92.69999467	0.00000000	28.78937000	14.76993000
92.89999466	0.00000000	28.08194000	9.84867000
93.09999465	0.00000000	27.25147000	4.87204700
93.29999464	0.00000000	26.50098000	1.02116100
93.49999463	0.00000000	25.71358000	-0.51673230
93.69999461	0.00000000	25.38755000	0.59670270
93.89999460	0.00000000	25.80585000	3.66633800
94.09999459	0.00000000	27.34375000	7.89247000
94.29999458	0.00000000	29.61983000	12.07554000
94.49999457	0.00000000	31.57603000	14.81299000
94.69999455	0.00000000	33.11393000	15.60654000
94.89999454	0.00000000	33.85211000	14.81299000
95.09999453	0.00000000	33.06471000	12.07554000
95.29999452	0.00000000	31.15157000	7.93553100
95.49999451	0.00000000	28.41412000	4.08464600
95.69999449	0.00000000	25.33834000	1.75319900
95.89999448	0.00000000	22.64394000	0.97194880
96.09999447	0.00000000	21.10605000	2.17765700
96.29999446	0.00000000	21.10605000	5.19808000
96.49999445	0.00000000	22.68701000	9.00590400
96.69999444	0.00000000	25.76279000	12.07554000
96.89999442	0.00000000	29.61983000	13.65650000
97.09999441	0.00000000	33.11393000	13.69956000
97.29999440	0.00000000	35.85752000	12.53691000
97.49999439	0.00000000	37.30315000	10.58686000
97.69999438	0.00000000	36.55265000	7.93553100
97.89999436	0.00000000	33.48917000	5.66560000
98.09999435	0.00000000	29.66289000	4.82898600
98.29999434	0.00000000	25.71358000	4.77977300
98.49999433	0.00000000	22.26870000	5.19808000
98.69999432	0.00000000	19.94340000	6.31151500
98.89999430	0.00000000	19.56816000	7.47416300
99.09999429	0.00000000	21.06299000	8.26771600
99.29999428	0.00000000	23.80659000	9.05511800
99.49999427	0.00000000	27.29453000	9.43036400
99.69999426	0.00000000	31.15772000	9.47342500
99.89999425	0.00000000	34.23351000	9.51648500
100.09999423	0.00000000	35.81446000	9.89173200
100.29999422	0.00000000	35.81446000	10.62992000
100.49999421	0.00000000	34.27657000	10.95595000
100.69999420	0.00000000	31.57603000	10.58686000
100.89999419	0.00000000	28.50024000	9.42421200
101.09999417	0.00000000	25.76279000	7.89247000
101.29999416	0.00000000	23.80659000	6.31151500
101.49999415	0.00000000	22.64394000	4.77977300
101.69999414	0.00000000	22.64394000	3.62327700
101.89999413	0.00000000	23.75738000	3.29109200
102.09999411	0.00000000	25.33834000	4.08464600
102.29999410	0.00000000	27.29453000	6.40378900
102.49999409	0.00000000	29.61983000	9.42421200
102.69999408	0.00000000	31.52682000	12.16781000
102.89999407	0.00000000	32.68946000	14.07480000
103.09999406	0.00000000	32.68946000	14.81299000
103.29999404	0.00000000	31.57603000	13.65650000
103.49999403	0.00000000	30.03814000	11.00517000
103.69999402	0.00000000	28.45718000	7.93553100
103.89999401	0.00000000	26.87623000	5.19808000
104.09999400	0.00000000	25.33834000	3.24803100
104.29999398	0.00000000	24.22490000	2.08538400
104.49999397	0.00000000	24.22490000	2.12844500
104.69999396	0.00000000	25.33834000	3.66633800
104.89999395	0.00000000	26.87623000	6.36072800
105.09999394	0.00000000	28.45718000	9.42421200
105.29999392	0.00000000	29.99508000	12.11860000
105.49999391	0.00000000	31.10851000	13.61343000
105.69999390	0.00000000	31.15157000	13.28125000
105.89999389	0.00000000	30.41338000	11.38041000
106.09999388	0.00000000	29.61983000	9.09817800
106.29999387	0.00000000	28.41412000	6.72982200
106.49999385	0.00000000	26.91929000	4.82283400
106.69999384	0.00000000	25.80585000	3.66633800
106.89999383	0.00000000	25.76279000	3.70939900
107.09999382	0.00000000	26.54404000	5.19808000
107.29999381	0.00000000	27.66978000	7.47416300
107.49999379	0.00000000	29.20152000	9.42421200
107.69999378	0.00000000	29.94586000	10.96211000
107.89999377	0.00000000	29.99508000	11.70029000
108.09999376	0.00000000	29.57062000	10.96211000
108.29999375	0.00000000	28.45718000	9.47342500
108.49999374	0.00000000	27.29453000	7.89247000
108.69999372	0.00000000	26.50098000	6.36072800
108.89999371	0.00000000	25.76279000	5.24729300
109.09999370	0.00000000	25.76279000	5.24729300
109.29999369	0.00000000	26.50098000	6.36072800
109.49999368	0.00000000	27.29453000	7.84940900
109.69999366	0.00000000	28.45718000	9.05511800
109.89999365	0.00000000	29.57062000	9.84867000
110.09999364	0.00000000	29.94586000	10.62992000
110.29999363	0.00000000	29.61983000	10.95595000
110.49999362	0.00000000	28.83243000	10.58686000
110.69999360	0.00000000	28.08194000	9.42421200
110.89999359	0.00000000	27.25147000	7.89247000
111.09999358	0.00000000	26.50098000	6.36072800
111.29999357	0.00000000	25.76279000	5.19808000
111.49999356	0.00000000	25.76279000	4.82898600
111.69999355	0.00000000	26.50098000	5.15501900
111.89999353	0.00000000	27.25147000	5.93626900
112.09999352	0.00000000	28.03888000	6.72982200
112.29999351	0.00000000	28.41412000	7.89247000
112.49999350	0.00000000	28.45718000	9.00590400
112.69999349	0.00000000	28.45718000	9.43036400
112.89999347	0.00000000	28.45718000	9.47342500
113.09999346	0.00000000	28.45718000	9.43036400
113.29999345	0.00000000	28.45718000	9.05511800
113.49999344	0.00000000	28.41412000	8.31077700
113.69999343	0.00000000	27.98966000	7.93553100
113.89999341	0.00000000	26.91929000	7.84940900
114.09999340	0.00000000	26.18110000	7.51722400
114.29999339	0.00000000	26.54404000	7.10506800
114.49999338	0.00000000	27.25147000	7.09891700
114.69999337	0.00000000	28.03888000	6.68676100
114.89999336	0.00000000	28.36491000	6.35457700
115.09999334	0.00000000	28.08194000	6.31151500
115.29999333	0.00000000	27.71284000	6.35457700
115.49999332	0.00000000	28.08194000	6.72982200
115.69999331	0.00000000	28.41412000	7.51722400
115.89999330	0.00000000	28.41412000	8.26771600
116.09999328	0.00000000	28.03888000	9.05511800
116.29999327	0.00000000	27.29453000	9.43036400
116.49999326	0.00000000	26.91929000	9.47342500
116.69999325	0.00000000	26.87623000	9.47342500
116.89999324	0.00000000	26.91929000	9.43036400
117.09999322	0.00000000	27.29453000	9.00590400
117.29999321	0.00000000	28.03888000	7.89247000
117.49999320	0.00000000	28.41412000	6.72982200
117.69999319	0.00000000	28.50024000	5.98548200
117.89999318	0.00000000	28.87549000	5.57332700
118.09999317	0.00000000	29.57062000	5.98548200
118.29999315	0.00000000	29.57062000	6.68676100
118.49999314	0.00000000	28.78937000	7.47416300
118.69999313	0.00000000	27.66363000	7.89247000
118.89999312	0.00000000	26.13189000	8.31077700
119.09999311	0.00000000	25.38755000	9.05511800
119.29999309	0.00000000	25.29527000	9.43036400
119.49999308	0.00000000	25.33834000	9.47342500
119.69999307	0.00000000	25.76279000	9.43036400
119.89999306	0.00000000	26.87623000	9.05511800
120.09999305	0.00000000	28.03888000	8.31077700
120.29999303	0.00000000	28.83243000	7.89247000
120.49999302	0.00000000	29.66289000	7.47416300
120.69999301	0.00000000	30.37032000	6.72982200
120.89999300	0.00000000	30.73326000	6.35457700
121.09999299	0.00000000	29.94586000	6.31151500
121.29999298	0.00000000	28.50024000	6.31151500
121.49999296	0.00000000	27.29453000	6.35457700
121.69999295	0.00000000	26.45792000	6.72982200
121.89999294	0.00000000	25.33834000	7.47416300
122.09999293	0.00000000	24.60015000	7.89247000
122.29999292	0.00000000	24.96309000	8.31077700
122.49999290	0.00000000	25.71358000	9.05511800
122.69999289	0.00000000	26.87623000	9.43036400
122.89999288	0.00000000	28.03888000	9.47342500
123.09999287	0.00000000	28.83243000	9.47342500
123.29999286	0.00000000	29.61983000	9.43036400
123.49999284	0.00000000	29.99508000	9.05511800
123.69999283	0.00000000	29.99508000	8.26771600
123.89999282	0.00000000	29.61983000	7.51722400
124.09999281	0.00000000	28.83243000	6.72982200
124.29999280	0.00000000	28.08194000	6.35457700
124.49999279	0.00000000	27.25147000	6.31151500
124.69999277	0.00000000	26.50098000	6.35457700
124.89999276	0.00000000	25.71358000	6.72982200
125.09999275	0.00000000	25.33834000	7.47416300
125.29999274	0.00000000	25.33834000	7.89247000
125.49999273	0.00000000	25.71358000	8.31077700
125.69999271	0.00000000	26.50098000	9.05511800
125.89999270	0.00000000	27.29453000	9.43036400
126.09999269	0.00000000	28.45718000	9.43036400
126.29999268	0.00000000	29.57062000	9.05511800
126.49999267	0.00000000	29.99508000	8.31077700
126.69999265	0.00000000	29.99508000	7.93553100
126.89999264	0.00000000	29.61983000	7.84940900
127.09999263	0.00000000	28.83243000	7.47416300
127.29999262	0.00000000	28.03888000	6.72982200
127.49999261	0.00000000	26.87623000	6.40378900
127.69999260	0.00000000	25.76279000	6.72982200
127.89999258	0.00000000	25.33834000	7.47416300
128.09999257	0.00000000	25.33834000	7.89247000
128.29999256	0.00000000	25.76279000	8.26771600
128.49999255	0.00000000	26.91929000	8.67987200
128.69999254	0.00000000	28.41412000	8.64296200
128.89999252	0.00000000	29.57062000	8.67987200
129.09999251	0.00000000	29.99508000	8.26771600
129.29999250	0.00000000	29.99508000	7.93553100
129.49999249	0.00000000	29.57062000	7.84940900
129.69999248	0.00000000	28.41412000	7.51722400
129.89999246	0.00000000	26.91929000	7.14812900
130.09999245	0.00000000	25.76279000	7.51722400
130.29999244	0.00000000	25.33834000	7.84940900
130.49999243	0.00000000	25.33834000	7.89247000
130.69999242	0.00000000	25.71358000	7.89247000
130.89999241	0.00000000	26.50098000	7.89247000
131.09999239	0.00000000	27.25147000	7.89247000
131.29999238	0.00000000	28.08194000	7.89247000
131.49999237	0.00000000	28.78937000	7.84940900
131.69999236	0.00000000	29.20152000	7.51722400
131.89999235	0.00000000	28.78937000	7.10506800
132.09999233	0.00000000	28.08194000	7.09891700
132.29999232	0.00000000	27.29453000	6.68676100
132.49999231	0.00000000	26.91929000	6.40378900
132.69999230	0.00000000	26.87623000	6.72982200
132.89999229	0.00000000	26.87623000	7.51722400
133.09999227	0.00000000	26.87623000	8.26771600
133.29999226	0.00000000	26.87623000	9.05511800
133.49999225	0.00000000	26.91929000	9.43036400
133.69999224	0.00000000	27.25147000	9.47342500
133.89999223	0.00000000	27.62057000	9.47342500
134.09999222	0.00000000	27.25147000	9.43036400
134.29999220	0.00000000	26.91929000	9.00590400
134.49999219	0.00000000	26.87623000	7.89247000
134.69999218	0.00000000	26.91929000	6.72982200
134.89999217	0.00000000	27.29453000	5.98548200
135.09999216	0.00000000	28.03888000	5.57332700
135.29999214	0.00000000	28.41412000	5.93626900
135.49999213	0.00000000	28.41412000	6.31151500
135.69999212	0.00000000	28.03888000	6.72982200
135.89999211	0.00000000	27.29453000	7.51722400
136.09999210	0.00000000	26.87623000	8.26771600
136.29999208	0.00000000	26.50098000	9.05511800
136.49999207	0.00000000	26.08883000	9.38115100
136.69999206	0.00000000	26.12574000	9.05511800
136.89999205	0.00000000	26.08883000	8.31077700
137.09999204	0.00000000	26.54404000	7.89247000
137.29999203	0.00000000	27.25147000	7.47416300
137.49999201	0.00000000	28.03888000	6.72982200
137.69999200	0.00000000	28.41412000	6.35457700
137.89999199	0.00000000	28.45718000	6.31151500
138.09999198	0.00000000	28.41412000	6.31151500
138.29999197	0.00000000	28.03888000	6.31151500
138.49999195	0.00000000	27.25147000	6.35457700
138.69999194	0.00000000	26.50098000	6.72982200
138.89999193	0.00000000	25.71358000	7.51722400
139.09999192	0.00000000	25.33834000	8.22465500
139.29999191	0.00000000	25.33834000	8.67987200
139.49999189	0.00000000	25.71358000	8.68602300
139.69999188	0.00000000	26.50098000	9.05511800
139.89999187	0.00000000	27.25147000	9.00590400
140.09999186	0.00000000	28.03888000	8.26771600
140.29999185	0.00000000	28.41412000	7.51722400
140.49999184	0.00000000	28.41412000	6.72982200
140.69999182	0.00000000	28.03888000	6.35457700
140.89999181	0.00000000	27.29453000	6.31151500
141.09999180	0.00000000	26.91929000	6.31151500
141.29999179	0.00000000	26.87623000	6.35457700
141.49999178	0.00000000	26.87623000	6.72982200
141.69999176	0.00000000	26.87623000	7.51722400
141.89999175	0.00000000	26.91929000	8.26771600
142.09999174	0.00000000	27.25147000	9.05511800
142.29999173	0.00000000	27.66363000	9.43036400
142.49999172	0.00000000	27.62672000	9.43036400
142.69999170	0.00000000	27.66363000	9.05511800
142.89999169	0.00000000	27.25147000	8.26771600
143.09999168	0.00000000	26.91929000	7.51722400
143.29999167	0.00000000	26.87623000	6.72982200
143.49999166	0.00000000	26.87623000	6.35457700
143.69999165	0.00000000	26.87623000	6.31151500
143.89999163	0.00000000	26.87623000	6.31151500
144.09999162	0.00000000	26.87623000	6.35457700
144.29999161	0.00000000	26.91929000	6.72982200
144.49999160	0.00000000	27.29453000	7.51722400
144.69999159	0.00000000	28.03888000	8.26771600
144.89999157	0.00000000	28.41412000	9.05511800
145.09999156	0.00000000	28.41412000	9.38115100
145.29999155	0.00000000	28.03888000	9.05511800
145.49999154	0.00000000	27.29453000	8.31077700
145.69999153	0.00000000	26.91929000	7.89247000
145.89999151	0.00000000	26.87623000	7.47416300
146.09999150	0.00000000	26.87623000	6.72982200
146.29999149	0.00000000	26.87623000	6.35457700
146.49999148	0.00000000	26.87623000	6.31151500
146.69999147	0.00000000	26.87623000	6.31151500
146.89999146	0.00000000	26.91929000	6.35457700
147.09999144	0.00000000	27.29453000	6.72982200
147.29999143	0.00000000	27.98966000	7.47416300
147.49999142	0.00000000	27.98966000	7.89247000
147.69999141	0.00000000	27.29453000	8.26771600
147.89999140	0.00000000	26.91929000	8.63681000
148.09999138	0.00000000	26.83317000	8.26771600
148.29999137	0.00000000	26.50098000	7.93553100
148.49999136	0.00000000	26.13189000	7.89247000
148.69999135	0.00000000	26.50098000	7.84940900
148.89999134	0.00000000	26.83317000	7.47416300
149.09999132	0.00000000	26.87623000	6.72982200
149.29999131	0.00000000	26.87623000	6.35457700
149.49999130	0.00000000	26.91929000	6.35457700
149.69999129	0.00000000	27.29453000	6.72982200
149.89999128	0.00000000	27.98966000	7.47416300
150.09999127	0.00000000	27.98966000	7.84940900
150.29999125	0.00000000	27.25147000	7.89247000
150.49999124	0.00000000	26.54404000	7.89247000
150.69999123	0.00000000	26.13189000	7.89247000
150.89999122	0.00000000	26.45792000	7.89247000
151.09999121	0.00000000	26.45792000	7.89247000
151.29999119	0.00000000	26.13189000	7.89247000
151.49999118	0.00000000	26.50098000	7.84940900
151.69999117	0.00000000	26.83317000	7.51722400
151.89999116	0.00000000	26.87623000	7.10506800
152.09999115	0.00000000	26.87623000	7.09891700
152.29999113	0.00000000	26.87623000	6.72982200
152.49999112	0.00000000	26.91929000	6.77903500
152.69999111	0.00000000	27.29453000	7.42495000
152.89999110	0.00000000	27.98966000	7.47416300
153.09999109	0.00000000	27.98966000	7.14812900
153.29999108	0.00000000	27.29453000	7.51722400
153.49999106	0.00000000	26.91929000	7.84940900
153.69999105	0.00000000	26.83317000	7.89247000
153.89999104	0.00000000	26.45792000	7.89247000
154.09999103	0.00000000	25.71358000	7.89247000
154.29999102	0.00000000	25.33834000	7.89247000
154.49999100	0.00000000	25.33834000	7.89247000
154.69999099	0.00000000	25.71358000	7.84940900
154.89999098	0.00000000	26.45792000	7.47416300
155.09999097	0.00000000	26.83317000	6.72982200
155.29999096	0.00000000	26.91929000	6.35457700
155.49999094	0.00000000	27.25147000	6.35457700
155.69999093	0.00000000	27.62057000	6.72982200
155.89999092	0.00000000	27.25147000	7.47416300
156.09999091	0.00000000	26.91929000	7.84940900
156.29999090	0.00000000	26.87623000	7.89247000
156.49999089	0.00000000	26.87623000	7.89247000
156.69999087	0.00000000	26.83317000	7.89247000
156.89999086	0.00000000	26.45792000	7.89247000
157.09999085	0.00000000	25.71358000	7.89247000
157.29999084	0.00000000	25.33834000	7.89247000
157.49999083	0.00000000	25.33834000	7.89247000
157.69999081	0.00000000	25.71358000	7.89247000
157.89999080	0.00000000	26.45792000	7.84940900
158.09999079	0.00000000	26.83317000	7.47416300
158.29999078	0.00000000	26.91929000	6.72982200
158.49999077	0.00000000	27.29453000	6.35457700
158.69999075	0.00000000	27.98966000	6.35457700
158.89999074	0.00000000	27.98966000	6.72982200
159.09999073	0.00000000	27.29453000	7.47416300
159.29999072	0.00000000	26.87623000	7.84940900
159.49999071	0.00000000	26.45792000	7.89247000
159.69999070	0.00000000	25.71358000	7.89247000
159.89999068	0.00000000	25.33834000	7.89247000
160.09999067	0.00000000	25.33834000	7.89247000
160.29999066	0.00000000	25.71358000	7.89247000
160.49999065	0.00000000	26.45792000	7.89247000
160.69999064	0.00000000	26.83317000	7.84940900
160.89999062	0.00000000	26.87623000	7.47416300
161.09999061	0.00000000	26.87623000	6.72982200
161.29999060	0.00000000	26.87623000	6.35457700
161.49999059	0.00000000	26.87623000	6.35457700
161.69999058	0.00000000	26.87623000	6.72982200
161.89999056	0.00000000	26.87623000	7.47416300
162.09999055	0.00000000	26.87623000	7.84940900
162.29999054	0.00000000	26.87623000	7.89247000
162.49999053	0.00000000	26.87623000	7.89247000
162.69999052	0.00000000	26.87623000	7.89247000
162.89999051	0.00000000	26.83317000	7.89247000
163.09999049	0.00000000	26.40871000	7.89247000
163.29999048	0.00000000	25.33834000	7.89247000
163.49999047	0.00000000	24.60015000	7.84940900
163.69999046	0.00000000	24.92003000	7.51722400
163.89999045	0.00000000	25.29527000	7.10506800
164.09999043	0.00000000	25.71358000	7.09891700
164.29999042	0.00000000	26.45792000	6.68676100
164.49999041	0.00000000	26.83317000	6.35457700
164.69999040	0.00000000	26.87623000	6.35457700
164.89999039	0.00000000	26.87623000	6.72982200
165.09999037	0.00000000	26.87623000	7.47416300
165.29999036	0.00000000	26.87623000	7.84940900
165.49999035	0.00000000	26.87623000	7.89247000
165.69999034	0.00000000	26.87623000	7.89247000
165.89999033	0.00000000	26.83317000	7.89247000
166.09999032	0.00000000	26.45792000	7.89247000
166.29999030	0.00000000	25.71358000	7.89247000
166.49999029	0.00000000	25.33834000	7.89247000
166.69999028	0.00000000	25.33834000	7.89247000
166.89999027	0.00000000	25.67052000	7.89247000
167.09999026	0.00000000	26.08268000	7.89247000
167.29999024	0.00000000	26.08883000	7.84940900
167.49999023	0.00000000	26.50098000	7.47416300
167.69999022	0.00000000	26.83317000	6.77903500
167.89999021	0.00000000	26.87623000	6.77903500
168.09999020	0.00000000	26.87623000	7.47416300
168.29999018	0.00000000	26.87623000	7.84940900
168.49999017	0.00000000	26.87623000	7.84940900
168.69999016	0.00000000	26.87623000	7.51722400
168.89999015	0.00000000	26.87623000	7.14812900
169.09999014	0.00000000	26.87623000	7.51722400
169.29999013	0.00000000	26.87623000	7.84940900
169.49999011	0.00000000	26.83317000	7.89247000
169.69999010	0.00000000	26.50098000	7.89247000
169.89999009	0.00000000	26.08883000	7.89247000
170.09999008	0.00000000	26.12574000	7.89247000
170.29999007	0.00000000	26.08883000	7.89247000
170.49999005	0.00000000	26.50098000	7.89247000
170.69999004	0.00000000	26.83317000	7.84940900
170.89999003	0.00000000	26.87623000	7.47416300
171.09999002	0.00000000	26.87623000	6.77903500
171.29999001	0.00000000	26.87623000	6.72982200
171.49998999	0.00000000	26.87623000	7.05585600
171.69998998	0.00000000	26.87623000	6.72982200
171.89998997	0.00000000	26.87623000	6.72982200
172.09998996	0.00000000	26.87623000	7.05585600
172.29998995	0.00000000	26.87623000	6.68676100
172.49998994	0.00000000	26.83317000	6.40378900
172.69998992	0.00000000	26.50098000	6.72982200
172.89998991	0.00000000	26.08883000	7.47416300
173.09998990	0.00000000	26.12574000	7.84940900
173.29998989	0.00000000	26.08883000	7.89247000
173.49998988	0.00000000	26.50098000	7.84940900
173.69998986	0.00000000	26.83317000	7.47416300
173.89998985	0.00000000	26.87623000	6.72982200
174.09998984	0.00000000	26.83317000	6.40378900
174.29998983	0.00000000	26.50098000	6.72982200
174.49998982	0.00000000	26.13189000	7.42495000
174.69998980	0.00000000	26.50098000	7.42495000
174.89998979	0.00000000	26.83317000	6.72982200
175.09998978	0.00000000	26.87623000	6.35457700
175.29998977	0.00000000	26.87623000	6.35457700
175.49998976	0.00000000	26.83317000	6.72982200
175.69998975	0.00000000	26.45792000	7.47416300
175.89998973	0.00000000	25.76279000	7.84940900
176.09998972	0.00000000	25.76279000	7.89247000
176.29998971	0.00000000	26.45792000	7.89247000
176.49998970	0.00000000	26.83317000	7.89247000
176.69998969	0.00000000	26.87623000	7.89247000
176.89998967	0.00000000	26.87623000	7.89247000
177.09998966	0.00000000	26.87623000	7.89247000
177.29998965	0.00000000	26.87623000	7.89247000
177.49998964	0.00000000	26.87623000	7.84940900
177.69998963	0.00000000	26.87623000	7.47416300
177.89998961	0.00000000	26.83317000	6.72982200
178.09998960	0.00000000	26.50098000	6.40378900
178.29998959	0.00000000	26.08883000	6.72982200
178.49998958	0.00000000	26.12574000	7.47416300
178.69998957	0.00000000	26.08883000	7.84940900
178.89998956	0.00000000	26.45792000	7.89247000
179.09998954	0.00000000	26.45792000	7.89247000
179.29998953	0.00000000	26.13189000	7.84940900
179.49998952	0.00000000	26.50098000	7.51722400
179.69998951	0.00000000	26.78395000	7.10506800
179.89998950	0.00000000	26.45792000	7.09891700
180.09998948	0.00000000	25.76279000	6.68676100
180.29998947	0.00000000	25.71358000	6.35457700
180.49998946	0.00000000	26.03961000	6.31151500
180.69998945	0.00000000	25.67052000	6.31151500
180.89998944	0.00000000	25.38755000	6.35457700
181.09998942	0.00000000	25.67052000	6.72982200
181.29998941	0.00000000	26.03961000	7.47416300
181.49998940	0.00000000	25.67052000	7.84940900
181.69998939	0.00000000	25.33834000	7.89247000
181.89998938	0.00000000	25.29527000	7.89247000
182.09998937	0.00000000	25.33834000	7.89247000
182.29998935	0.00000000	25.71358000	7.89247000
182.49998934	0.00000000	26.45792000	7.84940900
182.69998933	0.00000000	26.78395000	7.47416300
182.89998932	0.00000000	26.50098000	6.72982200
183.09998931	0.00000000	26.08883000	6.35457700
183.29998929	0.00000000	26.08268000	6.31151500
183.49998928	0.00000000	25.67052000	6.31151500
183.69998927	0.00000000	25.33834000	6.35457700
183.89998926	0.00000000	25.29527000	6.72982200
184.09998925	0.00000000	25.29527000	7.47416300
184.29998923	0.00000000	25.29527000	7.84940900
184.49998922	0.00000000	25.29527000	7.89247000
184.69998921	0.00000000	25.29527000	7.89247000
184.89998920	0.00000000	25.29527000	7.89247000
185.09998919	0.00000000	25.29527000	7.89247000
185.29998918	0.00000000	25.33834000	7.84940900
185.49998916	0.00000000	25.71358000	7.47416300
185.69998915	0.00000000	26.45792000	6.72982200
185.89998914	0.00000000	26.83317000	6.35457700
186.09998913	0.00000000	26.87623000	6.31151500
186.29998912	0.00000000	26.83317000	6.31151500
186.49998910	0.00000000	26.45792000	6.31151500
186.69998909	0.00000000	25.71358000	6.31151500
186.89998908	0.00000000	25.33834000	6.35457700
187.09998907	0.00000000	25.29527000	6.72982200
187.29998906	0.00000000	25.29527000	7.47416300
187.49998904	0.00000000	25.29527000	7.84940900
187.69998903	0.00000000	25.29527000	7.89247000
187.89998902	0.00000000	25.29527000	7.89247000
188.09998901	0.00000000	25.29527000	7.84940900
188.29998900	0.00000000	25.33834000	7.51722400
188.49998899	0.00000000	25.67052000	7.10506800
188.69998897	0.00000000	26.08268000	7.09891700
188.89998896	0.00000000	26.04577000	6.68676100
189.09998895	0.00000000	26.12574000	6.35457700
189.29998894	0.00000000	26.04577000	6.31151500
189.49998893	0.00000000	26.08268000	6.31151500
189.69998891	0.00000000	25.67052000	6.31151500
189.89998890	0.00000000	25.33834000	6.31151500
190.09998889	0.00000000	25.29527000	6.35457700
190.29998888	0.00000000	25.29527000	6.72982200
190.49998887	0.00000000	25.29527000	7.47416300
190.69998885	0.00000000	25.29527000	7.84940900
190.89998884	0.00000000	25.29527000	7.89247000
191.09998883	0.00000000	25.33834000	7.84940900
191.29998882	0.00000000	25.71358000	7.47416300
191.49998881	0.00000000	26.45792000	6.72982200
191.69998880	0.00000000	26.78395000	6.35457700
191.89998878	0.00000000	26.50098000	6.31151500
192.09998877	0.00000000	26.08883000	6.31151500
192.29998876	0.00000000	26.08268000	6.31151500
192.49998875	0.00000000	25.67052000	6.31151500
192.69998874	0.00000000	25.33834000	6.31151500
192.89998872	0.00000000	25.29527000	6.31151500
193.09998871	0.00000000	25.29527000	6.35457700
193.29998870	0.00000000	25.29527000	6.72982200
193.49998869	0.00000000	25.29527000	7.47416300
193.69998868	0.00000000	25.29527000	7.84940900
193.89998866	0.00000000	25.29527000	7.89247000
194.09998865	0.00000000	25.29527000	7.89247000
194.29998864	0.00000000	25.33834000	7.89247000
194.49998863	0.00000000	25.71358000	7.89247000
194.69998862	0.00000000	26.45792000	7.89247000
194.89998861	0.00000000	26.78395000	7.84940900
195.09998859	0.00000000	26.45792000	7.47416300
195.29998858	0.00000000	25.71358000	6.72982200
195.49998857	0.00000000	25.33834000	6.35457700
195.69998856	0.00000000	25.29527000	6.31151500
195.89998855	0.00000000	25.29527000	6.31151500
196.09998853	0.00000000	25.33834000	6.35457700
