Time	Channel A	Channel B	Channel C
(us)	(V)	(mV)	(mV)

-4.59999956	0.00000000	80.64099000	32.68946000
-4.39999957	0.00000000	80.64099000	31.99434000
-4.19999958	0.00000000	80.64099000	31.61909000
-3.99999959	0.00000000	80.64099000	31.57603000
-3.79999960	0.00000000	80.64099000	31.57603000
-3.59999962	0.00000000	80.64099000	31.57603000
-3.39999963	0.00000000	80.64099000	31.57603000
-3.19999964	0.00000000	80.64099000	31.61909000
-2.99999965	0.00000000	80.64099000	31.95128000
-2.79999966	0.00000000	80.64099000	32.32037000
-2.59999968	0.00000000	80.64099000	31.95128000
-2.39999969	0.00000000	80.64099000	31.61909000
-2.19999970	0.00000000	80.64099000	31.57603000
-1.99999971	0.00000000	80.64099000	31.57603000
-1.79999972	0.00000000	80.64099000	31.61909000
-1.59999973	0.00000000	80.64099000	31.99434000
-1.39999975	0.00000000	80.64099000	32.73868000
-1.19999976	0.00000000	80.64099000	33.11393000
-0.99999977	0.00000000	80.64099000	33.15699000
-0.79999978	0.00000000	80.64099000	33.15699000
-0.59999979	0.00000000	80.64099000	33.15699000
-0.39999981	0.15871060	80.64099000	33.15699000
-0.19999982	0.47736220	80.64099000	33.15699000
0.00000017	0.79601380	80.68405000	33.11393000
0.20000016	1.11466500	81.01624000	32.78174000
0.40000015	0.95533960	81.38533000	32.41265000
0.60000013	0.47736220	81.01624000	32.73868000
0.80000012	-0.31803640	80.68405000	32.73868000
1.00000011	-1.27399100	80.64099000	32.41265000
1.20000010	-2.07062000	80.68405000	32.78174000
1.40000009	-2.70792300	81.01624000	33.11393000
1.60000008	-2.70792300	81.38533000	33.15699000
1.80000006	-1.75196900	81.01624000	33.15699000
2.00000005	0.00000000	80.68405000	33.15699000
2.20000004	2.07062000	80.64099000	33.15699000
2.40000003	3.98191400	80.64099000	33.11393000
2.60000002	5.25652100	80.64099000	32.73868000
2.80000000	5.09719500	80.64099000	31.99434000
2.99999999	3.66326300	80.64099000	31.61909000
3.19999998	0.95533960	80.64099000	31.57603000
3.39999997	-2.54859700	80.64099000	31.61909000
3.59999996	-5.73449800	80.64099000	31.99434000
3.79999994	-7.64579200	80.64099000	32.73868000
3.99999993	-7.80511800	80.64099000	33.11393000
4.19999992	-5.89382400	80.64099000	33.15699000
4.39999991	-2.38927200	80.64099000	33.15699000
4.59999990	2.07062000	80.64099000	33.15699000
4.79999989	6.21247500	80.64099000	33.11393000
4.99999987	8.92039900	80.64099000	32.73868000
5.19999986	9.39837600	80.64099000	31.99434000
5.39999985	7.64579200	80.64099000	31.61909000
5.59999984	3.66326300	80.64099000	31.57603000
5.79999983	-0.95533960	80.64099000	31.57603000
5.99999981	-5.41584600	80.64099000	31.61909000
6.19999980	-8.60174700	80.64099000	31.99434000
6.39999979	-9.55770200	80.64099000	32.73868000
6.59999978	-7.96444400	80.64099000	33.11393000
6.79999977	-4.61921700	80.64099000	33.15699000
6.99999975	-0.31803640	80.64099000	33.11393000
7.19999974	3.82258900	80.64099000	32.73868000
7.39999973	6.69045300	80.64099000	31.99434000
7.59999972	7.80511800	80.64099000	31.61909000
7.79999971	6.84916400	80.64099000	31.57603000
7.99999970	4.30056600	80.64099000	31.57603000
8.19999968	1.11466500	80.64099000	31.57603000
8.39999967	-2.07062000	80.64099000	31.57603000
8.59999966	-4.30056600	80.64099000	31.57603000
8.79999965	-5.25652100	80.64099000	31.61909000
8.99999964	-4.77854300	80.64099000	31.95128000
9.19999962	-3.34522600	80.64099000	32.36343000
9.39999961	-1.27399100	80.64099000	32.32653000
9.59999960	0.63668800	80.64099000	32.36343000
9.79999959	1.91129400	80.64099000	31.95128000
9.99999958	2.54859700	80.64099000	31.61909000
10.19999956	2.38927200	80.64099000	31.57603000
10.39999955	1.75196900	80.64099000	31.57603000
10.59999954	0.79601380	80.64099000	31.57603000
10.79999953	0.00000000	80.64099000	31.57603000
10.99999952	-0.63668800	80.64099000	31.57603000
11.19999951	-0.95533960	80.64099000	31.57603000
11.39999949	-0.95533960	80.64099000	31.57603000
11.59999948	-0.79601380	80.64099000	31.57603000
11.79999947	-0.47736220	80.64099000	31.57603000
11.99999946	-0.15871060	80.64099000	31.57603000
12.19999945	-0.15871060	80.64099000	31.57603000
12.39999943	-0.15871060	80.64099000	31.57603000
12.59999942	0.00000000	80.64099000	31.57603000
12.79999941	0.00000000	80.64099000	31.57603000
12.99999940	0.00000000	80.64099000	31.57603000
13.19999939	0.00000000	80.64099000	31.57603000
13.39999937	0.00000000	80.64099000	31.57603000
13.59999936	0.00000000	80.64099000	31.57603000
13.79999935	0.00000000	80.64099000	31.57603000
13.99999934	-0.15871060	80.64099000	31.61909000
14.19999933	-0.15871060	80.64099000	31.95128000
14.39999932	-0.15871060	80.64099000	32.36343000
14.59999930	0.00000000	80.64099000	32.36959000
14.79999929	0.00000000	80.64099000	32.78174000
14.99999928	0.00000000	80.64099000	33.06471000
15.19999927	0.00000000	80.64099000	32.78174000
15.39999926	0.00000000	80.64099000	32.41265000
15.59999924	0.00000000	80.64099000	32.78174000
15.79999923	0.00000000	80.64099000	33.11393000
15.99999922	0.00000000	80.64099000	33.15699000
16.19999921	0.00000000	80.64099000	33.15699000
16.39999920	-0.15871060	80.64099000	33.11393000
16.59999919	-0.15871060	80.68405000	32.78174000
16.79999917	-0.15871060	81.01624000	32.41265000
16.99999916	0.00000000	81.42839000	32.73868000
17.19999915	0.00000000	81.43454000	32.68946000
17.39999914	0.00000000	81.84669000	32.04355000
17.59999913	0.00000000	82.17889000	32.04355000
17.79999911	0.00000000	82.17889000	32.68946000
17.99999910	0.00000000	81.71136000	32.68946000
18.19999909	0.00000000	80.22269000	31.99434000
18.39999908	0.00000000	78.31569000	31.66830000
18.59999907	0.00000000	77.10384000	31.99434000
18.79999905	-0.15871060	75.94118000	32.68946000
18.99999904	0.00000000	75.24606000	32.73868000
19.19999903	0.00000000	76.07652000	32.41265000
19.39999902	0.00000000	78.36491000	32.73868000
19.59999901	0.00000000	81.88976000	32.73868000
19.79999900	0.00000000	85.75910000	32.41265000
19.99999898	0.00000000	89.61613000	32.73868000
20.19999897	0.00000000	92.22440000	32.68946000
20.39999896	0.00000000	92.18134000	31.99434000
20.59999895	0.00000000	89.06249000	31.61909000
20.79999894	0.00000000	83.24926000	31.57603000
20.99999892	0.00000000	75.89813000	31.57603000
21.19999891	0.00000000	68.54699000	31.57603000
21.39999890	0.00000000	62.77681000	31.57603000
21.59999889	0.00000000	60.16240000	31.57603000
21.79999888	0.00000000	62.16781000	31.57603000
21.99999886	0.00000000	69.14369000	31.57603000
22.19999885	0.00000000	79.61367000	31.57603000
22.39999884	0.00000000	91.62155000	31.57603000
22.59999883	0.00000000	102.82970000	31.61909000
22.79999882	0.00000000	110.47000000	31.99434000
22.99999881	0.00000000	112.23550000	32.73868000
23.19999879	0.00000000	105.95470000	33.11393000
23.39999878	0.00000000	92.08907000	33.15699000
23.59999877	0.00000000	74.36023000	33.15699000
23.79999876	0.00000000	56.91437000	33.15699000
23.99999875	0.00000000	43.46087000	33.15699000
24.19999873	0.00000000	37.37082000	33.11393000
24.39999872	0.00000000	41.32013000	32.68946000
24.59999871	0.00000000	54.81668000	31.53297000
24.79999870	0.00000000	74.96309000	30.00123000
24.99999869	0.00000000	97.34251000	28.46333000
25.19999867	0.00000000	117.02140000	27.30684000
25.39999866	0.00000000	128.89390000	26.97465000
25.59999865	0.00000000	129.72440000	27.76821000
25.79999864	0.00000000	119.21750000	30.13656000
25.99999863	0.00000000	99.90157000	33.57529000
26.19999862	0.00000000	75.15379000	37.47539000
26.39999860	0.00000000	51.27952000	40.92027000
26.59999859	0.00000000	33.87672000	43.19635000
26.79999858	0.00000000	26.94390000	43.14714000
26.99999857	0.00000000	32.33883000	40.40969000
27.19999856	0.00000000	48.53592000	35.34079000
27.39999854	0.00000000	71.70891000	28.37721000
27.59999853	0.00000000	96.41363000	21.03838000
27.79999852	0.00000000	116.92910000	14.89911000
27.99999851	-0.15871060	128.93700000	11.50960000
28.19999850	0.00000000	130.09960000	12.70915000
28.39999848	0.00000000	120.09720000	18.56545000
28.59999847	0.00000000	101.62400000	28.23573000
28.79999846	0.00000000	79.57062000	40.21284000
28.99999845	0.00000000	58.67372000	51.37180000
29.19999844	0.00000000	43.18405000	59.45497000
29.39999843	0.00000000	36.57726000	62.10630000
29.59999841	0.00000000	39.60384000	58.20620000
29.79999840	0.00000000	51.14419000	48.49286000
29.99999839	0.00000000	68.07948000	34.18430000
30.19999838	0.00000000	85.90058000	18.43012000
30.39999837	0.00000000	101.07040000	5.28420300
30.59999835	0.00000000	111.16510000	-2.42987200
30.79999834	0.00000000	114.32700000	-3.17421200
30.99999833	0.00000000	110.47000000	3.78937000
31.19999832	0.00000000	100.83050000	16.94144000
31.39999831	0.00000000	87.29700000	33.57529000
31.59999829	0.00000000	73.38213000	50.57824000
31.79999828	0.00000000	61.74950000	64.05635000
31.99999827	0.00000000	54.77362000	71.02608000
32.19999826	0.00000000	53.93085000	69.90649000
32.39999825	0.00000000	58.49532000	61.31889000
32.59999824	0.00000000	67.00910000	46.62893000
32.79999822	0.00000000	77.47908000	28.14345000
32.99999821	0.00000000	87.94906000	11.17741000
33.19999820	0.00000000	96.41363000	-0.89812980
33.39999819	0.00000000	100.65210000	-6.28075700
33.59999818	0.00000000	99.58169000	-3.58636800
33.79999816	0.00000000	94.22982000	6.44685000
33.99999815	0.00000000	86.49728000	21.49975000
34.19999814	0.00000000	77.98966000	38.50270000
34.39999813	0.00000000	70.68159000	53.56176000
34.59999812	0.00000000	66.40009000	63.63803000
34.79999810	0.00000000	65.98179000	66.75073000
34.99999809	0.00000000	69.05757000	62.47539000
35.19999808	0.00000000	74.82775000	51.69168000
35.39999807	0.00000000	81.71136000	36.68799000
35.59999806	0.00000000	87.48154000	21.67815000
35.79999805	0.00000000	90.60039000	10.02092000
35.99999803	0.00000000	90.60039000	3.88164400
36.19999802	0.00000000	87.57381000	4.58292300
36.39999801	0.00000000	82.59719000	11.87254000
36.59999800	0.00000000	77.57135000	23.03149000
36.79999799	0.00000000	73.28986000	35.75910000
36.99999797	0.00000000	70.63853000	46.81963000
37.19999796	0.00000000	70.63853000	52.63287000
37.39999795	0.00000000	73.33292000	51.98080000
37.59999794	0.00000000	77.89738000	46.25984000
37.79999793	0.00000000	82.91708000	37.38312000
37.99999791	0.00000000	86.78642000	27.39296000
38.19999790	0.00000000	89.15477000	18.98376000
38.39999789	0.00000000	89.48080000	14.80069000
38.59999788	0.00000000	87.57381000	16.33243000
38.79999787	0.00000000	83.71062000	23.16683000
38.99999786	0.00000000	79.10310000	32.68946000
39.19999784	0.00000000	74.82775000	41.52312000
39.39999783	0.00000000	71.70891000	47.28715000
39.59999782	0.00000000	70.17101000	48.40059000
39.79999781	0.00000000	70.54626000	44.21752000
39.99999780	0.00000000	72.91461000	36.17741000
40.19999778	0.00000000	76.73474000	26.93159000
40.39999777	0.00000000	81.38533000	18.51624000
40.59999776	0.00000000	85.24852000	13.55192000
40.79999775	0.00000000	88.03519000	13.91486000
40.99999774	0.00000000	89.57307000	18.89148000
41.19999772	0.00000000	89.57307000	27.39296000
41.39999771	0.00000000	87.99212000	37.34006000
41.59999770	0.00000000	84.87327000	45.79232000
41.79999769	0.00000000	80.64099000	50.39985000
41.99999768	0.00000000	76.45177000	50.06767000
42.19999767	0.00000000	73.66510000	45.10334000
42.39999765	0.00000000	72.45324000	37.43233000
42.59999764	0.00000000	72.08414000	28.93085000
42.79999763	0.00000000	73.28986000	21.63509000
42.99999762	0.00000000	75.89813000	17.35974000
43.19999761	0.00000000	78.64173000	16.94144000
43.39999759	0.00000000	80.97318000	20.01107000
43.59999758	0.00000000	82.91708000	25.77510000
43.79999757	0.00000000	83.71062000	32.64640000
43.99999756	0.00000000	83.75984000	38.41043000
44.19999755	0.00000000	83.38459000	41.56618000
44.39999753	0.00000000	82.64025000	42.03371000
44.59999752	0.00000000	82.26501000	40.50196000
44.79999751	0.00000000	82.22194000	37.38312000
44.99999750	0.00000000	82.17889000	33.20005000
45.19999749	0.00000000	81.75443000	29.34916000
45.39999748	0.00000000	80.59792000	26.97465000
45.59999746	0.00000000	78.96776000	25.77510000
45.79999745	0.00000000	76.64246000	25.81816000
45.99999744	0.00000000	73.57283000	27.34990000
46.19999743	0.00000000	71.29060000	30.00123000
46.39999742	0.00000000	70.17101000	32.69562000
46.59999740	0.00000000	71.01377000	34.64567000
46.79999739	0.00000000	74.49557000	35.85138000
46.99999738	0.00000000	79.52755000	36.22047000
47.19999737	0.00000000	85.38385000	35.80217000
47.39999736	0.00000000	91.11097000	34.27042000
47.59999734	0.00000000	94.87573000	31.95128000
47.79999733	0.00000000	94.87573000	29.62598000
47.99999732	0.00000000	91.01869000	27.34990000
48.19999731	0.00000000	84.45496000	26.19340000
48.39999730	0.00000000	76.27337000	26.55635000
48.59999729	0.00000000	68.21481000	27.76821000
48.79999727	0.00000000	62.07553000	30.51181000
48.99999726	0.00000000	60.21161000	34.27042000
49.19999725	0.00000000	63.23819000	37.34006000
49.39999724	0.00000000	70.21407000	38.92101000
49.59999723	0.00000000	79.47834000	38.92101000
49.79999721	0.00000000	89.10555000	37.38312000
49.99999720	0.00000000	96.41363000	34.64567000
50.19999719	0.00000000	99.48942000	31.15772000
50.39999718	0.00000000	97.57627000	27.30684000
50.59999717	0.00000000	91.06176000	24.28026000
50.79999715	-0.15871060	82.17889000	23.12377000
50.99999714	0.00000000	72.95767000	24.23720000
51.19999713	0.00000000	65.61269000	26.93159000
51.39999712	0.00000000	62.53075000	30.46260000
51.59999711	0.00000000	63.65649000	34.69488000
51.79999710	0.00000000	69.10064000	38.50270000
51.99999708	0.00000000	77.47908000	40.45890000
52.19999707	0.00000000	85.94365000	40.45890000
52.39999706	0.00000000	92.08907000	38.54576000
52.59999705	0.00000000	94.45743000	35.06397000
52.79999704	0.00000000	92.55659000	31.25000000
52.99999702	0.00000000	87.52460000	27.72515000
53.19999701	0.00000000	80.22269000	25.44291000
53.39999700	0.00000000	72.59473000	24.65551000
53.59999699	0.00000000	67.60580000	25.81816000
53.79999698	0.00000000	66.40009000	28.46333000
53.99999696	0.00000000	69.05757000	31.53297000
54.19999695	0.00000000	74.40945000	34.22736000
54.39999694	0.00000000	80.59792000	35.75910000
54.59999693	0.00000000	86.36810000	35.75910000
54.79999692	0.00000000	90.17593000	34.27042000
54.99999691	0.00000000	90.60039000	31.99434000
55.19999689	0.00000000	87.94906000	30.13656000
55.39999688	0.00000000	83.29231000	29.30610000
55.59999687	0.00000000	77.57135000	29.71826000
55.79999686	0.00000000	72.59473000	30.83784000
55.99999685	0.00000000	70.22022000	32.78174000
56.19999683	0.00000000	70.22022000	34.64567000
56.39999682	0.00000000	72.55167000	35.75910000
56.59999681	0.00000000	77.14690000	35.34079000
56.79999680	0.00000000	82.08661000	33.06471000
56.99999679	0.00000000	85.99286000	30.00123000
57.19999677	0.00000000	87.89984000	26.88853000
57.39999676	0.00000000	87.57381000	24.23720000
57.59999675	0.00000000	85.24852000	23.16683000
57.79999674	0.00000000	81.80363000	24.69857000
57.99999673	0.00000000	77.94660000	28.55561000
58.19999672	0.00000000	74.87081000	33.57529000
58.39999670	0.00000000	73.28986000	38.92101000
58.59999669	0.00000000	73.28986000	42.72884000
58.79999668	0.00000000	74.78469000	43.47933000
58.99999667	0.00000000	77.10384000	41.19094000
59.19999666	0.00000000	79.39222000	36.17741000
59.39999664	0.00000000	81.33611000	30.00123000
59.59999663	0.00000000	82.12967000	23.81890000
59.79999662	0.00000000	82.17889000	18.84842000
59.99999661	0.00000000	81.75443000	16.98450000
60.19999660	0.00000000	80.64099000	18.89148000
60.39999658	0.00000000	79.47834000	24.28026000
60.59999657	0.00000000	78.72785000	31.57603000
60.79999656	0.00000000	78.31569000	38.92101000
60.99999655	0.00000000	78.72785000	44.68504000
61.19999654	0.00000000	79.43528000	47.37327000
61.39999653	0.00000000	80.22269000	46.21678000
61.59999651	0.00000000	80.59792000	41.56618000
61.79999650	0.00000000	80.59792000	34.22736000
61.99999649	0.00000000	80.17347000	25.81816000
62.19999648	0.00000000	79.06004000	18.89148000
62.39999647	0.00000000	77.94660000	15.40969000
62.59999645	0.00000000	77.52214000	15.77879000
62.79999644	0.00000000	77.52214000	20.01107000
62.99999643	0.00000000	77.94660000	26.93159000
63.19999642	0.00000000	79.10310000	34.64567000
63.39999641	0.00000000	80.59792000	41.61540000
63.59999639	0.00000000	81.80363000	46.25984000
63.79999638	0.00000000	82.55412000	47.79158000
63.99999637	0.00000000	82.91708000	45.84153000
64.19999636	0.00000000	82.12967000	40.50196000
64.39999635	0.00000000	80.64099000	33.62450000
64.59999634	0.00000000	79.06004000	27.34990000
64.79999632	0.00000000	77.52214000	22.33022000
64.99999631	0.00000000	76.40871000	19.22367000
65.19999630	0.00000000	76.40871000	19.21752000
65.39999629	0.00000000	77.52214000	21.49975000
65.59999628	0.00000000	79.01697000	25.77510000
65.79999626	0.00000000	80.17347000	31.11466000
65.99999625	0.00000000	80.59792000	35.80217000
66.19999624	0.00000000	80.59792000	39.33932000
66.39999623	0.00000000	80.17347000	41.65846000
66.59999622	0.00000000	79.01697000	42.07677000
66.79999620	0.00000000	77.52214000	40.92027000
66.99999619	0.00000000	76.40871000	38.58883000
67.19999618	0.00000000	76.40871000	35.11319000
67.39999617	0.00000000	77.52214000	31.62524000
67.59999616	0.00000000	79.10310000	28.46333000
67.79999615	0.00000000	81.05930000	25.77510000
67.99999613	0.00000000	83.33538000	24.15108000
68.19999612	0.00000000	84.83022000	23.35138000
68.39999611	0.00000000	84.83022000	23.03149000
68.59999610	0.00000000	83.24926000	24.28026000
68.79999609	0.00000000	80.13041000	27.34990000
68.99999607	0.00000000	75.94118000	31.57603000
69.19999606	0.00000000	72.12721000	35.85138000
69.39999605	0.00000000	70.17101000	39.33932000
69.59999604	0.00000000	70.12794000	41.65846000
69.79999603	0.00000000	71.75196000	42.03371000
69.99999601	0.00000000	75.24606000	40.45275000
70.19999600	0.00000000	80.26574000	36.96481000
70.39999599	0.00000000	85.24852000	31.95128000
70.59999598	0.00000000	89.10555000	26.93159000
70.79999597	0.00000000	90.64346000	22.65625000
70.99999596	0.00000000	89.48080000	20.01107000
71.19999594	0.00000000	85.99286000	20.01107000
71.39999593	0.00000000	80.59792000	22.65625000
71.59999592	0.00000000	74.82775000	26.88238000
71.79999591	0.00000000	70.12794000	31.53297000
71.99999590	0.00000000	67.05216000	35.80217000
72.19999588	0.00000000	66.31397000	38.87795000
72.39999587	0.00000000	68.63311000	40.03444000
72.59999586	0.00000000	73.24680000	38.92101000
72.79999585	0.00000000	79.06004000	36.26968000
72.99999584	0.00000000	84.83022000	33.15699000
73.19999582	0.00000000	89.06249000	30.08735000
73.39999581	0.00000000	90.64346000	27.76821000
73.59999580	0.00000000	89.53001000	27.01772000
73.79999579	0.00000000	86.41116000	27.67593000
73.99999578	0.00000000	81.80363000	29.20767000
74.19999577	0.00000000	76.82701000	30.37647000
74.39999575	0.00000000	73.28986000	31.53297000
74.59999574	0.00000000	71.29060000	32.22810000
74.79999573	0.00000000	70.54626000	31.48991000
74.99999572	0.00000000	71.75196000	30.04429000
75.19999571	0.00000000	74.78469000	28.93085000
75.39999569	0.00000000	78.59251000	28.93085000
75.59999568	0.00000000	81.71136000	30.08735000
75.79999567	0.00000000	83.66756000	32.04355000
75.99999566	0.00000000	84.45496000	34.73794000
76.19999565	0.00000000	83.71062000	37.38312000
76.39999563	0.00000000	82.22194000	38.87795000
76.59999562	0.00000000	80.64099000	38.50270000
76.79999561	0.00000000	79.10310000	36.17741000
76.99999560	0.00000000	77.94660000	32.68946000
77.19999559	0.00000000	77.57135000	28.42027000
77.39999558	0.00000000	77.89738000	24.23720000
77.59999556	0.00000000	78.64173000	21.54281000
77.79999555	0.00000000	78.96776000	21.16757000
77.99999554	0.00000000	78.64173000	23.12377000
78.19999553	0.00000000	77.85432000	27.34990000
78.39999552	0.00000000	77.10384000	32.73868000
78.59999550	0.00000000	76.36565000	37.75836000
78.79999549	0.00000000	76.40871000	41.61540000
78.99999548	0.00000000	77.57135000	43.14714000
79.19999547	0.00000000	79.47834000	42.03371000
79.39999546	0.00000000	81.75443000	38.92101000
79.59999544	0.00000000	83.29231000	34.31963000
79.79999543	0.00000000	83.71062000	29.30610000
79.99999542	0.00000000	83.29231000	25.39985000
80.19999541	0.00000000	81.71136000	22.65625000
80.39999540	0.00000000	79.06004000	21.54281000
80.59999539	0.00000000	76.40871000	22.70546000
80.79999537	0.00000000	74.78469000	25.72589000
80.99999536	0.00000000	73.98499000	29.58292000
81.19999535	0.00000000	73.66510000	33.11393000
81.39999534	0.00000000	74.87081000	36.22662000
81.59999533	0.00000000	77.52214000	38.54576000
81.79999531	0.00000000	80.54871000	39.33932000
81.99999530	0.00000000	82.91708000	38.96407000
82.19999529	0.00000000	84.08587000	37.43233000
82.39999528	0.00000000	84.45496000	35.06397000
82.59999527	0.00000000	83.29231000	32.36343000
82.79999525	0.00000000	81.05930000	29.25689000
82.99999524	0.00000000	79.10310000	26.93159000
83.19999523	0.00000000	77.47908000	25.30758000
83.39999522	0.00000000	75.99039000	24.19414000
83.59999521	0.00000000	75.24606000	24.19414000
83.79999520	0.00000000	75.99039000	25.39985000
83.99999518	0.00000000	77.43602000	27.72515000
84.19999517	0.00000000	78.59251000	31.20078000
84.39999516	0.00000000	79.01697000	34.68873000
84.59999515	0.00000000	79.06004000	37.80758000
84.79999514	0.00000000	79.06004000	40.08366000
84.99999512	0.00000000	79.06004000	40.45890000
85.19999511	0.00000000	79.06004000	38.92101000
85.39999510	0.00000000	79.06004000	35.80217000
85.59999509	0.00000000	79.10310000	31.53297000
85.79999508	0.00000000	79.47834000	26.93159000
85.99999506	0.00000000	80.17347000	23.07455000
86.19999505	0.00000000	80.17347000	21.16757000
86.39999504	0.00000000	79.43528000	21.54281000
86.59999503	0.00000000	78.64173000	24.23720000
86.79999502	0.00000000	77.47908000	28.46333000
86.99999501	0.00000000	76.36565000	33.11393000
87.19999499	0.00000000	75.94118000	37.34006000
87.39999498	0.00000000	75.94118000	40.03444000
87.59999497	0.00000000	76.40871000	40.40969000
87.79999496	0.00000000	77.89738000	38.50270000
87.99999495	0.00000000	79.80437000	34.64567000
88.19999493	0.00000000	80.97318000	30.04429000
88.39999492	0.00000000	81.75443000	25.77510000
88.59999491	0.00000000	81.71136000	22.70546000
88.79999490	0.00000000	80.59792000	21.58587000
88.99999489	0.00000000	79.06004000	23.12377000
89.19999487	0.00000000	77.52214000	26.97465000
89.39999486	0.00000000	76.36565000	31.95128000
89.59999485	0.00000000	75.94118000	36.92175000
89.79999484	0.00000000	75.94118000	39.99138000
89.99999483	0.00000000	76.36565000	40.40969000
90.19999482	0.00000000	77.47908000	38.50270000
90.39999480	0.00000000	78.64173000	34.64567000
90.59999479	0.00000000	79.43528000	30.04429000
90.79999478	0.00000000	80.22269000	25.77510000
90.99999477	0.00000000	80.54871000	22.74852000
91.19999476	0.00000000	80.22269000	22.01033000
91.39999474	0.00000000	79.47834000	24.28026000
91.59999473	0.00000000	79.10310000	28.46333000
91.79999472	0.00000000	79.06004000	33.11393000
91.99999471	0.00000000	79.06004000	37.34006000
92.19999470	0.00000000	79.06004000	40.03444000
92.39999468	0.00000000	79.06004000	40.40969000
92.59999467	0.00000000	79.01697000	38.45964000
92.79999466	0.00000000	78.59251000	34.27042000
92.99999465	0.00000000	77.47908000	29.30610000
93.19999464	0.00000000	76.36565000	25.44291000
93.39999463	0.00000000	75.94118000	23.12377000
93.59999461	0.00000000	75.94118000	23.16683000
93.79999460	0.00000000	76.40871000	25.81816000
93.99999459	0.00000000	77.94660000	30.00123000
94.19999458	0.00000000	80.22269000	34.27042000
94.39999457	0.00000000	82.17889000	37.71530000
94.59999455	0.00000000	83.71062000	39.61614000
94.79999454	0.00000000	84.45496000	38.82874000
94.99999453	0.00000000	83.66756000	35.85138000
95.19999452	0.00000000	81.75443000	31.99434000
95.39999451	0.00000000	79.01697000	28.51255000
95.59999449	0.00000000	75.94118000	25.81816000
95.79999448	0.00000000	73.24680000	24.65551000
95.99999447	0.00000000	71.70891000	25.44291000
96.19999446	0.00000000	71.70891000	27.72515000
96.39999445	0.00000000	73.24680000	31.20078000
96.59999444	0.00000000	75.99039000	34.60261000
96.79999442	0.00000000	79.47834000	36.92175000
96.99999441	0.00000000	83.29231000	37.29700000
97.19999440	0.00000000	85.99286000	35.85138000
97.39999439	0.00000000	86.82947000	33.53223000
97.59999438	0.00000000	86.41116000	31.20078000
97.79999436	0.00000000	84.45496000	28.93085000
97.99999435	0.00000000	80.97318000	27.81127000
98.19999434	0.00000000	77.10384000	28.46333000
98.39999433	0.00000000	73.24680000	29.53371000
98.59999432	0.00000000	70.54626000	30.00123000
98.79999430	0.00000000	69.75270000	30.46260000
98.99999429	0.00000000	70.54626000	31.57603000
99.19999428	0.00000000	73.24680000	32.68946000
99.39999427	0.00000000	77.06077000	33.06471000
99.59999426	0.00000000	80.54871000	32.78174000
99.79999425	0.00000000	83.33538000	32.41265000
99.99999423	0.00000000	85.24852000	32.78174000
100.19999422	0.00000000	86.03592000	33.11393000
100.39999421	0.00000000	85.20546000	33.15699000
100.59999420	0.00000000	82.96629000	33.11393000
100.79999419	0.00000000	79.85359000	32.68946000
100.99999417	0.00000000	77.14690000	31.53297000
101.19999416	0.00000000	74.73548000	30.00123000
101.39999415	0.00000000	72.87155000	28.46333000
101.59999414	0.00000000	72.08414000	27.30684000
101.79999413	0.00000000	72.82849000	26.93159000
101.99999411	0.00000000	74.36023000	27.34990000
102.19999410	0.00000000	76.36565000	28.93085000
102.39999409	0.00000000	79.01697000	31.62524000
102.59999408	0.00000000	81.33611000	34.64567000
102.79999407	0.00000000	82.55412000	36.96481000
102.99999406	0.00000000	83.33538000	37.71530000
103.19999404	0.00000000	83.24926000	36.96481000
103.39999403	0.00000000	81.75443000	34.64567000
103.59999402	0.00000000	79.47834000	31.57603000
103.79999401	0.00000000	77.52214000	28.46333000
103.99999400	0.00000000	75.94118000	25.77510000
104.19999398	0.00000000	74.78469000	24.28026000
104.39999397	0.00000000	74.40945000	24.65551000
104.59999396	0.00000000	74.78469000	26.93159000
104.79999395	0.00000000	75.94118000	29.95201000
104.99999394	0.00000000	77.47908000	32.69562000
105.19999392	0.00000000	79.01697000	34.64567000
105.39999391	0.00000000	80.17347000	35.80217000
105.59999390	0.00000000	80.54871000	35.80217000
105.79999389	0.00000000	80.17347000	34.64567000
105.99999388	0.00000000	79.06004000	32.73868000
106.19999387	0.00000000	77.89738000	30.41954000
106.39999385	0.00000000	77.10384000	28.51255000
106.59999384	0.00000000	76.31644000	27.34990000
106.79999383	0.00000000	75.99039000	27.34990000
106.99999382	0.00000000	76.36565000	28.46333000
107.19999381	0.00000000	77.52214000	30.04429000
107.39999379	0.00000000	79.01697000	31.95128000
107.59999378	0.00000000	80.13041000	33.85211000
107.79999377	0.00000000	80.17347000	34.60261000
107.99999376	0.00000000	79.43528000	34.27042000
108.19999375	0.00000000	78.68478000	33.11393000
108.39999374	0.00000000	77.85432000	31.57603000
108.59999372	0.00000000	77.10384000	30.04429000
108.79999371	0.00000000	76.31644000	28.88779000
108.99999370	0.00000000	75.99039000	28.51255000
109.19999369	0.00000000	76.36565000	28.88779000
109.39999368	0.00000000	77.47908000	30.04429000
109.59999366	0.00000000	78.64173000	31.57603000
109.79999365	0.00000000	79.43528000	33.11393000
109.99999364	0.00000000	80.22269000	34.27042000
110.19999363	0.00000000	80.54871000	34.64567000
110.39999362	0.00000000	80.17347000	34.27042000
110.59999360	0.00000000	79.06004000	33.11393000
110.79999359	0.00000000	77.89738000	31.57603000
110.99999358	0.00000000	77.10384000	30.04429000
111.19999357	0.00000000	76.31644000	28.88779000
111.39999356	0.00000000	75.99039000	28.46333000
111.59999355	0.00000000	76.31644000	28.46333000
111.79999353	0.00000000	77.10384000	28.88779000
111.99999352	0.00000000	77.85432000	30.00123000
112.19999351	0.00000000	78.64173000	31.11466000
112.39999350	0.00000000	79.01697000	31.57603000
112.59999349	0.00000000	79.06004000	31.99434000
112.79999347	0.00000000	79.06004000	32.73868000
112.99999346	0.00000000	79.06004000	33.06471000
113.19999345	0.00000000	79.06004000	32.78174000
113.39999344	0.00000000	79.01697000	32.36959000
113.59999343	0.00000000	78.64173000	32.32037000
113.79999341	0.00000000	77.89738000	31.53297000
113.99999340	0.00000000	77.52214000	30.46260000
114.19999339	0.00000000	77.47908000	30.04429000
114.39999338	0.00000000	77.47908000	30.00123000
114.59999337	0.00000000	77.47908000	30.00123000
114.79999336	0.00000000	77.47908000	30.00123000
114.99999334	0.00000000	77.52214000	30.00123000
115.19999333	0.00000000	77.89738000	30.04429000
115.39999332	0.00000000	78.64173000	30.41954000
115.59999331	0.00000000	79.01697000	31.20078000
115.79999330	0.00000000	79.01697000	31.95128000
115.99999328	0.00000000	78.64173000	32.73868000
116.19999327	0.00000000	77.89738000	33.11393000
116.39999326	0.00000000	77.52214000	33.15699000
116.59999325	0.00000000	77.47908000	33.11393000
116.79999324	0.00000000	77.47908000	32.68946000
116.99999322	0.00000000	77.52214000	31.57603000
117.19999321	0.00000000	77.89738000	30.41954000
117.39999320	0.00000000	78.64173000	29.62598000
117.59999319	0.00000000	79.01697000	28.83858000
117.79999318	0.00000000	79.06004000	28.46333000
117.99999317	0.00000000	79.06004000	28.42027000
118.19999315	0.00000000	79.01697000	28.46333000
118.39999314	0.00000000	78.64173000	28.88779000
118.59999313	0.00000000	77.85432000	30.00123000
118.79999312	0.00000000	77.10384000	31.15772000
118.99999311	0.00000000	76.31644000	31.95128000
119.19999309	0.00000000	75.94118000	32.73868000
119.39999308	0.00000000	75.89813000	33.11393000
119.59999307	0.00000000	75.94118000	33.11393000
119.79999306	0.00000000	76.36565000	32.73868000
119.99999305	0.00000000	77.52214000	31.95128000
120.19999303	0.00000000	79.01697000	31.20078000
120.39999302	0.00000000	80.17347000	30.41954000
120.59999301	0.00000000	80.59792000	30.04429000
120.79999300	0.00000000	80.59792000	30.00123000
120.99999299	0.00000000	80.17347000	30.00123000
121.19999298	0.00000000	79.01697000	30.00123000
121.39999296	0.00000000	77.52214000	30.00123000
121.59999295	0.00000000	76.31644000	30.04429000
121.79999294	0.00000000	75.52288000	30.41954000
121.99999293	0.00000000	74.78469000	31.15772000
122.19999292	0.00000000	74.78469000	31.57603000
122.39999290	0.00000000	75.52288000	31.99434000
122.59999289	0.00000000	76.31644000	32.73868000
122.79999288	0.00000000	77.47908000	33.11393000
122.99999287	0.00000000	78.64173000	33.11393000
123.19999286	0.00000000	79.43528000	32.73868000
123.39999284	0.00000000	80.22269000	31.99434000
123.59999283	0.00000000	80.54871000	31.57603000
123.79999282	0.00000000	80.22269000	31.15772000
123.99999281	0.00000000	79.43528000	30.41954000
124.19999280	0.00000000	78.68478000	30.04429000
124.39999279	0.00000000	77.85432000	30.00123000
124.59999277	0.00000000	77.10384000	30.00123000
124.79999276	0.00000000	76.31644000	30.04429000
124.99999275	0.00000000	75.94118000	30.41954000
125.19999274	0.00000000	75.89813000	31.15772000
125.39999273	0.00000000	75.94118000	31.53297000
125.59999271	0.00000000	76.36565000	31.61909000
125.79999270	0.00000000	77.47908000	31.95128000
125.99999269	0.00000000	78.64173000	32.32037000
126.19999268	0.00000000	79.43528000	31.95128000
126.39999267	0.00000000	80.22269000	31.61909000
126.59999265	0.00000000	80.54871000	31.53297000
126.79999264	0.00000000	80.22269000	31.15772000
126.99999263	0.00000000	79.43528000	30.41954000
127.19999262	0.00000000	78.64173000	30.04429000
127.39999261	0.00000000	77.47908000	30.00123000
127.59999260	0.00000000	76.36565000	30.00123000
127.79999258	0.00000000	75.94118000	30.00123000
127.99999257	0.00000000	75.94118000	30.04429000
128.19999256	0.00000000	76.31644000	30.41954000
128.39999255	0.00000000	77.10384000	31.15772000
128.59999254	0.00000000	77.89738000	31.53297000
128.79999252	0.00000000	79.06004000	31.57603000
128.99999251	0.00000000	80.13041000	31.57603000
129.19999250	0.00000000	80.17347000	31.53297000
129.39999249	0.00000000	79.43528000	31.15772000
129.59999248	0.00000000	78.64173000	30.37647000
129.79999246	0.00000000	77.47908000	29.66904000
129.99999245	0.00000000	76.31644000	29.25689000
130.19999244	0.00000000	75.56593000	29.62598000
130.39999243	0.00000000	75.20300000	30.00123000
130.59999242	0.00000000	75.94118000	30.41954000
130.79999241	0.00000000	77.06077000	31.15772000
130.99999239	0.00000000	77.85432000	31.53297000
131.19999238	0.00000000	78.64173000	31.53297000
131.39999237	0.00000000	79.01697000	31.15772000
131.59999236	0.00000000	79.01697000	30.41954000
131.79999235	0.00000000	78.64173000	30.04429000
131.99999233	0.00000000	77.89738000	30.00123000
132.19999232	0.00000000	77.52214000	30.00123000
132.39999231	0.00000000	77.43602000	30.00123000
132.59999230	0.00000000	77.06077000	30.04429000
132.79999229	0.00000000	76.36565000	30.41954000
132.99999227	0.00000000	76.36565000	31.15772000
133.19999226	0.00000000	77.06077000	31.53297000
133.39999225	0.00000000	77.43602000	31.57603000
133.59999224	0.00000000	77.47908000	31.57603000
133.79999223	0.00000000	77.47908000	31.57603000
133.99999222	0.00000000	77.47908000	31.53297000
134.19999220	0.00000000	77.47908000	31.15772000
134.39999219	0.00000000	77.47908000	30.41954000
134.59999218	0.00000000	77.47908000	30.00123000
134.79999217	0.00000000	77.47908000	29.58292000
134.99999216	0.00000000	77.52214000	28.88779000
135.19999214	0.00000000	77.85432000	28.88779000
135.39999213	0.00000000	78.22342000	29.58292000
135.59999212	0.00000000	77.85432000	30.00123000
135.79999211	0.00000000	77.47908000	30.41954000
135.99999210	0.00000000	77.06077000	31.20078000
136.19999208	0.00000000	76.31644000	31.90822000
136.39999207	0.00000000	75.94118000	32.32037000
136.59999206	0.00000000	75.89813000	31.95128000
136.79999205	0.00000000	75.94118000	31.61909000
136.99999204	0.00000000	76.31644000	31.53297000
137.19999203	0.00000000	77.10384000	31.15772000
137.39999201	0.00000000	77.85432000	30.37647000
137.59999200	0.00000000	78.64173000	29.62598000
137.79999199	0.00000000	79.01697000	28.88779000
137.99999198	0.00000000	79.01697000	28.88779000
138.19999197	0.00000000	78.64173000	29.58292000
138.39999195	0.00000000	77.85432000	29.95817000
138.59999194	0.00000000	77.10384000	30.04429000
138.79999193	0.00000000	76.31644000	30.41954000
138.99999192	0.00000000	75.94118000	31.15772000
139.19999191	0.00000000	75.94118000	31.53297000
139.39999189	0.00000000	76.31644000	31.57603000
139.59999188	0.00000000	77.06077000	31.57603000
139.79999187	0.00000000	77.47908000	31.57603000
139.99999186	0.00000000	77.89738000	31.53297000
140.19999185	0.00000000	78.64173000	31.15772000
140.39999184	0.00000000	78.96776000	30.41954000
140.59999182	0.00000000	78.64173000	30.00123000
140.79999181	0.00000000	77.89738000	29.58292000
140.99999180	0.00000000	77.52214000	28.88779000
141.19999179	0.00000000	77.47908000	28.88779000
141.39999178	0.00000000	77.47908000	29.62598000
141.59999176	0.00000000	77.47908000	30.37647000
141.79999175	0.00000000	77.47908000	31.20078000
141.99999174	0.00000000	77.47908000	31.95128000
142.19999173	0.00000000	77.47908000	32.73868000
142.39999172	0.00000000	77.47908000	33.06471000
142.59999170	0.00000000	77.47908000	32.73868000
142.79999169	0.00000000	77.47908000	31.95128000
142.99999168	0.00000000	77.47908000	31.20078000
143.19999167	0.00000000	77.47908000	30.41954000
143.39999166	0.00000000	77.47908000	30.04429000
143.59999165	0.00000000	77.47908000	30.00123000
143.79999163	0.00000000	77.47908000	30.00123000
143.99999162	0.00000000	77.47908000	30.04429000
144.19999161	0.00000000	77.47908000	30.41954000
144.39999160	0.00000000	77.47908000	31.15772000
144.59999159	0.00000000	77.47908000	31.53297000
144.79999157	0.00000000	77.47908000	31.57603000
144.99999156	0.00000000	77.47908000	31.57603000
145.19999155	0.00000000	77.47908000	31.57603000
145.39999154	0.00000000	77.43602000	31.53297000
145.59999153	0.00000000	77.10384000	31.15772000
145.79999151	0.00000000	76.69167000	30.37647000
145.99999150	0.00000000	76.72858000	29.66904000
146.19999149	0.00000000	76.69167000	29.21383000
146.39999148	0.00000000	77.10384000	29.25074000
146.59999147	0.00000000	77.43602000	29.21383000
146.79999146	0.00000000	77.47908000	29.62598000
146.99999144	0.00000000	77.47908000	30.00123000
147.19999143	0.00000000	77.47908000	30.41954000
147.39999142	0.00000000	77.47908000	31.15772000
147.59999141	0.00000000	77.47908000	31.53297000
147.79999140	0.00000000	77.43602000	31.57603000
147.99999138	0.00000000	77.06077000	31.57603000
148.19999137	0.00000000	76.31644000	31.53297000
148.39999136	0.00000000	75.99039000	31.15772000
148.59999135	0.00000000	76.31644000	30.41954000
148.79999134	0.00000000	77.01156000	30.04429000
148.99999132	0.00000000	77.06077000	30.00123000
149.19999131	0.00000000	76.73474000	30.00123000
149.39999130	0.00000000	77.10384000	30.00123000
149.59999129	0.00000000	77.43602000	30.00123000
149.79999128	0.00000000	77.47908000	30.00123000
149.99999127	0.00000000	77.47908000	30.04429000
150.19999125	0.00000000	77.47908000	30.41954000
150.39999124	0.00000000	77.43602000	31.15772000
150.59999123	0.00000000	77.10384000	31.53297000
150.79999122	0.00000000	76.69167000	31.53297000
150.99999121	0.00000000	76.68553000	31.20078000
151.19999119	0.00000000	76.27337000	30.79478000
151.39999118	0.00000000	75.94118000	30.78248000
151.59999117	0.00000000	75.94118000	30.37647000
151.79999116	0.00000000	76.27337000	30.04429000
151.99999115	0.00000000	76.68553000	30.00123000
152.19999113	0.00000000	76.69167000	30.00123000
152.39999112	0.00000000	77.10384000	30.00123000
152.59999111	0.00000000	77.43602000	30.00123000
152.79999110	0.00000000	77.47908000	30.04429000
152.99999109	0.00000000	77.47908000	30.41954000
153.19999108	0.00000000	77.43602000	31.15772000
153.39999106	0.00000000	77.10384000	31.53297000
153.59999105	0.00000000	76.69167000	31.57603000
153.79999104	0.00000000	76.68553000	31.57603000
153.99999103	0.00000000	76.27337000	31.57603000
154.19999102	0.00000000	75.94118000	31.57603000
154.39999100	0.00000000	75.89813000	31.53297000
154.59999099	0.00000000	75.89813000	31.15772000
154.79999098	0.00000000	75.94118000	30.41954000
154.99999097	0.00000000	76.31644000	30.04429000
155.19999096	0.00000000	77.06077000	30.00123000
155.39999094	0.00000000	77.43602000	30.00123000
155.59999093	0.00000000	77.47908000	30.00123000
155.79999092	0.00000000	77.47908000	30.04429000
155.99999091	0.00000000	77.47908000	30.41954000
156.19999090	0.00000000	77.47908000	31.15772000
156.39999089	0.00000000	77.43602000	31.53297000
156.59999087	0.00000000	77.06077000	31.57603000
156.79999086	0.00000000	76.31644000	31.57603000
156.99999085	0.00000000	75.94118000	31.57603000
157.19999084	0.00000000	75.89813000	31.53297000
157.39999083	0.00000000	75.89813000	31.15772000
157.59999081	0.00000000	75.94118000	30.41954000
157.79999080	0.00000000	76.31644000	30.04429000
157.99999079	0.00000000	77.06077000	30.00123000
158.19999078	0.00000000	77.43602000	30.00123000
158.39999077	0.00000000	77.47908000	30.00123000
158.59999075	0.00000000	77.47908000	30.00123000
158.79999074	0.00000000	77.47908000	30.00123000
158.99999073	0.00000000	77.43602000	30.00123000
159.19999072	0.00000000	77.10384000	30.04429000
159.39999071	0.00000000	76.69167000	30.41954000
159.59999070	0.00000000	76.68553000	31.15772000
159.79999068	0.00000000	76.27337000	31.53297000
159.99999067	0.00000000	75.94118000	31.57603000
160.19999066	0.00000000	75.89813000	31.53297000
160.39999065	0.00000000	75.89813000	31.15772000
160.59999064	0.00000000	75.89813000	30.41954000
160.79999062	0.00000000	75.94118000	30.04429000
160.99999061	0.00000000	76.31644000	30.00123000
161.19999060	0.00000000	77.06077000	30.00123000
161.39999059	0.00000000	77.43602000	30.00123000
161.59999058	0.00000000	77.47908000	30.00123000
161.79999056	0.00000000	77.47908000	30.00123000
161.99999055	0.00000000	77.47908000	30.04429000
162.19999054	0.00000000	77.47908000	30.37647000
162.39999053	0.00000000	77.43602000	30.73942000
162.59999052	0.00000000	77.06077000	30.37647000
162.79999051	0.00000000	76.31644000	30.09350000
162.99999049	0.00000000	75.94118000	30.37647000
163.19999048	0.00000000	75.89813000	30.73942000
163.39999047	0.00000000	75.89813000	30.37647000
163.59999046	0.00000000	75.89813000	30.04429000
163.79999045	0.00000000	75.89813000	30.00123000
163.99999043	0.00000000	75.89813000	30.00123000
164.19999042	0.00000000	75.94118000	30.00123000
164.39999041	0.00000000	76.31644000	30.00123000
164.59999040	0.00000000	77.06077000	30.00123000
164.79999039	0.00000000	77.43602000	30.00123000
164.99999037	0.00000000	77.47908000	30.00123000
165.19999036	0.00000000	77.47908000	30.00123000
165.39999035	0.00000000	77.43602000	30.00123000
165.59999034	0.00000000	77.06077000	30.00123000
165.79999033	0.00000000	76.31644000	30.00123000
165.99999032	0.00000000	75.94118000	30.00123000
166.19999030	0.00000000	75.89813000	30.00123000
166.39999029	0.00000000	75.89813000	30.00123000
166.59999028	0.00000000	75.89813000	30.00123000
166.79999027	0.00000000	75.89813000	30.00123000
166.99999026	0.00000000	75.89813000	30.00123000
167.19999024	0.00000000	75.94118000	30.00123000
167.39999023	0.00000000	76.31644000	30.00123000
167.59999022	0.00000000	77.06077000	30.04429000
167.79999021	0.00000000	77.43602000	30.37647000
167.99999020	0.00000000	77.47908000	30.78248000
168.19999018	0.00000000	77.47908000	30.74557000
168.39999017	0.00000000	77.47908000	30.83169000
168.59999016	0.00000000	77.47908000	30.79478000
168.79999015	0.00000000	77.43602000	31.20078000
168.99999014	0.00000000	77.06077000	31.48376000
169.19999013	0.00000000	76.36565000	31.20078000
169.39999011	0.00000000	76.31644000	30.79478000
169.59999010	0.00000000	76.64246000	30.83169000
169.79999009	0.00000000	76.27337000	30.79478000
169.99999008	0.00000000	75.94118000	31.15772000
170.19999007	0.00000000	75.94118000	31.11466000
170.39999005	0.00000000	76.31644000	30.41954000
170.59999004	0.00000000	77.06077000	30.04429000
170.79999003	0.00000000	77.43602000	30.00123000
170.99999002	0.00000000	77.47908000	30.00123000
171.19999001	0.00000000	77.47908000	30.00123000
171.39998999	0.00000000	77.47908000	30.00123000
171.59998998	0.00000000	77.47908000	30.00123000
171.79998997	0.00000000	77.47908000	30.00123000
171.99998996	0.00000000	77.43602000	30.00123000
172.19998995	0.00000000	77.06077000	30.00123000
172.39998994	0.00000000	76.31644000	30.00123000
172.59998992	0.00000000	75.94118000	30.00123000
172.79998991	0.00000000	75.89813000	30.00123000
172.99998990	0.00000000	75.89813000	30.00123000
173.19998989	0.00000000	75.89813000	30.00123000
173.39998988	0.00000000	75.94118000	30.00123000
173.59998986	0.00000000	76.31644000	30.04429000
173.79998985	0.00000000	77.06077000	30.37647000
173.99998984	0.00000000	77.38681000	30.73942000
174.19998983	0.00000000	77.06077000	30.37647000
174.39998982	0.00000000	76.36565000	30.04429000
174.59998980	0.00000000	76.31644000	30.00123000
174.79998979	0.00000000	76.64246000	30.00123000
174.99998978	0.00000000	76.27337000	30.00123000
175.19998977	0.00000000	75.94118000	30.00123000
175.39998976	0.00000000	75.89813000	30.00123000
175.59998975	0.00000000	75.89813000	30.00123000
175.79998973	0.00000000	75.89813000	30.00123000
175.99998972	0.00000000	75.89813000	30.00123000
176.19998971	0.00000000	75.89813000	30.00123000
176.39998970	0.00000000	75.94118000	30.00123000
176.59998969	0.00000000	76.27337000	30.00123000
176.79998967	0.00000000	76.64246000	30.00123000
176.99998966	0.00000000	76.27337000	30.00123000
177.19998965	0.00000000	75.94118000	30.00123000
177.39998964	0.00000000	75.89813000	30.00123000
177.59998963	0.00000000	75.89813000	30.00123000
177.79998961	0.00000000	75.89813000	30.00123000
177.99998960	0.00000000	75.89813000	30.00123000
178.19998959	0.00000000	75.89813000	30.00123000
178.39998958	0.00000000	75.89813000	30.00123000
178.59998957	0.00000000	75.89813000	30.00123000
178.79998956	0.00000000	75.94118000	30.04429000
178.99998954	0.00000000	76.27337000	30.37647000
179.19998953	0.00000000	76.68553000	30.78248000
179.39998952	0.00000000	76.64862000	30.74557000
179.59998951	0.00000000	76.68553000	30.78248000
179.79998950	0.00000000	76.27337000	30.37647000
179.99998948	0.00000000	75.94118000	30.04429000
180.19998947	0.00000000	75.89813000	30.00123000
180.39998946	0.00000000	75.89813000	30.00123000
180.59998945	0.00000000	75.89813000	30.00123000
180.79998944	0.00000000	75.89813000	30.00123000
180.99998942	0.00000000	75.89813000	30.00123000
181.19998941	0.00000000	75.89813000	30.00123000
181.39998940	0.00000000	75.89813000	30.00123000
181.59998939	0.00000000	75.89813000	30.00123000
181.79998938	0.00000000	75.89813000	30.00123000
181.99998937	0.00000000	75.89813000	30.00123000
182.19998935	0.00000000	75.94118000	30.00123000
182.39998934	0.00000000	76.31644000	29.95817000
182.59998933	0.00000000	77.01156000	29.62598000
182.79998932	0.00000000	77.01156000	29.25689000
182.99998931	0.00000000	76.31644000	29.62598000
183.19998929	0.00000000	75.94118000	29.95817000
183.39998928	0.00000000	75.89813000	30.00123000
183.59998927	0.00000000	75.89813000	30.00123000
183.79998926	0.00000000	75.89813000	30.00123000
183.99998925	0.00000000	75.89813000	30.00123000
184.19998923	0.00000000	75.89813000	30.00123000
184.39998922	0.00000000	75.89813000	30.04429000
184.59998921	0.00000000	75.89813000	30.37647000
184.79998920	0.00000000	75.89813000	30.73942000
184.99998919	0.00000000	75.89813000	30.37647000
185.19998918	0.00000000	75.94118000	30.04429000
185.39998916	0.00000000	76.27337000	30.00123000
185.59998915	0.00000000	76.64246000	30.00123000
185.79998914	0.00000000	76.27337000	30.00123000
185.99998913	0.00000000	75.94118000	30.00123000
186.19998912	0.00000000	75.89813000	30.00123000
186.39998910	0.00000000	75.89813000	30.00123000
186.59998909	0.00000000	75.89813000	30.00123000
186.79998908	0.00000000	75.89813000	30.00123000
186.99998907	0.00000000	75.89813000	30.00123000
187.19998906	0.00000000	75.89813000	30.04429000
187.39998904	0.00000000	75.89813000	30.41954000
187.59998903	0.00000000	75.89813000	31.15772000
187.79998902	0.00000000	75.89813000	31.48376000
187.99998901	0.00000000	75.94118000	31.15772000
188.19998900	0.00000000	76.27337000	30.37647000
188.39998899	0.00000000	76.68553000	29.66904000
188.59998897	0.00000000	76.69167000	29.25689000
188.79998896	0.00000000	77.06077000	29.62598000
188.99998895	0.00000000	77.01156000	29.95817000
189.19998894	0.00000000	76.31644000	30.00123000
189.39998893	0.00000000	75.94118000	30.00123000
189.59998891	0.00000000	75.89813000	30.00123000
189.79998890	0.00000000	75.89813000	30.00123000
189.99998889	0.00000000	75.89813000	30.00123000
190.19998888	0.00000000	75.89813000	30.04429000
190.39998887	0.00000000	75.89813000	30.37647000
190.59998885	0.00000000	75.89813000	30.73942000
190.79998884	0.00000000	75.94118000	30.41954000
190.99998883	0.00000000	76.27337000	30.41954000
191.19998882	0.00000000	76.64246000	30.73942000
191.39998881	0.00000000	76.27337000	30.37647000
191.59998880	0.00000000	75.94118000	30.04429000
191.79998878	0.00000000	75.89813000	30.00123000
191.99998877	0.00000000	75.89813000	30.00123000
192.19998876	0.00000000	75.89813000	30.00123000
192.39998875	0.00000000	75.89813000	30.00123000
192.59998874	0.00000000	75.89813000	30.00123000
192.79998872	0.00000000	75.89813000	30.00123000
192.99998871	0.00000000	75.89813000	30.00123000
193.19998870	0.00000000	75.89813000	30.00123000
193.39998869	0.00000000	75.89813000	30.00123000
193.59998868	0.00000000	75.89813000	30.00123000
193.79998866	0.00000000	75.89813000	30.00123000
193.99998865	0.00000000	75.89813000	30.00123000
194.19998864	0.00000000	75.89813000	30.00123000
194.39998863	0.00000000	75.89813000	30.00123000
194.59998862	0.00000000	75.89813000	30.00123000
194.79998861	0.00000000	75.89813000	30.00123000
194.99998859	0.00000000	75.89813000	30.00123000
195.19998858	0.00000000	75.89813000	30.00123000
195.39998857	0.00000000	75.85506000	29.95817000
195.59998856	0.00000000	75.52288000	29.62598000
195.79998855	0.00000000	75.15379000	29.25689000
195.99998853	0.00000000	75.52288000	29.62598000
