Time	Channel A	Channel B	Channel C
(us)	(V)	(mV)	(mV)

-4.49999956	0.00000000	-14.27165000	1.57480300
-4.29999957	0.00000000	-14.22859000	1.57480300
-4.09999958	0.00000000	-14.22859000	1.57480300
-3.89999959	0.00000000	-14.22859000	1.57480300
-3.69999960	0.00000000	-14.22859000	1.57480300
-3.49999962	0.00000000	-14.27165000	1.57480300
-3.29999963	0.00000000	-14.60384000	1.57480300
-3.09999964	0.00000000	-14.97293000	1.61786400
-2.89999965	0.00000000	-14.60384000	1.99311000
-2.69999966	0.00000000	-14.32087000	2.68823800
-2.49999968	0.00000000	-14.60384000	2.68823800
-2.29999969	0.00000000	-14.97293000	1.99311000
-2.09999970	0.00000000	-14.60384000	1.61786400
-1.89999971	0.00000000	-14.27165000	1.57480300
-1.69999972	0.00000000	-14.22859000	1.57480300
-1.49999973	0.00000000	-14.22859000	1.57480300
-1.29999975	0.00000000	-14.22859000	1.57480300
-1.09999976	0.00000000	-14.22859000	1.57480300
-0.89999977	0.00000000	-14.27165000	1.57480300
-0.69999978	0.00000000	-14.60384000	1.57480300
-0.49999979	0.00000000	-14.97293000	1.57480300
-0.29999981	0.31803640	-14.60384000	1.57480300
-0.09999982	0.63668800	-14.27165000	1.57480300
0.10000017	0.95533960	-14.22859000	1.57480300
0.30000016	0.95533960	-14.22859000	1.57480300
0.50000015	0.95533960	-14.22859000	1.57480300
0.70000013	0.47736220	-14.22859000	1.57480300
0.90000012	-0.31803640	-14.22859000	1.57480300
1.10000011	-1.27399100	-14.22859000	1.57480300
1.30000010	-2.22994600	-14.22859000	1.57480300
1.50000009	-2.70792300	-14.22859000	1.61786400
1.70000008	-2.54859700	-14.22859000	1.99311000
1.90000006	-1.59264300	-14.22859000	2.73745100
2.10000005	0.15871060	-14.22859000	3.11269700
2.30000004	2.22994600	-14.22859000	3.15575800
2.50000003	4.14124000	-14.22859000	3.11269700
2.70000002	5.25652100	-14.22859000	2.73745100
2.90000000	5.09719500	-14.22859000	1.99311000
3.09999999	3.50393700	-14.22859000	1.61786400
3.29999998	0.63668800	-14.22859000	1.57480300
3.49999997	-2.86724900	-14.22859000	1.57480300
3.69999996	-5.89382400	-14.22859000	1.61786400
3.89999994	-7.80511800	-14.22859000	1.99311000
4.09999993	-7.64579200	-14.22859000	2.73745100
4.29999992	-5.73449800	-14.22859000	3.11269700
4.49999991	-1.91129400	-14.22859000	3.15575800
4.69999990	2.38927200	-14.22859000	3.15575800
4.89999989	6.37180100	-14.27165000	3.11269700
5.09999987	8.92039900	-14.60384000	2.73745100
5.29999986	9.23905000	-14.97293000	1.99311000
5.49999985	7.16781500	-14.60384000	1.61786400
5.69999984	3.34522600	-14.32087000	1.57480300
5.89999983	-1.27399100	-14.60384000	1.57480300
6.09999981	-5.73449800	-14.97293000	1.57480300
6.29999980	-8.76107300	-14.60384000	1.61786400
6.49999979	-9.39837600	-14.27165000	1.99311000
6.69999978	-7.80511800	-14.22859000	2.73745100
6.89999977	-4.30056600	-14.22859000	3.11269700
7.09999975	0.00000000	-14.22859000	3.15575800
7.29999974	4.14124000	-14.22859000	3.15575800
7.49999973	6.84916400	-14.22859000	3.11269700
7.69999972	7.80511800	-14.22859000	2.73745100
7.89999971	6.69045300	-14.22859000	1.99311000
8.09999970	4.14124000	-14.22859000	1.61786400
8.29999968	0.79601380	-14.22859000	1.57480300
8.49999967	-2.38927200	-14.22859000	1.57480300
8.69999966	-4.45989200	-14.22859000	1.57480300
8.89999965	-5.25652100	-14.22859000	1.61786400
9.09999964	-4.61921700	-14.22859000	1.99311000
9.29999962	-3.02657500	-14.22859000	2.73745100
9.49999961	-1.11466500	-14.22859000	3.06348400
9.69999960	0.79601380	-14.22859000	2.78051200
9.89999959	2.07062000	-14.22859000	2.41141700
10.09999958	2.54859700	-14.22859000	2.73745100
10.29999956	2.22994600	-14.22859000	2.68823800
10.49999955	1.59264300	-14.22859000	2.04232300
10.69999954	0.79601380	-14.22859000	1.99311000
10.89999953	0.00000000	-14.22859000	2.36220500
11.09999952	-0.63668800	-14.22859000	2.36835600
11.29999951	-0.95533960	-14.22859000	2.78051200
11.49999949	-0.95533960	-14.22859000	3.06348400
11.69999948	-0.79601380	-14.22859000	2.78051200
11.89999947	-0.47736220	-14.22859000	2.36835600
12.09999946	-0.15871060	-14.27165000	2.36220500
12.29999945	-0.15871060	-14.60384000	1.95004900
12.49999943	0.00000000	-14.97293000	1.61786400
12.69999942	0.00000000	-14.60384000	1.57480300
12.89999941	0.00000000	-14.27165000	1.61786400
13.09999940	0.00000000	-14.22859000	1.95004900
13.29999939	0.15871060	-14.22859000	2.31914400
13.49999937	0.00000000	-14.22859000	1.95004900
13.69999936	0.00000000	-14.22859000	1.61786400
13.89999935	0.00000000	-14.22859000	1.57480300
14.09999934	0.00000000	-14.22859000	1.61786400
14.29999933	-0.15871060	-14.22859000	1.95004900
14.49999932	0.00000000	-14.22859000	2.31914400
14.69999930	0.00000000	-14.22859000	1.95004900
14.89999929	0.00000000	-14.22859000	1.66707700
15.09999928	0.00000000	-14.27165000	1.95004900
15.29999927	0.00000000	-14.60384000	2.36220500
15.49999926	0.00000000	-14.97293000	2.36835600
15.69999924	0.00000000	-14.60384000	2.73745100
15.89999923	0.00000000	-14.27165000	2.68823800
16.09999922	0.00000000	-14.22859000	1.99311000
16.29999921	0.00000000	-14.22859000	1.61786400
16.49999920	0.00000000	-14.22859000	1.57480300
16.69999919	-0.15871060	-14.22859000	1.57480300
16.89999917	0.00000000	-14.18553000	1.57480300
17.09999916	0.00000000	-13.81028000	1.57480300
17.29999915	0.00000000	-13.06594000	1.57480300
17.49999914	0.00000000	-12.69070000	1.57480300
17.69999913	0.00000000	-12.69070000	1.57480300
17.89999911	0.00000000	-13.06594000	1.61786400
18.09999910	0.00000000	-13.85334000	1.99311000
18.29999909	0.00000000	-14.69611000	2.73745100
18.49999908	0.00000000	-16.22785000	3.11269700
18.69999907	0.00000000	-18.13484000	3.11269700
18.89999905	0.00000000	-19.25443000	2.78051200
19.09999904	0.00000000	-19.66658000	2.41141700
19.29999903	0.00000000	-18.79306000	2.78051200
19.49999902	0.00000000	-16.50467000	3.11269700
19.69999901	0.00000000	-12.97982000	3.11269700
19.89999900	0.00000000	-9.15354300	2.73745100
20.09999898	0.00000000	-5.62869100	2.04232300
20.29999897	0.00000000	-3.38951800	1.99311000
20.49999896	0.00000000	-3.06348400	2.36220500
20.69999895	0.00000000	-5.85014700	2.36835600
20.89999894	0.00000000	-11.62032000	2.73745100
21.09999892	0.00000000	-18.97145000	2.68823800
21.29999891	0.00000000	-26.32259000	1.99311000
21.49999890	0.00000000	-32.09276000	1.61786400
21.69999889	0.00000000	-34.75024000	1.57480300
21.89999888	0.00000000	-33.07701000	1.57480300
22.09999886	0.00000000	-26.46407000	1.57480300
22.29999885	0.00000000	-15.63115000	1.57480300
22.49999884	0.00000000	-3.25418300	1.61786400
22.69999883	0.00000000	8.28617100	1.95004900
22.89999882	0.00000000	15.91412000	2.36220500
23.09999881	0.00000000	16.66462000	2.36835600
23.29999879	0.00000000	10.42692000	2.78051200
23.49999878	0.00000000	-2.03617100	3.11269700
23.69999877	0.00000000	-19.06373000	3.19881900
23.89999876	0.00000000	-36.74950000	3.57406500
24.09999875	0.00000000	-50.60900000	4.26919300
24.29999873	0.00000000	-56.71136000	4.22613100
24.49999872	0.00000000	-53.21727000	3.11269700
24.69999871	0.00000000	-40.38509000	1.57480300
24.89999870	0.00000000	-20.69390000	0.00000000
25.09999869	0.00000000	1.72244100	-1.53174200
25.29999867	0.00000000	21.36442000	-2.68823800
25.49999866	0.00000000	33.69217000	-3.06348400
25.69999865	0.00000000	35.18085000	-2.60211600
25.89999864	0.00000000	25.12918000	-0.60285430
26.09999863	0.00000000	5.81938900	3.20497000
26.29999862	0.00000000	-18.51009000	7.43110200
26.49999860	0.00000000	-42.05216000	10.96211000
26.69999859	0.00000000	-59.45497000	13.60728000
26.89999858	0.00000000	-66.80610000	14.30241000
27.09999857	0.00000000	-62.52460000	11.94021000
27.29999856	0.00000000	-47.44709000	6.92052100
27.49999854	0.00000000	-24.69857000	-0.09227362
27.69999853	0.00000000	-0.03690945	-7.75713500
27.89999852	0.00000000	20.52165000	-14.30241000
28.09999851	0.00000000	32.90477000	-17.74729000
28.29999850	0.00000000	34.85482000	-17.32899000
28.49999848	0.00000000	25.63976000	-12.59227000
28.69999847	0.00000000	8.32923100	-3.67249000
28.89999846	0.00000000	-12.60458000	7.94168200
29.09999845	0.00000000	-33.12008000	19.83883000
29.29999844	0.00000000	-48.94193000	29.03543000
29.49999843	0.00000000	-56.33612000	32.47416000
29.69999841	0.00000000	-54.14616000	29.36146000
29.89999840	0.00000000	-44.14370000	20.06643000
30.09999839	0.00000000	-29.02313000	6.13312000
30.29999838	0.00000000	-11.57726000	-9.29502900
30.49999837	0.00000000	4.61368100	-23.22835000
30.69999835	0.00000000	15.87106000	-32.43110000
30.89999834	0.00000000	19.82652000	-34.70718000
31.09999833	0.00000000	16.79995000	-28.85088000
31.29999832	0.00000000	7.91092400	-15.74803000
31.49999831	0.00000000	-4.83513700	1.62401600
31.69999829	0.00000000	-18.41781000	19.42052000
31.89999828	0.00000000	-30.46875000	34.09818000
32.09999827	0.00000000	-38.93332000	42.55659000
32.29999826	0.00000000	-41.67692000	42.51353000
32.49999825	0.00000000	-38.23819000	33.67987000
32.69999824	0.00000000	-30.17962000	18.25787000
32.89999822	0.00000000	-19.30364000	0.09227362
33.09999821	0.00000000	-8.13238100	-17.32899000
33.29999820	0.00000000	1.16879900	-30.48105000
33.49999819	0.00000000	6.19463500	-36.65723000
33.69999818	0.00000000	6.28690900	-34.75024000
33.89999816	0.00000000	2.00541300	-25.08612000
34.09999815	0.00000000	-5.67175200	-10.03322000
34.29999814	0.00000000	-14.92372000	7.33882900
34.49999813	0.00000000	-23.02534000	23.17913000
34.69999812	0.00000000	-28.46333000	34.01205000
34.89999810	0.00000000	-30.00123000	37.91216000
35.09999809	0.00000000	-27.34990000	34.01205000
35.29999808	0.00000000	-21.62278000	23.27141000
35.49999807	0.00000000	-14.69611000	8.26771600
35.69999806	0.00000000	-8.50147600	-6.78518600
35.89999805	0.00000000	-4.26919300	-18.81767000
36.09999803	0.00000000	-3.11269700	-25.74434000
36.29999802	0.00000000	-5.38877900	-25.74434000
36.49999801	0.00000000	-9.95324800	-18.86688000
36.69999800	0.00000000	-15.39124000	-7.38804100
36.89999799	0.00000000	-20.37401000	5.33956700
37.09999797	0.00000000	-23.81275000	16.12328000
37.29999796	0.00000000	-24.18799000	22.71777000
37.49999795	0.00000000	-21.57972000	23.46826000
37.69999794	0.00000000	-17.34744000	18.53469000
37.89999793	0.00000000	-12.69070000	9.29502900
38.09999791	0.00000000	-8.45841400	-1.35334600
38.29999790	0.00000000	-5.76402500	-10.17470000
38.49999789	0.00000000	-5.33956700	-14.03789000
38.69999788	0.00000000	-6.87746000	-12.54921000
38.89999787	0.00000000	-9.95324800	-6.40994000
39.09999786	0.00000000	-13.81028000	2.78051200
39.29999784	0.00000000	-17.34744000	11.94021000
39.49999783	0.00000000	-20.46014000	18.44242000
39.69999782	0.00000000	-22.74237000	19.98031000
39.89999781	0.00000000	-23.11762000	16.16634000
40.09999780	0.00000000	-21.57972000	8.45841400
40.29999778	0.00000000	-18.50394000	-1.53174200
40.49999777	0.00000000	-14.64690000	-11.06053000
40.69999776	0.00000000	-11.10974000	-16.77534000
40.89999775	0.00000000	-7.99704600	-16.81841000
41.09999774	0.00000000	-5.71481200	-11.47884000
41.29999772	0.00000000	-5.29650500	-2.64517700
41.49999771	0.00000000	-6.41609200	7.38188900
41.69999770	0.00000000	-8.41535400	16.21555000
41.89999769	0.00000000	-11.53420000	21.60433000
42.09999768	0.00000000	-15.34203000	21.97957000
42.29999767	0.00000000	-18.46087000	17.37820000
42.49999765	0.00000000	-20.41708000	8.96284400
42.69999764	0.00000000	-21.24754000	-0.60285430
42.89999763	0.00000000	-20.83538000	-8.36614100
43.09999762	0.00000000	-19.66658000	-13.01058000
43.29999761	0.00000000	-17.34744000	-13.79798000
43.49999759	0.00000000	-14.69611000	-10.35925000
43.69999758	0.00000000	-12.69070000	-4.26919300
43.89999757	0.00000000	-11.10974000	2.69439000
44.09999756	0.00000000	-9.95324800	8.82750900
44.29999755	0.00000000	-9.52879000	12.72761000
44.49999753	0.00000000	-9.52879000	13.56422000
44.69999752	0.00000000	-9.90403500	12.07554000
44.89999751	0.00000000	-10.64838000	8.96284400
45.09999750	0.00000000	-11.06668000	4.73671200
45.29999749	0.00000000	-11.53420000	0.51058070
45.49999748	0.00000000	-12.73991000	-2.60211600
45.69999746	0.00000000	-14.69611000	-4.18307100
45.89999745	0.00000000	-17.43356000	-4.18307100
46.09999744	0.00000000	-20.50935000	-2.64517700
46.29999743	0.00000000	-23.16068000	0.00000000
46.49999742	0.00000000	-24.27411000	2.69439000
46.69999740	0.00000000	-23.11762000	4.68750000
46.89999739	0.00000000	-19.95571000	6.26845500
47.09999738	0.00000000	-14.92372000	7.38188900
47.29999737	0.00000000	-8.74138700	7.38188900
47.49999736	0.00000000	-3.34030500	6.22539300
47.69999734	0.00000000	0.55979330	4.31840500
47.89999733	0.00000000	1.96235200	1.95004900
48.09999732	0.00000000	-0.41215550	-0.33218500
48.29999731	0.00000000	-6.92052100	-2.27608300
48.49999730	0.00000000	-15.39124000	-2.97736200
48.69999729	0.00000000	-23.53592000	-2.27608300
48.89999727	0.00000000	-30.09350000	-0.28297240
49.09999726	0.00000000	-33.12008000	2.36835600
49.29999725	0.00000000	-31.58218000	5.51796200
49.49999724	0.00000000	-25.76895000	8.13238100
49.69999723	0.00000000	-16.87992000	9.70103300
49.89999721	0.00000000	-6.92052100	9.29502900
50.09999720	0.00000000	1.16879900	7.38188900
50.29999719	0.00000000	5.08120100	4.22613100
50.49999718	0.00000000	4.70595500	0.04306102
50.69999717	0.00000000	0.04921259	-3.76476400
50.89999715	0.00000000	-8.04010800	-5.71481200
51.09999714	0.00000000	-17.29823000	-5.75787400
51.29999713	0.00000000	-25.71973000	-4.13385800
51.49999712	0.00000000	-30.73942000	-0.64591530
51.69999711	0.00000000	-30.79478000	4.27534400
51.89999710	0.00000000	-26.97465000	8.50147600
52.09999708	0.00000000	-19.99877000	10.86983000
52.29999707	0.00000000	-11.57726000	11.65723000
52.49999706	0.00000000	-4.26919300	10.45152000
52.69999705	0.00000000	-0.03690945	7.38188900
52.89999704	0.00000000	0.00615157	3.15575800
53.09999702	0.00000000	-3.80782500	-1.02116100
53.29999701	0.00000000	-9.95324800	-3.76476400
53.49999700	0.00000000	-16.87992000	-4.55831700
53.69999699	0.00000000	-22.60704000	-3.76476400
53.89999698	0.00000000	-25.34449000	-1.11343500
54.09999696	0.00000000	-24.60630000	2.27608300
54.29999695	0.00000000	-21.16142000	4.60137700
54.49999694	0.00000000	-15.76649000	5.80093500
54.69999693	0.00000000	-10.03937000	5.80093500
54.89999692	0.00000000	-5.80708600	4.68750000
55.09999691	0.00000000	-4.22613100	3.15575800
55.29999689	0.00000000	-5.38877900	1.62401600
55.49999688	0.00000000	-8.83366100	0.51058070
55.69999687	0.00000000	-13.81028000	0.51058070
55.89999686	0.00000000	-18.41781000	1.66707700
56.09999685	0.00000000	-21.53666000	3.61712600
56.29999683	0.00000000	-22.65010000	6.22539300
56.49999682	0.00000000	-21.11220000	8.07701800
56.69999681	0.00000000	-17.34744000	7.66486200
56.89999680	0.00000000	-13.06594000	5.43184000
57.09999679	0.00000000	-9.24581600	1.90698800
57.29999677	0.00000000	-6.55757800	-1.90698800
57.49999676	0.00000000	-6.55142700	-5.33956700
57.69999675	0.00000000	-8.37229300	-6.82824800
57.89999674	0.00000000	-11.10974000	-5.67175200
58.09999673	0.00000000	-14.18553000	-2.18380900
58.29999672	0.00000000	-16.87992000	3.20497000
58.49999670	0.00000000	-18.41781000	8.96284400
58.69999669	0.00000000	-18.46087000	13.56422000
58.89999668	0.00000000	-17.34744000	15.79724000
59.09999667	0.00000000	-15.76649000	14.25935000
59.29999666	0.00000000	-13.85334000	9.24581600
59.49999664	0.00000000	-11.99557000	2.31914400
59.69999663	0.00000000	-11.57726000	-5.33956700
59.89999662	0.00000000	-12.27239000	-11.10359000
60.09999661	0.00000000	-13.02288000	-13.42889000
60.29999660	0.00000000	-13.85334000	-12.26624000
60.49999658	0.00000000	-14.60384000	-7.20349400
60.69999657	0.00000000	-15.34203000	0.41830710
60.89999656	0.00000000	-15.29897000	8.54453700
61.09999655	0.00000000	-14.22859000	15.10212000
61.29999654	0.00000000	-13.06594000	18.95300000
61.49999653	0.00000000	-12.27239000	18.90994000
61.69999651	0.00000000	-11.53420000	14.67766000
61.89999650	0.00000000	-11.57726000	7.33882900
62.09999649	0.00000000	-12.69070000	-1.48868100
62.29999648	0.00000000	-14.22859000	-9.52263600
62.49999647	0.00000000	-15.80955000	-14.16708000
62.69999645	0.00000000	-17.29823000	-14.63459000
62.89999644	0.00000000	-18.04257000	-11.52190000
63.09999643	0.00000000	-17.29823000	-5.33956700
63.29999642	0.00000000	-15.76649000	2.73745100
63.49999641	0.00000000	-13.81028000	10.40846000
63.69999639	0.00000000	-11.48499000	15.84030000
63.89999638	0.00000000	-9.57800100	17.79035000
64.09999637	0.00000000	-8.41535400	16.30167000
64.29999636	0.00000000	-8.45841400	12.03248000
64.49999635	0.00000000	-9.99630800	5.89320800
64.69999634	0.00000000	-12.64764000	-0.64591530
64.89999632	0.00000000	-15.39124000	-5.71481200
65.09999631	0.00000000	-17.67347000	-8.87057000
65.29999630	0.00000000	-19.20522000	-9.99015700
65.49999629	0.00000000	-18.79306000	-8.45226300
65.69999628	0.00000000	-16.97219000	-4.64443900
65.89999626	0.00000000	-14.60384000	-0.04306102
66.09999625	0.00000000	-12.31545000	4.26919300
66.29999624	0.00000000	-10.37155000	7.80019600
66.49999623	0.00000000	-9.66412400	10.53765000
66.69999622	0.00000000	-10.37155000	12.07554000
66.89999620	0.00000000	-12.31545000	12.07554000
67.09999619	0.00000000	-14.56078000	10.53765000
67.29999618	0.00000000	-16.50467000	7.84940900
67.49999617	0.00000000	-17.25517000	4.73671200
67.69999616	0.00000000	-16.87992000	1.58095500
67.89999615	0.00000000	-15.29897000	-1.53174200
68.09999613	0.00000000	-12.64764000	-4.26919300
68.29999612	0.00000000	-9.99630800	-6.17618100
68.49999611	0.00000000	-8.45841400	-6.92052100
68.69999610	0.00000000	-8.45841400	-5.75787400
68.89999609	0.00000000	-10.03937000	-3.02042300
69.09999607	0.00000000	-13.15822000	0.83661410
69.29999606	0.00000000	-17.34744000	5.51796200
69.49999605	0.00000000	-21.16142000	9.75639700
69.69999604	0.00000000	-23.06841000	13.23819000
69.89999603	0.00000000	-22.74237000	14.72687000
70.09999601	0.00000000	-20.37401000	13.56422000
70.29999600	0.00000000	-16.46161000	10.11934000
70.49999599	0.00000000	-11.06668000	5.06274600
70.69999598	0.00000000	-5.71481200	-0.28297240
70.89999597	0.00000000	-2.26993100	-4.96432100
71.09999596	0.00000000	-1.48253000	-7.67101300
71.29999594	0.00000000	-3.80782500	-8.45226300
71.49999593	0.00000000	-8.45841400	-6.87746000
71.69999592	0.00000000	-14.60384000	-3.06963600
71.89999591	0.00000000	-20.78617000	1.53174200
72.09999590	0.00000000	-25.02460000	5.80093500
72.29999588	0.00000000	-27.01772000	8.91978400
72.49999587	0.00000000	-26.18725000	10.45152000
72.69999586	0.00000000	-22.74237000	10.07628000
72.89999585	0.00000000	-17.29823000	7.80019600
73.09999584	0.00000000	-11.15896000	4.77977300
73.29999582	0.00000000	-5.76402500	2.04232300
73.49999581	0.00000000	-2.64517700	0.13533460
73.69999580	0.00000000	-2.22687000	-0.65206690
73.89999579	0.00000000	-4.18307100	0.09227362
74.09999578	0.00000000	-8.41535400	1.53174200
74.29999577	0.00000000	-13.76107000	2.68823800
74.49999575	0.00000000	-18.41781000	3.06348400
74.69999574	0.00000000	-21.53666000	2.68823800
74.89999573	0.00000000	-22.69316000	1.53174200
75.09999572	0.00000000	-21.57972000	0.04306102
75.29999571	0.00000000	-18.92839000	-1.11343500
75.49999569	0.00000000	-15.80955000	-1.43946800
75.69999568	0.00000000	-12.69070000	-0.64591530
75.89999567	0.00000000	-9.99630800	1.66707700
76.09999566	0.00000000	-8.45841400	4.73671200
76.29999565	0.00000000	-8.41535400	7.84940900
76.49999563	0.00000000	-9.52879000	10.49459000
76.69999562	0.00000000	-11.06668000	11.56496000
76.89999561	0.00000000	-12.60458000	9.98400600
77.09999560	0.00000000	-13.76107000	5.80093500
77.29999559	0.00000000	-14.18553000	0.46136810
77.49999558	0.00000000	-14.22859000	-4.22613100
77.69999556	0.00000000	-14.22859000	-7.71407400
77.89999555	0.00000000	-14.22859000	-9.56569900
78.09999554	0.00000000	-14.27165000	-8.40920300
78.29999553	0.00000000	-14.69611000	-4.55831700
78.49999552	0.00000000	-15.76649000	0.83661410
78.69999550	0.00000000	-16.50467000	7.01279500
78.89999549	0.00000000	-16.14173000	11.98327000
79.09999548	0.00000000	-15.34203000	14.72072000
79.29999547	0.00000000	-13.76107000	14.72072000
79.49999546	0.00000000	-11.48499000	12.07554000
79.69999544	0.00000000	-9.57800100	7.80019600
79.89999543	0.00000000	-8.41535400	2.73745100
80.09999542	0.00000000	-8.41535400	-2.64517700
80.29999541	0.00000000	-9.57800100	-6.82824800
80.49999540	0.00000000	-11.53420000	-8.45226300
80.69999539	0.00000000	-14.22859000	-7.75713500
80.89999537	0.00000000	-16.92298000	-5.80093500
81.09999536	0.00000000	-18.83612000	-2.64517700
81.29999535	0.00000000	-19.58046000	1.57480300
81.49999534	0.00000000	-18.41781000	5.80093500
81.69999533	0.00000000	-15.80955000	8.96284400
81.89999531	0.00000000	-13.11516000	10.91289000
82.09999530	0.00000000	-11.10974000	11.70029000
82.29999529	0.00000000	-9.52879000	10.91289000
82.49999528	0.00000000	-8.45841400	9.00590400
82.69999527	0.00000000	-8.83366100	6.22539300
82.89999525	0.00000000	-10.69144000	2.78051200
83.09999524	0.00000000	-12.60458000	-0.73818890
83.29999523	0.00000000	-14.22859000	-3.43873000
83.49999522	0.00000000	-15.71727000	-5.43184000
83.69999521	0.00000000	-16.50467000	-6.13312000
83.89999520	0.00000000	-16.14173000	-5.38262700
84.09999518	0.00000000	-15.43430000	-3.02042300
84.29999517	0.00000000	-14.60384000	0.41830710
84.49999516	0.00000000	-13.85334000	4.31840500
84.69999515	0.00000000	-13.06594000	7.80019600
84.89999514	0.00000000	-12.73991000	10.53765000
85.09999512	0.00000000	-13.02288000	12.03248000
85.29999511	0.00000000	-13.39198000	11.61417000
85.49999510	0.00000000	-13.02288000	8.91978400
85.69999509	0.00000000	-12.64764000	4.69365100
85.89999508	0.00000000	-12.22933000	0.04306102
86.09999506	0.00000000	-11.53420000	-4.18307100
86.29999505	0.00000000	-11.53420000	-6.87746000
86.49999504	0.00000000	-12.27239000	-7.29576700
86.69999503	0.00000000	-13.06594000	-5.75787400
86.89999502	0.00000000	-14.27165000	-2.60211600
87.09999501	0.00000000	-15.76649000	1.99311000
87.29999499	0.00000000	-16.92298000	6.96358300
87.49999498	0.00000000	-17.29823000	10.45152000
87.69999497	0.00000000	-16.92298000	12.03248000
87.89999496	0.00000000	-15.71727000	11.61417000
88.09999495	0.00000000	-13.81028000	8.91978400
88.29999493	0.00000000	-11.53420000	4.69365100
88.49999492	0.00000000	-9.99630800	0.04306102
88.69999491	0.00000000	-9.57800100	-4.14000900
88.89999490	0.00000000	-9.95324800	-6.40994000
89.09999489	0.00000000	-11.10974000	-5.71481200
89.29999487	0.00000000	-12.64764000	-3.02042300
89.49999486	0.00000000	-14.22859000	0.83661410
89.69999485	0.00000000	-15.76649000	5.43184000
89.89999484	0.00000000	-16.87992000	8.87057000
90.09999483	0.00000000	-16.87992000	10.45152000
90.29999482	0.00000000	-15.76649000	10.03322000
90.49999480	0.00000000	-14.27165000	7.33882900
90.69999479	0.00000000	-13.06594000	3.15575800
90.89999478	0.00000000	-12.27239000	-1.07037400
91.09999477	0.00000000	-11.48499000	-4.13385800
91.29999476	0.00000000	-11.15896000	-5.29650500
91.49999474	0.00000000	-11.48499000	-4.13385800
91.69999473	0.00000000	-12.22933000	-1.07037400
91.89999472	0.00000000	-12.60458000	3.15575800
92.09999471	0.00000000	-12.64764000	7.38188900
92.29999470	0.00000000	-12.69070000	10.45152000
92.49999468	0.00000000	-13.06594000	11.56496000
92.69999467	0.00000000	-13.81028000	10.03322000
92.89999466	0.00000000	-14.22859000	6.21924200
93.09999465	0.00000000	-14.64690000	1.62401600
93.29999464	0.00000000	-15.39124000	-2.60211600
93.49999463	0.00000000	-15.76649000	-5.29650500
93.69999461	0.00000000	-15.76649000	-5.67175200
93.89999460	0.00000000	-15.34203000	-3.76476400
94.09999459	0.00000000	-14.18553000	0.09227362
94.29999458	0.00000000	-12.64764000	4.64443900
94.49999457	0.00000000	-11.06668000	8.50147600
94.69999455	0.00000000	-9.52879000	10.40846000
94.89999454	0.00000000	-8.41535400	10.07628000
95.09999453	0.00000000	-8.41535400	7.75713500
95.29999452	0.00000000	-9.57800100	4.31840500
95.49999451	0.00000000	-11.53420000	0.46751960
95.69999449	0.00000000	-14.27165000	-2.60211600
95.89999448	0.00000000	-17.29823000	-4.14000900
96.09999447	0.00000000	-19.62352000	-3.76476400
96.29999446	0.00000000	-20.37401000	-1.48868100
96.49999445	0.00000000	-19.62352000	1.58095500
96.69999444	0.00000000	-17.25517000	4.68750000
96.89999442	0.00000000	-13.81028000	7.33882900
97.09999441	0.00000000	-9.95324800	8.50147600
97.29999440	0.00000000	-6.87746000	7.75713500
97.49999439	0.00000000	-5.25344500	5.85014700
97.69999438	0.00000000	-4.92125900	3.15575800
97.89999436	0.00000000	-6.09005900	0.51058070
98.09999435	0.00000000	-9.20275500	-1.06422200
98.29999434	0.00000000	-13.02288000	-1.48253000
98.49999433	0.00000000	-16.92298000	-1.11343500
98.69999432	0.00000000	-19.99877000	0.04306102
98.89999430	0.00000000	-21.57972000	1.57480300
99.09999429	0.00000000	-21.53666000	3.11269700
99.29999428	0.00000000	-19.62352000	4.22613100
99.49999427	0.00000000	-16.18479000	4.26919300
99.69999426	0.00000000	-12.69070000	3.57406500
99.89999425	0.00000000	-9.52879000	3.19881900
100.09999423	0.00000000	-6.83439900	3.19881900
100.29999422	0.00000000	-5.29650500	3.57406500
100.49999421	0.00000000	-5.29650500	4.31840500
100.69999420	0.00000000	-6.87746000	4.69365100
100.89999419	0.00000000	-9.95324800	4.69365100
101.09999417	0.00000000	-13.76107000	4.26919300
101.29999416	0.00000000	-16.87992000	3.11269700
101.49999415	0.00000000	-18.87918000	1.57480300
101.69999414	0.00000000	-20.04183000	0.04306102
101.89999413	0.00000000	-19.99877000	-1.06422200
102.09999411	0.00000000	-18.46087000	-1.11343500
102.29999410	0.00000000	-15.80955000	-0.32603340
102.49999409	0.00000000	-13.11516000	0.87967510
102.69999408	0.00000000	-11.10974000	3.24803100
102.89999407	0.00000000	-9.52879000	6.22539300
103.09999406	0.00000000	-8.41535400	8.50147600
103.29999404	0.00000000	-8.41535400	8.91978400
103.49999403	0.00000000	-9.57800100	7.75713500
103.69999402	0.00000000	-11.48499000	5.47490100
103.89999401	0.00000000	-13.81028000	2.36835600
104.09999400	0.00000000	-15.71727000	-0.33218500
104.29999398	0.00000000	-16.92298000	-2.64517700
104.49999397	0.00000000	-17.29823000	-3.71555100
104.69999396	0.00000000	-16.92298000	-2.64517700
104.89999395	0.00000000	-15.76649000	-0.37524600
105.09999394	0.00000000	-14.22859000	1.99311000
105.29999392	0.00000000	-12.69070000	4.68750000
105.49999391	0.00000000	-11.53420000	6.96358300
105.69999390	0.00000000	-11.10974000	7.75713500
105.89999389	0.00000000	-11.10974000	7.38188900
106.09999388	0.00000000	-11.53420000	5.85014700
106.29999387	0.00000000	-12.69070000	3.57406500
106.49999385	0.00000000	-14.13632000	1.62401600
106.69999384	0.00000000	-14.92372000	0.09227362
106.89999383	0.00000000	-14.60384000	-0.65206690
107.09999382	0.00000000	-14.22859000	0.09227362
107.29999381	0.00000000	-13.76107000	1.57480300
107.49999379	0.00000000	-12.64764000	3.15575800
107.69999378	0.00000000	-11.53420000	4.68750000
107.89999377	0.00000000	-11.15896000	5.80093500
108.09999376	0.00000000	-11.53420000	5.80093500
108.29999375	0.00000000	-12.69070000	4.68750000
108.49999374	0.00000000	-14.18553000	3.15575800
108.69999372	0.00000000	-15.34203000	1.62401600
108.89999371	0.00000000	-15.76649000	0.46136810
109.09999370	0.00000000	-15.76649000	0.09227362
109.29999369	0.00000000	-15.34203000	0.46136810
109.49999368	0.00000000	-14.18553000	1.62401600
109.69999366	0.00000000	-12.64764000	3.15575800
109.89999365	0.00000000	-11.10974000	4.68750000
110.09999364	0.00000000	-9.99630800	5.85014700
110.29999363	0.00000000	-9.99630800	6.21924200
110.49999362	0.00000000	-11.10974000	5.80093500
110.69999360	0.00000000	-12.60458000	4.31840500
110.89999359	0.00000000	-13.81028000	2.41141700
111.09999358	0.00000000	-14.60384000	1.24877000
111.29999357	0.00000000	-15.39124000	0.41830710
111.49999356	0.00000000	-15.71727000	0.04306102
111.69999355	0.00000000	-15.39124000	0.04306102
111.89999353	0.00000000	-14.60384000	0.46136810
112.09999352	0.00000000	-13.81028000	1.62401600
112.29999351	0.00000000	-12.64764000	3.11269700
112.49999350	0.00000000	-11.53420000	4.26919300
112.69999349	0.00000000	-11.15896000	4.69365100
112.89999347	0.00000000	-11.48499000	4.69365100
113.09999346	0.00000000	-12.22933000	4.31840500
113.29999345	0.00000000	-12.64764000	3.57406500
113.49999344	0.00000000	-13.06594000	3.15575800
113.69999343	0.00000000	-13.81028000	2.73745100
113.89999341	0.00000000	-14.18553000	1.99311000
114.09999340	0.00000000	-14.22859000	1.61786400
114.29999339	0.00000000	-14.18553000	1.57480300
114.49999338	0.00000000	-13.81028000	1.57480300
114.69999337	0.00000000	-13.06594000	1.57480300
114.89999336	0.00000000	-12.69070000	1.57480300
115.09999334	0.00000000	-12.60458000	1.57480300
115.29999333	0.00000000	-12.27239000	1.57480300
115.49999332	0.00000000	-11.90330000	1.61786400
115.69999331	0.00000000	-12.27239000	1.99311000
115.89999330	0.00000000	-12.64764000	2.73745100
116.09999328	0.00000000	-13.06594000	3.15575800
116.29999327	0.00000000	-13.81028000	3.57406500
116.49999326	0.00000000	-14.18553000	4.31840500
116.69999325	0.00000000	-14.22859000	4.69365100
116.89999324	0.00000000	-14.22859000	4.69365100
117.09999322	0.00000000	-14.18553000	4.31840500
117.29999321	0.00000000	-13.76107000	3.53100400
117.49999320	0.00000000	-12.64764000	2.78051200
117.69999319	0.00000000	-11.53420000	1.99311000
117.89999318	0.00000000	-11.10974000	1.61786400
118.09999317	0.00000000	-11.06668000	1.57480300
118.29999315	0.00000000	-11.10974000	1.57480300
118.49999314	0.00000000	-11.53420000	1.61786400
118.69999313	0.00000000	-12.64764000	1.99311000
118.89999312	0.00000000	-13.81028000	2.73745100
119.09999311	0.00000000	-14.60384000	3.15575800
119.29999309	0.00000000	-15.39124000	3.57406500
119.49999308	0.00000000	-15.71727000	4.31840500
119.69999307	0.00000000	-15.39124000	4.69365100
119.89999306	0.00000000	-14.60384000	4.69365100
120.09999305	0.00000000	-13.81028000	4.31840500
120.29999303	0.00000000	-12.60458000	3.57406500
120.49999302	0.00000000	-11.10974000	3.15575800
120.69999301	0.00000000	-9.95324800	2.73745100
120.89999300	0.00000000	-9.57800100	1.99311000
121.09999299	0.00000000	-9.95324800	1.61786400
121.29999298	0.00000000	-11.10974000	1.57480300
121.49999296	0.00000000	-12.64764000	1.57480300
121.69999295	0.00000000	-14.18553000	1.57480300
121.89999294	0.00000000	-15.34203000	1.61786400
122.09999293	0.00000000	-15.71727000	1.99311000
122.29999292	0.00000000	-15.39124000	2.78051200
122.49999290	0.00000000	-14.60384000	3.53100400
122.69999289	0.00000000	-13.85334000	4.31840500
122.89999288	0.00000000	-13.02288000	4.69365100
123.09999287	0.00000000	-12.27239000	4.69365100
123.29999286	0.00000000	-11.48499000	4.31840500
123.49999284	0.00000000	-11.10974000	3.57406500
123.69999283	0.00000000	-11.06668000	3.15575800
123.89999282	0.00000000	-11.10974000	2.73745100
124.09999281	0.00000000	-11.48499000	1.99311000
124.29999280	0.00000000	-12.22933000	1.61786400
124.49999279	0.00000000	-12.64764000	1.57480300
124.69999277	0.00000000	-13.06594000	1.57480300
124.89999276	0.00000000	-13.81028000	1.61786400
125.09999275	0.00000000	-14.18553000	1.99311000
125.29999274	0.00000000	-14.22859000	2.73745100
125.49999273	0.00000000	-14.22859000	3.11269700
125.69999271	0.00000000	-14.18553000	3.19881900
125.89999270	0.00000000	-13.81028000	3.53100400
126.09999269	0.00000000	-13.02288000	3.90009800
126.29999268	0.00000000	-12.27239000	3.53100400
126.49999267	0.00000000	-11.48499000	3.19881900
126.69999265	0.00000000	-11.10974000	3.11269700
126.89999264	0.00000000	-11.10974000	2.73745100
127.09999263	0.00000000	-11.48499000	1.99311000
127.29999262	0.00000000	-12.27239000	1.61786400
127.49999261	0.00000000	-13.06594000	1.57480300
127.69999260	0.00000000	-14.22859000	1.61786400
127.89999258	0.00000000	-15.29897000	1.99311000
128.09999257	0.00000000	-15.34203000	2.73745100
128.29999256	0.00000000	-14.60384000	3.11269700
128.49999255	0.00000000	-13.81028000	3.19881900
128.69999254	0.00000000	-12.64764000	3.57406500
128.89999252	0.00000000	-11.53420000	4.26919300
129.09999251	0.00000000	-11.10974000	4.26919300
129.29999250	0.00000000	-11.06668000	3.57406500
129.49999249	0.00000000	-11.10974000	3.19881900
129.69999248	0.00000000	-11.53420000	3.11269700
129.89999246	0.00000000	-12.69070000	2.73745100
130.09999245	0.00000000	-14.18553000	1.99311000
130.29999244	0.00000000	-15.29897000	1.66707700
130.49999243	0.00000000	-15.34203000	1.99311000
130.69999242	0.00000000	-14.60384000	2.73745100
130.89999241	0.00000000	-13.85334000	3.11269700
131.09999239	0.00000000	-13.02288000	3.15575800
131.29999238	0.00000000	-12.27239000	3.15575800
131.49999237	0.00000000	-11.48499000	3.11269700
131.69999236	0.00000000	-11.15896000	2.73745100
131.89999235	0.00000000	-11.48499000	1.99311000
132.09999233	0.00000000	-12.27239000	1.61786400
132.29999232	0.00000000	-13.02288000	1.57480300
132.49999231	0.00000000	-13.81028000	1.57480300
132.69999230	0.00000000	-14.18553000	1.61786400
132.89999229	0.00000000	-14.22859000	1.99311000
133.09999227	0.00000000	-14.18553000	2.78051200
133.29999226	0.00000000	-13.81028000	3.53100400
133.49999225	0.00000000	-13.06594000	4.31840500
133.69999224	0.00000000	-12.69070000	4.69365100
133.89999223	0.00000000	-12.60458000	4.69365100
134.09999222	0.00000000	-12.27239000	4.31840500
134.29999220	0.00000000	-11.90330000	3.53100400
134.49999219	0.00000000	-12.27239000	2.73745100
134.69999218	0.00000000	-12.60458000	1.62401600
134.89999217	0.00000000	-12.64764000	0.87967510
135.09999216	0.00000000	-12.60458000	1.19955700
135.29999214	0.00000000	-12.27239000	1.53174200
135.49999213	0.00000000	-11.90330000	1.61786400
135.69999212	0.00000000	-12.27239000	1.99311000
135.89999211	0.00000000	-12.60458000	2.78051200
136.09999210	0.00000000	-12.69070000	3.53100400
136.29999208	0.00000000	-13.06594000	4.31840500
136.49999207	0.00000000	-13.81028000	4.69365100
136.69999206	0.00000000	-14.18553000	4.69365100
136.89999205	0.00000000	-14.22859000	4.31840500
137.09999204	0.00000000	-14.18553000	3.57406500
137.29999203	0.00000000	-13.81028000	3.15575800
137.49999201	0.00000000	-13.06594000	2.73745100
137.69999200	0.00000000	-12.64764000	1.99311000
137.89999199	0.00000000	-12.22933000	1.61786400
138.09999198	0.00000000	-11.53420000	1.57480300
138.29999197	0.00000000	-11.53420000	1.57480300
138.49999195	0.00000000	-12.22933000	1.57480300
138.69999194	0.00000000	-12.64764000	1.61786400
138.89999193	0.00000000	-13.06594000	1.99311000
139.09999192	0.00000000	-13.81028000	2.78051200
139.29999191	0.00000000	-14.18553000	3.53100400
139.49999189	0.00000000	-14.18553000	4.31840500
139.69999188	0.00000000	-13.81028000	4.69365100
139.89999187	0.00000000	-13.06594000	4.69365100
140.09999186	0.00000000	-12.64764000	4.31840500
140.29999185	0.00000000	-12.22933000	3.57406500
140.49999184	0.00000000	-11.53420000	3.15575800
140.69999182	0.00000000	-11.53420000	2.73745100
140.89999181	0.00000000	-12.27239000	1.95004900
141.09999180	0.00000000	-13.02288000	1.24877000
141.29999179	0.00000000	-13.81028000	0.83661410
141.49999178	0.00000000	-14.18553000	1.24877000
141.69999176	0.00000000	-14.18553000	1.95004900
141.89999175	0.00000000	-13.81028000	2.78051200
142.09999174	0.00000000	-13.06594000	3.53100400
142.29999173	0.00000000	-12.69070000	4.31840500
142.49999172	0.00000000	-12.60458000	4.69365100
142.69999170	0.00000000	-12.27239000	4.69365100
142.89999169	0.00000000	-11.90330000	4.31840500
143.09999168	0.00000000	-12.27239000	3.53100400
143.29999167	0.00000000	-12.60458000	2.78051200
143.49999166	0.00000000	-12.64764000	1.95004900
143.69999165	0.00000000	-12.64764000	1.19955700
143.89999163	0.00000000	-12.64764000	0.46136810
144.09999162	0.00000000	-12.64764000	0.51058070
144.29999161	0.00000000	-12.64764000	1.57480300
144.49999160	0.00000000	-12.64764000	2.68823800
144.69999159	0.00000000	-12.60458000	3.15575800
144.89999157	0.00000000	-12.22933000	3.57406500
145.09999156	0.00000000	-11.53420000	4.31840500
145.29999155	0.00000000	-11.53420000	4.64443900
145.49999154	0.00000000	-12.22933000	4.31840500
145.69999153	0.00000000	-12.60458000	3.57406500
145.89999151	0.00000000	-12.69070000	3.15575800
146.09999150	0.00000000	-13.02288000	2.73745100
146.29999149	0.00000000	-13.39198000	1.99311000
146.49999148	0.00000000	-13.02288000	1.61786400
146.69999147	0.00000000	-12.69070000	1.57480300
146.89999146	0.00000000	-12.64764000	1.61786400
147.09999144	0.00000000	-12.60458000	1.99311000
147.29999143	0.00000000	-12.27239000	2.73745100
147.49999142	0.00000000	-11.90330000	3.11269700
147.69999141	0.00000000	-12.27239000	3.15575800
147.89999140	0.00000000	-12.60458000	3.15575800
148.09999138	0.00000000	-12.64764000	3.19881900
148.29999137	0.00000000	-12.64764000	3.53100400
148.49999136	0.00000000	-12.69070000	3.90009800
148.69999135	0.00000000	-13.02288000	3.53100400
148.89999134	0.00000000	-13.39198000	3.15575800
149.09999132	0.00000000	-13.02288000	2.73745100
149.29999131	0.00000000	-12.69070000	1.99311000
149.49999130	0.00000000	-12.60458000	1.61786400
149.69999129	0.00000000	-12.22933000	1.61786400
149.89999128	0.00000000	-11.48499000	1.99311000
150.09999127	0.00000000	-11.15896000	2.73745100
150.29999125	0.00000000	-11.48499000	3.11269700
150.49999124	0.00000000	-12.22933000	3.15575800
150.69999123	0.00000000	-12.60458000	3.15575800
150.89999122	0.00000000	-12.69070000	3.15575800
151.09999121	0.00000000	-13.06594000	3.15575800
151.29999119	0.00000000	-13.81028000	3.15575800
151.49999118	0.00000000	-14.13632000	3.15575800
151.69999117	0.00000000	-13.81028000	3.15575800
151.89999116	0.00000000	-13.06594000	3.11269700
152.09999115	0.00000000	-12.69070000	2.78051200
152.29999113	0.00000000	-12.60458000	2.36835600
152.49999112	0.00000000	-12.22933000	2.40526600
152.69999111	0.00000000	-11.53420000	2.36835600
152.89999110	0.00000000	-11.53420000	2.78051200
153.09999109	0.00000000	-12.22933000	3.11269700
153.29999108	0.00000000	-12.60458000	3.15575800
153.49999106	0.00000000	-12.64764000	3.15575800
153.69999105	0.00000000	-12.69070000	3.15575800
153.89999104	0.00000000	-13.06594000	3.15575800
154.09999103	0.00000000	-13.76107000	3.15575800
154.29999102	0.00000000	-13.76107000	3.15575800
154.49999100	0.00000000	-13.06594000	3.15575800
154.69999099	0.00000000	-12.69070000	3.15575800
154.89999098	0.00000000	-12.64764000	3.15575800
155.09999097	0.00000000	-12.64764000	3.15575800
155.29999096	0.00000000	-12.60458000	3.11269700
155.49999094	0.00000000	-12.22933000	2.78051200
155.69999093	0.00000000	-11.48499000	2.41141700
155.89999092	0.00000000	-11.10974000	2.78051200
156.09999091	0.00000000	-11.10974000	3.11269700
156.29999090	0.00000000	-11.48499000	3.15575800
156.49999089	0.00000000	-12.22933000	3.15575800
156.69999087	0.00000000	-12.60458000	3.15575800
156.89999086	0.00000000	-12.69070000	3.15575800
157.09999085	0.00000000	-13.06594000	3.19881900
157.29999084	0.00000000	-13.81028000	3.53100400
157.49999083	0.00000000	-14.13632000	3.90009800
157.69999081	0.00000000	-13.81028000	3.53100400
157.89999080	0.00000000	-13.06594000	3.19881900
158.09999079	0.00000000	-12.69070000	3.11269700
158.29999078	0.00000000	-12.64764000	2.73745100
158.49999077	0.00000000	-12.60458000	1.99311000
158.69999075	0.00000000	-12.27239000	1.61786400
158.89999074	0.00000000	-11.90330000	1.57480300
159.09999073	0.00000000	-12.27239000	1.61786400
159.29999072	0.00000000	-12.60458000	1.99311000
159.49999071	0.00000000	-12.64764000	2.73745100
159.69999070	0.00000000	-12.64764000	3.15575800
159.89999068	0.00000000	-12.64764000	3.57406500
160.09999067	0.00000000	-12.64764000	4.26919300
160.29999066	0.00000000	-12.69070000	4.26919300
160.49999065	0.00000000	-13.02288000	3.57406500
160.69999064	0.00000000	-13.39198000	3.19881900
160.89999062	0.00000000	-13.02288000	3.11269700
161.09999061	0.00000000	-12.69070000	2.73745100
161.29999060	0.00000000	-12.64764000	1.99311000
161.49999059	0.00000000	-12.64764000	1.61786400
161.69999058	0.00000000	-12.64764000	1.57480300
161.89999056	0.00000000	-12.60458000	1.61786400
162.09999055	0.00000000	-12.22933000	1.99311000
162.29999054	0.00000000	-11.53420000	2.73745100
162.49999053	0.00000000	-11.53420000	3.11269700
162.69999052	0.00000000	-12.22933000	3.15575800
162.89999051	0.00000000	-12.60458000	3.15575800
163.09999049	0.00000000	-12.64764000	3.15575800
163.29999048	0.00000000	-12.64764000	3.15575800
163.49999047	0.00000000	-12.64764000	3.15575800
163.69999046	0.00000000	-12.69070000	3.15575800
163.89999045	0.00000000	-13.02288000	3.15575800
164.09999043	0.00000000	-13.39198000	3.15575800
164.29999042	0.00000000	-13.02288000	3.15575800
164.49999041	0.00000000	-12.69070000	3.15575800
164.69999040	0.00000000	-12.60458000	3.15575800
164.89999039	0.00000000	-12.22933000	3.15575800
165.09999037	0.00000000	-11.48499000	3.15575800
165.29999036	0.00000000	-11.10974000	3.15575800
165.49999035	0.00000000	-11.10974000	3.15575800
165.69999034	0.00000000	-11.48499000	3.15575800
165.89999033	0.00000000	-12.22933000	3.15575800
166.09999032	0.00000000	-12.60458000	3.15575800
166.29999030	0.00000000	-12.69070000	3.15575800
166.49999029	0.00000000	-13.02288000	3.15575800
166.69999028	0.00000000	-13.39198000	3.15575800
166.89999027	0.00000000	-13.02288000	3.15575800
167.09999026	0.00000000	-12.69070000	3.15575800
167.29999024	0.00000000	-12.64764000	3.15575800
167.49999023	0.00000000	-12.64764000	3.15575800
167.69999022	0.00000000	-12.64764000	3.15575800
167.89999021	0.00000000	-12.60458000	3.15575800
168.09999020	0.00000000	-12.22933000	3.15575800
168.29999018	0.00000000	-11.48499000	3.15575800
168.49999017	0.00000000	-11.15896000	3.15575800
168.69999016	0.00000000	-11.48499000	3.15575800
168.89999015	0.00000000	-12.22933000	3.15575800
169.09999014	0.00000000	-12.60458000	3.15575800
169.29999013	0.00000000	-12.64764000	3.15575800
169.49999011	0.00000000	-12.64764000	3.15575800
169.69999010	0.00000000	-12.64764000	3.15575800
169.89999009	0.00000000	-12.64764000	3.15575800
170.09999008	0.00000000	-12.64764000	3.15575800
170.29999007	0.00000000	-12.64764000	3.15575800
170.49999005	0.00000000	-12.64764000	3.15575800
170.69999004	0.00000000	-12.64764000	3.15575800
170.89999003	0.00000000	-12.64764000	3.15575800
171.09999002	0.00000000	-12.64764000	3.15575800
171.29999001	0.00000000	-12.60458000	3.15575800
171.49998999	0.00000000	-12.27239000	3.15575800
171.69998998	0.00000000	-11.90330000	3.15575800
171.89998997	0.00000000	-12.27239000	3.15575800
172.09998996	0.00000000	-12.60458000	3.15575800
172.29998995	0.00000000	-12.64764000	3.15575800
172.49998994	0.00000000	-12.64764000	3.15575800
172.69998992	0.00000000	-12.64764000	3.15575800
172.89998991	0.00000000	-12.64764000	3.15575800
173.09998990	0.00000000	-12.64764000	3.15575800
173.29998989	0.00000000	-12.64764000	3.15575800
173.49998988	0.00000000	-12.64764000	3.15575800
173.69998986	0.00000000	-12.64764000	3.15575800
173.89998985	0.00000000	-12.64764000	3.15575800
174.09998984	0.00000000	-12.64764000	3.15575800
174.29998983	0.00000000	-12.64764000	3.15575800
174.49998982	0.00000000	-12.64764000	3.11269700
174.69998980	0.00000000	-12.64764000	2.78051200
174.89998979	0.00000000	-12.64764000	2.41141700
175.09998978	0.00000000	-12.64764000	2.78051200
175.29998977	0.00000000	-12.64764000	3.11269700
175.49998976	0.00000000	-12.64764000	3.15575800
175.69998975	0.00000000	-12.64764000	3.15575800
175.89998973	0.00000000	-12.64764000	3.15575800
176.09998972	0.00000000	-12.64764000	3.15575800
176.29998971	0.00000000	-12.60458000	3.15575800
176.49998970	0.00000000	-12.27239000	3.15575800
176.69998969	0.00000000	-11.90330000	3.15575800
176.89998967	0.00000000	-12.27239000	3.15575800
177.09998966	0.00000000	-12.60458000	3.15575800
177.29998965	0.00000000	-12.64764000	3.15575800
177.49998964	0.00000000	-12.64764000	3.15575800
177.69998963	0.00000000	-12.64764000	3.15575800
177.89998961	0.00000000	-12.64764000	3.15575800
178.09998960	0.00000000	-12.64764000	3.15575800
178.29998959	0.00000000	-12.64764000	3.15575800
178.49998958	0.00000000	-12.64764000	3.15575800
178.69998957	0.00000000	-12.60458000	3.19881900
178.89998956	0.00000000	-12.22933000	3.53100400
179.09998954	0.00000000	-11.48499000	3.94315900
179.29998953	0.00000000	-11.10974000	3.90625000
179.49998952	0.00000000	-11.10974000	3.94315900
179.69998951	0.00000000	-11.48499000	3.53100400
179.89998950	0.00000000	-12.22933000	3.15575800
180.09998948	0.00000000	-12.60458000	2.73745100
180.29998947	0.00000000	-12.64764000	1.99311000
180.49998946	0.00000000	-12.64764000	1.66707700
180.69998945	0.00000000	-12.64764000	1.95004900
180.89998944	0.00000000	-12.64764000	2.36220500
181.09998942	0.00000000	-12.64764000	2.36835600
181.29998941	0.00000000	-12.64764000	2.78051200
181.49998940	0.00000000	-12.64764000	3.11269700
181.69998939	0.00000000	-12.64764000	3.15575800
181.89998938	0.00000000	-12.64764000	3.15575800
182.09998937	0.00000000	-12.64764000	3.15575800
182.29998935	0.00000000	-12.64764000	3.15575800
182.49998934	0.00000000	-12.64764000	3.15575800
182.69998933	0.00000000	-12.64764000	3.15575800
182.89998932	0.00000000	-12.60458000	3.15575800
183.09998931	0.00000000	-12.27239000	3.15575800
183.29998929	0.00000000	-11.90330000	3.11269700
183.49998928	0.00000000	-12.27239000	2.73745100
183.69998927	0.00000000	-12.60458000	2.04232300
183.89998926	0.00000000	-12.64764000	2.04232300
184.09998925	0.00000000	-12.64764000	2.73745100
184.29998923	0.00000000	-12.64764000	3.11269700
184.49998922	0.00000000	-12.64764000	3.15575800
184.69998921	0.00000000	-12.64764000	3.15575800
184.89998920	0.00000000	-12.64764000	3.15575800
185.09998919	0.00000000	-12.64764000	3.19881900
185.29998918	0.00000000	-12.64764000	3.53100400
185.49998916	0.00000000	-12.64764000	3.90009800
185.69998915	0.00000000	-12.64764000	3.48794300
185.89998914	0.00000000	-12.64764000	2.78051200
186.09998913	0.00000000	-12.64764000	1.99311000
186.29998912	0.00000000	-12.64764000	1.61786400
186.49998910	0.00000000	-12.64764000	1.61786400
186.69998909	0.00000000	-12.64764000	1.99311000
186.89998908	0.00000000	-12.64764000	2.73745100
187.09998907	0.00000000	-12.64764000	3.11269700
187.29998906	0.00000000	-12.64764000	3.19881900
187.49998904	0.00000000	-12.64764000	3.53100400
187.69998903	0.00000000	-12.64764000	3.94315900
187.89998902	0.00000000	-12.64764000	3.90625000
188.09998901	0.00000000	-12.64764000	3.94315900
188.29998900	0.00000000	-12.60458000	3.53100400
188.49998899	0.00000000	-12.27239000	3.19881900
188.69998897	0.00000000	-11.86024000	3.15575800
188.89998896	0.00000000	-11.89715000	3.15575800
189.09998895	0.00000000	-11.81717000	3.11269700
189.29998894	0.00000000	-11.85408000	2.78051200
189.49998893	0.00000000	-11.48499000	2.41141700
189.69998891	0.00000000	-11.53420000	2.78051200
189.89998890	0.00000000	-12.22933000	3.11269700
190.09998889	0.00000000	-12.60458000	3.15575800
190.29998888	0.00000000	-12.64764000	3.15575800
190.49998887	0.00000000	-12.64764000	3.15575800
190.69998885	0.00000000	-12.64764000	3.15575800
190.89998884	0.00000000	-12.64764000	3.15575800
191.09998883	0.00000000	-12.60458000	3.15575800
191.29998882	0.00000000	-12.27239000	3.15575800
191.49998881	0.00000000	-11.90330000	3.15575800
191.69998880	0.00000000	-12.22933000	3.15575800
191.89998878	0.00000000	-12.18012000	3.15575800
192.09998877	0.00000000	-11.48499000	3.15575800
192.29998876	0.00000000	-11.15896000	3.15575800
192.49998875	0.00000000	-11.48499000	3.11269700
192.69998874	0.00000000	-12.22933000	2.78051200
192.89998872	0.00000000	-12.60458000	2.41141700
193.09998871	0.00000000	-12.64764000	2.78051200
193.29998870	0.00000000	-12.64764000	3.11269700
193.49998869	0.00000000	-12.64764000	3.15575800
193.69998868	0.00000000	-12.64764000	3.15575800
193.89998866	0.00000000	-12.64764000	3.15575800
194.09998865	0.00000000	-12.64764000	3.15575800
194.29998864	0.00000000	-12.60458000	3.15575800
194.49998863	0.00000000	-12.22933000	3.15575800
194.69998862	0.00000000	-11.48499000	3.15575800
194.89998861	0.00000000	-11.10974000	3.15575800
195.09998859	0.00000000	-11.06668000	3.15575800
195.29998858	0.00000000	-11.10974000	3.15575800
195.49998857	0.00000000	-11.48499000	3.15575800
195.69998856	0.00000000	-12.22933000	3.15575800
195.89998855	0.00000000	-12.60458000	3.11269700
196.09998853	0.00000000	-12.64764000	2.78051200
