Time	Channel A	Channel B	Channel C
(us)	(V)	(mV)	(mV)

-4.49999956	0.00000000	-18.13484000	-3.15575800
-4.29999957	0.00000000	-17.76575000	-3.15575800
-4.09999958	0.00000000	-17.43356000	-3.15575800
-3.89999959	0.00000000	-17.39050000	-3.15575800
-3.69999960	0.00000000	-17.39050000	-3.15575800
-3.49999962	0.00000000	-17.39050000	-3.15575800
-3.29999963	0.00000000	-17.39050000	-3.15575800
-3.09999964	0.00000000	-17.39050000	-3.15575800
-2.89999965	0.00000000	-17.39050000	-3.15575800
-2.69999966	0.00000000	-17.39050000	-3.15575800
-2.49999968	0.00000000	-17.39050000	-3.15575800
-2.29999969	0.00000000	-17.39050000	-3.15575800
-2.09999970	0.00000000	-17.39050000	-3.15575800
-1.89999971	0.00000000	-17.39050000	-3.15575800
-1.69999972	0.00000000	-17.39050000	-3.15575800
-1.49999973	0.00000000	-17.39050000	-3.15575800
-1.29999975	0.00000000	-17.39050000	-3.15575800
-1.09999976	0.00000000	-17.39050000	-3.15575800
-0.89999977	0.00000000	-17.39050000	-3.15575800
-0.69999978	0.00000000	-17.39050000	-3.15575800
-0.49999979	0.00000000	-17.39050000	-3.15575800
-0.29999981	0.31803640	-17.39050000	-3.15575800
-0.09999982	0.63668800	-17.39050000	-3.15575800
0.10000017	0.95533960	-17.39050000	-3.15575800
0.30000016	0.95533960	-17.39050000	-3.15575800
0.50000015	0.79601380	-17.39050000	-3.15575800
0.70000013	0.31803640	-17.39050000	-3.15575800
0.90000012	-0.47736220	-17.39050000	-3.15575800
1.10000011	-1.43331700	-17.39050000	-3.15575800
1.30000010	-2.38927200	-17.39050000	-3.15575800
1.50000009	-2.86724900	-17.39050000	-3.15575800
1.70000008	-2.54859700	-17.39050000	-3.15575800
1.90000006	-1.43331700	-17.39050000	-3.15575800
2.10000005	0.47736220	-17.39050000	-3.15575800
2.30000004	2.54859700	-17.39050000	-3.15575800
2.50000003	4.30056600	-17.39050000	-3.15575800
2.70000002	5.25652100	-17.39050000	-3.19881900
2.90000000	4.93786900	-17.39050000	-3.57406500
3.09999999	3.02657500	-17.39050000	-4.26919300
3.29999998	0.15871060	-17.39050000	-4.26919300
3.49999997	-3.34522600	-17.39050000	-3.57406500
3.69999996	-6.21247500	-17.34744000	-3.19881900
3.89999994	-7.96444400	-17.01525000	-3.11269700
4.09999993	-7.48646600	-16.60310000	-2.73745100
4.29999992	-5.09719500	-16.64001000	-1.99311000
4.49999991	-1.27399100	-16.60310000	-1.66707700
4.69999990	3.02657500	-17.01525000	-1.99311000
4.89999989	7.00848900	-17.34744000	-2.73745100
5.09999987	9.23905000	-17.39050000	-3.11269700
5.29999986	9.23905000	-17.39050000	-3.19881900
5.49999985	6.84916400	-17.39050000	-3.57406500
5.69999984	2.70792300	-17.39050000	-4.26919300
5.89999983	-2.22994600	-17.39050000	-4.26919300
6.09999981	-6.37180100	-17.39050000	-3.57406500
6.29999980	-9.07972400	-17.39050000	-3.19881900
6.49999979	-9.39837600	-17.39050000	-3.11269700
6.69999978	-7.32714100	-17.34744000	-2.78051200
6.89999977	-3.50393700	-17.01525000	-2.41141700
7.09999975	0.79601380	-16.64616000	-2.78051200
7.29999974	4.61921700	-17.01525000	-3.11269700
7.49999973	7.16781500	-17.34744000	-3.15575800
7.69999972	7.80511800	-17.39050000	-3.15575800
7.89999971	6.37180100	-17.39050000	-3.15575800
8.09999970	3.50393700	-17.39050000	-3.19881900
8.29999968	0.31803640	-17.39050000	-3.53100400
8.49999967	-2.70792300	-17.39050000	-3.90009800
8.69999966	-4.61921700	-17.39050000	-3.53100400
8.89999965	-5.25652100	-17.39050000	-3.19881900
9.09999964	-4.45989200	-17.39050000	-3.15575800
9.29999962	-2.70792300	-17.39050000	-3.15575800
9.49999961	-0.79601380	-17.34744000	-3.15575800
9.69999960	0.95533960	-17.01525000	-3.15575800
9.89999959	2.07062000	-16.64616000	-3.15575800
10.09999958	2.54859700	-17.01525000	-3.15575800
10.29999956	2.22994600	-17.34744000	-3.15575800
10.49999955	1.43331700	-17.39050000	-3.15575800
10.69999954	0.63668800	-17.39050000	-3.15575800
10.89999953	-0.15871060	-17.39050000	-3.15575800
11.09999952	-0.79601380	-17.39050000	-3.15575800
11.29999951	-0.95533960	-17.39050000	-3.15575800
11.49999949	-0.95533960	-17.39050000	-3.15575800
11.69999948	-0.79601380	-17.39050000	-3.15575800
11.89999947	-0.47736220	-17.39050000	-3.15575800
12.09999946	-0.15871060	-17.39050000	-3.15575800
12.29999945	-0.15871060	-17.39050000	-3.15575800
12.49999943	0.00000000	-17.39050000	-3.15575800
12.69999942	0.00000000	-17.39050000	-3.15575800
12.89999941	0.00000000	-17.34744000	-3.15575800
13.09999940	0.00000000	-17.01525000	-3.15575800
13.29999939	0.15871060	-16.64616000	-3.15575800
13.49999937	0.00000000	-17.01525000	-3.15575800
13.69999936	0.00000000	-17.34744000	-3.15575800
13.89999935	-0.15871060	-17.39050000	-3.15575800
14.09999934	-0.15871060	-17.39050000	-3.15575800
14.29999933	-0.15871060	-17.39050000	-3.15575800
14.49999932	-0.15871060	-17.39050000	-3.15575800
14.69999930	-0.15871060	-17.39050000	-3.15575800
14.89999929	0.00000000	-17.39050000	-3.15575800
15.09999928	0.00000000	-17.39050000	-3.15575800
15.29999927	0.00000000	-17.34744000	-3.15575800
15.49999926	0.00000000	-17.01525000	-3.15575800
15.69999924	0.00000000	-16.64616000	-3.15575800
15.89999923	0.00000000	-17.01525000	-3.15575800
16.09999922	0.00000000	-17.34744000	-3.15575800
16.29999921	0.00000000	-17.39050000	-3.15575800
16.49999920	0.00000000	-17.39050000	-3.15575800
16.69999919	-0.15871060	-17.34744000	-3.15575800
16.89999917	0.00000000	-16.97219000	-3.15575800
17.09999916	0.00000000	-16.18479000	-3.15575800
17.29999915	0.00000000	-15.43430000	-3.15575800
17.49999914	0.00000000	-14.69611000	-3.15575800
17.69999913	0.00000000	-14.69611000	-3.15575800
17.89999911	0.00000000	-15.43430000	-3.15575800
18.09999910	0.00000000	-16.22785000	-3.15575800
18.29999909	0.00000000	-17.43356000	-3.15575800
18.49999908	0.00000000	-18.97145000	-3.15575800
18.69999907	0.00000000	-20.50935000	-3.15575800
18.89999905	0.00000000	-21.66585000	-3.15575800
19.09999904	0.00000000	-21.99803000	-3.15575800
19.29999903	0.00000000	-21.16142000	-3.15575800
19.49999902	0.00000000	-18.46087000	-3.15575800
19.69999901	0.00000000	-14.64690000	-3.15575800
19.89999900	0.00000000	-11.10974000	-3.15575800
20.09999898	0.00000000	-7.99704600	-3.15575800
20.29999897	0.00000000	-5.76402500	-3.15575800
20.49999896	0.00000000	-5.85014700	-3.15575800
20.69999895	0.00000000	-8.96899500	-3.15575800
20.89999894	0.00000000	-14.78223000	-3.15575800
21.09999892	0.00000000	-22.13336000	-3.15575800
21.29999891	0.00000000	-29.48450000	-3.15575800
21.49999890	0.00000000	-35.21161000	-3.15575800
21.69999889	0.00000000	-37.44463000	-3.15575800
21.89999888	0.00000000	-34.70103000	-3.15575800
22.09999886	0.00000000	-27.30684000	-3.15575800
22.29999885	0.00000000	-16.41855000	-3.15575800
22.49999884	0.00000000	-3.71555100	-3.15575800
22.69999883	0.00000000	7.44955700	-3.15575800
22.89999882	0.00000000	13.96407000	-3.11269700
23.09999881	0.00000000	14.24089000	-2.73745100
23.29999879	0.00000000	6.80364100	-1.99311000
23.49999878	0.00000000	-7.48031400	-1.61786400
23.69999877	0.00000000	-25.20915000	-1.57480300
23.89999876	0.00000000	-42.23056000	-1.57480300
24.09999875	0.00000000	-54.56446000	-1.57480300
24.29999873	0.00000000	-59.49803000	-1.61786400
24.49999872	0.00000000	-54.75516000	-2.04232300
24.69999871	0.00000000	-40.47121000	-3.19881900
24.89999870	0.00000000	-19.95571000	-4.73671200
25.09999869	0.00000000	2.42987200	-6.31151500
25.29999867	0.00000000	21.68430000	-7.80019600
25.49999866	0.00000000	32.43725000	-8.50147600
25.69999865	0.00000000	32.06201000	-7.33882900
25.89999864	0.00000000	20.43553000	-4.64443900
26.09999863	0.00000000	-0.03690945	-1.15649600
26.29999862	0.00000000	-24.74163000	2.73745100
26.49999860	0.00000000	-47.91462000	6.17618100
26.69999859	0.00000000	-64.15477000	8.45226300
26.89999858	0.00000000	-69.92495000	8.40920300
27.09999857	0.00000000	-63.73647000	5.67175200
27.29999856	0.00000000	-46.75196000	0.60285430
27.49999854	0.00000000	-23.25295000	-6.40378900
27.69999853	0.00000000	1.12573800	-14.07480000
27.89999852	0.00000000	20.85384000	-20.57702000
28.09999851	0.00000000	32.11122000	-23.60359000
28.29999850	0.00000000	32.48646000	-22.02264000
28.49999848	0.00000000	22.10261000	-15.79724000
28.69999847	0.00000000	3.58636800	-5.71481200
28.89999846	0.00000000	-18.41781000	6.22539300
29.09999845	0.00000000	-38.98253000	17.42126000
29.29999844	0.00000000	-54.06004000	25.09227000
29.49999843	0.00000000	-60.66068000	27.36835000
29.69999841	0.00000000	-57.26501000	23.04995000
29.89999840	0.00000000	-45.72466000	12.59227000
30.09999839	0.00000000	-29.06619000	-2.08538400
30.29999838	0.00000000	-10.50689000	-17.92569000
30.49999837	0.00000000	5.73326700	-31.40379000
30.69999835	0.00000000	16.24631000	-39.48696000
30.89999834	0.00000000	19.35900000	-39.81914000
31.09999833	0.00000000	14.79454000	-32.10507000
31.29999832	0.00000000	4.01082700	-17.79650000
31.49999831	0.00000000	-9.90403500	-0.04306102
31.69999829	0.00000000	-24.28026000	17.37820000
31.89999828	0.00000000	-36.28199000	30.89936000
32.09999827	0.00000000	-43.63311000	37.81988000
32.29999826	0.00000000	-44.83883000	36.23893000
32.49999825	0.00000000	-39.86835000	26.20571000
32.69999824	0.00000000	-30.60408000	9.99015700
32.89999822	0.00000000	-18.97145000	-8.91978400
33.09999821	0.00000000	-7.38804100	-26.29798000
33.29999820	0.00000000	1.50098400	-38.28740000
33.49999819	0.00000000	5.73326700	-42.60580000
33.69999818	0.00000000	4.23843500	-38.74877000
33.89999816	0.00000000	-2.22687000	-27.92200000
34.09999815	0.00000000	-11.10974000	-12.07554000
34.29999814	0.00000000	-20.37401000	5.29650500
34.49999813	0.00000000	-28.08809000	20.34941000
34.69999812	0.00000000	-32.00049000	30.01353000
34.89999810	0.00000000	-32.04355000	31.96973000
35.09999809	0.00000000	-28.55561000	26.24877000
35.29999808	0.00000000	-22.04109000	14.67766000
35.49999807	0.00000000	-14.78223000	0.00000000
35.69999806	0.00000000	-8.96899500	-14.67766000
35.89999805	0.00000000	-5.85014700	-26.20571000
36.09999803	0.00000000	-5.85014700	-31.63755000
36.29999802	0.00000000	-8.92593500	-29.77977000
36.49999801	0.00000000	-14.27165000	-22.10876000
36.69999800	0.00000000	-20.04183000	-10.54380000
36.89999799	0.00000000	-24.64936000	2.14074800
37.09999797	0.00000000	-26.97465000	12.50615000
37.29999796	0.00000000	-26.23031000	17.93799000
37.49999795	0.00000000	-23.16068000	17.19365000
37.69999794	0.00000000	-18.50394000	11.10359000
37.89999793	0.00000000	-13.15822000	1.48868100
38.09999791	0.00000000	-8.92593500	-8.83366100
38.29999790	0.00000000	-6.96973400	-16.86762000
38.49999789	0.00000000	-7.34498000	-19.93110000
38.69999788	0.00000000	-10.03937000	-17.28592000
38.89999787	0.00000000	-14.22859000	-10.03322000
39.09999786	0.00000000	-18.50394000	-0.51058070
39.29999784	0.00000000	-22.04109000	7.94783400
39.49999783	0.00000000	-24.74163000	12.96752000
39.69999782	0.00000000	-25.90428000	13.66265000
39.89999781	0.00000000	-25.11688000	9.06126900
40.09999780	0.00000000	-22.82849000	0.28297240
40.29999778	0.00000000	-19.34670000	-9.29502900
40.49999777	0.00000000	-15.85261000	-17.42126000
40.69999776	0.00000000	-12.69070000	-21.93036000
40.89999775	0.00000000	-9.99630800	-21.17987000
41.09999774	0.00000000	-8.45841400	-15.05290000
41.29999772	0.00000000	-8.45841400	-5.85014700
41.49999771	0.00000000	-9.99630800	4.18307100
41.69999770	0.00000000	-12.69070000	12.59227000
41.89999769	0.00000000	-15.80955000	16.81841000
42.09999768	0.00000000	-18.92839000	15.70497000
42.29999767	0.00000000	-21.62278000	9.98400600
42.49999765	0.00000000	-23.20374000	1.48868100
42.69999764	0.00000000	-23.57899000	-7.71407400
42.89999763	0.00000000	-22.82849000	-15.42200000
43.09999762	0.00000000	-20.88459000	-19.28519000
43.29999761	0.00000000	-18.59621000	-19.00221000
43.49999759	0.00000000	-16.22785000	-15.14518000
43.69999758	0.00000000	-14.32087000	-8.96284400
43.89999757	0.00000000	-13.11516000	-1.66707700
44.09999756	0.00000000	-12.69070000	4.83513700
44.29999755	0.00000000	-12.64764000	8.36614100
44.49999753	0.00000000	-12.64764000	8.82750900
44.69999752	0.00000000	-12.64764000	6.92052100
44.89999751	0.00000000	-12.64764000	3.11269700
45.09999750	0.00000000	-12.73991000	-1.15649600
45.29999749	0.00000000	-13.53346000	-5.06274600
45.49999748	0.00000000	-15.47736000	-8.50147600
45.69999746	0.00000000	-17.80881000	-10.03322000
45.89999745	0.00000000	-20.59547000	-9.33809000
46.09999744	0.00000000	-23.62205000	-7.43110200
46.29999743	0.00000000	-25.94734000	-4.73671200
46.49999742	0.00000000	-26.64862000	-2.04232300
46.69999740	0.00000000	-25.43676000	-0.04306102
46.89999739	0.00000000	-21.53666000	1.48868100
47.09999738	0.00000000	-15.80955000	2.22687000
47.29999737	0.00000000	-9.95324800	1.48868100
47.49999736	0.00000000	-4.92125900	-0.04306102
47.69999734	0.00000000	-1.48253000	-1.99311000
47.89999733	0.00000000	-1.15649600	-4.36146600
48.09999732	0.00000000	-4.26919300	-6.64370100
48.29999731	0.00000000	-10.50689000	-8.54453700
48.49999730	0.00000000	-18.97145000	-8.87672100
48.69999729	0.00000000	-27.39296000	-7.38188900
48.89999727	0.00000000	-33.21235000	-4.68750000
49.09999726	0.00000000	-35.12549000	-1.58095500
49.29999725	0.00000000	-32.79404000	1.48868100
49.49999724	0.00000000	-26.23647000	3.80782500
49.69999723	0.00000000	-17.34744000	4.55831700
49.89999721	0.00000000	-8.08316900	3.76476400
50.09999720	0.00000000	-0.45521650	1.02116100
50.29999719	0.00000000	2.65748000	-3.15575800
50.49999718	0.00000000	0.79970470	-7.38188900
50.69999717	0.00000000	-4.60137700	-10.45152000
50.89999715	0.00000000	-12.73991000	-11.65723000
51.09999714	0.00000000	-21.57972000	-10.86983000
51.29999713	0.00000000	-28.88779000	-8.54453700
51.49999712	0.00000000	-32.74483000	-4.64443900
51.69999711	0.00000000	-31.95743000	-0.09227362
51.89999710	0.00000000	-27.01772000	3.76476400
52.09999708	0.00000000	-19.30364000	5.71481200
52.29999707	0.00000000	-11.29429000	5.71481200
52.49999706	0.00000000	-5.11195900	3.76476400
52.69999705	0.00000000	-2.78051200	-0.04306102
52.89999704	0.00000000	-4.26919300	-4.26919300
53.09999702	0.00000000	-8.87672100	-7.71407400
53.29999701	0.00000000	-15.43430000	-9.65797200
53.49999700	0.00000000	-21.95497000	-9.29502900
53.69999699	0.00000000	-26.92544000	-7.43110200
53.89999698	0.00000000	-28.46333000	-4.73671200
54.09999696	0.00000000	-26.23031000	-2.04232300
54.29999695	0.00000000	-21.62278000	-0.09227362
54.49999694	0.00000000	-15.80955000	1.02116100
54.69999693	0.00000000	-10.08243000	0.60285430
54.89999692	0.00000000	-6.27460600	-1.62401600
55.09999691	0.00000000	-5.85014700	-4.22613100
55.29999689	0.00000000	-8.50147600	-5.80093500
55.49999688	0.00000000	-13.11516000	-6.17618100
55.69999687	0.00000000	-18.50394000	-5.38262700
55.89999686	0.00000000	-23.06841000	-3.06348400
56.09999685	0.00000000	-25.43676000	-0.09227362
56.29999683	0.00000000	-25.06767000	2.22687000
56.49999682	0.00000000	-22.78543000	2.97736200
56.69999681	0.00000000	-18.87918000	2.18380900
56.89999680	0.00000000	-14.27165000	-0.55364170
57.09999679	0.00000000	-10.08243000	-4.73671200
57.29999677	0.00000000	-7.76328700	-8.91978400
57.49999676	0.00000000	-8.08316900	-11.61417000
57.69999675	0.00000000	-9.99630800	-11.98327000
57.89999674	0.00000000	-13.11516000	-10.03322000
58.09999673	0.00000000	-16.92298000	-5.75787400
58.29999672	0.00000000	-19.99877000	0.00000000
58.49999670	0.00000000	-21.57972000	5.71481200
58.69999669	0.00000000	-21.57972000	9.56569900
58.89999668	0.00000000	-20.08489000	10.31619000
59.09999667	0.00000000	-17.80881000	8.03395600
59.29999666	0.00000000	-15.85261000	2.93430100
59.49999664	0.00000000	-14.27165000	-3.94931100
59.69999663	0.00000000	-13.15822000	-11.23893000
59.89999662	0.00000000	-13.15822000	-16.21555000
60.09999661	0.00000000	-14.27165000	-17.79035000
60.29999660	0.00000000	-15.76649000	-15.84030000
60.49999658	0.00000000	-16.92298000	-10.40846000
60.69999657	0.00000000	-17.29823000	-2.73745100
60.89999656	0.00000000	-16.97219000	5.33956700
61.09999655	0.00000000	-16.18479000	11.47884000
61.29999654	0.00000000	-15.43430000	14.16708000
61.49999653	0.00000000	-14.64690000	12.63533000
61.69999651	0.00000000	-14.32087000	7.25270600
61.89999650	0.00000000	-14.69611000	-0.46751960
62.09999649	0.00000000	-15.85261000	-8.91978400
62.29999648	0.00000000	-17.39050000	-15.84030000
62.49999647	0.00000000	-18.92839000	-19.32825000
62.69999645	0.00000000	-20.04183000	-18.95300000
62.89999644	0.00000000	-20.04183000	-14.72687000
63.09999643	0.00000000	-18.92839000	-7.80019600
63.29999642	0.00000000	-17.34744000	-0.09227362
63.49999641	0.00000000	-15.39124000	6.87746000
63.69999639	0.00000000	-13.11516000	11.47884000
63.89999638	0.00000000	-11.57726000	12.68455000
64.09999637	0.00000000	-11.20202000	10.35925000
64.29999636	0.00000000	-11.95251000	5.38262700
64.49999635	0.00000000	-13.89641000	-1.15649600
64.69999634	0.00000000	-16.18479000	-7.33882900
64.89999632	0.00000000	-18.50394000	-12.03248000
65.09999631	0.00000000	-20.04183000	-14.72072000
65.29999630	0.00000000	-20.46014000	-14.76993000
65.49999629	0.00000000	-20.04183000	-12.45079000
65.69999628	0.00000000	-18.50394000	-8.63681000
65.89999626	0.00000000	-16.22785000	-3.94931100
66.09999625	0.00000000	-14.32087000	0.28297240
66.29999624	0.00000000	-13.15822000	3.80782500
66.49999623	0.00000000	-13.15822000	5.75787400
66.69999622	0.00000000	-14.32087000	6.21924200
66.89999620	0.00000000	-16.22785000	5.80093500
67.09999619	0.00000000	-18.50394000	4.22613100
67.29999618	0.00000000	-19.99877000	1.53174200
67.49999617	0.00000000	-19.99877000	-1.58095500
67.69999616	0.00000000	-18.46087000	-4.73671200
67.89999615	0.00000000	-15.80955000	-7.84940900
68.09999613	0.00000000	-13.11516000	-10.53765000
68.29999612	0.00000000	-11.15896000	-12.07554000
68.49999611	0.00000000	-10.03937000	-12.07554000
68.69999610	0.00000000	-10.50689000	-10.49459000
68.89999609	0.00000000	-13.15822000	-7.33882900
69.09999607	0.00000000	-17.01525000	-2.73745100
69.29999606	0.00000000	-20.88459000	2.27608300
69.49999605	0.00000000	-24.32333000	6.13312000
69.69999604	0.00000000	-25.81201000	8.50147600
69.89999603	0.00000000	-24.64936000	8.82750900
70.09999601	0.00000000	-21.20448000	6.92052100
70.29999600	0.00000000	-16.14173000	3.02042300
70.49999599	0.00000000	-10.73450000	-1.99311000
70.69999598	0.00000000	-5.71481200	-7.38188900
70.89999597	0.00000000	-2.73745100	-11.61417000
71.09999596	0.00000000	-3.11269700	-13.56422000
71.29999594	0.00000000	-6.92052100	-13.18898000
71.49999593	0.00000000	-12.73991000	-10.49459000
71.69999592	0.00000000	-19.30364000	-6.26845500
71.89999591	0.00000000	-25.43676000	-1.62401600
72.09999590	0.00000000	-28.93085000	2.60211600
72.29999588	0.00000000	-29.39222000	5.29650500
72.49999587	0.00000000	-27.43602000	5.71481200
72.69999586	0.00000000	-23.11762000	4.22613100
72.89999585	0.00000000	-16.97219000	1.53174200
73.09999584	0.00000000	-10.41462000	-1.53174200
73.29999582	0.00000000	-5.43184000	-4.22613100
73.49999581	0.00000000	-3.11269700	-5.75787400
73.69999580	0.00000000	-4.22613100	-5.80093500
73.89999579	0.00000000	-7.99704600	-4.68750000
74.09999578	0.00000000	-12.69070000	-3.19881900
74.29999577	0.00000000	-17.72268000	-2.04232300
74.49999575	0.00000000	-22.36712000	-1.66707700
74.69999574	0.00000000	-25.02460000	-2.04232300
74.89999573	0.00000000	-25.47982000	-3.24803100
75.09999572	0.00000000	-23.53592000	-5.11195900
75.29999571	0.00000000	-20.13410000	-6.96358300
75.49999569	0.00000000	-16.27707000	-7.29576700
75.69999568	0.00000000	-13.15822000	-5.75787400
75.89999567	0.00000000	-11.15896000	-2.69439000
76.09999566	0.00000000	-9.99630800	1.15649600
76.29999565	0.00000000	-10.03937000	4.60137700
76.49999563	0.00000000	-11.53420000	6.87746000
76.69999562	0.00000000	-13.81028000	6.82824800
76.89999561	0.00000000	-15.71727000	4.14000900
77.09999560	0.00000000	-16.92298000	-0.51058070
77.29999559	0.00000000	-17.29823000	-6.26845500
77.49999558	0.00000000	-17.01525000	-11.60802000
77.69999556	0.00000000	-16.60310000	-14.67766000
77.89999555	0.00000000	-16.64001000	-14.72072000
78.09999554	0.00000000	-16.60310000	-12.03248000
78.29999553	0.00000000	-17.05832000	-7.38188900
78.49999552	0.00000000	-17.72268000	-1.57480300
78.69999550	0.00000000	-18.13484000	4.18307100
78.89999549	0.00000000	-17.72268000	8.45226300
79.09999548	0.00000000	-16.97219000	10.35925000
79.29999547	0.00000000	-15.71727000	9.56569900
79.49999546	0.00000000	-13.81028000	5.75787400
79.69999544	0.00000000	-11.57726000	0.37524600
79.89999543	0.00000000	-10.45768000	-5.06274600
80.09999542	0.00000000	-11.15896000	-10.07628000
80.29999541	0.00000000	-12.69070000	-13.18898000
80.49999540	0.00000000	-14.69611000	-13.98253000
80.69999539	0.00000000	-17.39050000	-12.86294000
80.89999537	0.00000000	-20.04183000	-9.75639700
81.09999536	0.00000000	-21.57972000	-5.89320800
81.29999535	0.00000000	-21.57972000	-1.62401600
81.49999534	0.00000000	-20.04183000	2.22687000
81.69999533	0.00000000	-17.34744000	4.60137700
81.89999531	0.00000000	-14.27165000	5.80093500
82.09999530	0.00000000	-11.57726000	5.80093500
82.29999529	0.00000000	-10.03937000	4.64443900
82.49999528	0.00000000	-10.03937000	2.64517700
82.69999527	0.00000000	-11.53420000	-0.46751960
82.89999525	0.00000000	-13.81028000	-4.26919300
83.09999524	0.00000000	-15.76649000	-7.38188900
83.29999523	0.00000000	-17.39050000	-9.38115100
83.49999522	0.00000000	-18.87918000	-10.53765000
83.69999521	0.00000000	-19.62352000	-10.53765000
83.89999520	0.00000000	-18.87918000	-9.33809000
84.09999518	0.00000000	-17.43356000	-7.01279500
84.29999517	0.00000000	-16.22785000	-3.48794300
84.49999516	0.00000000	-15.43430000	0.37524600
84.69999515	0.00000000	-14.69611000	4.22613100
84.89999514	0.00000000	-14.69611000	6.87746000
85.09999512	0.00000000	-15.39124000	7.29576700
85.29999511	0.00000000	-15.76649000	5.75787400
85.49999510	0.00000000	-15.76649000	2.60211600
85.69999509	0.00000000	-15.39124000	-1.99311000
85.89999508	0.00000000	-14.64690000	-7.00664300
86.09999506	0.00000000	-14.27165000	-10.82677000
86.29999505	0.00000000	-14.27165000	-12.81373000
86.49999504	0.00000000	-14.64690000	-12.40157000
86.69999503	0.00000000	-15.39124000	-10.11934000
86.89999502	0.00000000	-15.85261000	-6.17618100
87.09999501	0.00000000	-16.64616000	-1.19955700
87.29999499	0.00000000	-18.13484000	3.76476400
87.49999498	0.00000000	-18.83612000	6.82824800
87.69999497	0.00000000	-18.46087000	7.24655500
87.89999496	0.00000000	-16.97219000	5.33956700
88.09999495	0.00000000	-15.06521000	1.48868100
88.29999493	0.00000000	-13.85334000	-3.11269700
88.49999492	0.00000000	-12.69070000	-7.38188900
88.69999491	0.00000000	-11.99557000	-10.45152000
88.89999490	0.00000000	-12.73991000	-11.56496000
89.09999489	0.00000000	-14.22859000	-10.07628000
89.29999487	0.00000000	-15.76649000	-6.64370100
89.49999486	0.00000000	-16.97219000	-2.78051200
89.69999485	0.00000000	-17.76575000	1.11343500
89.89999484	0.00000000	-18.50394000	4.13385800
90.09999483	0.00000000	-18.46087000	5.29650500
90.29999482	0.00000000	-17.34744000	4.13385800
90.49999480	0.00000000	-15.85261000	1.07037400
90.69999479	0.00000000	-14.69611000	-3.15575800
90.89999478	0.00000000	-14.27165000	-7.33882900
91.09999477	0.00000000	-14.22859000	-10.03322000
91.29999476	0.00000000	-14.22859000	-10.45152000
91.49999474	0.00000000	-14.22859000	-8.87057000
91.69999473	0.00000000	-14.27165000	-5.43184000
91.89999472	0.00000000	-14.64690000	-0.83661410
92.09999471	0.00000000	-15.39124000	2.97736200
92.29999470	0.00000000	-15.76649000	5.33956700
92.49999468	0.00000000	-15.80955000	5.67175200
92.69999467	0.00000000	-15.85261000	3.76476400
92.89999466	0.00000000	-16.22785000	-0.09227362
93.09999465	0.00000000	-16.97219000	-4.64443900
93.29999464	0.00000000	-17.39050000	-8.50147600
93.49999463	0.00000000	-17.80881000	-10.40846000
93.69999461	0.00000000	-18.46087000	-10.03322000
93.89999460	0.00000000	-18.04257000	-7.33882900
94.09999459	0.00000000	-16.18479000	-3.15575800
94.29999458	0.00000000	-14.27165000	1.07037400
94.49999457	0.00000000	-12.64764000	4.13385800
94.69999455	0.00000000	-11.15896000	5.29650500
94.89999454	0.00000000	-10.41462000	4.18307100
95.09999453	0.00000000	-11.15896000	1.48868100
95.29999452	0.00000000	-12.69070000	-1.99311000
95.49999451	0.00000000	-14.69611000	-5.85014700
95.69999449	0.00000000	-17.39050000	-8.87057000
95.89999448	0.00000000	-20.08489000	-10.03322000
96.09999447	0.00000000	-21.99803000	-8.91978400
96.29999446	0.00000000	-22.74237000	-6.22539300
96.49999445	0.00000000	-21.57972000	-2.78051200
96.69999444	0.00000000	-18.87918000	0.69512790
96.89999442	0.00000000	-15.39124000	2.97736200
97.09999441	0.00000000	-11.53420000	3.76476400
97.29999440	0.00000000	-8.45841400	2.60211600
97.49999439	0.00000000	-6.87746000	-0.04306102
97.69999438	0.00000000	-6.92052100	-3.06348400
97.89999436	0.00000000	-8.83366100	-5.38262700
98.09999435	0.00000000	-12.31545000	-6.21924200
98.29999434	0.00000000	-16.18479000	-6.26845500
98.49999433	0.00000000	-20.04183000	-5.80093500
98.69999432	0.00000000	-22.74237000	-4.31840500
98.89999430	0.00000000	-23.53592000	-2.41141700
99.09999429	0.00000000	-22.78543000	-1.24877000
99.29999428	0.00000000	-20.41708000	-0.46136810
99.49999427	0.00000000	-16.97219000	-0.46136810
99.69999426	0.00000000	-13.11516000	-1.15649600
99.89999425	0.00000000	-10.03937000	-1.53174200
100.09999423	0.00000000	-8.45841400	-1.57480300
100.29999422	0.00000000	-8.37229300	-1.53174200
100.49999421	0.00000000	-9.15354300	-1.15649600
100.69999420	0.00000000	-10.41462000	-0.46136810
100.89999419	0.00000000	-13.11516000	-0.51058070
101.09999417	0.00000000	-16.55389000	-1.62401600
101.29999416	0.00000000	-19.25443000	-3.15575800
101.49999415	0.00000000	-21.24754000	-4.68750000
101.69999414	0.00000000	-21.95497000	-5.85014700
101.89999413	0.00000000	-21.24754000	-6.26845500
102.09999411	0.00000000	-19.34670000	-6.21924200
102.29999410	0.00000000	-17.39050000	-5.38262700
102.49999409	0.00000000	-15.39124000	-3.06348400
102.69999408	0.00000000	-13.11516000	-0.04306102
102.89999407	0.00000000	-11.57726000	2.64517700
103.09999406	0.00000000	-11.15896000	4.18307100
103.29999404	0.00000000	-11.53420000	4.18307100
103.49999403	0.00000000	-12.69070000	2.64517700
103.69999402	0.00000000	-14.22859000	-0.09227362
103.89999401	0.00000000	-15.80955000	-3.53100400
104.09999400	0.00000000	-17.39050000	-6.96358300
104.29999398	0.00000000	-18.87918000	-8.87672100
104.49999397	0.00000000	-19.62352000	-8.91978400
104.69999396	0.00000000	-18.87918000	-7.38188900
104.89999395	0.00000000	-17.39050000	-4.68750000
105.09999394	0.00000000	-15.80955000	-1.62401600
105.29999392	0.00000000	-14.27165000	1.07037400
105.49999391	0.00000000	-13.11516000	2.60211600
105.69999390	0.00000000	-12.73991000	2.64517700
105.89999389	0.00000000	-13.06594000	1.48868100
106.09999388	0.00000000	-13.85334000	-0.41830710
106.29999387	0.00000000	-14.64690000	-2.73745100
106.49999385	0.00000000	-15.80955000	-4.64443900
106.69999384	0.00000000	-16.87992000	-5.80093500
106.89999383	0.00000000	-16.92298000	-5.80093500
107.09999382	0.00000000	-16.18479000	-4.68750000
107.29999381	0.00000000	-15.43430000	-3.15575800
107.49999379	0.00000000	-14.60384000	-1.62401600
107.69999378	0.00000000	-13.85334000	-0.46136810
107.89999377	0.00000000	-13.15822000	-0.09227362
108.09999376	0.00000000	-13.53346000	-0.46136810
108.29999375	0.00000000	-15.01599000	-1.62401600
108.49999374	0.00000000	-16.14173000	-3.11269700
108.69999372	0.00000000	-17.01525000	-4.26919300
108.89999371	0.00000000	-17.72268000	-4.69365100
109.09999370	0.00000000	-18.04257000	-4.69365100
109.29999369	0.00000000	-16.92298000	-4.26919300
109.49999368	0.00000000	-15.06521000	-3.11269700
109.69999366	0.00000000	-13.89641000	-1.57480300
109.89999365	0.00000000	-13.06594000	-0.04306102
110.09999364	0.00000000	-12.69070000	1.06422200
110.29999363	0.00000000	-12.69070000	1.06422200
110.49999362	0.00000000	-13.11516000	-0.04306102
110.69999360	0.00000000	-14.27165000	-1.57480300
110.89999359	0.00000000	-15.80955000	-3.15575800
111.09999358	0.00000000	-17.34744000	-4.64443900
111.29999357	0.00000000	-18.46087000	-5.43184000
111.49999356	0.00000000	-18.50394000	-5.11195900
111.69999355	0.00000000	-17.76575000	-4.73671200
111.89999353	0.00000000	-16.97219000	-4.26919300
112.09999352	0.00000000	-15.80955000	-3.15575800
112.29999351	0.00000000	-14.64690000	-1.99311000
112.49999350	0.00000000	-13.85334000	-1.24877000
112.69999349	0.00000000	-13.11516000	-0.83661410
112.89999347	0.00000000	-13.11516000	-1.19955700
113.09999346	0.00000000	-13.85334000	-1.53174200
113.29999345	0.00000000	-14.60384000	-1.57480300
113.49999344	0.00000000	-15.43430000	-1.61786400
113.69999343	0.00000000	-16.18479000	-1.99311000
113.89999341	0.00000000	-16.92298000	-2.73745100
114.09999340	0.00000000	-16.92298000	-3.11269700
114.29999339	0.00000000	-16.22785000	-3.15575800
114.49999338	0.00000000	-15.80955000	-3.15575800
114.69999337	0.00000000	-15.39124000	-3.15575800
114.89999336	0.00000000	-14.64690000	-3.15575800
115.09999334	0.00000000	-14.27165000	-3.15575800
115.29999333	0.00000000	-14.22859000	-3.15575800
115.49999332	0.00000000	-14.22859000	-3.11269700
115.69999331	0.00000000	-14.22859000	-2.73745100
115.89999330	0.00000000	-14.27165000	-1.95004900
116.09999328	0.00000000	-14.64690000	-1.19955700
116.29999327	0.00000000	-15.39124000	-0.41830710
116.49999326	0.00000000	-15.76649000	-0.04306102
116.69999325	0.00000000	-15.80955000	-0.04306102
116.89999324	0.00000000	-15.80955000	-0.41830710
117.09999322	0.00000000	-15.76649000	-1.19955700
117.29999321	0.00000000	-15.39124000	-1.95004900
117.49999320	0.00000000	-14.60384000	-2.78051200
117.69999319	0.00000000	-13.85334000	-3.53100400
117.89999318	0.00000000	-13.06594000	-4.31840500
118.09999317	0.00000000	-12.73991000	-4.64443900
118.29999315	0.00000000	-13.06594000	-4.31840500
118.49999314	0.00000000	-13.85334000	-3.57406500
118.69999313	0.00000000	-14.64690000	-3.15575800
118.89999312	0.00000000	-15.80955000	-2.68823800
119.09999311	0.00000000	-16.97219000	-1.57480300
119.29999309	0.00000000	-17.72268000	-0.51058070
119.49999308	0.00000000	-18.08563000	-0.41830710
119.69999307	0.00000000	-17.29823000	-0.78124990
119.89999306	0.00000000	-15.80955000	-0.79355310
120.09999305	0.00000000	-14.27165000	-1.19955700
120.29999303	0.00000000	-13.06594000	-1.57480300
120.49999302	0.00000000	-12.27239000	-1.99311000
120.69999301	0.00000000	-11.53420000	-2.73745100
120.89999300	0.00000000	-11.57726000	-3.11269700
121.09999299	0.00000000	-12.69070000	-3.15575800
121.29999298	0.00000000	-14.22859000	-3.15575800
121.49999296	0.00000000	-15.76649000	-3.15575800
121.69999295	0.00000000	-16.97219000	-3.15575800
121.89999294	0.00000000	-17.72268000	-3.11269700
122.09999293	0.00000000	-18.13484000	-2.73745100
122.29999292	0.00000000	-17.72268000	-1.99311000
122.49999290	0.00000000	-17.01525000	-1.57480300
122.69999289	0.00000000	-16.18479000	-1.15649600
122.89999288	0.00000000	-15.39124000	-0.41830710
123.09999287	0.00000000	-14.22859000	-0.09227362
123.29999286	0.00000000	-13.11516000	-0.41830710
123.49999284	0.00000000	-12.69070000	-1.19955700
123.69999283	0.00000000	-12.64764000	-1.95004900
123.89999282	0.00000000	-12.69070000	-2.73745100
124.09999281	0.00000000	-13.11516000	-3.11269700
124.29999280	0.00000000	-14.22859000	-3.15575800
124.49999279	0.00000000	-15.34203000	-3.15575800
124.69999277	0.00000000	-15.76649000	-3.15575800
124.89999276	0.00000000	-15.85261000	-3.11269700
125.09999275	0.00000000	-16.22785000	-2.73745100
125.29999274	0.00000000	-16.92298000	-1.99311000
125.49999273	0.00000000	-16.92298000	-1.61786400
125.69999271	0.00000000	-16.18479000	-1.57480300
125.89999270	0.00000000	-15.43430000	-1.57480300
126.09999269	0.00000000	-14.60384000	-1.57480300
126.29999268	0.00000000	-13.85334000	-1.57480300
126.49999267	0.00000000	-13.06594000	-1.57480300
126.69999265	0.00000000	-12.73991000	-1.57480300
126.89999264	0.00000000	-13.06594000	-1.61786400
127.09999263	0.00000000	-13.85334000	-1.99311000
127.29999262	0.00000000	-14.64690000	-2.73745100
127.49999261	0.00000000	-15.80955000	-3.11269700
127.69999260	0.00000000	-16.92298000	-3.15575800
127.89999258	0.00000000	-17.29823000	-3.11269700
128.09999257	0.00000000	-16.97219000	-2.73745100
128.29999256	0.00000000	-16.18479000	-1.99311000
128.49999255	0.00000000	-15.39124000	-1.61786400
128.69999254	0.00000000	-14.22859000	-1.57480300
128.89999252	0.00000000	-13.11516000	-1.57480300
129.09999251	0.00000000	-12.69070000	-1.57480300
129.29999250	0.00000000	-12.69070000	-1.61786400
129.49999249	0.00000000	-13.11516000	-1.99311000
129.69999248	0.00000000	-14.22859000	-2.73745100
129.89999246	0.00000000	-15.39124000	-3.11269700
130.09999245	0.00000000	-16.18479000	-3.15575800
130.29999244	0.00000000	-16.97219000	-3.11269700
130.49999243	0.00000000	-17.29823000	-2.73745100
130.69999242	0.00000000	-16.92298000	-1.99311000
130.89999241	0.00000000	-15.76649000	-1.61786400
131.09999239	0.00000000	-14.27165000	-1.57480300
131.29999238	0.00000000	-13.11516000	-1.57480300
131.49999237	0.00000000	-12.69070000	-1.61786400
131.69999236	0.00000000	-12.69070000	-1.99311000
131.89999235	0.00000000	-13.11516000	-2.73745100
132.09999233	0.00000000	-14.22859000	-3.11269700
132.29999232	0.00000000	-15.39124000	-3.15575800
132.49999231	0.00000000	-16.14173000	-3.15575800
132.69999230	0.00000000	-16.55389000	-3.11269700
132.89999229	0.00000000	-16.18479000	-2.73745100
133.09999227	0.00000000	-15.80955000	-1.95004900
133.29999226	0.00000000	-15.39124000	-1.19955700
133.49999225	0.00000000	-14.64690000	-0.41830710
133.69999224	0.00000000	-14.27165000	-0.09227362
133.89999223	0.00000000	-14.27165000	-0.41830710
134.09999222	0.00000000	-14.64690000	-1.19955700
134.29999220	0.00000000	-15.34203000	-1.99311000
134.49999219	0.00000000	-15.39124000	-3.11269700
134.69999218	0.00000000	-15.02214000	-3.90009800
134.89999217	0.00000000	-15.01599000	-3.94931100
135.09999216	0.00000000	-14.60384000	-4.31840500
135.29999214	0.00000000	-14.27165000	-4.26919300
135.49999213	0.00000000	-14.22859000	-3.53100400
135.69999212	0.00000000	-14.22859000	-2.78051200
135.89999211	0.00000000	-14.27165000	-1.95004900
136.09999210	0.00000000	-14.64690000	-1.19955700
136.29999208	0.00000000	-15.39124000	-0.41830710
136.49999207	0.00000000	-15.76649000	-0.09227362
136.69999206	0.00000000	-15.80955000	-0.41830710
136.89999205	0.00000000	-15.80955000	-1.15649600
137.09999204	0.00000000	-15.76649000	-1.57480300
137.29999203	0.00000000	-15.39124000	-1.99311000
137.49999201	0.00000000	-14.60384000	-2.73745100
137.69999200	0.00000000	-13.85334000	-3.11269700
137.89999199	0.00000000	-13.06594000	-3.15575800
138.09999198	0.00000000	-12.73991000	-3.15575800
138.29999197	0.00000000	-13.06594000	-3.15575800
138.49999195	0.00000000	-13.85334000	-3.11269700
138.69999194	0.00000000	-14.60384000	-2.78051200
138.89999193	0.00000000	-15.39124000	-2.36835600
139.09999192	0.00000000	-15.76649000	-2.36220500
139.29999191	0.00000000	-15.80955000	-1.90698800
139.49999189	0.00000000	-15.76649000	-1.19955700
139.69999188	0.00000000	-15.39124000	-0.41830710
139.89999187	0.00000000	-14.64690000	-0.09227362
140.09999186	0.00000000	-14.27165000	-0.41830710
140.29999185	0.00000000	-14.22859000	-1.19955700
140.49999184	0.00000000	-14.22859000	-1.95004900
140.69999182	0.00000000	-14.22859000	-2.78051200
140.89999181	0.00000000	-14.22859000	-3.53100400
141.09999180	0.00000000	-14.22859000	-4.26919300
141.29999179	0.00000000	-14.22859000	-4.26919300
141.49999178	0.00000000	-14.27165000	-3.53100400
141.69999176	0.00000000	-14.60384000	-2.78051200
141.89999175	0.00000000	-14.97293000	-1.95004900
142.09999174	0.00000000	-14.60384000	-1.19955700
142.29999173	0.00000000	-14.27165000	-0.41830710
142.49999172	0.00000000	-14.22859000	-0.09227362
142.69999170	0.00000000	-14.22859000	-0.41830710
142.89999169	0.00000000	-14.22859000	-1.19955700
143.09999168	0.00000000	-14.22859000	-1.95004900
143.29999167	0.00000000	-14.22859000	-2.78051200
143.49999166	0.00000000	-14.27165000	-3.48794300
143.69999165	0.00000000	-14.60384000	-3.90009800
143.89999163	0.00000000	-14.97293000	-3.53100400
144.09999162	0.00000000	-14.60384000	-3.15575800
144.29999161	0.00000000	-14.27165000	-2.73745100
144.49999160	0.00000000	-14.22859000	-1.99311000
144.69999159	0.00000000	-14.22859000	-1.57480300
144.89999157	0.00000000	-14.22859000	-1.15649600
145.09999156	0.00000000	-14.22859000	-0.46136810
145.29999155	0.00000000	-14.22859000	-0.46136810
145.49999154	0.00000000	-14.27165000	-1.15649600
145.69999153	0.00000000	-14.64690000	-1.57480300
145.89999151	0.00000000	-15.39124000	-1.99311000
146.09999150	0.00000000	-15.76649000	-2.73745100
146.29999149	0.00000000	-15.76649000	-3.11269700
146.49999148	0.00000000	-15.39124000	-3.15575800
146.69999147	0.00000000	-14.64690000	-3.15575800
146.89999146	0.00000000	-14.27165000	-3.15575800
147.09999144	0.00000000	-14.22859000	-3.11269700
147.29999143	0.00000000	-14.22859000	-2.73745100
147.49999142	0.00000000	-14.22859000	-1.99311000
147.69999141	0.00000000	-14.22859000	-1.61786400
147.89999140	0.00000000	-14.27165000	-1.57480300
148.09999138	0.00000000	-14.64690000	-1.57480300
148.29999137	0.00000000	-15.39124000	-1.57480300
148.49999136	0.00000000	-15.76649000	-1.57480300
148.69999135	0.00000000	-15.76649000	-1.61786400
148.89999134	0.00000000	-15.39124000	-1.99311000
149.09999132	0.00000000	-14.64690000	-2.73745100
149.29999131	0.00000000	-14.27165000	-3.11269700
149.49999130	0.00000000	-14.22859000	-3.15575800
149.69999129	0.00000000	-14.22859000	-3.11269700
149.89999128	0.00000000	-14.22859000	-2.73745100
150.09999127	0.00000000	-14.22859000	-1.99311000
150.29999125	0.00000000	-14.22859000	-1.61786400
150.49999124	0.00000000	-14.27165000	-1.57480300
150.69999123	0.00000000	-14.64690000	-1.57480300
150.89999122	0.00000000	-15.39124000	-1.57480300
151.09999121	0.00000000	-15.76649000	-1.57480300
151.29999119	0.00000000	-15.76649000	-1.57480300
151.49999118	0.00000000	-15.39124000	-1.57480300
151.69999117	0.00000000	-14.64690000	-1.57480300
151.89999116	0.00000000	-14.27165000	-1.61786400
152.09999115	0.00000000	-14.22859000	-1.95004900
152.29999113	0.00000000	-14.22859000	-2.31914400
152.49999112	0.00000000	-14.22859000	-1.95004900
152.69999111	0.00000000	-14.18553000	-1.61786400
152.89999110	0.00000000	-13.85334000	-1.57480300
153.09999109	0.00000000	-13.48425000	-1.57480300
153.29999108	0.00000000	-13.85334000	-1.57480300
153.49999106	0.00000000	-14.18553000	-1.57480300
153.69999105	0.00000000	-14.27165000	-1.57480300
153.89999104	0.00000000	-14.64690000	-1.57480300
154.09999103	0.00000000	-15.39124000	-1.57480300
154.29999102	0.00000000	-15.76649000	-1.57480300
154.49999100	0.00000000	-15.76649000	-1.57480300
154.69999099	0.00000000	-15.39124000	-1.57480300
154.89999098	0.00000000	-14.64690000	-1.57480300
155.09999097	0.00000000	-14.27165000	-1.57480300
155.29999096	0.00000000	-14.22859000	-1.57480300
155.49999094	0.00000000	-14.18553000	-1.61786400
155.69999093	0.00000000	-13.81028000	-1.99311000
155.89999092	0.00000000	-13.11516000	-2.68823800
156.09999091	0.00000000	-13.11516000	-2.68823800
156.29999090	0.00000000	-13.81028000	-1.99311000
156.49999089	0.00000000	-14.18553000	-1.61786400
156.69999087	0.00000000	-14.27165000	-1.57480300
156.89999086	0.00000000	-14.64690000	-1.57480300
157.09999085	0.00000000	-15.34203000	-1.53174200
157.29999084	0.00000000	-15.39124000	-1.19955700
157.49999083	0.00000000	-15.02214000	-0.83661410
157.69999081	0.00000000	-15.01599000	-1.19955700
157.89999080	0.00000000	-14.60384000	-1.57480300
158.09999079	0.00000000	-14.27165000	-1.99311000
158.29999078	0.00000000	-14.22859000	-2.73745100
158.49999077	0.00000000	-14.22859000	-3.11269700
158.69999075	0.00000000	-14.18553000	-3.15575800
158.89999074	0.00000000	-13.85334000	-3.11269700
159.09999073	0.00000000	-13.48425000	-2.73745100
159.29999072	0.00000000	-13.85334000	-1.99311000
159.49999071	0.00000000	-14.18553000	-1.61786400
159.69999070	0.00000000	-14.22859000	-1.53174200
159.89999068	0.00000000	-14.22859000	-1.19955700
160.09999067	0.00000000	-14.27165000	-0.83661410
160.29999066	0.00000000	-14.60384000	-1.19955700
160.49999065	0.00000000	-14.97293000	-1.53174200
160.69999064	0.00000000	-14.60384000	-1.57480300
160.89999062	0.00000000	-14.27165000	-1.61786400
161.09999061	0.00000000	-14.22859000	-1.99311000
161.29999060	0.00000000	-14.22859000	-2.73745100
161.49999059	0.00000000	-14.22859000	-3.11269700
161.69999058	0.00000000	-14.22859000	-3.11269700
161.89999056	0.00000000	-14.22859000	-2.73745100
162.09999055	0.00000000	-14.22859000	-1.99311000
162.29999054	0.00000000	-14.22859000	-1.61786400
162.49999053	0.00000000	-14.22859000	-1.57480300
162.69999052	0.00000000	-14.22859000	-1.57480300
162.89999051	0.00000000	-14.27165000	-1.57480300
163.09999049	0.00000000	-14.60384000	-1.57480300
163.29999048	0.00000000	-15.01599000	-1.57480300
163.49999047	0.00000000	-15.02214000	-1.57480300
163.69999046	0.00000000	-15.39124000	-1.57480300
163.89999045	0.00000000	-15.34203000	-1.57480300
164.09999043	0.00000000	-14.64690000	-1.61786400
164.29999042	0.00000000	-14.32087000	-1.99311000
164.49999041	0.00000000	-14.60384000	-2.68823800
164.69999040	0.00000000	-14.92372000	-2.68823800
164.89999039	0.00000000	-14.22859000	-1.99311000
165.09999037	0.00000000	-13.48425000	-1.61786400
165.29999036	0.00000000	-13.47810000	-1.57480300
165.49999035	0.00000000	-13.44119000	-1.57480300
165.69999034	0.00000000	-13.85334000	-1.57480300
165.89999033	0.00000000	-14.18553000	-1.57480300
166.09999032	0.00000000	-14.22859000	-1.57480300
166.29999030	0.00000000	-14.22859000	-1.57480300
166.49999029	0.00000000	-14.22859000	-1.57480300
166.69999028	0.00000000	-14.22859000	-1.57480300
166.89999027	0.00000000	-14.22859000	-1.57480300
167.09999026	0.00000000	-14.22859000	-1.57480300
167.29999024	0.00000000	-14.22859000	-1.57480300
167.49999023	0.00000000	-14.22859000	-1.57480300
167.69999022	0.00000000	-14.22859000	-1.57480300
167.89999021	0.00000000	-14.22859000	-1.57480300
168.09999020	0.00000000	-14.22859000	-1.57480300
168.29999018	0.00000000	-14.22859000	-1.57480300
168.49999017	0.00000000	-14.22859000	-1.57480300
168.69999016	0.00000000	-14.22859000	-1.57480300
168.89999015	0.00000000	-14.22859000	-1.57480300
169.09999014	0.00000000	-14.22859000	-1.57480300
169.29999013	0.00000000	-14.22859000	-1.57480300
169.49999011	0.00000000	-14.22859000	-1.57480300
169.69999010	0.00000000	-14.22859000	-1.57480300
169.89999009	0.00000000	-14.22859000	-1.57480300
170.09999008	0.00000000	-14.22859000	-1.57480300
170.29999007	0.00000000	-14.22859000	-1.57480300
170.49999005	0.00000000	-14.22859000	-1.57480300
170.69999004	0.00000000	-14.22859000	-1.57480300
170.89999003	0.00000000	-14.22859000	-1.57480300
171.09999002	0.00000000	-14.18553000	-1.57480300
171.29999001	0.00000000	-13.85334000	-1.57480300
171.49998999	0.00000000	-13.48425000	-1.61786400
171.69998998	0.00000000	-13.85334000	-1.95004900
171.89998997	0.00000000	-14.18553000	-2.31914400
172.09998996	0.00000000	-14.22859000	-1.95004900
172.29998995	0.00000000	-14.22859000	-1.61786400
172.49998994	0.00000000	-14.22859000	-1.57480300
172.69998992	0.00000000	-14.22859000	-1.57480300
172.89998991	0.00000000	-14.22859000	-1.57480300
173.09998990	0.00000000	-14.22859000	-1.57480300
173.29998989	0.00000000	-14.22859000	-1.57480300
173.49998988	0.00000000	-14.22859000	-1.57480300
173.69998986	0.00000000	-14.22859000	-1.57480300
173.89998985	0.00000000	-14.22859000	-1.57480300
174.09998984	0.00000000	-14.22859000	-1.57480300
174.29998983	0.00000000	-14.22859000	-1.57480300
174.49998982	0.00000000	-14.22859000	-1.61786400
174.69998980	0.00000000	-14.22859000	-1.99311000
174.89998979	0.00000000	-14.22859000	-2.68823800
175.09998978	0.00000000	-14.22859000	-2.68823800
175.29998977	0.00000000	-14.22859000	-1.99311000
175.49998976	0.00000000	-14.22859000	-1.61786400
175.69998975	0.00000000	-14.22859000	-1.57480300
175.89998973	0.00000000	-14.22859000	-1.57480300
176.09998972	0.00000000	-14.22859000	-1.57480300
176.29998971	0.00000000	-14.22859000	-1.57480300
176.49998970	0.00000000	-14.22859000	-1.57480300
176.69998969	0.00000000	-14.22859000	-1.57480300
176.89998967	0.00000000	-14.22859000	-1.57480300
177.09998966	0.00000000	-14.22859000	-1.57480300
177.29998965	0.00000000	-14.22859000	-1.57480300
177.49998964	0.00000000	-14.22859000	-1.57480300
177.69998963	0.00000000	-14.22859000	-1.57480300
177.89998961	0.00000000	-14.22859000	-1.57480300
178.09998960	0.00000000	-14.22859000	-1.57480300
178.29998959	0.00000000	-14.22859000	-1.57480300
178.49998958	0.00000000	-14.22859000	-1.57480300
178.69998957	0.00000000	-14.22859000	-1.57480300
178.89998956	0.00000000	-14.22859000	-1.57480300
179.09998954	0.00000000	-14.18553000	-1.57480300
179.29998953	0.00000000	-13.85334000	-1.57480300
179.49998952	0.00000000	-13.48425000	-1.57480300
179.69998951	0.00000000	-13.85334000	-1.57480300
179.89998950	0.00000000	-14.18553000	-1.57480300
180.09998948	0.00000000	-14.22859000	-1.57480300
180.29998947	0.00000000	-14.22859000	-1.61786400
180.49998946	0.00000000	-14.22859000	-1.95004900
180.69998945	0.00000000	-14.22859000	-2.31914400
180.89998944	0.00000000	-14.22859000	-1.95004900
181.09998942	0.00000000	-14.22859000	-1.61786400
181.29998941	0.00000000	-14.22859000	-1.57480300
181.49998940	0.00000000	-14.22859000	-1.57480300
181.69998939	0.00000000	-14.22859000	-1.53174200
181.89998938	0.00000000	-14.22859000	-1.19955700
182.09998937	0.00000000	-14.22859000	-0.83661410
182.29998935	0.00000000	-14.22859000	-1.19955700
182.49998934	0.00000000	-14.22859000	-1.53174200
182.69998933	0.00000000	-14.18553000	-1.57480300
182.89998932	0.00000000	-13.81028000	-1.57480300
183.09998931	0.00000000	-13.11516000	-1.57480300
183.29998929	0.00000000	-13.11516000	-1.57480300
183.49998928	0.00000000	-13.81028000	-1.57480300
183.69998927	0.00000000	-14.18553000	-1.57480300
183.89998926	0.00000000	-14.22859000	-1.57480300
184.09998925	0.00000000	-14.22859000	-1.57480300
184.29998923	0.00000000	-14.22859000	-1.57480300
184.49998922	0.00000000	-14.22859000	-1.57480300
184.69998921	0.00000000	-14.22859000	-1.57480300
184.89998920	0.00000000	-14.22859000	-1.57480300
185.09998919	0.00000000	-14.18553000	-1.57480300
185.29998918	0.00000000	-13.85334000	-1.57480300
185.49998916	0.00000000	-13.48425000	-1.57480300
185.69998915	0.00000000	-13.81028000	-1.57480300
185.89998914	0.00000000	-13.76107000	-1.61786400
186.09998913	0.00000000	-13.06594000	-1.99311000
186.29998912	0.00000000	-12.73991000	-2.73745100
186.49998910	0.00000000	-13.06594000	-3.11269700
186.69998909	0.00000000	-13.81028000	-3.11269700
186.89998908	0.00000000	-14.18553000	-2.73745100
187.09998907	0.00000000	-14.22859000	-1.99311000
187.29998906	0.00000000	-14.22859000	-1.61786400
187.49998904	0.00000000	-14.22859000	-1.57480300
187.69998903	0.00000000	-14.22859000	-1.53174200
187.89998902	0.00000000	-14.22859000	-1.19955700
188.09998901	0.00000000	-14.22859000	-0.83661410
188.29998900	0.00000000	-14.22859000	-1.19955700
188.49998899	0.00000000	-14.18553000	-1.53174200
188.69998897	0.00000000	-13.81028000	-1.57480300
188.89998896	0.00000000	-13.06594000	-1.57480300
189.09998895	0.00000000	-12.69070000	-1.61786400
189.29998894	0.00000000	-12.69070000	-1.99311000
189.49998893	0.00000000	-13.06594000	-2.68823800
189.69998891	0.00000000	-13.81028000	-2.68823800
189.89998890	0.00000000	-14.18553000	-1.99311000
190.09998889	0.00000000	-14.22859000	-1.61786400
190.29998888	0.00000000	-14.22859000	-1.57480300
190.49998887	0.00000000	-14.22859000	-1.57480300
190.69998885	0.00000000	-14.22859000	-1.57480300
190.89998884	0.00000000	-14.22859000	-1.57480300
191.09998883	0.00000000	-14.22859000	-1.57480300
191.29998882	0.00000000	-14.18553000	-1.57480300
191.49998881	0.00000000	-13.81028000	-1.57480300
191.69998880	0.00000000	-13.06594000	-1.57480300
191.89998878	0.00000000	-12.73991000	-1.57480300
192.09998877	0.00000000	-13.06594000	-1.61786400
192.29998876	0.00000000	-13.76107000	-1.99311000
192.49998875	0.00000000	-13.81028000	-2.68823800
192.69998874	0.00000000	-13.48425000	-2.73745100
192.89998872	0.00000000	-13.85334000	-2.36835600
193.09998871	0.00000000	-14.18553000	-2.36220500
193.29998870	0.00000000	-14.22859000	-1.95004900
193.49998869	0.00000000	-14.22859000	-1.61786400
193.69998868	0.00000000	-14.22859000	-1.57480300
193.89998866	0.00000000	-14.22859000	-1.57480300
194.09998865	0.00000000	-14.18553000	-1.57480300
194.29998864	0.00000000	-13.81028000	-1.57480300
194.49998863	0.00000000	-13.06594000	-1.57480300
194.69998862	0.00000000	-12.69070000	-1.57480300
194.89998861	0.00000000	-12.64764000	-1.57480300
195.09998859	0.00000000	-12.64764000	-1.57480300
195.29998858	0.00000000	-12.69070000	-1.57480300
195.49998857	0.00000000	-13.06594000	-1.57480300
195.69998856	0.00000000	-13.81028000	-1.57480300
195.89998855	0.00000000	-14.18553000	-1.57480300
196.09998853	0.00000000	-14.22859000	-1.57480300
