Time	Channel A	Channel B
(us)	(V)	(mV)

-4.59999956	0.00000000	5.24114100
-4.39999957	0.00000000	5.65329700
-4.19999958	0.00000000	6.46530500
-3.99999959	0.00000000	6.87746000
-3.79999960	0.00000000	6.87746000
-3.59999962	0.00000000	6.46530500
-3.39999963	0.00000000	5.70251000
-3.19999964	0.00000000	5.65329700
-2.99999965	0.00000000	6.05314900
-2.79999966	0.00000000	6.06545300
-2.59999968	0.00000000	6.46530500
-2.39999969	0.00000000	6.46530500
-2.19999970	0.00000000	6.06545300
-1.99999971	0.00000000	6.05314900
-1.79999972	0.00000000	5.60408400
-1.59999973	0.00000000	5.29035400
-1.39999975	0.00000000	5.65329700
-1.19999976	0.00000000	6.41609200
-0.99999977	0.00000000	6.41609200
-0.79999978	0.00000000	5.70251000
-0.59999979	0.00000000	5.70251000
-0.39999981	0.17531990	6.41609200
-0.19999982	0.52657480	6.46530500
0.00000017	0.87844490	6.11466500
0.20000016	1.05376500	6.51451700
0.40000015	0.87844490	6.82824800
0.60000013	0.52657480	6.46530500
0.80000012	-0.35125490	5.70251000
1.00000011	-1.40563500	5.70251000
1.20000010	-2.28408000	6.46530500
1.40000009	-2.81127000	6.87746000
1.60000008	-2.63533500	6.92667200
1.80000006	-1.58095500	6.92667200
2.00000005	0.17531990	6.92667200
2.20000004	2.28408000	6.92667200
2.40000003	4.21690500	6.87746000
2.60000002	5.27128500	6.46530500
2.80000000	5.09534900	5.65329700
2.99999999	3.33846000	5.24114100
3.19999998	0.52657480	5.19192900
3.39999997	-2.81127000	5.19192900
3.59999996	-5.97379400	5.19192900
3.79999994	-7.73129900	5.24114100
3.99999993	-7.73129900	5.65329700
4.19999992	-5.62254000	6.46530500
4.39999991	-1.93282500	6.87746000
4.59999990	2.45940000	6.87746000
4.79999989	6.50098400	6.46530500
4.99999987	9.13693400	5.65329700
5.19999986	9.31225400	5.24114100
5.39999985	7.20410900	5.19192900
5.59999984	3.16252500	5.19192900
5.79999983	-1.58095500	5.19192900
5.99999981	-5.97379400	5.24114100
6.19999980	-8.78567900	5.65329700
6.39999979	-9.48818900	6.46530500
6.59999978	-7.73129900	6.87746000
6.79999977	-4.04096900	6.92667200
6.99999975	0.35125490	6.87746000
7.19999974	4.39283900	6.46530500
7.39999973	7.02817400	5.65329700
7.59999972	7.73129900	5.24114100
7.79999971	6.50098400	5.19192900
7.99999970	3.86565000	5.19192900
8.19999968	0.52657480	5.19192900
8.39999967	-2.45940000	5.24114100
8.59999966	-4.39283900	5.65329700
8.79999965	-5.09534900	6.46530500
8.99999964	-4.56816000	6.87746000
9.19999962	-2.81127000	6.92667200
9.39999961	-0.87844490	6.92667200
9.59999960	0.87844490	6.92667200
9.79999959	2.10814500	6.87746000
9.99999958	2.45940000	6.51451700
10.19999956	2.10814500	6.06545300
10.39999955	1.40563500	6.10236200
10.59999954	0.52657480	6.01624000
10.79999953	-0.17531990	6.05314900
10.99999952	-0.87844490	5.60408400
11.19999951	-0.87844490	5.24114100
11.39999949	-0.87844490	5.24114100
11.59999948	-0.52657480	5.65329700
11.79999947	-0.17531990	6.41609200
11.99999946	0.00000000	6.46530500
12.19999945	0.00000000	6.11466500
12.39999943	0.00000000	6.51451700
12.59999942	-0.17531990	6.87746000
12.79999941	-0.17531990	6.87746000
12.99999940	-0.17531990	6.46530500
13.19999939	0.00000000	5.70251000
13.39999937	0.00000000	5.65329700
13.59999936	0.00000000	6.00393600
13.79999935	0.00000000	5.60408400
13.99999934	0.00000000	5.29035400
14.19999933	0.00000000	5.65329700
14.39999932	0.00000000	6.46530500
14.59999930	0.00000000	6.82824800
14.79999929	0.00000000	6.46530500
14.99999928	0.00000000	5.70251000
15.19999927	0.00000000	5.65329700
15.39999926	0.00000000	6.00393600
15.59999924	0.00000000	5.60408400
15.79999923	0.00000000	5.29035400
15.99999922	0.00000000	5.65329700
16.19999921	0.00000000	6.46530500
16.39999920	0.00000000	6.87746000
16.59999919	0.00000000	6.92667200
16.79999917	0.00000000	6.92667200
16.99999916	0.00000000	6.92667200
17.19999915	0.00000000	6.87746000
17.39999914	0.00000000	6.46530500
17.59999913	0.00000000	5.70251000
17.79999911	0.00000000	5.65329700
17.99999910	0.00000000	6.05314900
18.19999909	0.00000000	6.06545300
18.39999908	0.00000000	6.51451700
18.59999907	0.00000000	6.87746000
18.79999905	0.00000000	6.87746000
18.99999904	0.00000000	6.51451700
19.19999903	0.00000000	6.11466500
19.39999902	0.00000000	6.46530500
19.59999901	0.00000000	6.41609200
19.79999900	0.00000000	5.65329700
19.99999898	0.00000000	5.24114100
20.19999897	0.00000000	5.24114100
20.39999896	0.00000000	5.60408400
20.59999895	0.00000000	6.05314900
20.79999894	0.00000000	6.06545300
20.99999892	0.00000000	6.51451700
21.19999891	0.00000000	6.87746000
21.39999890	0.00000000	6.92667200
21.59999889	0.00000000	6.87746000
21.79999888	0.00000000	6.51451700
21.99999886	0.00000000	6.11466500
22.19999885	0.00000000	6.51451700
22.39999884	0.00000000	6.82824800
22.59999883	0.00000000	6.46530500
22.79999882	0.00000000	5.65329700
22.99999881	0.00000000	5.24114100
23.19999879	0.00000000	5.19192900
23.39999878	0.00000000	5.19192900
23.59999877	0.00000000	5.19192900
23.79999876	0.00000000	5.19192900
23.99999875	0.00000000	5.19192900
24.19999873	0.00000000	5.24114100
24.39999872	0.00000000	5.70251000
24.59999871	0.00000000	6.97588500
24.79999870	0.00000000	8.60605200
24.99999869	0.00000000	9.87942800
25.19999867	0.00000000	10.29158000
25.39999866	0.00000000	9.83021600
25.59999865	0.00000000	8.09547100
25.79999864	0.00000000	5.14271600
25.99999863	0.00000000	1.77780500
26.19999862	0.00000000	-1.17495100
26.39999860	0.00000000	-2.85433100
26.59999859	0.00000000	-2.80511800
26.79999858	0.00000000	-0.61515740
26.99999857	0.00000000	4.02313000
27.19999856	0.00000000	9.97785300
27.39999854	0.00000000	15.94488000
27.59999853	0.00000000	21.39518000
27.79999852	0.00000000	24.20029000
27.99999851	0.00000000	22.47170000
28.19999850	0.00000000	16.15404000
28.39999848	0.00000000	6.77903500
28.59999847	0.00000000	-3.82627900
28.79999846	0.00000000	-13.95792000
28.99999845	0.00000000	-20.63853000
29.19999844	0.00000000	-21.86270000
29.39999843	0.00000000	-16.61540000
29.59999841	0.00000000	-4.74286400
29.79999840	0.00000000	11.65723000
29.99999839	0.00000000	27.71284000
30.19999838	0.00000000	39.64074000
30.39999837	0.00000000	45.44783000
30.59999835	0.00000000	42.79650000
30.79999834	0.00000000	30.88090000
30.99999833	0.00000000	12.27854000
31.19999832	0.00000000	-9.32578700
31.39999831	0.00000000	-28.74015000
31.59999829	0.00000000	-41.38164000
31.79999828	0.00000000	-43.82382000
31.99999827	0.00000000	-34.45497000
32.19999826	0.00000000	-15.03445000
32.39999825	0.00000000	9.92864100
32.59999824	0.00000000	34.49187000
32.79999822	0.00000000	53.54945000
32.99999821	0.00000000	62.77681000
33.19999820	0.00000000	59.31348000
33.39999819	0.00000000	43.25787000
33.59999818	0.00000000	18.29478000
33.79999816	0.00000000	-9.63336600
33.99999815	0.00000000	-34.55339000
34.19999814	0.00000000	-50.19070000
34.39999813	0.00000000	-52.79897000
34.59999812	0.00000000	-42.65502000
34.79999810	0.00000000	-21.86270000
34.99999809	0.00000000	5.24114100
35.19999808	0.00000000	32.71407000
35.39999807	0.00000000	54.26304000
35.59999806	0.00000000	64.40699000
35.79999805	0.00000000	61.04207000
35.99999803	0.00000000	45.04183000
36.19999802	0.00000000	20.53395000
36.39999801	0.00000000	-6.12081600
36.59999800	0.00000000	-29.40452000
36.79999799	0.00000000	-43.72539000
36.99999797	0.00000000	-45.50935000
37.19999796	0.00000000	-35.05782000
37.39999795	0.00000000	-16.05561000
37.59999794	0.00000000	6.77903500
37.79999793	0.00000000	28.32800000
37.99999791	0.00000000	43.15945000
38.19999790	0.00000000	48.30832000
38.39999789	0.00000000	43.30709000
38.59999788	0.00000000	29.81053000
38.79999787	0.00000000	11.71260000
38.99999786	0.00000000	-6.47145600
39.19999784	0.00000000	-19.98031000
39.39999783	0.00000000	-25.99040000
39.59999782	0.00000000	-23.49286000
39.79999781	0.00000000	-13.90871000
39.99999780	0.00000000	-0.41215550
40.19999778	0.00000000	13.04749000
40.39999777	0.00000000	23.22835000
40.59999776	0.00000000	27.46678000
40.79999775	0.00000000	25.47367000
40.99999774	0.00000000	18.38706000
41.19999772	0.00000000	9.21505800
41.39999771	0.00000000	1.16264800
41.59999770	0.00000000	-3.98006900
41.79999769	0.00000000	-5.70866100
41.99999768	0.00000000	-4.07849400
42.19999767	0.00000000	0.09842519
42.39999765	0.00000000	5.09350300
42.59999764	0.00000000	9.31963500
42.79999763	0.00000000	11.46038000
42.99999762	0.00000000	11.55881000
43.19999761	0.00000000	10.29158000
43.39999759	0.00000000	8.19389700
43.59999758	0.00000000	5.70251000
43.79999757	0.00000000	4.07234200
43.99999756	0.00000000	4.02313000
44.19999755	0.00000000	5.19192900
44.39999753	0.00000000	6.41609200
44.59999752	0.00000000	6.82824800
44.79999751	0.00000000	6.41609200
44.99999750	0.00000000	5.09350300
45.19999749	0.00000000	3.05118100
45.39999748	0.00000000	1.06422200
45.59999746	0.00000000	1.06422200
45.79999745	0.00000000	3.10039400
45.99999744	0.00000000	5.65329700
46.19999743	0.00000000	8.70447700
46.39999742	0.00000000	11.97096000
46.59999740	0.00000000	14.05635000
46.79999739	0.00000000	13.65650000
46.99999738	0.00000000	11.55881000
47.19999737	0.00000000	8.09547100
47.39999736	0.00000000	3.51254900
47.59999734	0.00000000	-0.66437010
47.79999733	0.00000000	-2.80511800
47.99999732	0.00000000	-2.80511800
48.19999731	0.00000000	-0.71358260
48.39999730	0.00000000	3.05118100
48.59999729	0.00000000	6.87746000
48.79999727	0.00000000	10.29158000
48.99999726	0.00000000	12.83834000
49.19999725	0.00000000	13.70571000
49.39999724	0.00000000	13.29355000
49.59999723	0.00000000	11.55881000
49.79999721	0.00000000	8.60605200
49.99999720	0.00000000	5.29035400
50.19999719	0.00000000	2.69439000
50.39999718	0.00000000	1.41486200
50.59999717	0.00000000	0.91658460
50.79999715	0.00000000	1.36565000
50.99999714	0.00000000	2.18996000
51.19999713	0.00000000	3.51254900
51.39999712	0.00000000	5.24114100
51.59999711	0.00000000	7.38804100
51.79999710	0.00000000	9.87942800
51.99999708	0.00000000	11.55881000
52.19999707	0.00000000	12.02018000
52.39999706	0.00000000	11.65723000
52.59999705	0.00000000	10.75295000
52.79999704	0.00000000	9.37500000
52.99999702	0.00000000	6.41609200
53.19999701	0.00000000	2.74975400
53.39999700	0.00000000	0.60900590
53.59999699	0.00000000	0.09842519
53.79999698	0.00000000	0.55979330
53.99999696	0.00000000	2.23917300
54.19999695	0.00000000	4.77977300
54.39999694	0.00000000	7.33882900
54.59999693	0.00000000	9.87942800
54.79999692	0.00000000	11.50960000
54.99999691	0.00000000	11.55881000
55.19999689	0.00000000	10.29158000
55.39999688	0.00000000	8.14468500
55.59999687	0.00000000	5.24114100
55.79999686	0.00000000	2.69439000
55.99999685	0.00000000	1.41486200
56.19999683	0.00000000	1.01501000
56.39999682	0.00000000	2.28838600
56.59999681	0.00000000	4.77977300
56.79999680	0.00000000	7.33882900
56.99999679	0.00000000	9.87942800
57.19999677	0.00000000	11.50960000
57.39999676	0.00000000	11.50960000
57.59999675	0.00000000	9.83021600
57.79999674	0.00000000	6.87746000
57.99999673	0.00000000	3.51254900
58.19999672	0.00000000	0.60900590
58.39999670	0.00000000	-0.66437010
58.59999669	0.00000000	0.14763780
58.79999668	0.00000000	2.23917300
58.99999667	0.00000000	5.24114100
59.19999666	0.00000000	8.60605200
59.39999664	0.00000000	11.55881000
59.59999663	0.00000000	13.24434000
59.79999662	0.00000000	13.24434000
59.99999661	0.00000000	11.50960000
60.19999660	0.00000000	8.14468500
60.39999658	0.00000000	3.97391700
60.59999657	0.00000000	0.60900590
60.79999656	0.00000000	-1.11958700
60.99999655	0.00000000	-1.11958700
61.19999654	0.00000000	0.55979330
61.39999653	0.00000000	3.56176100
61.59999651	0.00000000	7.33882900
61.79999650	0.00000000	11.10359000
61.99999649	0.00000000	13.24434000
62.19999648	0.00000000	13.70571000
62.39999647	0.00000000	12.83834000
62.59999645	0.00000000	10.34080000
62.79999644	0.00000000	7.38804100
62.99999643	0.00000000	4.82898600
63.19999642	0.00000000	2.69439000
63.39999641	0.00000000	1.82701800
63.59999639	0.00000000	1.77780500
63.79999638	0.00000000	2.23917300
63.99999637	0.00000000	3.46333600
64.19999636	0.00000000	4.73056000
64.39999635	0.00000000	5.65329700
64.59999634	0.00000000	6.97588500
64.79999632	0.00000000	8.65526600
64.99999631	0.00000000	10.34080000
65.19999630	0.00000000	11.60802000
65.39999629	0.00000000	12.02018000
65.59999628	0.00000000	11.55881000
65.79999626	0.00000000	9.83021600
65.99999625	0.00000000	6.87746000
66.19999624	0.00000000	3.51254900
66.39999623	0.00000000	0.51058070
66.59999622	0.00000000	-1.58095500
66.79999620	0.00000000	-2.39296200
66.99999619	0.00000000	-1.12573800
67.19999618	0.00000000	1.82701800
67.39999617	0.00000000	5.70251000
67.59999616	0.00000000	10.34080000
67.79999615	0.00000000	14.56693000
67.99999613	0.00000000	17.07062000
68.19999612	0.00000000	17.47047000
68.39999611	0.00000000	14.87451000
68.59999610	0.00000000	9.87942800
68.79999609	0.00000000	3.97391700
68.99999607	0.00000000	-1.11958700
69.19999606	0.00000000	-4.53371000
69.39999605	0.00000000	-5.80708600
69.59999604	0.00000000	-4.48449800
69.79999603	0.00000000	-0.71358260
69.99999601	0.00000000	4.78592500
70.19999600	0.00000000	10.29158000
70.39999599	0.00000000	14.97293000
70.59999598	0.00000000	17.93184000
70.79999597	0.00000000	18.33784000
70.99999596	0.00000000	16.19710000
71.19999594	0.00000000	11.55881000
71.39999593	0.00000000	5.70251000
71.59999592	0.00000000	0.60900590
71.79999591	0.00000000	-2.85433100
71.99999590	0.00000000	-4.53371000
72.19999588	0.00000000	-4.07849400
72.39999587	0.00000000	-1.11958700
72.59999586	0.00000000	3.46333600
72.79999585	0.00000000	8.14468500
72.99999584	0.00000000	12.02018000
73.19999582	0.00000000	14.97293000
73.39999581	0.00000000	16.19710000
73.59999580	0.00000000	14.92372000
73.79999579	0.00000000	11.55881000
73.99999578	0.00000000	6.92667200
74.19999577	0.00000000	2.28838600
74.39999575	0.00000000	-1.07652500
74.59999574	0.00000000	-2.39296200
74.79999573	0.00000000	-1.58095500
74.99999572	0.00000000	0.55979330
75.19999571	0.00000000	3.97391700
75.39999569	0.00000000	8.19389700
75.59999568	0.00000000	11.97096000
75.79999567	0.00000000	14.51772000
75.99999566	0.00000000	14.87451000
76.19999565	0.00000000	12.83218000
76.39999563	0.00000000	9.01820900
76.59999562	0.00000000	4.77977300
76.79999561	0.00000000	0.55979330
76.99999560	0.00000000	-2.34990100
77.19999559	0.00000000	-2.80511800
77.39999558	0.00000000	-1.12573800
77.59999556	0.00000000	2.28838600
77.79999555	0.00000000	6.97588500
77.99999554	0.00000000	12.02018000
78.19999553	0.00000000	16.19710000
78.39999552	0.00000000	17.88263000
78.59999550	0.00000000	16.60925000
78.79999549	0.00000000	12.78912000
78.99999548	0.00000000	6.87746000
79.19999547	0.00000000	0.55979330
79.39999546	0.00000000	-4.48449800
79.59999544	0.00000000	-7.03125000
79.79999543	0.00000000	-6.17002900
79.99999542	0.00000000	-2.39911400
80.19999541	0.00000000	3.56176100
80.39999540	0.00000000	10.29158000
80.59999539	0.00000000	16.25246000
80.79999537	0.00000000	20.07259000
80.99999536	0.00000000	21.29675000
81.19999535	0.00000000	19.15600000
81.39999534	0.00000000	13.70571000
81.59999533	0.00000000	6.92667200
81.79999531	0.00000000	0.09842519
81.99999530	0.00000000	-5.81323800
82.19999529	0.00000000	-9.17814900
82.39999528	0.00000000	-9.17814900
82.59999527	0.00000000	-5.81323800
82.79999525	0.00000000	0.09842519
82.99999524	0.00000000	6.87746000
83.19999523	0.00000000	13.29355000
83.39999522	0.00000000	18.38706000
83.59999521	0.00000000	21.34596000
83.79999520	0.00000000	21.29675000
83.99999518	0.00000000	17.93184000
84.19999517	0.00000000	12.02018000
84.39999516	0.00000000	5.24114100
84.59999515	0.00000000	-1.17495100
84.79999514	0.00000000	-6.21924200
84.99999512	0.00000000	-8.76599300
85.19999511	0.00000000	-7.94783400
85.39999510	0.00000000	-4.58292300
85.59999509	0.00000000	0.55979330
85.79999508	0.00000000	6.92667200
85.99999506	0.00000000	13.29355000
86.19999505	0.00000000	18.38706000
86.39999504	0.00000000	21.34596000
86.59999503	0.00000000	21.34596000
86.79999502	0.00000000	18.38706000
86.99999501	0.00000000	13.29355000
87.19999499	0.00000000	6.87746000
87.39999498	0.00000000	0.14763780
87.59999497	0.00000000	-5.35187000
87.79999496	0.00000000	-7.89862200
87.99999495	0.00000000	-7.54183000
88.19999493	0.00000000	-4.53371000
88.39999492	0.00000000	0.55979330
88.59999491	0.00000000	6.87746000
88.79999490	0.00000000	12.83834000
88.99999489	0.00000000	17.11983000
89.19999487	0.00000000	19.66658000
89.39999486	0.00000000	19.56816000
89.59999485	0.00000000	16.25246000
89.79999484	0.00000000	10.80217000
89.99999483	0.00000000	5.24114100
90.19999482	0.00000000	0.14763780
90.39999480	0.00000000	-3.66633800
90.59999479	0.00000000	-4.94586600
90.79999478	0.00000000	-4.12770700
90.99999477	0.00000000	-1.11958700
91.19999476	0.00000000	3.46333600
91.39999474	0.00000000	8.09547100
91.59999473	0.00000000	11.55881000
91.79999472	0.00000000	13.70571000
91.99999471	0.00000000	14.56693000
92.19999470	0.00000000	13.70571000
92.39999468	0.00000000	11.60802000
92.59999467	0.00000000	8.60605200
92.79999466	0.00000000	5.29035400
92.99999465	0.00000000	2.69439000
93.19999464	0.00000000	1.41486200
93.39999463	0.00000000	0.96579720
93.59999461	0.00000000	1.82701800
93.79999460	0.00000000	3.46333600
93.99999459	0.00000000	5.19192900
94.19999458	0.00000000	6.92667200
94.39999457	0.00000000	8.60605200
94.59999455	0.00000000	9.83021600
94.79999454	0.00000000	9.87942800
94.99999453	0.00000000	9.06742000
95.19999452	0.00000000	8.24311000
95.39999451	0.00000000	7.33882900
95.59999449	0.00000000	6.51451700
95.79999448	0.00000000	5.65329700
95.99999447	0.00000000	5.19192900
96.19999446	0.00000000	4.73056000
96.39999445	0.00000000	3.97391700
96.59999444	0.00000000	3.97391700
96.79999442	0.00000000	4.73056000
96.99999441	0.00000000	5.14271600
97.19999440	0.00000000	5.24114100
97.39999439	0.00000000	5.70251000
97.59999438	0.00000000	6.92667200
97.79999436	0.00000000	8.14468500
97.99999435	0.00000000	8.60605200
98.19999434	0.00000000	8.60605200
98.39999433	0.00000000	8.19389700
98.59999432	0.00000000	7.33882900
98.79999430	0.00000000	6.51451700
98.99999429	0.00000000	5.65329700
99.19999428	0.00000000	5.24114100
99.39999427	0.00000000	5.19192900
99.59999426	0.00000000	5.19192900
99.79999425	0.00000000	5.19192900
99.99999423	0.00000000	5.24114100
100.19999422	0.00000000	5.70251000
100.39999421	0.00000000	6.87746000
100.59999420	0.00000000	7.73868000
100.79999419	0.00000000	7.79404500
100.99999417	0.00000000	8.19389700
101.19999416	0.00000000	8.14468500
101.39999415	0.00000000	7.33882900
101.59999414	0.00000000	6.51451700
101.79999413	0.00000000	5.60408400
101.99999411	0.00000000	4.77977300
102.19999410	0.00000000	3.97391700
102.39999409	0.00000000	3.97391700
102.59999408	0.00000000	4.77977300
102.79999407	0.00000000	5.60408400
102.99999406	0.00000000	6.51451700
103.19999404	0.00000000	7.33882900
103.39999403	0.00000000	8.19389700
103.59999402	0.00000000	8.60605200
103.79999401	0.00000000	8.60605200
103.99999400	0.00000000	8.14468500
104.19999398	0.00000000	6.92667200
104.39999397	0.00000000	5.70251000
104.59999396	0.00000000	5.19192900
104.79999395	0.00000000	4.77977300
104.99999394	0.00000000	4.37992100
105.19999392	0.00000000	4.82898600
105.39999391	0.00000000	5.60408400
105.59999390	0.00000000	6.51451700
105.79999389	0.00000000	7.33882900
105.99999388	0.00000000	8.19389700
106.19999387	0.00000000	8.55684000
106.39999385	0.00000000	8.19389700
106.59999384	0.00000000	7.33882900
106.79999383	0.00000000	6.51451700
106.99999382	0.00000000	5.60408400
107.19999381	0.00000000	4.77977300
107.39999379	0.00000000	3.97391700
107.59999378	0.00000000	3.97391700
107.79999377	0.00000000	4.77977300
107.99999376	0.00000000	5.65329700
108.19999375	0.00000000	6.92667200
108.39999374	0.00000000	8.19389700
108.59999372	0.00000000	9.06742000
108.79999371	0.00000000	9.87942800
108.99999370	0.00000000	9.83021600
109.19999369	0.00000000	8.60605200
109.39999368	0.00000000	6.92667200
109.59999366	0.00000000	5.19192900
109.79999365	0.00000000	3.56176100
109.99999364	0.00000000	2.70054100
110.19999363	0.00000000	3.10039400
110.39999362	0.00000000	3.92470400
110.59999360	0.00000000	5.24114100
110.79999359	0.00000000	6.92667200
110.99999358	0.00000000	8.65526600
111.19999357	0.00000000	10.29158000
111.39999356	0.00000000	11.10359000
111.59999355	0.00000000	10.29158000
111.79999353	0.00000000	8.65526600
111.99999352	0.00000000	6.87746000
112.19999351	0.00000000	4.73056000
112.39999350	0.00000000	2.28838600
112.59999349	0.00000000	1.01501000
112.79999347	0.00000000	1.41486200
112.99999346	0.00000000	2.64517700
113.19999345	0.00000000	4.82898600
113.39999344	0.00000000	7.33882900
113.59999343	0.00000000	9.87942800
113.79999341	0.00000000	11.55881000
113.99999340	0.00000000	12.02018000
114.19999339	0.00000000	11.55881000
114.39999338	0.00000000	9.87942800
114.59999337	0.00000000	7.33882900
114.79999336	0.00000000	4.77977300
114.99999334	0.00000000	2.28838600
115.19999333	0.00000000	1.06422200
115.39999332	0.00000000	1.82701800
115.59999331	0.00000000	3.46333600
115.79999330	0.00000000	5.24114100
115.99999328	0.00000000	7.38804100
116.19999327	0.00000000	9.87942800
116.39999326	0.00000000	11.50960000
116.59999325	0.00000000	11.50960000
116.79999324	0.00000000	9.87942800
116.99999322	0.00000000	7.38804100
117.19999321	0.00000000	5.24114100
117.39999320	0.00000000	3.51254900
117.59999319	0.00000000	2.28838600
117.79999318	0.00000000	2.28838600
117.99999317	0.00000000	3.51254900
118.19999315	0.00000000	5.19192900
118.39999314	0.00000000	6.87746000
118.59999313	0.00000000	8.19389700
118.79999312	0.00000000	9.01820900
118.99999311	0.00000000	9.46727400
119.19999309	0.00000000	9.01820900
119.39999308	0.00000000	8.19389700
119.59999307	0.00000000	6.92667200
119.79999306	0.00000000	5.65329700
119.99999305	0.00000000	4.82898600
120.19999303	0.00000000	4.37992100
120.39999302	0.00000000	4.77977300
120.59999301	0.00000000	5.19192900
120.79999300	0.00000000	5.65329700
120.99999299	0.00000000	6.51451700
121.19999298	0.00000000	7.28961600
121.39999296	0.00000000	7.73868000
121.59999295	0.00000000	7.33882900
121.79999294	0.00000000	6.97588500
121.99999293	0.00000000	6.92667200
122.19999292	0.00000000	6.87746000
122.39999290	0.00000000	6.46530500
122.59999289	0.00000000	5.65329700
122.79999288	0.00000000	5.29035400
122.99999287	0.00000000	5.65329700
123.19999286	0.00000000	6.46530500
123.39999284	0.00000000	6.87746000
123.59999283	0.00000000	6.92667200
123.79999282	0.00000000	6.92667200
123.99999281	0.00000000	6.92667200
124.19999280	0.00000000	6.87746000
124.39999279	0.00000000	6.46530500
124.59999277	0.00000000	5.65329700
124.79999276	0.00000000	5.24114100
124.99999275	0.00000000	5.19192900
125.19999274	0.00000000	5.24114100
125.39999273	0.00000000	5.65329700
125.59999271	0.00000000	6.46530500
125.79999270	0.00000000	6.92667200
125.99999269	0.00000000	7.38804100
126.19999268	0.00000000	8.19389700
126.39999267	0.00000000	8.55684000
126.59999265	0.00000000	8.19389700
126.79999264	0.00000000	7.33882900
126.99999263	0.00000000	6.46530500
127.19999262	0.00000000	5.19192900
127.39999261	0.00000000	3.97391700
127.59999260	0.00000000	3.56176100
127.79999258	0.00000000	3.97391700
127.99999257	0.00000000	5.24114100
128.19999256	0.00000000	6.87746000
128.39999255	0.00000000	8.14468500
128.59999254	0.00000000	8.60605200
128.79999252	0.00000000	8.65526600
128.99999251	0.00000000	8.60605200
129.19999250	0.00000000	8.14468500
129.39999249	0.00000000	6.87746000
129.59999248	0.00000000	5.24114100
129.79999246	0.00000000	3.97391700
129.99999245	0.00000000	3.56176100
130.19999244	0.00000000	3.92470400
130.39999243	0.00000000	4.77977300
130.59999242	0.00000000	5.60408400
130.79999241	0.00000000	6.51451700
130.99999239	0.00000000	7.33882900
131.19999238	0.00000000	8.19389700
131.39999237	0.00000000	8.55684000
131.59999236	0.00000000	8.19389700
131.79999235	0.00000000	7.33882900
131.99999233	0.00000000	6.51451700
132.19999232	0.00000000	5.65329700
132.39999231	0.00000000	5.24114100
132.59999230	0.00000000	5.24114100
132.79999229	0.00000000	5.65329700
132.99999227	0.00000000	6.46530500
133.19999226	0.00000000	6.87746000
133.39999225	0.00000000	6.92667200
133.59999224	0.00000000	6.92667200
133.79999223	0.00000000	6.87746000
133.99999222	0.00000000	6.46530500
134.19999220	0.00000000	5.65329700
134.39999219	0.00000000	5.29035400
134.59999218	0.00000000	5.60408400
134.79999217	0.00000000	6.05314900
134.99999216	0.00000000	6.11466500
135.19999214	0.00000000	6.97588500
135.39999213	0.00000000	8.14468500
135.59999212	0.00000000	8.60605200
135.79999211	0.00000000	8.60605200
135.99999210	0.00000000	8.19389700
136.19999208	0.00000000	7.33882900
136.39999207	0.00000000	6.51451700
136.59999206	0.00000000	5.60408400
136.79999205	0.00000000	4.82898600
136.99999204	0.00000000	4.37992100
137.19999203	0.00000000	4.82898600
137.39999201	0.00000000	5.65329700
137.59999200	0.00000000	6.92667200
137.79999199	0.00000000	8.14468500
137.99999198	0.00000000	8.60605200
138.19999197	0.00000000	8.65526600
138.39999195	0.00000000	8.60605200
138.59999194	0.00000000	8.19389700
138.79999193	0.00000000	7.33882900
138.99999192	0.00000000	6.46530500
139.19999191	0.00000000	5.19192900
139.39999189	0.00000000	3.97391700
139.59999188	0.00000000	3.56176100
139.79999187	0.00000000	3.92470400
139.99999186	0.00000000	4.77977300
140.19999185	0.00000000	5.60408400
140.39999184	0.00000000	6.51451700
140.59999182	0.00000000	7.33882900
140.79999181	0.00000000	8.19389700
140.99999180	0.00000000	8.60605200
141.19999179	0.00000000	8.60605200
141.39999178	0.00000000	8.19389700
141.59999176	0.00000000	7.33882900
141.79999175	0.00000000	6.51451700
141.99999174	0.00000000	5.65329700
142.19999173	0.00000000	5.24114100
142.39999172	0.00000000	5.19192900
142.59999170	0.00000000	5.19192900
142.79999169	0.00000000	5.19192900
142.99999168	0.00000000	5.24114100
143.19999167	0.00000000	5.65329700
143.39999166	0.00000000	6.51451700
143.59999165	0.00000000	7.33882900
143.79999163	0.00000000	8.19389700
143.99999162	0.00000000	8.60605200
144.19999161	0.00000000	8.60605200
144.39999160	0.00000000	8.19389700
144.59999159	0.00000000	7.33882900
144.79999157	0.00000000	6.51451700
144.99999156	0.00000000	5.65329700
145.19999155	0.00000000	5.24114100
145.39999154	0.00000000	5.19192900
145.59999153	0.00000000	5.19192900
145.79999151	0.00000000	5.19192900
145.99999150	0.00000000	5.24114100
146.19999149	0.00000000	5.65329700
146.39999148	0.00000000	6.46530500
146.59999147	0.00000000	6.92667200
146.79999146	0.00000000	7.38804100
146.99999144	0.00000000	8.19389700
147.19999143	0.00000000	8.55684000
147.39999142	0.00000000	8.19389700
147.59999141	0.00000000	7.38804100
147.79999140	0.00000000	6.92667200
147.99999138	0.00000000	6.46530500
148.19999137	0.00000000	5.65329700
148.39999136	0.00000000	5.24114100
148.59999135	0.00000000	5.19192900
148.79999134	0.00000000	5.24114100
148.99999132	0.00000000	5.65329700
149.19999131	0.00000000	6.51451700
149.39999130	0.00000000	7.33882900
149.59999129	0.00000000	8.19389700
149.79999128	0.00000000	8.60605200
149.99999127	0.00000000	8.60605200
150.19999125	0.00000000	8.19389700
150.39999124	0.00000000	7.33882900
150.59999123	0.00000000	6.51451700
150.79999122	0.00000000	5.65329700
150.99999121	0.00000000	5.24114100
151.19999119	0.00000000	5.19192900
151.39999118	0.00000000	5.24114100
151.59999117	0.00000000	5.65329700
151.79999116	0.00000000	6.51451700
151.99999115	0.00000000	7.33882900
152.19999113	0.00000000	8.19389700
152.39999112	0.00000000	8.55684000
152.59999111	0.00000000	8.19389700
152.79999110	0.00000000	7.38804100
152.99999109	0.00000000	6.92667200
153.19999108	0.00000000	6.46530500
153.39999106	0.00000000	5.70251000
153.59999105	0.00000000	5.70251000
153.79999104	0.00000000	6.46530500
153.99999103	0.00000000	6.87746000
154.19999102	0.00000000	6.92667200
154.39999100	0.00000000	6.92667200
154.59999099	0.00000000	6.92667200
154.79999098	0.00000000	6.92667200
154.99999097	0.00000000	6.92667200
155.19999096	0.00000000	6.92667200
155.39999094	0.00000000	6.92667200
155.59999093	0.00000000	6.92667200
155.79999092	0.00000000	6.92667200
155.99999091	0.00000000	6.92667200
156.19999090	0.00000000	6.92667200
156.39999089	0.00000000	6.92667200
156.59999087	0.00000000	6.92667200
156.79999086	0.00000000	6.92667200
156.99999085	0.00000000	6.92667200
157.19999084	0.00000000	6.87746000
157.39999083	0.00000000	6.51451700
157.59999081	0.00000000	6.11466500
157.79999080	0.00000000	6.51451700
157.99999079	0.00000000	6.87746000
158.19999078	0.00000000	6.92667200
158.39999077	0.00000000	6.92667200
158.59999075	0.00000000	6.92667200
158.79999074	0.00000000	6.92667200
158.99999073	0.00000000	6.92667200
159.19999072	0.00000000	6.92667200
159.39999071	0.00000000	6.92667200
159.59999070	0.00000000	6.87746000
159.79999068	0.00000000	6.46530500
159.99999067	0.00000000	5.65329700
160.19999066	0.00000000	5.24114100
160.39999065	0.00000000	5.24114100
160.59999064	0.00000000	5.65329700
160.79999062	0.00000000	6.46530500
160.99999061	0.00000000	6.87746000
161.19999060	0.00000000	6.92667200
161.39999059	0.00000000	6.92667200
161.59999058	0.00000000	6.92667200
161.79999056	0.00000000	6.92667200
161.99999055	0.00000000	6.92667200
162.19999054	0.00000000	6.92667200
162.39999053	0.00000000	6.87746000
162.59999052	0.00000000	6.46530500
162.79999051	0.00000000	5.70251000
162.99999049	0.00000000	5.70251000
163.19999048	0.00000000	6.46530500
163.39999047	0.00000000	6.87746000
163.59999046	0.00000000	6.92667200
163.79999045	0.00000000	6.92667200
163.99999043	0.00000000	6.92667200
164.19999042	0.00000000	6.92667200
164.39999041	0.00000000	6.92667200
164.59999040	0.00000000	6.92667200
164.79999039	0.00000000	6.92667200
164.99999037	0.00000000	6.92667200
165.19999036	0.00000000	6.92667200
165.39999035	0.00000000	6.92667200
165.59999034	0.00000000	6.92667200
165.79999033	0.00000000	6.92667200
165.99999032	0.00000000	6.92667200
166.19999030	0.00000000	6.92667200
166.39999029	0.00000000	6.92667200
166.59999028	0.00000000	6.92667200
166.79999027	0.00000000	6.92667200
166.99999026	0.00000000	6.92667200
167.19999024	0.00000000	6.92667200
167.39999023	0.00000000	6.92667200
167.59999022	0.00000000	6.92667200
167.79999021	0.00000000	6.92667200
167.99999020	0.00000000	6.92667200
168.19999018	0.00000000	6.92667200
168.39999017	0.00000000	6.92667200
168.59999016	0.00000000	6.92667200
168.79999015	0.00000000	6.92667200
168.99999014	0.00000000	6.92667200
169.19999013	0.00000000	6.92667200
169.39999011	0.00000000	6.92667200
169.59999010	0.00000000	6.92667200
169.79999009	0.00000000	6.87746000
169.99999008	0.00000000	6.46530500
170.19999007	0.00000000	5.65329700
170.39999005	0.00000000	5.29035400
170.59999004	0.00000000	5.65329700
170.79999003	0.00000000	6.46530500
170.99999002	0.00000000	6.87746000
171.19999001	0.00000000	6.92667200
171.39998999	0.00000000	6.92667200
171.59998998	0.00000000	6.92667200
171.79998997	0.00000000	6.92667200
171.99998996	0.00000000	6.92667200
172.19998995	0.00000000	6.92667200
172.39998994	0.00000000	6.92667200
172.59998992	0.00000000	6.87746000
172.79998991	0.00000000	6.51451700
172.99998990	0.00000000	6.06545300
173.19998989	0.00000000	6.05314900
173.39998988	0.00000000	5.65329700
173.59998986	0.00000000	5.70251000
173.79998985	0.00000000	6.46530500
173.99998984	0.00000000	6.87746000
174.19998983	0.00000000	6.92667200
174.39998982	0.00000000	6.92667200
174.59998980	0.00000000	6.92667200
174.79998979	0.00000000	6.92667200
174.99998978	0.00000000	6.92667200
175.19998977	0.00000000	6.92667200
175.39998976	0.00000000	6.87746000
175.59998975	0.00000000	6.46530500
175.79998973	0.00000000	5.65329700
175.99998972	0.00000000	5.24114100
176.19998971	0.00000000	5.24114100
176.39998970	0.00000000	5.65329700
176.59998969	0.00000000	6.46530500
176.79998967	0.00000000	6.87746000
176.99998966	0.00000000	6.92667200
177.19998965	0.00000000	6.92667200
177.39998964	0.00000000	6.92667200
177.59998963	0.00000000	6.92667200
177.79998961	0.00000000	6.92667200
177.99998960	0.00000000	6.92667200
178.19998959	0.00000000	6.87746000
178.39998958	0.00000000	6.51451700
178.59998957	0.00000000	6.11466500
178.79998956	0.00000000	6.51451700
178.99998954	0.00000000	6.87746000
179.19998953	0.00000000	6.92667200
179.39998952	0.00000000	6.92667200
179.59998951	0.00000000	6.92667200
179.79998950	0.00000000	6.92667200
179.99998948	0.00000000	6.92667200
180.19998947	0.00000000	6.92667200
180.39998946	0.00000000	6.92667200
180.59998945	0.00000000	6.92667200
180.79998944	0.00000000	6.92667200
180.99998942	0.00000000	6.92667200
181.19998941	0.00000000	6.92667200
181.39998940	0.00000000	6.92667200
181.59998939	0.00000000	6.92667200
181.79998938	0.00000000	6.92667200
181.99998937	0.00000000	6.92667200
182.19998935	0.00000000	6.92667200
182.39998934	0.00000000	6.92667200
182.59998933	0.00000000	6.92667200
182.79998932	0.00000000	6.92667200
182.99998931	0.00000000	6.92667200
183.19998929	0.00000000	6.92667200
183.39998928	0.00000000	6.87746000
183.59998927	0.00000000	6.51451700
183.79998926	0.00000000	6.11466500
183.99998925	0.00000000	6.51451700
184.19998923	0.00000000	6.87746000
184.39998922	0.00000000	6.92667200
184.59998921	0.00000000	6.92667200
184.79998920	0.00000000	6.92667200
184.99998919	0.00000000	6.87746000
185.19998918	0.00000000	6.51451700
185.39998916	0.00000000	6.11466500
185.59998915	0.00000000	6.51451700
185.79998914	0.00000000	6.87746000
185.99998913	0.00000000	6.92667200
186.19998912	0.00000000	6.92667200
186.39998910	0.00000000	6.92667200
186.59998909	0.00000000	6.92667200
186.79998908	0.00000000	6.92667200
186.99998907	0.00000000	6.92667200
187.19998906	0.00000000	6.92667200
187.39998904	0.00000000	6.92667200
187.59998903	0.00000000	6.92667200
187.79998902	0.00000000	6.92667200
187.99998901	0.00000000	6.92667200
188.19998900	0.00000000	6.87746000
188.39998899	0.00000000	6.51451700
188.59998897	0.00000000	6.11466500
188.79998896	0.00000000	6.51451700
188.99998895	0.00000000	6.87746000
189.19998894	0.00000000	6.92667200
189.39998893	0.00000000	6.92667200
189.59998891	0.00000000	6.92667200
189.79998890	0.00000000	6.92667200
189.99998889	0.00000000	6.92667200
190.19998888	0.00000000	6.92667200
190.39998887	0.00000000	6.87746000
190.59998885	0.00000000	6.46530500
190.79998884	0.00000000	5.65329700
190.99998883	0.00000000	5.24114100
191.19998882	0.00000000	5.24114100
191.39998881	0.00000000	5.65329700
191.59998880	0.00000000	6.46530500
191.79998878	0.00000000	6.87746000
191.99998877	0.00000000	6.92667200
192.19998876	0.00000000	6.97588500
192.39998875	0.00000000	7.38804100
192.59998874	0.00000000	8.19389700
192.79998872	0.00000000	8.55684000
192.99998871	0.00000000	8.19389700
193.19998870	0.00000000	7.38804100
193.39998869	0.00000000	6.97588500
193.59998868	0.00000000	6.87746000
193.79998866	0.00000000	6.46530500
193.99998865	0.00000000	5.65329700
194.19998864	0.00000000	5.29035400
194.39998863	0.00000000	5.65329700
194.59998862	0.00000000	6.46530500
194.79998861	0.00000000	6.87746000
194.99998859	0.00000000	6.92667200
195.19998858	0.00000000	6.92667200
195.39998857	0.00000000	6.92667200
195.59998856	0.00000000	6.92667200
195.79998855	0.00000000	6.92667200
195.99998853	0.00000000	6.92667200
