Time	Channel A	Channel B	Channel C
(us)	(V)	(mV)	(mV)

-4.59999956	0.00000000	42.69193000	14.25320000
-4.39999957	0.00000000	42.69193000	14.21014000
-4.19999958	0.00000000	42.69193000	14.21014000
-3.99999959	0.00000000	42.69193000	14.21014000
-3.79999960	0.00000000	42.69193000	14.21014000
-3.59999962	0.00000000	42.69193000	14.21014000
-3.39999963	0.00000000	42.69193000	14.21014000
-3.19999964	0.00000000	42.69193000	14.21014000
-2.99999965	0.00000000	42.69193000	14.21014000
-2.79999966	0.00000000	42.69193000	14.21014000
-2.59999968	0.00000000	42.69193000	14.21014000
-2.39999969	0.00000000	42.69193000	14.21014000
-2.19999970	0.00000000	42.69193000	14.21014000
-1.99999971	0.00000000	42.69193000	14.21014000
-1.79999972	0.00000000	42.69193000	14.21014000
-1.59999973	0.00000000	42.69193000	14.21014000
-1.39999975	0.00000000	42.69193000	14.21014000
-1.19999976	0.00000000	42.69193000	14.21014000
-0.99999977	0.00000000	42.69193000	14.21014000
-0.79999978	0.00000000	42.69193000	14.21014000
-0.59999979	0.00000000	42.69193000	14.21014000
-0.39999981	0.15871060	42.69193000	14.21014000
-0.19999982	0.47736220	42.69193000	14.21014000
0.00000017	0.79601380	42.69193000	14.21014000
0.20000016	0.95533960	42.69193000	14.21014000
0.40000015	0.95533960	42.69193000	14.21014000
0.60000013	0.63668800	42.69193000	14.21014000
0.80000012	-0.15871060	42.69193000	14.21014000
1.00000011	-1.27399100	42.69193000	14.21014000
1.20000010	-2.07062000	42.69193000	14.21014000
1.40000009	-2.70792300	42.69193000	14.25320000
1.60000008	-2.70792300	42.69193000	14.58538000
1.80000006	-1.75196900	42.69193000	14.94833000
2.00000005	-0.15871060	42.69193000	14.58538000
2.20000004	2.07062000	42.69193000	14.25320000
2.40000003	3.98191400	42.69193000	14.21014000
2.60000002	5.25652100	42.69193000	14.21014000
2.80000000	5.25652100	42.69193000	14.21014000
2.99999999	3.66326300	42.69193000	14.21014000
3.19999998	0.95533960	42.69193000	14.21014000
3.39999997	-2.38927200	42.69193000	14.21014000
3.59999996	-5.57517200	42.69193000	14.21014000
3.79999994	-7.64579200	42.69193000	14.25320000
3.99999993	-7.80511800	42.69193000	14.62844000
4.19999992	-6.05315000	42.69193000	15.36663000
4.39999991	-2.54859700	42.69193000	15.74188000
4.59999990	1.91129400	42.69193000	15.74188000
4.79999989	6.05315000	42.69193000	15.36663000
4.99999987	8.76107300	42.69193000	14.62844000
5.19999986	9.39837600	42.69193000	14.21014000
5.39999985	7.64579200	42.69193000	13.83489000
5.59999984	3.98191400	42.69193000	13.46580000
5.79999983	-0.79601380	42.69193000	13.83489000
5.99999981	-5.41584600	42.69193000	14.16708000
6.19999980	-8.44242100	42.64886000	14.21014000
6.39999979	-9.55770200	42.31668000	14.25320000
6.59999978	-8.12377000	41.94759000	14.58538000
6.79999977	-4.77854300	42.31668000	14.99139000
6.99999975	-0.47736220	42.64886000	15.00369000
7.19999974	3.66326300	42.69193000	15.36663000
7.39999973	6.69045300	42.69193000	15.32357000
7.59999972	7.80511800	42.69193000	14.62844000
7.79999971	6.84916400	42.69193000	14.25320000
7.99999970	4.45989200	42.69193000	14.21014000
8.19999968	1.11466500	42.69193000	14.21014000
8.39999967	-1.91129400	42.69193000	14.21014000
8.59999966	-4.30056600	42.69193000	14.21014000
8.79999965	-5.25652100	42.69193000	14.21014000
8.99999964	-4.77854300	42.69193000	14.21014000
9.19999962	-3.34522600	42.64886000	14.21014000
9.39999961	-1.27399100	42.31668000	14.21014000
9.59999960	0.47736220	41.94759000	14.21014000
9.79999959	1.91129400	42.31668000	14.21014000
9.99999958	2.54859700	42.64886000	14.21014000
10.19999956	2.38927200	42.69193000	14.21014000
10.39999955	1.75196900	42.69193000	14.21014000
10.59999954	0.79601380	42.69193000	14.21014000
10.79999953	0.00000000	42.69193000	14.21014000
10.99999952	-0.63668800	42.69193000	14.21014000
11.19999951	-0.95533960	42.69193000	14.25320000
11.39999949	-0.95533960	42.69193000	14.58538000
11.59999948	-0.79601380	42.69193000	14.94833000
11.79999947	-0.47736220	42.69193000	14.58538000
11.99999946	-0.15871060	42.69193000	14.25320000
12.19999945	-0.15871060	42.69193000	14.21014000
12.39999943	-0.15871060	42.69193000	14.21014000
12.59999942	0.00000000	42.69193000	14.21014000
12.79999941	0.00000000	42.69193000	14.21014000
12.99999940	0.00000000	42.69193000	14.21014000
13.19999939	0.00000000	42.69193000	14.21014000
13.39999937	0.00000000	42.69193000	14.21014000
13.59999936	0.00000000	42.69193000	14.21014000
13.79999935	0.00000000	42.69193000	14.21014000
13.99999934	-0.15871060	42.69193000	14.21014000
14.19999933	-0.15871060	42.69193000	14.21014000
14.39999932	-0.15871060	42.69193000	14.21014000
14.59999930	0.00000000	42.69193000	14.21014000
14.79999929	0.00000000	42.69193000	14.21014000
14.99999928	0.00000000	42.69193000	14.21014000
15.19999927	0.00000000	42.69193000	14.21014000
15.39999926	0.00000000	42.69193000	14.21014000
15.59999924	0.00000000	42.69193000	14.21014000
15.79999923	0.00000000	42.69193000	14.21014000
15.99999922	0.00000000	42.69193000	14.21014000
16.19999921	0.00000000	42.69193000	14.21014000
16.39999920	-0.15871060	42.69193000	14.21014000
16.59999919	-0.15871060	42.69193000	14.21014000
16.79999917	-0.15871060	42.73499000	14.21014000
16.99999916	0.00000000	43.11023000	14.21014000
17.19999915	0.00000000	43.85457000	14.21014000
17.39999914	0.00000000	44.22982000	14.21014000
17.59999913	0.00000000	44.22982000	14.21014000
17.79999911	0.00000000	43.85457000	14.21014000
17.99999910	0.00000000	43.02411000	14.21014000
18.19999909	0.00000000	41.85531000	14.21014000
18.39999908	0.00000000	39.94832000	14.21014000
18.59999907	0.00000000	38.41658000	14.21014000
18.79999905	-0.15871060	37.61687000	14.21014000
18.99999904	0.00000000	37.25394000	14.21014000
19.19999903	0.00000000	38.08440000	14.21014000
19.39999902	0.00000000	40.04060000	14.21014000
19.59999901	0.00000000	43.20251000	14.25320000
19.79999900	0.00000000	47.39173000	14.58538000
19.99999898	0.00000000	51.24877000	14.94833000
20.19999897	0.00000000	53.53100000	14.58538000
20.39999896	0.00000000	53.85703000	14.21014000
20.59999895	0.00000000	51.11343000	13.83489000
20.79999894	0.00000000	45.67544000	13.46580000
20.99999892	0.00000000	38.68725000	13.87795000
21.19999891	0.00000000	30.96703000	14.53617000
21.39999890	0.00000000	24.82160000	14.94833000
21.59999889	0.00000000	21.79503000	14.58538000
21.79999888	0.00000000	23.05610000	14.25320000
21.99999886	0.00000000	29.69980000	14.21014000
22.19999885	0.00000000	40.50196000	14.21014000
22.39999884	0.00000000	53.24803000	14.21014000
22.59999883	0.00000000	64.78838000	14.21014000
22.79999882	0.00000000	72.13951000	14.25320000
22.99999881	0.00000000	73.59129000	14.62844000
23.19999879	0.00000000	68.04872000	15.36663000
23.39999878	0.00000000	55.25959000	15.78494000
23.59999877	0.00000000	37.89985000	16.16018000
23.79999876	0.00000000	20.17101000	16.52928000
23.99999875	0.00000000	6.31151500	16.16018000
24.19999873	0.00000000	0.16609250	15.78494000
24.39999872	0.00000000	3.32800200	15.32357000
24.59999871	0.00000000	15.75418000	14.11786000
24.79999870	0.00000000	35.47613000	12.21087000
24.99999869	0.00000000	57.85556000	9.93479300
25.19999867	0.00000000	77.90969000	8.44611200
25.39999866	0.00000000	90.56963000	8.40305000
25.59999865	0.00000000	92.10137000	9.60875900
25.79999864	0.00000000	82.09891000	11.93405000
25.99999863	0.00000000	63.11515000	15.45891000
26.19999862	0.00000000	39.15477000	19.32210000
26.39999860	0.00000000	15.24360000	23.17298000
26.59999859	0.00000000	-2.48523600	25.77510000
26.79999858	0.00000000	-9.87942800	25.77510000
26.99999857	0.00000000	-5.64714500	23.03765000
27.19999856	0.00000000	9.04896600	17.97490000
27.39999854	0.00000000	31.10236000	11.00517000
27.59999853	0.00000000	55.81324000	3.66633800
27.79999852	0.00000000	77.39911000	-2.46678100
27.99999851	0.00000000	90.52042000	-5.89936000
28.19999850	0.00000000	92.15059000	-5.02583600
28.39999848	0.00000000	82.56644000	0.41215550
28.59999847	0.00000000	64.83144000	10.11934000
28.79999846	0.00000000	43.15329000	22.01649000
28.99999845	0.00000000	22.26255000	33.21235000
29.19999844	0.00000000	6.39763700	40.96949000
29.39999843	0.00000000	-0.95349410	43.99606000
29.59999841	0.00000000	1.61171300	41.20325000
29.79999840	0.00000000	12.40157000	31.87131000
29.99999839	0.00000000	28.27264000	17.97490000
30.19999838	0.00000000	46.45669000	2.12844500
30.39999837	0.00000000	62.69685000	-12.08784000
30.59999835	0.00000000	73.59129000	-20.91535000
30.79999834	0.00000000	77.54060000	-22.07185000
30.99999833	0.00000000	74.05265000	-15.15133000
31.19999832	0.00000000	64.41313000	-2.00541300
31.39999831	0.00000000	50.50443000	14.67766000
31.59999829	0.00000000	35.85138000	32.04970000
31.79999828	0.00000000	23.80044000	46.27214000
31.99999827	0.00000000	16.40010000	53.65403000
32.19999826	0.00000000	14.81914000	52.87278000
32.39999825	0.00000000	19.05143000	44.35900000
32.59999824	0.00000000	27.89739000	29.26304000
32.79999822	0.00000000	39.11171000	11.18356000
32.99999821	0.00000000	49.95078000	-5.85629900
33.19999820	0.00000000	58.46457000	-18.26402000
33.39999819	0.00000000	62.73991000	-24.07111000
33.59999818	0.00000000	62.00172000	-22.12106000
33.79999816	0.00000000	57.01894000	-12.50615000
33.99999815	0.00000000	48.92347000	2.17765700
34.19999814	0.00000000	40.08366000	18.81152000
34.39999813	0.00000000	32.68332000	34.23351000
34.59999812	0.00000000	28.03272000	44.69119000
34.79999810	0.00000000	26.91314000	48.22219000
34.99999809	0.00000000	29.93971000	44.73425000
35.19999808	0.00000000	36.03592000	34.65182000
35.39999807	0.00000000	42.59965000	20.06029000
35.59999806	0.00000000	48.41904000	4.68134800
35.79999805	0.00000000	52.22687000	-7.30191900
35.99999803	0.00000000	52.65133000	-13.52731000
36.19999802	0.00000000	50.00000000	-13.19513000
36.39999801	0.00000000	45.38631000	-6.64985200
36.59999800	0.00000000	39.99754000	4.12770700
36.79999799	0.00000000	35.38385000	16.81225000
36.99999797	0.00000000	32.68332000	27.91584000
37.19999796	0.00000000	32.68332000	34.14124000
37.39999795	0.00000000	35.34079000	34.55955000
37.59999794	0.00000000	39.62229000	29.58907000
37.79999793	0.00000000	44.60506000	20.39247000
37.99999791	0.00000000	49.24950000	10.07013000
38.19999790	0.00000000	51.90699000	1.61786400
38.39999789	0.00000000	52.31914000	-2.56520700
38.59999788	0.00000000	50.00000000	-1.07652500
38.79999787	0.00000000	45.81078000	5.38262700
38.99999786	0.00000000	41.15403000	14.21014000
39.19999784	0.00000000	36.87869000	23.03765000
39.39999783	0.00000000	33.75369000	29.49680000
39.59999782	0.00000000	32.22195000	31.02854000
39.79999781	0.00000000	32.59719000	27.22072000
39.99999780	0.00000000	34.92249000	19.55585000
40.19999778	0.00000000	38.41658000	9.98400600
40.39999777	0.00000000	42.69193000	1.52559000
40.59999776	0.00000000	46.92421000	-3.45103300
40.79999775	0.00000000	50.04306000	-3.81397600
40.99999774	0.00000000	51.62401000	1.19955700
41.19999772	0.00000000	51.62401000	9.98400600
41.39999771	0.00000000	50.04306000	19.97416000
41.59999770	0.00000000	46.96727000	28.42643000
41.79999769	0.00000000	43.06717000	33.03395000
41.99999768	0.00000000	39.19783000	32.70177000
42.19999767	0.00000000	35.71604000	27.68824000
42.39999765	0.00000000	33.80290000	19.69119000
42.59999764	0.00000000	33.75369000	10.82062000
42.79999763	0.00000000	35.24852000	3.84473400
42.99999762	0.00000000	37.61687000	-0.42445860
43.19999761	0.00000000	40.28051000	-1.21186000
43.39999759	0.00000000	43.01181000	1.84547200
43.59999758	0.00000000	44.55585000	7.19734200
43.79999757	0.00000000	45.43553000	13.79183000
43.99999756	0.00000000	45.76156000	19.88189000
44.19999755	0.00000000	45.43553000	23.78199000
44.39999753	0.00000000	44.69119000	24.61860000
44.59999752	0.00000000	44.31594000	23.12992000
44.79999751	0.00000000	44.27288000	20.01722000
44.99999750	0.00000000	44.22982000	15.78494000
45.19999749	0.00000000	43.80536000	11.60187000
45.39999748	0.00000000	42.59965000	8.86441900
45.59999746	0.00000000	40.69267000	8.02780400
45.79999745	0.00000000	38.32431000	8.35998900
45.99999744	0.00000000	35.99286000	9.55954600
46.19999743	0.00000000	33.66756000	11.51575000
46.39999742	0.00000000	32.22195000	14.21014000
46.59999740	0.00000000	32.68332000	16.85531000
46.79999739	0.00000000	35.75910000	18.43627000
46.99999738	0.00000000	40.82800000	18.85458000
47.19999737	0.00000000	46.60433000	18.43627000
47.39999736	0.00000000	52.41142000	16.90453000
47.59999734	0.00000000	56.18848000	14.58538000
47.79999733	0.00000000	56.96973000	12.25394000
47.99999732	0.00000000	54.18307000	9.93479300
48.19999731	0.00000000	47.99458000	8.48917200
48.39999730	0.00000000	39.53002000	8.82135800
48.59999729	0.00000000	31.05930000	10.72219000
48.79999727	0.00000000	24.91388000	13.04749000
48.99999726	0.00000000	22.58858000	15.83415000
49.19999725	0.00000000	24.91388000	18.81152000
49.39999724	0.00000000	31.10236000	20.75541000
49.59999723	0.00000000	39.94832000	20.76772000
49.79999721	0.00000000	49.24950000	19.64198000
49.99999720	0.00000000	56.56373000	17.23056000
50.19999719	0.00000000	60.78371000	13.79183000
50.39999718	0.00000000	59.95324000	9.93479300
50.59999717	0.00000000	54.23228000	6.86515700
50.79999715	0.00000000	45.38631000	5.33341500
50.99999714	0.00000000	35.75910000	5.75172200
51.19999713	0.00000000	28.07579000	8.44611200
51.39999712	0.00000000	24.21875000	12.62918000
51.59999711	0.00000000	25.33218000	16.90453000
51.79999710	0.00000000	30.68405000	20.39247000
51.99999708	0.00000000	38.36737000	22.71161000
52.19999707	0.00000000	46.46284000	23.03765000
52.39999706	0.00000000	52.65133000	21.17372000
52.59999705	0.00000000	55.72096000	17.69808000
52.79999704	0.00000000	54.92741000	13.87795000
52.99999702	0.00000000	49.95078000	10.35310000
53.19999701	0.00000000	42.73499000	8.07086500
53.39999700	0.00000000	35.80217000	7.28346400
53.59999699	0.00000000	31.15157000	8.44611200
53.79999698	0.00000000	29.56447000	11.09744000
53.99999696	0.00000000	31.15157000	14.16092000
54.19999695	0.00000000	35.75910000	16.85531000
54.39999694	0.00000000	42.27362000	18.35015000
54.59999693	0.00000000	48.36983000	18.01796000
54.79999692	0.00000000	52.22687000	16.16018000
54.99999691	0.00000000	52.65133000	14.25320000
55.19999689	0.00000000	50.00000000	12.67224000
55.39999688	0.00000000	45.38631000	11.55881000
55.59999687	0.00000000	39.99754000	11.60187000
55.79999686	0.00000000	35.38385000	13.09055000
55.99999685	0.00000000	32.64025000	15.40969000
56.19999683	0.00000000	32.26501000	17.64887000
56.39999682	0.00000000	34.17815000	19.13140000
56.59999681	0.00000000	38.03519000	18.35015000
56.79999680	0.00000000	42.64886000	15.69882000
56.99999679	0.00000000	46.88115000	12.21087000
57.19999677	0.00000000	49.53248000	8.40305000
57.39999676	0.00000000	49.57554000	5.75172200
57.59999675	0.00000000	47.34252000	5.33341500
57.79999674	0.00000000	44.27288000	6.91437000
57.99999673	0.00000000	41.15403000	10.44537000
58.19999672	0.00000000	38.45964000	15.83415000
58.39999670	0.00000000	36.87869000	21.50590000
58.59999669	0.00000000	36.46038000	25.35679000
58.79999668	0.00000000	36.87869000	26.15034000
58.99999667	0.00000000	38.45964000	24.20029000
59.19999666	0.00000000	41.06791000	19.55585000
59.39999664	0.00000000	43.34399000	13.00443000
59.59999663	0.00000000	44.18061000	6.48991100
59.79999662	0.00000000	44.22982000	1.48253000
59.99999661	0.00000000	43.80536000	-0.42445860
60.19999660	0.00000000	42.69193000	1.10728300
60.39999658	0.00000000	41.52928000	5.80093500
60.59999657	0.00000000	40.77879000	13.09670000
60.79999656	0.00000000	40.36663000	21.13066000
60.99999655	0.00000000	40.77879000	27.26378000
61.19999654	0.00000000	41.48622000	30.00738000
61.39999653	0.00000000	42.27362000	28.84473000
61.59999651	0.00000000	42.64886000	24.24335000
61.79999650	0.00000000	42.64886000	17.23056000
61.99999649	0.00000000	42.22441000	9.19045200
62.19999648	0.00000000	41.06791000	1.85777500
62.39999647	0.00000000	39.57308000	-2.33144700
62.59999645	0.00000000	38.45964000	-2.74360200
62.79999644	0.00000000	38.45964000	1.10728300
62.99999643	0.00000000	39.57308000	7.98474400
63.19999642	0.00000000	41.11097000	15.69882000
63.39999641	0.00000000	42.64886000	22.71161000
63.59999639	0.00000000	43.85457000	27.68824000
63.79999638	0.00000000	44.60506000	29.63213000
63.99999637	0.00000000	44.96801000	27.73130000
64.19999636	0.00000000	44.18061000	23.12992000
64.39999635	0.00000000	42.69193000	16.90453000
64.59999634	0.00000000	41.11097000	9.98400600
64.79999632	0.00000000	39.57308000	4.21998000
64.99999631	0.00000000	38.41658000	1.10728300
65.19999630	0.00000000	38.08440000	1.06422200
65.39999629	0.00000000	38.78568000	3.70939900
65.59999628	0.00000000	40.31742000	7.93553100
65.79999626	0.00000000	41.48622000	12.62918000
65.99999625	0.00000000	42.69193000	17.27362000
66.19999624	0.00000000	43.76230000	21.13066000
66.39999623	0.00000000	43.71924000	23.12992000
66.59999622	0.00000000	42.27362000	23.54823000
66.79999620	0.00000000	40.36663000	22.80389000
66.99999619	0.00000000	39.19783000	20.85384000
67.19999618	0.00000000	38.41658000	18.47933000
67.39999617	0.00000000	38.50270000	15.32357000
67.59999616	0.00000000	39.99754000	11.46653000
67.79999615	0.00000000	42.31668000	8.02780400
67.99999613	0.00000000	44.60506000	5.66560000
68.19999612	0.00000000	46.50590000	4.87204700
68.39999611	0.00000000	46.83809000	5.24729300
68.59999610	0.00000000	45.34325000	6.82209600
68.79999609	0.00000000	42.59965000	9.55954600
68.99999607	0.00000000	39.11171000	13.09670000
69.19999606	0.00000000	35.24852000	17.36589000
69.39999605	0.00000000	32.22195000	21.59203000
69.59999604	0.00000000	31.10236000	24.66166000
69.79999603	0.00000000	32.68332000	25.78125000
69.99999601	0.00000000	36.87869000	24.24335000
70.19999600	0.00000000	42.27362000	20.39247000
70.39999599	0.00000000	47.29946000	15.36663000
70.59999598	0.00000000	51.20571000	9.93479300
70.79999597	0.00000000	53.11269000	5.33341500
70.99999596	0.00000000	52.69439000	2.63902500
71.19999594	0.00000000	49.57554000	2.63902500
71.39999593	0.00000000	44.18061000	5.29035400
71.59999592	0.00000000	38.03519000	9.51648500
71.79999591	0.00000000	32.59719000	14.16708000
71.99999590	0.00000000	29.10310000	18.43627000
72.19999588	0.00000000	27.98351000	21.50590000
72.39999587	0.00000000	29.93971000	22.66240000
72.59999586	0.00000000	34.87328000	21.54897000
72.79999585	0.00000000	40.69267000	18.89764000
72.99999584	0.00000000	46.13681000	15.83415000
73.19999582	0.00000000	50.78125000	13.09055000
73.39999581	0.00000000	53.06963000	11.18356000
73.59999580	0.00000000	52.73745000	10.40231000
73.79999579	0.00000000	50.00000000	11.14050000
73.99999578	0.00000000	45.38631000	12.58612000
74.19999577	0.00000000	39.99754000	13.74262000
74.39999575	0.00000000	35.38385000	14.11786000
74.59999574	0.00000000	32.64025000	13.74262000
74.79999573	0.00000000	32.22195000	12.58612000
74.99999572	0.00000000	33.71063000	11.09744000
75.19999571	0.00000000	36.41117000	9.98400600
75.39999569	0.00000000	39.53002000	10.02707000
75.59999568	0.00000000	42.64886000	11.55881000
75.79999567	0.00000000	45.30019000	14.21014000
75.99999566	0.00000000	46.46284000	16.94759000
76.19999565	0.00000000	45.76156000	19.22982000
76.39999563	0.00000000	44.27288000	20.75541000
76.59999562	0.00000000	42.69193000	20.34941000
76.79999561	0.00000000	41.15403000	18.43627000
76.99999560	0.00000000	39.99754000	15.23130000
77.19999559	0.00000000	39.62229000	10.62992000
77.39999558	0.00000000	39.94832000	5.70866100
77.59999556	0.00000000	40.69267000	2.63902500
77.79999555	0.00000000	41.01870000	2.22071800
77.99999554	0.00000000	40.69267000	4.21998000
78.19999553	0.00000000	39.90526000	8.82135800
78.39999552	0.00000000	39.15477000	14.94833000
78.59999550	0.00000000	38.41658000	20.34941000
78.79999549	0.00000000	38.45964000	24.29257000
78.99999548	0.00000000	39.62229000	26.15034000
79.19999547	0.00000000	41.52928000	25.39985000
79.39999546	0.00000000	43.85457000	21.96727000
79.59999544	0.00000000	45.76156000	17.36589000
79.79999543	0.00000000	46.92421000	12.67224000
79.99999542	0.00000000	46.88115000	8.40305000
80.19999541	0.00000000	45.34325000	5.33341500
80.39999540	0.00000000	42.64886000	4.17691900
80.59999539	0.00000000	39.57308000	5.29035400
80.79999537	0.00000000	36.87869000	7.98474400
80.99999536	0.00000000	35.34079000	11.46653000
81.19999535	0.00000000	35.34079000	15.32357000
81.39999534	0.00000000	36.83563000	18.43627000
81.59999533	0.00000000	39.15477000	20.43553000
81.79999531	0.00000000	41.52928000	21.59203000
81.99999530	0.00000000	44.18061000	21.59203000
82.19999529	0.00000000	46.08759000	20.43553000
82.39999528	0.00000000	46.09375000	18.47933000
82.59999527	0.00000000	45.01722000	15.74188000
82.79999525	0.00000000	43.06717000	12.67224000
82.99999524	0.00000000	41.15403000	9.93479300
83.19999523	0.00000000	39.57308000	7.98474400
83.39999522	0.00000000	38.41658000	6.77903500
83.59999521	0.00000000	38.04134000	6.44685000
83.79999520	0.00000000	38.41658000	7.24040300
83.99999518	0.00000000	39.57308000	9.60875900
84.19999517	0.00000000	41.01870000	13.00443000
84.39999516	0.00000000	41.85531000	16.52928000
84.59999515	0.00000000	41.86147000	19.27288000
84.79999514	0.00000000	41.89838000	21.59203000
84.99999512	0.00000000	41.48622000	22.66240000
85.19999511	0.00000000	41.15403000	21.50590000
85.39999510	0.00000000	41.15403000	18.43627000
85.59999509	0.00000000	41.52928000	14.16708000
85.79999508	0.00000000	42.27362000	9.56569900
85.99999506	0.00000000	42.64886000	5.70866100
86.19999505	0.00000000	42.64886000	3.80167300
86.39999504	0.00000000	42.22441000	4.12770700
86.59999503	0.00000000	41.06791000	6.48991100
86.79999502	0.00000000	39.57308000	10.35310000
86.99999501	0.00000000	38.41658000	15.36663000
87.19999499	0.00000000	37.99213000	19.92495000
87.39999498	0.00000000	37.99213000	22.66855000
87.59999497	0.00000000	38.41658000	23.08686000
87.79999496	0.00000000	39.57308000	21.54897000
87.99999495	0.00000000	41.11097000	18.39321000
88.19999493	0.00000000	42.64886000	13.79183000
88.39999492	0.00000000	43.80536000	8.82135800
88.59999491	0.00000000	44.13755000	5.37647600
88.79999490	0.00000000	43.38705000	4.21998000
88.99999489	0.00000000	41.52928000	5.75172200
89.19999487	0.00000000	39.99754000	9.56569900
89.39999486	0.00000000	39.15477000	14.16708000
89.59999485	0.00000000	38.36737000	18.43627000
89.79999484	0.00000000	37.99213000	21.50590000
89.99999483	0.00000000	37.99213000	22.66240000
90.19999482	0.00000000	38.41658000	21.46284000
90.39999480	0.00000000	39.57308000	18.06102000
90.59999479	0.00000000	41.06791000	13.42274000
90.79999478	0.00000000	42.22441000	9.19045200
90.99999477	0.00000000	42.64886000	5.70866100
91.19999476	0.00000000	42.64886000	4.26304100
91.39999474	0.00000000	42.27362000	5.80093500
91.59999473	0.00000000	41.57849000	10.02707000
91.79999472	0.00000000	41.52928000	15.69882000
91.99999471	0.00000000	41.85531000	20.66314000
92.19999470	0.00000000	41.48622000	23.03765000
92.39999468	0.00000000	41.15403000	23.08686000
92.59999467	0.00000000	41.06791000	21.08760000
92.79999466	0.00000000	40.69267000	16.85531000
92.99999465	0.00000000	39.90526000	11.55881000
93.19999464	0.00000000	39.15477000	7.33267600
93.39999463	0.00000000	38.36737000	5.33341500
93.59999461	0.00000000	38.04134000	5.33341500
93.79999460	0.00000000	38.41658000	7.28346400
93.99999459	0.00000000	39.62229000	11.14050000
94.19999458	0.00000000	41.52928000	15.69882000
94.39999457	0.00000000	43.85457000	19.54970000
94.59999455	0.00000000	45.71850000	21.46284000
94.79999454	0.00000000	46.50590000	21.08760000
94.99999453	0.00000000	45.76156000	18.39321000
95.19999452	0.00000000	44.18061000	14.21014000
95.39999451	0.00000000	41.85531000	10.02707000
95.59999449	0.00000000	38.74261000	7.28346400
95.79999448	0.00000000	36.07898000	6.48991100
95.99999447	0.00000000	34.08588000	7.24040300
96.19999446	0.00000000	33.37844000	9.55954600
96.39999445	0.00000000	34.17815000	12.62918000
96.59999444	0.00000000	36.87869000	15.74188000
96.79999442	0.00000000	40.73573000	18.39321000
96.99999441	0.00000000	44.60506000	19.50664000
97.19999440	0.00000000	48.04380000	18.43627000
97.39999439	0.00000000	49.57554000	16.16018000
97.59999438	0.00000000	48.88041000	13.83489000
97.79999436	0.00000000	46.92421000	11.51575000
97.99999435	0.00000000	43.80536000	10.02707000
98.19999434	0.00000000	39.94832000	9.93479300
98.39999433	0.00000000	36.45423000	10.67298000
98.59999432	0.00000000	33.71063000	11.46653000
98.79999430	0.00000000	32.22195000	12.67224000
98.99999429	0.00000000	32.59719000	14.16092000
99.19999428	0.00000000	34.92249000	15.27436000
99.39999427	0.00000000	38.36737000	15.32357000
99.59999426	0.00000000	42.22441000	14.62844000
99.79999425	0.00000000	45.34325000	14.30241000
99.99999423	0.00000000	47.34252000	14.62844000
100.19999422	0.00000000	48.41904000	15.36663000
100.39999421	0.00000000	47.66855000	15.74188000
100.59999420	0.00000000	45.02337000	15.74188000
100.79999419	0.00000000	42.31668000	15.32357000
100.99999417	0.00000000	39.53002000	14.16092000
101.19999416	0.00000000	36.87869000	12.62918000
101.39999415	0.00000000	35.29773000	11.04823000
101.59999414	0.00000000	34.87943000	9.51648500
101.79999413	0.00000000	35.25467000	8.44611200
101.99999411	0.00000000	36.46038000	8.86441900
102.19999410	0.00000000	38.41658000	11.09744000
102.39999409	0.00000000	41.11097000	13.79183000
102.59999408	0.00000000	43.76230000	16.16018000
102.79999407	0.00000000	45.34325000	18.47933000
102.99999406	0.00000000	45.76156000	19.97416000
103.19999404	0.00000000	45.38631000	19.97416000
103.39999403	0.00000000	44.18061000	18.39321000
103.59999402	0.00000000	42.27362000	15.32357000
103.79999401	0.00000000	39.94832000	11.51575000
103.99999400	0.00000000	38.04134000	8.48917200
104.19999398	0.00000000	36.87869000	7.24040300
104.39999397	0.00000000	36.83563000	7.60949800
104.59999396	0.00000000	37.57381000	8.77214500
104.79999395	0.00000000	38.36737000	11.14050000
104.99999394	0.00000000	39.57308000	14.16092000
105.19999392	0.00000000	41.11097000	16.90453000
105.39999391	0.00000000	42.59965000	18.81152000
105.59999390	0.00000000	43.38705000	19.55585000
105.79999389	0.00000000	43.02411000	18.39321000
105.99999388	0.00000000	42.27362000	15.78494000
106.19999387	0.00000000	41.06791000	13.09055000
106.39999385	0.00000000	39.57308000	11.14050000
106.59999384	0.00000000	38.45964000	9.98400600
106.79999383	0.00000000	38.41658000	9.98400600
106.99999382	0.00000000	39.15477000	11.09744000
107.19999381	0.00000000	39.94832000	12.62918000
107.39999379	0.00000000	41.11097000	14.21014000
107.59999378	0.00000000	42.22441000	15.74188000
107.79999377	0.00000000	42.59965000	16.85531000
107.99999376	0.00000000	42.22441000	16.81225000
108.19999375	0.00000000	41.11097000	15.36663000
108.39999374	0.00000000	39.94832000	13.46580000
108.59999372	0.00000000	39.15477000	12.29700000
108.79999371	0.00000000	38.41658000	11.46653000
108.99999370	0.00000000	38.41658000	11.14050000
109.19999369	0.00000000	39.15477000	11.51575000
109.39999368	0.00000000	39.94832000	12.67224000
109.59999366	0.00000000	41.11097000	14.21014000
109.79999365	0.00000000	42.27362000	15.74188000
109.99999364	0.00000000	43.02411000	16.85531000
110.19999363	0.00000000	43.38705000	16.85531000
110.39999362	0.00000000	42.59965000	15.78494000
110.59999360	0.00000000	41.15403000	14.62844000
110.79999359	0.00000000	39.94832000	13.79183000
110.99999358	0.00000000	39.15477000	12.62918000
111.19999357	0.00000000	38.36737000	11.51575000
111.39999356	0.00000000	38.04134000	11.09129000
111.59999355	0.00000000	38.36737000	11.09129000
111.79999353	0.00000000	39.15477000	11.51575000
111.99999352	0.00000000	39.90526000	12.62918000
112.19999351	0.00000000	40.69267000	13.79183000
112.39999350	0.00000000	41.06791000	14.58538000
112.59999349	0.00000000	41.11097000	15.32357000
112.79999347	0.00000000	41.11097000	15.32357000
112.99999346	0.00000000	41.11097000	14.62844000
113.19999345	0.00000000	41.06791000	14.25320000
113.39999344	0.00000000	40.69267000	14.16708000
113.59999343	0.00000000	39.94832000	13.79183000
113.79999341	0.00000000	39.57308000	13.04749000
113.99999340	0.00000000	39.53002000	12.67224000
114.19999339	0.00000000	39.53002000	12.62918000
114.39999338	0.00000000	39.57308000	12.62918000
114.59999337	0.00000000	39.94832000	12.58612000
114.79999336	0.00000000	40.69267000	12.25394000
114.99999334	0.00000000	41.06791000	11.88484000
115.19999333	0.00000000	41.11097000	12.25394000
115.39999332	0.00000000	41.11097000	12.62918000
115.59999331	0.00000000	41.11097000	13.04749000
115.79999330	0.00000000	41.06791000	13.83489000
115.99999328	0.00000000	40.69267000	14.58538000
116.19999327	0.00000000	39.94832000	15.32357000
116.39999326	0.00000000	39.53002000	15.36663000
116.59999325	0.00000000	39.15477000	15.00369000
116.79999324	0.00000000	38.78568000	14.99139000
116.99999322	0.00000000	39.19783000	14.53617000
117.19999321	0.00000000	39.90526000	13.83489000
117.39999320	0.00000000	40.73573000	13.00443000
117.59999319	0.00000000	41.48622000	12.25394000
117.79999318	0.00000000	42.27362000	11.51575000
117.99999317	0.00000000	42.59965000	11.51575000
118.19999315	0.00000000	42.27362000	12.21087000
118.39999314	0.00000000	41.48622000	12.62918000
118.59999313	0.00000000	40.69267000	13.04749000
118.79999312	0.00000000	39.53002000	13.79183000
118.99999311	0.00000000	38.36737000	14.21014000
119.19999309	0.00000000	37.61687000	14.62844000
119.39999308	0.00000000	37.25394000	15.36663000
119.59999307	0.00000000	37.99213000	15.69267000
119.79999306	0.00000000	39.11171000	15.36663000
119.99999305	0.00000000	39.94832000	14.62844000
120.19999303	0.00000000	41.11097000	14.21014000
120.39999302	0.00000000	42.27362000	13.79183000
120.59999301	0.00000000	43.02411000	13.04749000
120.79999300	0.00000000	43.38705000	12.67224000
120.99999299	0.00000000	42.64886000	12.62918000
121.19999298	0.00000000	41.52928000	12.62918000
121.39999296	0.00000000	40.69267000	12.62918000
121.59999295	0.00000000	39.53002000	12.62918000
121.79999294	0.00000000	38.36737000	12.62918000
121.99999293	0.00000000	37.61687000	12.67224000
122.19999292	0.00000000	37.25394000	13.04749000
122.39999290	0.00000000	37.99213000	13.79183000
122.59999289	0.00000000	39.11171000	14.21014000
122.79999288	0.00000000	39.90526000	14.58538000
122.99999287	0.00000000	40.73573000	14.94833000
123.19999286	0.00000000	41.48622000	14.58538000
123.39999284	0.00000000	42.27362000	14.21014000
123.59999283	0.00000000	42.59965000	13.79183000
123.79999282	0.00000000	42.27362000	13.04749000
123.99999281	0.00000000	41.52928000	12.67224000
124.19999280	0.00000000	41.11097000	12.62918000
124.39999279	0.00000000	40.69267000	12.62918000
124.59999277	0.00000000	39.90526000	12.67224000
124.79999276	0.00000000	39.19783000	13.04749000
124.99999275	0.00000000	38.74261000	13.79183000
125.19999274	0.00000000	38.77953000	14.16708000
125.39999273	0.00000000	38.74261000	14.21014000
125.59999271	0.00000000	39.19783000	14.25320000
125.79999270	0.00000000	39.90526000	14.58538000
125.99999269	-0.15871060	40.73573000	14.94833000
126.19999268	0.00000000	41.48622000	14.58538000
126.39999267	0.00000000	42.27362000	14.25320000
126.59999265	0.00000000	42.59965000	14.16708000
126.79999264	0.00000000	42.27362000	13.79183000
126.99999263	0.00000000	41.48622000	13.04749000
127.19999262	0.00000000	40.69267000	12.67224000
127.39999261	0.00000000	39.53002000	12.62918000
127.59999260	0.00000000	38.41658000	12.62918000
127.79999258	0.00000000	37.99213000	12.67224000
127.99999257	0.00000000	37.99213000	13.04749000
128.19999256	0.00000000	38.41658000	13.79183000
128.39999255	0.00000000	39.53002000	14.16708000
128.59999254	0.00000000	40.69267000	14.21014000
128.79999252	0.00000000	41.48622000	14.21014000
128.99999251	0.00000000	42.22441000	14.21014000
129.19999250	0.00000000	42.22441000	14.16708000
129.39999249	0.00000000	41.48622000	13.79183000
129.59999248	0.00000000	40.73573000	13.04749000
129.79999246	0.00000000	39.90526000	12.67224000
129.99999245	0.00000000	39.15477000	12.62918000
130.19999244	0.00000000	38.36737000	12.67224000
130.39999243	0.00000000	38.04134000	13.04749000
130.59999242	0.00000000	38.36737000	13.79183000
130.79999241	0.00000000	39.15477000	14.16708000
130.99999239	0.00000000	39.94832000	14.21014000
131.19999238	0.00000000	41.06791000	14.16708000
131.39999237	0.00000000	41.80610000	13.79183000
131.59999236	0.00000000	41.48622000	13.04749000
131.79999235	0.00000000	41.11097000	12.67224000
131.99999233	0.00000000	40.69267000	12.62918000
132.19999232	0.00000000	39.94832000	12.67224000
132.39999231	0.00000000	39.57308000	13.00443000
132.59999230	0.00000000	39.53002000	13.37352000
132.79999229	0.00000000	39.53002000	13.04749000
132.99999227	0.00000000	39.53002000	13.09670000
133.19999226	0.00000000	39.53002000	13.83489000
133.39999225	0.00000000	39.57308000	14.53617000
133.59999224	0.00000000	39.90526000	14.94833000
133.79999223	0.00000000	40.27436000	14.58538000
133.99999222	0.00000000	39.90526000	14.21014000
134.19999220	0.00000000	39.57308000	13.79183000
134.39999219	0.00000000	39.53002000	13.00443000
134.59999218	0.00000000	39.57308000	12.25394000
134.79999217	0.00000000	39.94832000	11.46653000
134.99999216	0.00000000	40.69267000	11.14050000
135.19999214	0.00000000	41.06791000	11.46653000
135.39999213	0.00000000	41.11097000	12.21087000
135.59999212	0.00000000	41.06791000	12.62918000
135.79999211	0.00000000	40.69267000	13.04749000
135.99999210	0.00000000	39.94832000	13.79183000
136.19999208	0.00000000	39.53002000	14.21014000
136.39999207	0.00000000	39.11171000	14.58538000
136.59999206	0.00000000	38.41658000	14.94833000
136.79999205	0.00000000	38.41658000	14.53617000
136.99999204	0.00000000	39.11171000	13.83489000
137.19999203	0.00000000	39.53002000	13.04749000
137.39999201	0.00000000	39.94832000	12.67224000
137.59999200	0.00000000	40.69267000	12.62918000
137.79999199	0.00000000	41.06791000	12.58612000
137.99999198	0.00000000	41.11097000	12.25394000
138.19999197	0.00000000	41.06791000	11.88484000
138.39999195	0.00000000	40.69267000	12.25394000
138.59999194	0.00000000	39.90526000	12.62918000
138.79999193	0.00000000	39.15477000	13.04749000
138.99999192	0.00000000	38.36737000	13.79183000
139.19999191	0.00000000	38.04134000	14.21014000
139.39999189	0.00000000	38.36737000	14.62844000
139.59999188	0.00000000	39.15477000	15.32357000
139.79999187	0.00000000	39.90526000	15.32357000
139.99999186	0.00000000	40.69267000	14.58538000
140.19999185	0.00000000	41.06791000	13.83489000
140.39999184	0.00000000	41.11097000	13.00443000
140.59999182	0.00000000	41.06791000	12.25394000
140.79999181	0.00000000	40.69267000	11.46653000
140.99999180	0.00000000	39.94832000	11.09129000
141.19999179	0.00000000	39.57308000	11.09129000
141.39999178	0.00000000	39.53002000	11.51575000
141.59999176	0.00000000	39.53002000	12.62918000
141.79999175	0.00000000	39.53002000	13.74262000
141.99999174	0.00000000	39.53002000	14.21014000
142.19999173	0.00000000	39.57308000	14.62844000
142.39999172	0.00000000	39.94832000	15.32357000
142.59999170	0.00000000	40.64345000	15.32357000
142.79999169	0.00000000	40.64345000	14.58538000
142.99999168	0.00000000	39.94832000	13.83489000
143.19999167	0.00000000	39.57308000	13.04749000
143.39999166	0.00000000	39.53002000	12.67224000
143.59999165	0.00000000	39.53002000	12.62918000
143.79999163	0.00000000	39.53002000	12.62918000
143.99999162	0.00000000	39.53002000	12.67224000
144.19999161	0.00000000	39.53002000	13.04749000
144.39999160	0.00000000	39.57308000	13.79183000
144.59999159	0.00000000	39.90526000	14.16708000
144.79999157	0.00000000	40.27436000	14.21014000
144.99999156	0.00000000	39.90526000	14.21014000
145.19999155	0.00000000	39.57308000	14.16708000
145.39999154	0.00000000	39.53002000	13.79183000
145.59999153	0.00000000	39.48696000	13.00443000
145.79999151	0.00000000	39.15477000	12.29700000
145.99999150	0.00000000	38.78568000	11.88484000
146.19999149	0.00000000	39.15477000	12.25394000
146.39999148	0.00000000	39.48696000	12.53691000
146.59999147	0.00000000	39.57308000	12.25394000
146.79999146	0.00000000	39.94832000	11.88484000
146.99999144	0.00000000	40.69267000	12.29700000
147.19999143	0.00000000	41.01870000	13.00443000
147.39999142	0.00000000	40.69267000	13.79183000
147.59999141	0.00000000	39.94832000	14.16708000
147.79999140	0.00000000	39.57308000	14.21014000
147.99999138	0.00000000	39.53002000	14.21014000
148.19999137	0.00000000	39.53002000	14.21014000
148.39999136	0.00000000	39.53002000	14.16708000
148.59999135	0.00000000	39.53002000	13.79183000
148.79999134	0.00000000	39.53002000	13.04749000
148.99999132	0.00000000	39.57308000	12.67224000
149.19999131	0.00000000	39.90526000	12.62918000
149.39999130	0.00000000	40.31742000	12.62918000
149.59999129	0.00000000	40.28051000	12.62918000
149.79999128	0.00000000	40.36048000	12.67224000
149.99999127	0.00000000	40.28051000	13.04749000
150.19999125	0.00000000	40.31742000	13.79183000
150.39999124	0.00000000	39.90526000	14.16708000
150.59999123	0.00000000	39.57308000	14.21014000
150.79999122	0.00000000	39.53002000	14.21014000
150.99999121	0.00000000	39.53002000	14.21014000
151.19999119	0.00000000	39.53002000	14.21014000
151.39999118	0.00000000	39.53002000	14.21014000
151.59999117	0.00000000	39.53002000	14.16708000
151.79999116	0.00000000	39.53002000	13.79183000
151.99999115	0.00000000	39.53002000	13.04749000
152.19999113	0.00000000	39.57308000	12.67224000
152.39999112	0.00000000	39.94832000	12.62918000
152.59999111	0.00000000	40.69267000	12.62918000
152.79999110	0.00000000	41.06791000	12.67224000
152.99999109	0.00000000	41.06791000	13.04749000
153.19999108	0.00000000	40.69267000	13.79183000
153.39999106	0.00000000	39.94832000	14.16708000
153.59999105	0.00000000	39.57308000	14.21014000
153.79999104	0.00000000	39.53002000	14.21014000
153.99999103	0.00000000	39.48696000	14.16708000
154.19999102	0.00000000	39.11171000	13.83489000
154.39999100	-0.15871060	38.41658000	13.42274000
154.59999099	0.00000000	38.41658000	13.41658000
154.79999098	0.00000000	39.11171000	13.00443000
154.99999097	0.00000000	39.48696000	12.67224000
155.19999096	0.00000000	39.57308000	12.62918000
155.39999094	0.00000000	39.94832000	12.62918000
155.59999093	0.00000000	40.69267000	12.62918000
155.79999092	0.00000000	41.01870000	12.62918000
155.99999091	0.00000000	40.69267000	12.62918000
156.19999090	0.00000000	39.94832000	12.67224000
156.39999089	0.00000000	39.57308000	13.04749000
156.59999087	0.00000000	39.48696000	13.79183000
156.79999086	0.00000000	39.11171000	14.16708000
156.99999085	0.00000000	38.36737000	14.21014000
157.19999084	0.00000000	37.99213000	14.16708000
157.39999083	0.00000000	37.99213000	13.79183000
157.59999081	0.00000000	38.32431000	13.04749000
157.79999080	0.00000000	38.73647000	12.67224000
157.99999079	0.00000000	38.74261000	12.62918000
158.19999078	0.00000000	39.19783000	12.62918000
158.39999077	0.00000000	39.90526000	12.62918000
158.59999075	0.00000000	40.64345000	12.62918000
158.79999074	0.00000000	40.64345000	12.62918000
158.99999073	0.00000000	39.94832000	12.62918000
159.19999072	0.00000000	39.57308000	12.67224000
159.39999071	0.00000000	39.53002000	13.04749000
159.59999070	0.00000000	39.53002000	13.79183000
159.79999068	0.00000000	39.48696000	14.16708000
159.99999067	0.00000000	39.15477000	14.21014000
160.19999066	0.00000000	38.78568000	14.16708000
160.39999065	0.00000000	39.15477000	13.79183000
160.59999064	0.00000000	39.48696000	13.04749000
160.79999062	0.00000000	39.53002000	12.67224000
160.99999061	0.00000000	39.53002000	12.62918000
161.19999060	0.00000000	39.53002000	12.62918000
161.39999059	0.00000000	39.53002000	12.62918000
161.59999058	0.00000000	39.53002000	12.62918000
161.79999056	0.00000000	39.57308000	12.62918000
161.99999055	0.00000000	39.94832000	12.67224000
162.19999054	0.00000000	40.64345000	13.04749000
162.39999053	0.00000000	40.69267000	13.79183000
162.59999052	0.00000000	40.32357000	14.16708000
162.79999051	0.00000000	40.31742000	14.21014000
162.99999049	0.00000000	39.90526000	14.21014000
163.19999048	0.00000000	39.53002000	14.16708000
163.39999047	0.00000000	39.15477000	13.79183000
163.59999046	0.00000000	38.78568000	13.04749000
163.79999045	0.00000000	39.15477000	12.72146000
163.99999043	0.00000000	39.48696000	13.00443000
164.19999042	0.00000000	39.53002000	13.37352000
164.39999041	0.00000000	39.53002000	13.00443000
164.59999040	0.00000000	39.57308000	12.67224000
164.79999039	0.00000000	39.90526000	12.62918000
164.99999037	0.00000000	40.27436000	12.67224000
165.19999036	0.00000000	39.90526000	13.00443000
165.39999035	0.00000000	39.57308000	13.37352000
165.59999034	0.00000000	39.53002000	13.04749000
165.79999033	0.00000000	39.53002000	13.04749000
165.99999032	0.00000000	39.48696000	13.41658000
166.19999030	0.00000000	39.15477000	13.42274000
166.39999029	0.00000000	38.78568000	13.79183000
166.59999028	0.00000000	39.15477000	13.74262000
166.79999027	0.00000000	39.48696000	13.09670000
166.99999026	0.00000000	39.53002000	13.04749000
167.19999024	0.00000000	39.53002000	13.37352000
167.39999023	0.00000000	39.53002000	13.00443000
167.59999022	0.00000000	39.53002000	12.67224000
167.79999021	0.00000000	39.53002000	12.62918000
167.99999020	0.00000000	39.53002000	12.62918000
168.19999018	0.00000000	39.53002000	12.62918000
168.39999017	0.00000000	39.53002000	12.62918000
168.59999016	0.00000000	39.53002000	12.62918000
168.79999015	0.00000000	39.53002000	12.62918000
168.99999014	0.00000000	39.53002000	12.62918000
169.19999013	0.00000000	39.53002000	12.62918000
169.39999011	0.00000000	39.53002000	12.62918000
169.59999010	0.00000000	39.48696000	12.62918000
169.79999009	0.00000000	39.15477000	12.62918000
169.99999008	0.00000000	38.78568000	12.62918000
170.19999007	0.00000000	39.15477000	12.62918000
170.39999005	0.00000000	39.48696000	12.62918000
170.59999004	0.00000000	39.53002000	12.62918000
170.79999003	0.00000000	39.53002000	12.62918000
170.99999002	0.00000000	39.53002000	12.62918000
171.19999001	0.00000000	39.53002000	12.62918000
171.39998999	0.00000000	39.53002000	12.62918000
171.59998998	0.00000000	39.53002000	12.62918000
171.79998997	0.00000000	39.53002000	12.62918000
171.99998996	0.00000000	39.53002000	12.62918000
172.19998995	0.00000000	39.53002000	12.62918000
172.39998994	0.00000000	39.53002000	12.62918000
172.59998992	0.00000000	39.48696000	12.62918000
172.79998991	0.00000000	39.15477000	12.67224000
172.99998990	0.00000000	38.78568000	13.00443000
173.19998989	0.00000000	39.15477000	13.41658000
173.39998988	0.00000000	39.48696000	13.37967000
173.59998986	0.00000000	39.53002000	13.41658000
173.79998985	0.00000000	39.53002000	13.00443000
173.99998984	0.00000000	39.53002000	12.67224000
174.19998983	0.00000000	39.53002000	12.62918000
174.39998982	0.00000000	39.53002000	12.62918000
174.59998980	0.00000000	39.53002000	12.62918000
174.79998979	0.00000000	39.53002000	12.62918000
174.99998978	0.00000000	39.53002000	12.62918000
175.19998977	0.00000000	39.53002000	12.62918000
175.39998976	0.00000000	39.53002000	12.62918000
175.59998975	0.00000000	39.53002000	12.62918000
175.79998973	0.00000000	39.53002000	12.62918000
175.99998972	0.00000000	39.53002000	12.62918000
176.19998971	0.00000000	39.53002000	12.62918000
176.39998970	0.00000000	39.53002000	12.62918000
176.59998969	0.00000000	39.53002000	12.62918000
176.79998967	0.00000000	39.53002000	12.62918000
176.99998966	0.00000000	39.53002000	12.62918000
177.19998965	0.00000000	39.53002000	12.62918000
177.39998964	0.00000000	39.53002000	12.62918000
177.59998963	0.00000000	39.48696000	12.62918000
177.79998961	0.00000000	39.15477000	12.62918000
177.99998960	0.00000000	38.78568000	12.62918000
178.19998959	0.00000000	39.15477000	12.62918000
178.39998958	0.00000000	39.48696000	12.67224000
178.59998957	0.00000000	39.53002000	13.04749000
178.79998956	0.00000000	39.48696000	13.74262000
178.99998954	0.00000000	39.15477000	13.74262000
179.19998953	0.00000000	38.78568000	13.04749000
179.39998952	0.00000000	39.15477000	12.67224000
179.59998951	0.00000000	39.48696000	12.62918000
179.79998950	0.00000000	39.53002000	12.62918000
179.99998948	0.00000000	39.53002000	12.62918000
180.19998947	0.00000000	39.53002000	12.62918000
180.39998946	0.00000000	39.53002000	12.62918000
180.59998945	0.00000000	39.53002000	12.62918000
180.79998944	0.00000000	39.48696000	12.62918000
180.99998942	0.00000000	39.11171000	12.62918000
181.19998941	0.00000000	38.41658000	12.62918000
181.39998940	0.00000000	38.41658000	12.67224000
181.59998939	0.00000000	39.11171000	13.00443000
181.79998938	0.00000000	39.48696000	13.37352000
181.99998937	0.00000000	39.53002000	13.00443000
182.19998935	0.00000000	39.53002000	12.67224000
182.39998934	0.00000000	39.53002000	12.62918000
182.59998933	0.00000000	39.53002000	12.62918000
182.79998932	0.00000000	39.53002000	12.62918000
182.99998931	0.00000000	39.53002000	12.62918000
183.19998929	0.00000000	39.53002000	12.62918000
183.39998928	0.00000000	39.53002000	12.62918000
183.59998927	0.00000000	39.53002000	12.62918000
183.79998926	0.00000000	39.48696000	12.62918000
183.99998925	0.00000000	39.15477000	12.67224000
184.19998923	0.00000000	38.78568000	13.00443000
184.39998922	0.00000000	39.11171000	13.41658000
184.59998921	0.00000000	39.11171000	13.42274000
184.79998920	0.00000000	38.78568000	13.83489000
184.99998919	0.00000000	39.15477000	14.11786000
185.19998918	0.00000000	39.48696000	13.79183000
185.39998916	0.00000000	39.53002000	13.04749000
185.59998915	0.00000000	39.53002000	12.67224000
185.79998914	0.00000000	39.53002000	12.62918000
185.99998913	0.00000000	39.53002000	12.62918000
186.19998912	0.00000000	39.53002000	12.62918000
186.39998910	0.00000000	39.53002000	12.62918000
186.59998909	0.00000000	39.53002000	12.62918000
186.79998908	0.00000000	39.48696000	12.67224000
186.99998907	0.00000000	39.11171000	13.00443000
187.19998906	0.00000000	38.41658000	13.41658000
187.39998904	0.00000000	38.41658000	13.42274000
187.59998903	0.00000000	39.11171000	13.83489000
187.79998902	0.00000000	39.48696000	14.16708000
187.99998901	0.00000000	39.53002000	14.16708000
188.19998900	0.00000000	39.53002000	13.79183000
188.39998899	0.00000000	39.53002000	13.04749000
188.59998897	0.00000000	39.53002000	12.67224000
188.79998896	0.00000000	39.53002000	12.62918000
188.99998895	0.00000000	39.53002000	12.62918000
189.19998894	0.00000000	39.53002000	12.62918000
189.39998893	0.00000000	39.48696000	12.62918000
189.59998891	0.00000000	39.15477000	12.62918000
189.79998890	0.00000000	38.74261000	12.62918000
189.99998889	0.00000000	38.77953000	12.62918000
190.19998888	0.00000000	38.69955000	12.62918000
190.39998887	0.00000000	38.73647000	12.62918000
190.59998885	0.00000000	38.36737000	12.62918000
190.79998884	0.00000000	38.36737000	12.62918000
190.99998883	0.00000000	38.73647000	12.67224000
191.19998882	0.00000000	38.74261000	13.00443000
191.39998881	0.00000000	39.15477000	13.37352000
191.59998880	0.00000000	39.48696000	13.00443000
191.79998878	0.00000000	39.53002000	12.67224000
191.99998877	0.00000000	39.53002000	12.62918000
192.19998876	0.00000000	39.53002000	12.62918000
192.39998875	0.00000000	39.48696000	12.62918000
192.59998874	0.00000000	39.11171000	12.62918000
192.79998872	0.00000000	38.36737000	12.62918000
192.99998871	0.00000000	37.99213000	12.62918000
193.19998870	0.00000000	37.94907000	12.62918000
193.39998869	0.00000000	37.94907000	12.62918000
193.59998868	0.00000000	37.99213000	12.62918000
193.79998866	0.00000000	38.36737000	12.62918000
193.99998865	0.00000000	39.11171000	12.67224000
194.19998864	0.00000000	39.48696000	13.00443000
194.39998863	0.00000000	39.53002000	13.37352000
194.59998862	0.00000000	39.53002000	13.00443000
194.79998861	0.00000000	39.53002000	12.67224000
194.99998859	0.00000000	39.53002000	12.62918000
195.19998858	0.00000000	39.48696000	12.62918000
195.39998857	0.00000000	39.11171000	12.62918000
195.59998856	0.00000000	38.36737000	12.62918000
195.79998855	0.00000000	37.99213000	12.62918000
195.99998853	0.00000000	37.94907000	12.62918000
