Time	Channel A	Channel B	Channel C
(us)	(V)	(mV)	(mV)

-4.59999956	0.00000000	89.75147000	37.47539000
-4.39999957	0.00000000	89.38238000	36.73105000
-4.19999958	0.00000000	89.70841000	36.35580000
-3.99999959	0.00000000	89.65919000	36.35580000
-3.79999960	0.00000000	89.01328000	36.73105000
-3.59999962	0.00000000	89.01328000	37.42618000
-3.39999963	0.00000000	89.65919000	37.47539000
-3.19999964	0.00000000	89.70841000	37.14936000
-2.99999965	0.00000000	89.38238000	37.51845000
-2.79999966	0.00000000	89.70841000	37.85064000
-2.59999968	0.00000000	89.70841000	37.89370000
-2.39999969	0.00000000	89.38238000	37.89370000
-2.19999970	0.00000000	89.75147000	37.89370000
-1.99999971	0.00000000	90.08366000	37.89370000
-1.79999972	0.00000000	90.12672000	37.89370000
-1.59999973	0.00000000	90.08366000	37.89370000
-1.39999975	0.00000000	89.75147000	37.89370000
-1.19999976	0.00000000	89.33932000	37.89370000
-0.99999977	0.00000000	89.37623000	37.89370000
-0.79999978	0.00000000	89.33932000	37.85064000
-0.59999979	0.00000000	89.75147000	37.51845000
-0.39999981	0.15871060	90.08366000	37.14936000
-0.19999982	0.47736220	90.12672000	37.51845000
0.00000017	0.79601380	90.12672000	37.85064000
0.20000016	0.95533960	90.12672000	37.89370000
0.40000015	0.95533960	90.12672000	37.89370000
0.60000013	0.63668800	90.12672000	37.89370000
0.80000012	0.00000000	90.12672000	37.89370000
1.00000011	-0.95533960	90.12672000	37.89370000
1.20000010	-1.91129400	90.12672000	37.89370000
1.40000009	-2.54859700	90.08366000	37.89370000
1.60000008	-2.70792300	89.75147000	37.93676000
1.80000006	-2.07062000	89.38238000	38.26894000
2.00000005	-0.63668800	89.75147000	38.63804000
2.20000004	1.27399100	90.08366000	38.26894000
2.40000003	3.34522600	90.12672000	37.93676000
2.60000002	4.93786900	90.12672000	37.89370000
2.80000000	5.41584600	90.12672000	37.89370000
2.99999999	4.30056600	90.12672000	37.89370000
3.19999998	1.91129400	90.12672000	37.89370000
3.39999997	-1.27399100	90.12672000	37.89370000
3.59999996	-4.77854300	90.12672000	37.89370000
3.79999994	-7.16781500	90.12672000	37.89370000
3.99999993	-7.96444400	90.12672000	37.93676000
4.19999992	-6.84916400	90.12672000	38.26894000
4.39999991	-3.66326300	90.12672000	38.63804000
4.59999990	0.47736220	90.12672000	38.26894000
4.79999989	4.93786900	90.12672000	37.93676000
4.99999987	8.12377000	90.12672000	37.89370000
5.19999986	9.39837600	90.08366000	37.85064000
5.39999985	8.44242100	89.75147000	37.47539000
5.59999984	5.09719500	89.33932000	36.73105000
5.79999983	0.47736220	89.37623000	36.40502000
5.99999981	-4.14124000	89.33932000	36.73105000
6.19999980	-7.80511800	89.75147000	37.47539000
6.39999979	-9.39837600	90.08366000	37.85064000
6.59999978	-8.76107300	90.12672000	37.89370000
6.79999977	-5.89382400	90.12672000	37.89370000
6.99999975	-1.75196900	90.12672000	37.89370000
7.19999974	2.54859700	90.12672000	37.89370000
7.39999973	5.89382400	90.12672000	37.89370000
7.59999972	7.64579200	90.12672000	37.85064000
7.79999971	7.32714100	90.08366000	37.47539000
7.99999970	5.25652100	89.70841000	36.73105000
8.19999968	2.22994600	88.96407000	36.35580000
8.39999967	-1.11466500	88.63803000	36.35580000
8.59999966	-3.66326300	88.96407000	36.73105000
8.79999965	-5.09719500	89.70841000	37.47539000
8.99999964	-5.09719500	90.08366000	37.85064000
9.19999962	-3.82258900	90.12672000	37.89370000
9.39999961	-1.91129400	90.12672000	37.89370000
9.59999960	0.00000000	90.12672000	37.89370000
9.79999959	1.59264300	90.12672000	37.89370000
9.99999958	2.38927200	90.08366000	37.85064000
10.19999956	2.54859700	89.75147000	37.51845000
10.39999955	1.91129400	89.38238000	37.10630000
10.59999954	1.11466500	89.70841000	37.10014000
10.79999953	0.15871060	89.65919000	36.73105000
10.99999952	-0.47736220	89.01328000	36.73105000
11.19999951	-0.79601380	88.96407000	37.05708000
11.39999949	-0.95533960	89.33316000	36.73105000
11.59999948	-0.95533960	89.33932000	36.78026000
11.79999947	-0.63668800	89.70841000	37.42618000
11.99999946	-0.31803640	89.65919000	37.47539000
12.19999945	-0.15871060	88.92101000	37.10630000
12.39999943	-0.15871060	88.21358000	37.14321000
12.59999942	0.00000000	87.80142000	37.10630000
12.79999941	0.00000000	88.17052000	37.47539000
12.99999940	0.00000000	88.54576000	37.47539000
13.19999939	0.00000000	88.96407000	37.14936000
13.39999937	0.00000000	89.65919000	37.51845000
13.59999936	0.00000000	89.65919000	37.85064000
13.79999935	0.00000000	88.96407000	37.89370000
13.99999934	0.00000000	88.63803000	37.89370000
14.19999933	-0.15871060	88.96407000	37.89370000
14.39999932	-0.15871060	89.70841000	37.89370000
14.59999930	-0.15871060	90.03444000	37.89370000
14.79999929	0.00000000	89.70841000	37.89370000
14.99999928	0.00000000	89.01328000	37.89370000
15.19999927	0.00000000	88.96407000	37.89370000
15.39999926	0.00000000	89.29010000	37.89370000
15.59999924	0.00000000	88.92101000	37.89370000
15.79999923	0.00000000	88.58882000	37.89370000
15.99999922	0.00000000	88.58882000	37.89370000
16.19999921	0.00000000	88.96407000	37.89370000
16.39999920	-0.15871060	89.70841000	37.89370000
16.59999919	-0.15871060	90.08366000	37.89370000
16.79999917	-0.15871060	90.12672000	37.89370000
16.99999916	0.00000000	90.16978000	37.89370000
17.19999915	0.00000000	90.54502000	37.89370000
17.39999914	0.00000000	91.28937000	37.89370000
17.59999913	0.00000000	91.66460000	37.89370000
17.79999911	0.00000000	91.66460000	37.89370000
17.99999910	0.00000000	91.24016000	37.89370000
18.19999909	0.00000000	90.08366000	37.89370000
18.39999908	0.00000000	88.54576000	37.89370000
18.59999907	0.00000000	86.96481000	37.89370000
18.79999905	0.00000000	85.42691000	37.89370000
18.99999904	-0.15871060	84.31348000	37.89370000
19.19999903	0.00000000	84.39960000	37.89370000
19.39999902	0.00000000	86.31274000	37.89370000
19.59999901	0.00000000	89.79453000	37.89370000
19.79999900	0.00000000	93.66387000	37.89370000
19.99999898	0.00000000	97.57012000	37.89370000
20.19999897	0.00000000	100.55360000	37.89370000
20.39999896	0.00000000	101.34100000	37.89370000
20.59999895	0.00000000	99.34177000	37.89370000
20.79999894	0.00000000	95.01106000	37.89370000
20.99999892	0.00000000	88.03519000	37.89370000
21.19999891	0.00000000	79.98892000	37.89370000
21.39999890	0.00000000	73.42519000	37.89370000
21.59999889	0.00000000	69.56815000	37.85064000
21.79999888	0.00000000	69.70349000	37.47539000
21.99999886	0.00000000	74.77238000	36.78026000
22.19999885	0.00000000	84.49187000	36.73105000
22.39999884	0.00000000	96.82578000	37.05708000
22.59999883	0.00000000	109.20280000	36.73105000
22.79999882	0.00000000	118.37470000	36.78026000
22.99999881	0.00000000	121.76430000	37.47539000
23.19999879	0.00000000	117.44590000	37.85064000
23.39999878	0.00000000	105.85630000	37.93676000
23.59999877	0.00000000	89.57307000	38.31200000
23.79999876	0.00000000	71.80117000	39.05635000
23.99999875	0.00000000	56.39764000	39.38238000
24.19999873	0.00000000	47.60088000	39.05635000
24.39999872	0.00000000	48.01919000	38.26894000
24.59999871	0.00000000	58.11392000	37.47539000
24.79999870	0.00000000	75.93503000	36.22662000
24.99999869	0.00000000	97.94537000	34.36269000
25.19999867	0.00000000	119.15600000	32.46186000
25.39999866	0.00000000	134.19660000	31.75443000
25.59999865	0.00000000	139.59150000	32.46186000
25.79999864	0.00000000	133.68600000	34.44881000
25.99999863	0.00000000	117.07060000	37.19857000
26.19999862	0.00000000	93.15329000	41.05561000
26.39999860	0.00000000	68.11639000	44.86343000
26.59999859	0.00000000	47.97613000	47.23179000
26.79999858	0.00000000	37.17397000	48.35138000
26.99999857	0.00000000	37.92445000	47.46555000
27.19999856	0.00000000	50.29527000	43.52239000
27.39999854	0.00000000	71.09989000	36.96481000
27.59999853	0.00000000	95.52164000	28.93085000
27.79999852	0.00000000	118.28250000	22.01033000
27.99999851	0.00000000	134.51650000	18.09793000
28.19999850	0.00000000	139.91760000	17.40280000
28.39999848	0.00000000	133.82140000	20.98302000
28.59999847	0.00000000	118.04260000	29.10925000
28.79999846	0.00000000	96.82578000	39.93602000
28.99999845	0.00000000	75.51672000	51.55019000
29.19999844	0.00000000	58.07086000	61.49729000
29.39999843	0.00000000	47.97613000	66.84301000
29.59999841	0.00000000	47.13337000	65.63730000
29.79999840	0.00000000	54.85974000	57.92323000
29.99999839	0.00000000	69.56815000	45.10334000
30.19999838	0.00000000	88.03519000	29.66904000
30.39999837	0.00000000	105.43800000	14.66535000
30.59999835	0.00000000	117.90720000	4.25688900
30.79999834	0.00000000	123.81270000	0.76894680
30.99999833	0.00000000	122.65010000	4.67519700
31.19999832	0.00000000	114.92370000	15.91412000
31.39999831	0.00000000	102.17770000	32.12967000
31.59999829	0.00000000	87.51845000	49.88312000
31.79999828	0.00000000	74.35408000	65.35433000
31.99999827	0.00000000	65.37278000	74.97539000
32.19999826	0.00000000	61.87869000	76.91928000
32.39999825	0.00000000	64.16707000	70.37401000
32.59999824	0.00000000	71.88730000	57.22195000
32.79999822	0.00000000	82.68947000	40.21899000
32.99999821	0.00000000	94.27287000	22.42864000
33.19999820	0.00000000	103.94930000	8.15698700
33.39999819	0.00000000	109.39340000	-0.01230315
33.59999818	0.00000000	110.23010000	-0.34448820
33.79999816	0.00000000	106.36690000	7.32652500
33.99999815	0.00000000	99.05880000	21.21678000
34.19999814	0.00000000	90.16978000	37.85064000
34.39999813	0.00000000	81.70521000	54.10925000
34.59999812	0.00000000	75.93503000	66.79379000
34.79999810	0.00000000	74.31102000	72.60088000
34.99999809	0.00000000	76.58710000	70.37401000
35.19999808	0.00000000	81.56988000	61.49729000
35.39999807	0.00000000	88.17052000	47.97613000
35.59999806	0.00000000	94.64812000	32.54798000
35.79999805	0.00000000	99.29256000	19.06988000
35.99999803	0.00000000	100.46140000	10.56841000
36.19999802	0.00000000	98.59743000	8.94438800
36.39999801	0.00000000	94.35899000	13.91486000
36.59999800	0.00000000	88.96407000	23.58514000
36.79999799	0.00000000	83.98129000	36.26968000
36.99999797	0.00000000	80.49950000	48.53592000
37.19999796	0.00000000	79.74902000	56.62524000
37.39999795	0.00000000	81.61294000	58.99360000
37.59999794	0.00000000	85.47613000	55.13656000
37.79999793	0.00000000	90.08366000	46.39517000
37.99999791	0.00000000	94.35899000	35.66683000
38.19999790	0.00000000	97.43479000	26.46407000
38.39999789	0.00000000	98.59129000	21.07529000
38.59999788	0.00000000	97.43479000	21.07529000
38.79999787	0.00000000	94.35899000	26.37180000
38.99999786	0.00000000	90.08366000	34.83022000
39.19999784	0.00000000	85.47613000	43.98991000
39.39999783	0.00000000	81.61294000	51.27337000
39.59999782	0.00000000	79.65674000	53.93085000
39.79999781	0.00000000	79.61367000	51.64862000
39.99999780	0.00000000	81.19463000	44.72810000
40.19999778	0.00000000	84.31348000	35.15625000
40.39999777	0.00000000	88.54576000	25.95349000
40.59999776	0.00000000	92.77805000	19.44513000
40.79999775	0.00000000	95.93995000	17.91339000
40.99999774	0.00000000	97.89616000	21.72121000
41.19999772	0.00000000	98.64050000	29.39222000
41.39999771	0.00000000	97.43479000	39.00713000
41.59999770	0.00000000	94.40206000	47.88385000
41.79999769	0.00000000	90.50197000	54.02312000
41.99999768	0.00000000	86.63262000	55.92396000
42.19999767	0.00000000	83.15083000	52.48523000
42.39999765	0.00000000	81.19463000	45.23868000
42.59999764	0.00000000	80.77632000	36.40502000
42.79999763	0.00000000	81.56988000	28.32185000
42.99999762	0.00000000	83.84596000	23.25910000
43.19999761	0.00000000	86.54650000	21.67815000
43.39999759	0.00000000	88.92101000	23.58514000
43.59999758	0.00000000	91.24016000	28.59867000
43.79999757	0.00000000	92.77805000	35.11319000
43.99999756	0.00000000	93.19635000	41.65846000
44.19999755	0.00000000	92.87032000	46.30290000
44.39999753	0.00000000	92.12598000	48.25910000
44.59999752	0.00000000	91.75073000	47.50861000
44.79999751	0.00000000	91.70767000	44.11909000
44.99999750	0.00000000	91.66460000	39.93602000
45.19999749	0.00000000	91.28937000	36.36196000
45.39999748	0.00000000	90.45890000	33.24926000
45.59999746	0.00000000	89.24089000	30.97318000
45.79999745	0.00000000	86.87254000	30.59793000
45.99999744	0.00000000	83.84596000	32.08661000
46.19999743	0.00000000	81.15157000	34.73794000
46.39999742	0.00000000	79.65674000	37.43233000
46.59999740	0.00000000	80.08120000	39.43159000
46.79999739	0.00000000	82.81864000	41.00639000
46.99999738	0.00000000	87.47539000	42.11983000
47.19999737	0.00000000	93.28863000	42.11983000
47.39999736	0.00000000	99.10187000	40.96333000
47.59999734	0.00000000	103.67250000	39.05635000
47.79999733	0.00000000	105.53030000	36.73105000
47.99999732	0.00000000	103.20500000	34.78100000
48.19999731	0.00000000	97.43479000	33.24926000
48.39999730	0.00000000	89.70841000	32.50492000
48.59999729	0.00000000	81.56988000	33.29232000
48.79999727	0.00000000	75.00614000	35.19931000
48.99999726	0.00000000	71.19217000	37.94291000
49.19999725	0.00000000	71.61047000	40.96333000
49.39999724	0.00000000	76.63017000	43.28247000
49.59999723	0.00000000	84.73178000	44.07603000
49.79999721	0.00000000	94.35899000	43.65773000
49.99999720	0.00000000	102.82970000	41.70152000
50.19999719	0.00000000	107.86170000	38.22588000
50.39999718	0.00000000	108.59990000	34.40575000
50.59999717	0.00000000	104.32450000	30.93012000
50.79999715	0.00000000	95.93995000	29.01698000
50.99999714	0.00000000	86.31274000	29.01698000
51.19999713	0.00000000	78.21111000	30.93012000
51.39999712	0.00000000	73.19143000	34.40575000
51.59999711	0.00000000	72.81618000	38.26894000
51.79999710	0.00000000	77.00541000	42.16904000
51.99999708	0.00000000	84.31348000	45.18947000
52.19999707	0.00000000	92.73499000	46.35211000
52.39999706	0.00000000	99.66781000	45.18947000
52.59999705	0.00000000	103.20500000	42.11983000
52.79999704	0.00000000	103.20500000	37.93676000
52.99999702	0.00000000	99.71703000	34.08588000
53.19999701	0.00000000	93.20251000	31.71137000
53.39999700	0.00000000	85.93749000	30.55487000
53.59999699	0.00000000	80.12425000	30.97318000
53.79999698	0.00000000	77.05462000	33.24926000
53.99999696	0.00000000	77.47293000	36.26968000
54.19999695	0.00000000	81.66215000	39.00713000
54.39999694	0.00000000	88.12745000	40.92027000
54.59999693	0.00000000	94.27287000	41.65846000
54.79999692	0.00000000	98.54822000	40.54502000
54.99999691	0.00000000	100.08610000	38.31200000
55.19999689	0.00000000	98.54822000	36.40502000
55.39999688	0.00000000	94.35899000	35.24852000
55.59999687	0.00000000	89.01328000	35.24852000
55.79999686	0.00000000	84.31348000	36.36196000
55.99999685	0.00000000	80.86860000	37.93676000
56.19999683	0.00000000	79.33685000	39.80069000
56.39999682	0.00000000	80.86860000	41.33243000
56.59999681	0.00000000	84.27042000	41.29552000
56.79999680	0.00000000	88.58882000	40.12672000
56.99999679	0.00000000	93.15329000	37.38312000
57.19999677	0.00000000	96.59202000	33.57529000
57.39999676	0.00000000	97.38557000	30.17962000
57.59999675	0.00000000	95.93995000	28.27879000
57.79999674	0.00000000	93.19635000	29.06004000
57.99999673	0.00000000	89.75147000	32.12967000
58.19999672	0.00000000	86.26968000	36.78026000
58.39999670	0.00000000	83.98129000	42.16289000
58.59999669	0.00000000	83.15083000	46.72736000
58.79999668	0.00000000	83.93823000	49.00344000
58.99999667	0.00000000	85.80216000	47.84079000
59.19999666	0.00000000	88.12745000	43.65773000
59.39999664	0.00000000	90.08366000	37.85064000
59.59999663	0.00000000	91.61539000	31.62524000
59.79999662	0.00000000	92.35974000	25.90428000
59.99999661	0.00000000	91.61539000	22.47170000
60.19999660	0.00000000	90.16978000	22.88386000
60.39999658	0.00000000	89.01328000	26.74705000
60.59999657	0.00000000	88.54576000	33.66756000
60.79999656	0.00000000	88.17052000	41.75073000
60.99999655	0.00000000	87.85063000	48.63435000
61.19999654	0.00000000	88.58882000	52.89739000
61.39999653	0.00000000	89.65919000	52.86048000
61.59999651	0.00000000	90.08366000	49.08956000
61.79999650	0.00000000	90.08366000	42.49508000
61.99999649	0.00000000	89.65919000	34.78100000
62.19999648	0.00000000	88.54576000	27.44217000
62.39999647	0.00000000	87.38312000	22.09646000
62.59999645	0.00000000	86.63262000	20.56471000
62.79999644	0.00000000	86.22047000	23.20989000
62.99999643	0.00000000	86.63262000	28.97392000
63.19999642	0.00000000	87.43233000	36.31274000
63.39999641	0.00000000	88.96407000	43.65773000
63.59999639	0.00000000	90.87106000	49.46481000
63.79999638	0.00000000	92.03986000	52.53445000
63.99999637	0.00000000	92.82111000	52.15920000
64.19999636	0.00000000	92.77805000	48.30216000
64.39999635	0.00000000	91.66460000	42.16904000
64.59999634	0.00000000	90.08366000	35.24852000
64.79999632	0.00000000	88.17052000	29.44143000
64.99999631	0.00000000	86.31274000	25.90428000
65.19999630	0.00000000	85.89443000	24.70472000
65.39999629	0.00000000	86.63262000	25.90428000
65.59999628	0.00000000	87.80142000	29.34916000
65.79999626	0.00000000	89.70841000	34.36269000
65.99999625	0.00000000	91.19709000	39.38238000
66.19999624	0.00000000	91.61539000	43.65773000
66.39999623	0.00000000	91.24016000	46.39517000
66.59999622	0.00000000	90.08366000	47.23179000
66.79999620	0.00000000	88.54576000	46.85654000
66.99999619	0.00000000	87.00787000	45.28174000
67.19999618	0.00000000	85.89443000	42.58735000
67.39999617	0.00000000	85.93749000	39.47465000
67.59999616	0.00000000	87.43233000	36.31274000
67.79999615	0.00000000	89.75147000	33.20005000
67.99999613	0.00000000	92.03986000	30.46260000
68.19999612	0.00000000	93.98376000	28.55561000
68.39999611	0.00000000	94.69118000	27.81127000
68.59999610	0.00000000	93.94069000	28.97392000
68.79999609	0.00000000	91.57234000	31.66830000
68.99999607	0.00000000	88.12745000	35.19931000
69.19999606	0.00000000	84.22120000	39.47465000
69.39999605	0.00000000	80.81939000	43.70079000
69.59999604	0.00000000	78.91855000	46.77042000
69.79999603	0.00000000	79.70595000	47.97613000
69.99999601	0.00000000	82.77559000	47.14566000
70.19999600	0.00000000	87.47539000	44.44513000
70.39999599	0.00000000	93.19635000	39.75763000
70.59999598	0.00000000	98.17298000	34.40575000
70.79999597	0.00000000	100.51060000	29.39222000
70.99999596	0.00000000	100.17840000	26.32874000
71.19999594	0.00000000	97.43479000	25.86122000
71.39999593	0.00000000	92.77805000	27.39296000
71.59999592	0.00000000	86.96481000	30.55487000
71.79999591	0.00000000	81.19463000	35.15625000
71.99999590	0.00000000	76.96235000	40.12672000
72.19999588	0.00000000	75.42445000	43.61467000
72.39999587	0.00000000	76.96235000	45.19562000
72.59999586	0.00000000	81.19463000	44.82037000
72.79999585	0.00000000	86.96481000	42.54429000
72.99999584	0.00000000	92.77805000	39.47465000
73.19999582	0.00000000	97.43479000	36.40502000
73.39999581	0.00000000	100.13530000	34.08588000
73.59999580	0.00000000	100.17840000	33.29232000
73.79999579	0.00000000	97.85310000	33.62450000
73.99999578	0.00000000	93.98376000	34.78100000
74.19999577	0.00000000	88.96407000	36.22662000
74.39999575	0.00000000	84.35654000	37.00787000
74.59999574	0.00000000	81.23769000	36.64493000
74.79999573	0.00000000	80.03198000	35.89444000
74.99999572	0.00000000	80.81939000	34.73794000
75.19999571	0.00000000	83.10777000	33.66756000
75.39999569	0.00000000	86.58956000	33.66756000
75.59999568	0.00000000	90.03444000	34.82406000
75.79999567	0.00000000	92.77805000	36.78026000
75.99999566	0.00000000	94.31594000	39.51771000
76.19999565	0.00000000	94.35899000	42.54429000
76.39999563	0.00000000	93.24557000	44.82037000
76.59999562	0.00000000	91.70767000	45.19562000
76.79999561	0.00000000	90.08366000	43.61467000
76.99999560	0.00000000	88.26279000	40.12672000
77.19999559	0.00000000	87.10630000	35.15625000
77.39999558	0.00000000	87.79527000	30.55487000
77.59999556	0.00000000	88.45349000	27.44217000
77.79999555	0.00000000	88.54576000	26.27953000
77.99999554	0.00000000	88.50270000	27.48524000
78.19999553	0.00000000	88.12745000	30.93012000
78.39999552	0.00000000	87.38312000	35.98671000
78.59999550	0.00000000	87.00787000	41.38164000
78.79999549	0.00000000	87.00787000	46.39517000
78.99999548	0.00000000	87.43233000	49.42175000
79.19999547	0.00000000	88.63803000	49.46481000
79.39999546	0.00000000	90.54502000	46.81348000
79.59999544	0.00000000	92.82111000	42.53814000
79.79999543	0.00000000	94.31594000	37.51845000
79.99999542	0.00000000	94.35899000	32.50492000
80.19999541	0.00000000	93.19635000	29.01698000
80.39999540	0.00000000	91.24016000	27.43602000
80.59999539	0.00000000	88.54576000	27.81127000
80.79999537	0.00000000	85.85137000	30.13656000
80.99999536	0.00000000	83.93823000	33.57529000
81.19999535	0.00000000	83.19389000	37.47539000
81.39999534	0.00000000	84.35654000	40.96333000
81.59999533	0.00000000	86.96481000	43.70079000
81.79999531	0.00000000	89.70841000	45.23868000
81.99999530	0.00000000	92.03986000	45.28174000
82.19999529	0.00000000	93.98376000	44.11909000
82.39999528	0.00000000	94.69118000	42.16904000
82.59999527	0.00000000	93.94069000	39.42544000
82.79999525	0.00000000	91.66460000	36.36196000
82.99999524	0.00000000	89.01328000	33.61835000
83.19999523	0.00000000	87.05708000	31.62524000
83.39999522	0.00000000	85.85137000	30.08735000
83.59999521	0.00000000	85.47613000	29.34916000
83.79999520	0.00000000	85.85137000	30.13656000
83.99999518	0.00000000	87.00787000	32.04355000
84.19999517	0.00000000	88.50270000	34.82406000
84.39999516	0.00000000	89.65919000	38.31200000
84.59999515	0.00000000	90.03444000	42.11983000
84.79999514	0.00000000	89.75147000	44.82037000
84.99999512	0.00000000	89.33932000	45.61392000
85.19999511	0.00000000	89.33316000	44.86343000
85.39999510	0.00000000	88.96407000	42.45201000
85.59999509	0.00000000	89.01328000	38.63804000
85.79999508	0.00000000	89.70841000	33.99360000
85.99999506	0.00000000	90.08366000	30.17962000
86.19999505	0.00000000	90.08366000	27.81127000
86.39999504	0.00000000	89.70841000	27.43602000
86.59999503	0.00000000	88.92101000	28.97392000
86.79999502	0.00000000	88.12745000	32.08661000
86.99999501	0.00000000	86.96481000	36.36196000
87.19999499	0.00000000	85.89443000	40.96333000
87.39999498	0.00000000	85.85137000	44.77116000
87.59999497	0.00000000	86.58956000	46.30905000
87.79999496	0.00000000	87.38312000	45.18947000
87.99999495	0.00000000	88.58882000	42.11983000
88.19999493	0.00000000	90.08366000	37.85064000
88.39999492	0.00000000	91.24016000	33.24926000
88.59999491	0.00000000	91.61539000	29.39222000
88.79999490	0.00000000	91.24016000	27.48524000
88.99999489	0.00000000	90.08366000	27.86048000
89.19999487	0.00000000	88.58882000	30.59793000
89.39999486	0.00000000	87.38312000	35.15625000
89.59999485	0.00000000	86.63262000	40.16978000
89.79999484	0.00000000	86.22047000	43.98991000
89.99999483	0.00000000	86.63262000	45.93381000
90.19999482	0.00000000	87.34005000	45.14640000
90.39999480	0.00000000	88.17052000	42.11983000
90.59999479	0.00000000	88.92101000	37.85064000
90.79999478	0.00000000	89.70841000	33.24926000
90.99999477	0.00000000	90.08366000	29.43528000
91.19999476	0.00000000	90.08366000	27.90354000
91.39999474	0.00000000	89.75147000	29.01698000
91.59999473	0.00000000	89.38238000	32.12967000
91.79999472	0.00000000	89.70841000	36.73105000
91.99999471	0.00000000	89.70841000	41.70152000
92.19999470	0.00000000	89.38238000	45.14640000
92.39999468	0.00000000	89.70841000	46.35211000
92.59999467	0.00000000	89.65919000	45.14640000
92.79999466	0.00000000	88.92101000	41.70152000
92.99999465	0.00000000	88.17052000	36.73105000
93.19999464	0.00000000	87.38312000	32.17273000
93.39999463	0.00000000	87.00787000	29.43528000
93.59999461	0.00000000	86.96481000	29.01698000
93.79999460	0.00000000	87.00787000	30.59793000
93.99999459	0.00000000	87.47539000	34.04282000
94.19999458	0.00000000	89.05634000	38.63804000
94.39999457	0.00000000	91.66460000	42.45201000
94.59999455	0.00000000	93.94069000	44.82037000
94.79999454	0.00000000	94.73425000	45.14640000
94.99999453	0.00000000	94.40206000	43.28247000
95.19999452	0.00000000	93.19635000	39.80069000
95.39999451	0.00000000	91.24016000	35.98671000
95.59999449	0.00000000	88.50270000	32.50492000
95.79999448	0.00000000	85.42691000	30.64099000
95.99999447	0.00000000	82.77559000	30.97318000
96.19999446	0.00000000	81.61294000	33.24926000
96.39999445	0.00000000	82.35728000	36.26968000
96.59999444	0.00000000	84.31348000	39.00713000
96.79999442	0.00000000	87.43233000	40.96333000
96.99999441	0.00000000	91.28937000	42.11983000
97.19999440	0.00000000	94.73425000	42.07677000
97.39999439	0.00000000	97.05954000	40.54502000
97.59999438	0.00000000	97.43479000	37.89370000
97.79999436	0.00000000	95.89690000	35.24852000
97.99999435	0.00000000	92.82111000	33.66756000
98.19999434	0.00000000	88.96407000	33.24926000
98.39999433	0.00000000	85.42691000	33.62450000
98.59999432	0.00000000	82.31422000	34.73794000
98.79999430	0.00000000	80.03198000	35.89444000
98.99999429	0.00000000	79.70595000	36.68799000
99.19999428	0.00000000	81.61294000	37.47539000
99.39999427	0.00000000	85.42691000	37.85064000
99.59999426	0.00000000	89.61613000	37.89370000
99.79999425	0.00000000	92.77805000	37.89370000
99.99999423	0.00000000	94.77731000	37.93676000
100.19999422	0.00000000	95.93995000	38.31200000
100.39999421	0.00000000	95.89690000	39.05635000
100.59999420	0.00000000	94.35899000	39.38238000
100.79999419	0.00000000	91.66460000	39.00713000
100.99999417	0.00000000	88.58882000	37.85064000
101.19999416	0.00000000	85.85137000	36.31274000
101.39999415	0.00000000	83.89517000	34.73794000
101.59999414	0.00000000	82.73252000	33.20005000
101.79999413	0.00000000	82.73252000	32.08661000
101.99999411	0.00000000	83.89517000	32.12967000
102.19999410	0.00000000	85.85137000	33.66756000
102.39999409	0.00000000	88.54576000	36.36196000
102.59999408	0.00000000	91.24016000	39.38238000
102.79999407	0.00000000	93.15329000	41.75073000
102.99999406	0.00000000	93.98376000	42.91338000
103.19999404	0.00000000	93.62081000	43.28247000
103.39999403	0.00000000	92.82111000	42.07677000
103.59999402	0.00000000	91.24016000	39.42544000
103.79999401	0.00000000	88.96407000	36.31274000
103.99999400	0.00000000	87.00787000	33.24926000
104.19999398	0.00000000	85.42691000	30.93012000
104.39999397	0.00000000	84.31348000	30.17962000
104.59999396	0.00000000	84.31348000	30.93012000
104.79999395	0.00000000	85.42691000	33.24926000
104.99999394	0.00000000	86.96481000	36.31274000
105.19999392	0.00000000	88.54576000	39.38238000
105.39999391	0.00000000	90.08366000	41.70152000
105.59999390	0.00000000	91.19709000	42.49508000
105.79999389	0.00000000	91.24016000	42.11983000
105.99999388	0.00000000	90.50197000	40.54502000
106.19999387	0.00000000	89.70841000	37.89370000
106.39999385	0.00000000	88.54576000	35.19931000
106.59999384	0.00000000	87.43233000	33.29232000
106.79999383	0.00000000	87.05708000	32.50492000
106.99999382	0.00000000	87.38312000	33.29232000
107.19999381	0.00000000	88.17052000	35.15625000
107.39999379	0.00000000	88.92101000	37.43233000
107.59999378	0.00000000	89.70841000	38.96407000
107.79999377	0.00000000	90.08366000	39.43159000
107.99999376	0.00000000	90.08366000	39.43159000
108.19999375	0.00000000	89.65919000	39.00713000
108.39999374	0.00000000	88.54576000	37.85064000
108.59999372	0.00000000	87.43233000	36.31274000
108.79999371	0.00000000	87.00787000	34.78100000
108.99999370	0.00000000	86.96481000	33.66756000
109.19999369	0.00000000	87.00787000	33.66756000
109.39999368	0.00000000	87.47539000	34.82406000
109.59999366	0.00000000	88.92101000	36.68799000
109.79999365	0.00000000	90.44660000	38.63804000
109.99999364	0.00000000	90.83415000	39.75763000
110.19999363	0.00000000	90.91412000	40.21899000
110.39999362	0.00000000	90.45890000	39.80684000
110.59999360	0.00000000	89.70841000	39.05635000
110.79999359	0.00000000	88.54576000	37.85064000
110.99999358	0.00000000	87.43233000	36.36196000
111.19999357	0.00000000	87.00787000	35.19931000
111.39999356	0.00000000	86.96481000	34.78100000
111.59999355	0.00000000	87.00787000	34.78100000
111.79999353	0.00000000	87.38312000	35.15625000
111.99999352	0.00000000	88.17052000	35.93750000
112.19999351	0.00000000	88.92101000	36.73105000
112.39999350	0.00000000	89.70841000	37.89370000
112.59999349	0.00000000	90.08366000	38.96407000
112.79999347	0.00000000	90.08366000	39.00713000
112.99999346	0.00000000	89.70841000	38.31200000
113.19999345	0.00000000	88.96407000	37.93676000
113.39999344	0.00000000	88.58882000	37.85064000
113.59999343	0.00000000	88.54576000	37.47539000
113.79999341	0.00000000	88.54576000	36.73105000
113.99999340	0.00000000	88.54576000	36.35580000
114.19999339	0.00000000	88.54576000	36.31274000
114.39999338	0.00000000	88.54576000	36.31274000
114.59999337	0.00000000	88.54576000	36.26968000
114.79999336	0.00000000	88.58882000	35.89444000
114.99999334	0.00000000	88.92101000	35.15625000
115.19999333	0.00000000	89.29010000	34.83022000
115.39999332	0.00000000	88.92101000	35.15625000
115.59999331	0.00000000	88.58882000	35.93750000
115.79999330	0.00000000	88.50270000	36.68799000
115.99999328	0.00000000	88.12745000	37.47539000
116.19999327	0.00000000	87.38312000	37.89370000
116.39999326	0.00000000	87.05708000	38.31200000
116.59999325	0.00000000	87.34005000	39.00713000
116.79999324	0.00000000	87.75221000	39.00713000
116.99999322	0.00000000	87.75835000	38.26894000
117.19999321	0.00000000	88.17052000	37.47539000
117.39999320	0.00000000	88.54576000	36.31274000
117.59999319	0.00000000	88.96407000	35.19931000
117.79999318	0.00000000	89.70841000	34.78100000
117.99999317	0.00000000	90.08366000	34.73794000
118.19999315	0.00000000	90.08366000	34.78100000
118.39999314	0.00000000	89.65919000	35.15625000
118.59999313	0.00000000	88.54576000	35.93750000
118.79999312	0.00000000	87.38312000	36.68799000
118.99999311	0.00000000	86.58956000	37.47539000
119.19999309	0.00000000	85.80216000	37.85064000
119.39999308	0.00000000	85.47613000	37.89370000
119.59999307	0.00000000	85.80216000	37.89370000
119.79999306	0.00000000	86.63262000	37.89370000
119.99999305	0.00000000	87.75835000	37.85064000
120.19999303	0.00000000	89.33316000	37.47539000
120.39999302	0.00000000	90.45890000	36.73105000
120.59999301	0.00000000	91.28937000	36.35580000
120.79999300	0.00000000	91.61539000	36.26968000
120.99999299	0.00000000	91.24016000	35.89444000
121.19999298	0.00000000	90.08366000	35.15625000
121.39999296	0.00000000	88.58882000	34.83022000
121.59999295	0.00000000	87.38312000	35.15625000
121.79999294	0.00000000	86.58956000	35.93750000
121.99999293	0.00000000	85.80216000	36.68799000
122.19999292	0.00000000	85.47613000	37.47539000
122.39999290	0.00000000	85.85137000	37.85064000
122.59999289	0.00000000	86.96481000	37.89370000
122.79999288	0.00000000	88.12745000	37.89370000
122.99999287	0.00000000	88.92101000	37.89370000
123.19999286	0.00000000	89.75147000	37.89370000
123.39999284	0.00000000	90.45890000	37.85064000
123.59999283	0.00000000	90.87106000	37.47539000
123.79999282	0.00000000	90.50197000	36.73105000
123.99999281	0.00000000	90.12672000	36.35580000
124.19999280	0.00000000	89.70841000	36.31274000
124.39999279	0.00000000	88.96407000	36.31274000
124.59999277	0.00000000	88.54576000	36.31274000
124.79999276	0.00000000	88.12745000	36.31274000
124.99999275	0.00000000	87.38312000	36.35580000
125.19999274	0.00000000	87.00787000	36.73105000
125.39999273	0.00000000	87.00787000	37.47539000
125.59999271	0.00000000	87.38312000	37.89370000
125.79999270	0.00000000	88.17052000	38.31200000
125.99999269	0.00000000	88.92101000	39.00713000
126.19999268	0.00000000	89.70841000	39.00713000
126.39999267	0.00000000	90.12672000	38.31200000
126.59999265	0.00000000	90.50197000	37.89370000
126.79999264	0.00000000	90.87106000	37.47539000
126.99999263	0.00000000	90.45890000	36.73105000
127.19999262	0.00000000	89.70841000	36.35580000
127.39999261	0.00000000	88.54576000	36.31274000
127.59999260	0.00000000	87.43233000	36.31274000
127.79999258	0.00000000	87.00787000	36.35580000
127.99999257	0.00000000	86.96481000	36.68799000
128.19999256	0.00000000	87.00787000	37.10014000
128.39999255	0.00000000	87.43233000	37.10630000
128.59999254	0.00000000	88.54576000	37.51845000
128.79999252	0.00000000	89.65919000	37.85064000
128.99999251	0.00000000	90.08366000	37.85064000
129.19999250	0.00000000	90.12672000	37.47539000
129.39999249	0.00000000	90.08366000	36.73105000
129.59999248	0.00000000	89.65919000	36.35580000
129.79999246	0.00000000	88.54576000	36.31274000
129.99999245	0.00000000	87.43233000	36.31274000
130.19999244	0.00000000	87.00787000	36.31274000
130.39999243	0.00000000	86.96481000	36.31274000
130.59999242	0.00000000	87.00787000	36.35580000
130.79999241	0.00000000	87.38312000	36.73105000
130.99999239	0.00000000	88.17052000	37.42618000
131.19999238	0.00000000	88.92101000	37.42618000
131.39999237	0.00000000	89.70841000	36.73105000
131.59999236	0.00000000	90.08366000	36.35580000
131.79999235	0.00000000	90.08366000	36.31274000
131.99999233	0.00000000	89.70841000	36.26968000
132.19999232	0.00000000	88.92101000	35.89444000
132.39999231	0.00000000	88.17052000	35.19931000
132.59999230	0.00000000	87.38312000	35.19931000
132.79999229	0.00000000	87.05708000	35.89444000
132.99999227	0.00000000	87.38312000	36.31274000
133.19999226	0.00000000	88.12745000	36.73105000
133.39999225	0.00000000	88.50270000	37.47539000
133.59999224	0.00000000	88.54576000	37.85064000
133.79999223	0.00000000	88.54576000	37.89370000
133.99999222	0.00000000	88.54576000	37.85064000
134.19999220	0.00000000	88.54576000	37.42618000
134.39999219	0.00000000	88.54576000	36.31274000
134.59999218	0.00000000	88.54576000	35.19931000
134.79999217	0.00000000	88.54576000	34.78100000
134.99999216	0.00000000	88.58882000	34.73794000
135.19999214	0.00000000	88.96407000	34.73794000
135.39999213	0.00000000	89.70841000	34.78100000
135.59999212	0.00000000	90.03444000	35.15625000
135.79999211	0.00000000	89.70841000	35.93750000
135.99999210	0.00000000	88.96407000	36.68799000
136.19999208	0.00000000	88.54576000	37.47539000
136.39999207	0.00000000	88.12745000	37.85064000
136.59999206	0.00000000	87.38312000	37.89370000
136.79999205	0.00000000	87.05708000	37.89370000
136.99999204	0.00000000	87.38312000	37.85064000
137.19999203	0.00000000	88.12745000	37.47539000
137.39999201	0.00000000	88.54576000	36.68799000
137.59999200	0.00000000	88.96407000	35.93750000
137.79999199	0.00000000	89.70841000	35.15625000
137.99999198	0.00000000	90.03444000	34.83022000
138.19999197	0.00000000	89.70841000	35.15625000
138.39999195	0.00000000	88.92101000	35.89444000
138.59999194	0.00000000	88.17052000	36.26968000
138.79999193	0.00000000	87.38312000	36.35580000
138.99999192	0.00000000	87.00787000	36.73105000
139.19999191	0.00000000	86.96481000	37.47539000
139.39999189	0.00000000	87.00787000	37.85064000
139.59999188	0.00000000	87.38312000	37.89370000
139.79999187	0.00000000	88.17052000	37.89370000
139.99999186	0.00000000	88.92101000	37.85064000
140.19999185	0.00000000	89.70841000	37.47539000
140.39999184	0.00000000	90.03444000	36.73105000
140.59999182	0.00000000	89.70841000	36.31274000
140.79999181	0.00000000	88.96407000	35.89444000
140.99999180	0.00000000	88.58882000	35.15625000
141.19999179	0.00000000	88.54576000	34.83022000
141.39999178	0.00000000	88.50270000	35.19931000
141.59999176	0.00000000	88.17052000	36.31274000
141.79999175	0.00000000	87.80142000	37.47539000
141.99999174	0.00000000	88.21358000	38.22588000
142.19999173	0.00000000	88.92101000	38.68110000
142.39999172	0.00000000	89.65919000	38.64419000
142.59999170	0.00000000	89.65919000	38.68110000
142.79999169	0.00000000	88.96407000	38.22588000
142.99999168	0.00000000	88.58882000	37.51845000
143.19999167	0.00000000	88.54576000	36.68799000
143.39999166	0.00000000	88.50270000	35.98671000
143.59999165	0.00000000	88.17052000	35.53149000
143.79999163	0.00000000	87.80142000	35.56840000
143.99999162	0.00000000	88.17052000	35.53149000
144.19999161	0.00000000	88.50270000	35.98671000
144.39999160	0.00000000	88.58882000	36.68799000
144.59999159	0.00000000	88.92101000	37.47539000
144.79999157	0.00000000	89.29010000	37.85064000
144.99999156	0.00000000	88.92101000	37.89370000
145.19999155	0.00000000	88.58882000	37.89370000
145.39999154	0.00000000	88.50270000	37.85064000
145.59999153	0.00000000	88.17052000	37.47539000
145.79999151	0.00000000	87.80142000	36.73105000
145.99999150	0.00000000	88.12745000	36.31274000
146.19999149	0.00000000	88.12745000	35.89444000
146.39999148	0.00000000	87.80142000	35.15625000
146.59999147	0.00000000	88.17052000	34.83022000
146.79999146	0.00000000	88.50270000	35.15625000
146.99999144	0.00000000	88.54576000	35.89444000
147.19999143	0.00000000	88.54576000	36.26968000
147.39999142	0.00000000	88.54576000	36.35580000
147.59999141	0.00000000	88.54576000	36.73105000
147.79999140	0.00000000	88.54576000	37.47539000
147.99999138	0.00000000	88.50270000	37.85064000
148.19999137	0.00000000	88.17052000	37.85064000
148.39999136	0.00000000	87.75835000	37.47539000
148.59999135	0.00000000	87.79527000	36.73105000
148.79999134	0.00000000	87.75835000	36.35580000
148.99999132	0.00000000	88.17052000	36.26968000
149.19999131	0.00000000	88.50270000	35.89444000
149.39999130	0.00000000	88.54576000	35.19931000
149.59999129	0.00000000	88.54576000	35.19931000
149.79999128	0.00000000	88.54576000	35.89444000
149.99999127	0.00000000	88.54576000	36.31274000
150.19999125	0.00000000	88.54576000	36.73105000
150.39999124	0.00000000	88.54576000	37.47539000
150.59999123	0.00000000	88.54576000	37.85064000
150.79999122	0.00000000	88.50270000	37.85064000
150.99999121	0.00000000	88.12745000	37.47539000
151.19999119	0.00000000	87.38312000	36.73105000
151.39999118	0.00000000	87.00787000	36.35580000
151.59999117	0.00000000	86.96481000	36.31274000
151.79999116	0.00000000	87.00787000	36.31274000
151.99999115	0.00000000	87.38312000	36.31274000
152.19999113	0.00000000	88.12745000	36.31274000
152.39999112	0.00000000	88.50270000	36.31274000
152.59999111	0.00000000	88.54576000	36.31274000
152.79999110	0.00000000	88.54576000	36.31274000
152.99999109	0.00000000	88.54576000	36.35580000
153.19999108	0.00000000	88.54576000	36.73105000
153.39999106	0.00000000	88.54576000	37.47539000
153.59999105	0.00000000	88.54576000	37.85064000
153.79999104	0.00000000	88.50270000	37.89370000
153.99999103	0.00000000	88.12745000	37.89370000
154.19999102	0.00000000	87.38312000	37.89370000
154.39999100	0.00000000	87.00787000	37.85064000
154.59999099	0.00000000	87.00787000	37.47539000
154.79999098	0.00000000	87.38312000	36.73105000
154.99999097	0.00000000	88.12745000	36.35580000
155.19999096	0.00000000	88.50270000	36.31274000
155.39999094	0.00000000	88.54576000	36.31274000
155.59999093	0.00000000	88.54576000	36.31274000
155.79999092	0.00000000	88.54576000	36.31274000
155.99999091	0.00000000	88.54576000	36.35580000
156.19999090	0.00000000	88.54576000	36.73105000
156.39999089	0.00000000	88.54576000	37.47539000
156.59999087	0.00000000	88.50270000	37.85064000
156.79999086	0.00000000	88.12745000	37.89370000
156.99999085	0.00000000	87.38312000	37.89370000
157.19999084	0.00000000	87.00787000	37.89370000
157.39999083	0.00000000	87.00787000	37.89370000
157.59999081	0.00000000	87.38312000	37.85064000
157.79999080	0.00000000	88.12745000	37.47539000
157.99999079	0.00000000	88.50270000	36.73105000
158.19999078	0.00000000	88.54576000	36.35580000
158.39999077	0.00000000	88.63803000	36.26968000
158.59999075	0.00000000	89.29626000	35.93750000
158.79999074	0.00000000	90.02829000	35.57455000
158.99999073	0.00000000	89.29626000	35.98671000
159.19999072	0.00000000	88.63803000	36.68799000
159.39999071	0.00000000	88.54576000	37.47539000
159.59999070	0.00000000	88.54576000	37.85064000
159.79999068	0.00000000	88.50270000	37.89370000
159.99999067	0.00000000	88.17052000	37.89370000
160.19999066	0.00000000	87.80142000	37.89370000
160.39999065	0.00000000	88.17052000	37.85064000
160.59999064	0.00000000	88.50270000	37.47539000
160.79999062	0.00000000	88.54576000	36.73105000
160.99999061	0.00000000	88.54576000	36.35580000
161.19999060	0.00000000	88.54576000	36.31274000
161.39999059	0.00000000	88.54576000	36.31274000
161.59999058	0.00000000	88.54576000	36.31274000
161.79999056	0.00000000	88.54576000	36.31274000
161.99999055	0.00000000	88.54576000	36.31274000
162.19999054	0.00000000	88.54576000	36.31274000
162.39999053	0.00000000	88.54576000	36.31274000
162.59999052	0.00000000	88.54576000	36.35580000
162.79999051	0.00000000	88.54576000	36.68799000
162.99999049	0.00000000	88.50270000	37.05708000
163.19999048	0.00000000	88.12745000	36.68799000
163.39999047	0.00000000	87.34005000	36.35580000
163.59999046	0.00000000	86.63262000	36.31274000
163.79999045	0.00000000	86.22047000	36.31274000
163.99999043	0.00000000	86.63262000	36.31274000
164.19999042	0.00000000	87.34005000	36.31274000
164.39999041	0.00000000	88.12745000	36.31274000
164.59999040	0.00000000	88.50270000	36.31274000
164.79999039	0.00000000	88.54576000	36.31274000
164.99999037	0.00000000	88.54576000	36.31274000
165.19999036	0.00000000	88.54576000	36.31274000
165.39999035	0.00000000	88.54576000	36.31274000
165.59999034	0.00000000	88.54576000	36.31274000
165.79999033	0.00000000	88.50270000	36.31274000
165.99999032	0.00000000	88.12745000	36.31274000
166.19999030	0.00000000	87.38312000	36.31274000
166.39999029	0.00000000	87.00787000	36.31274000
166.59999028	0.00000000	86.96481000	36.31274000
166.79999027	0.00000000	87.00787000	36.31274000
166.99999026	0.00000000	87.38312000	36.31274000
167.19999024	0.00000000	88.12745000	36.31274000
167.39999023	0.00000000	88.50270000	36.31274000
167.59999022	0.00000000	88.54576000	36.31274000
167.79999021	0.00000000	88.54576000	36.31274000
167.99999020	0.00000000	88.54576000	36.31274000
168.19999018	0.00000000	88.54576000	36.31274000
168.39999017	0.00000000	88.54576000	36.31274000
168.59999016	0.00000000	88.54576000	36.31274000
168.79999015	0.00000000	88.54576000	36.31274000
168.99999014	0.00000000	88.54576000	36.31274000
169.19999013	0.00000000	88.50270000	36.31274000
169.39999011	0.00000000	88.17052000	36.31274000
169.59999010	0.00000000	87.80142000	36.31274000
169.79999009	0.00000000	88.17052000	36.31274000
169.99999008	0.00000000	88.50270000	36.31274000
170.19999007	0.00000000	88.54576000	36.31274000
170.39999005	0.00000000	88.54576000	36.31274000
170.59999004	0.00000000	88.54576000	36.31274000
170.79999003	0.00000000	88.54576000	36.31274000
170.99999002	0.00000000	88.54576000	36.31274000
171.19999001	0.00000000	88.54576000	36.31274000
171.39998999	0.00000000	88.54576000	36.31274000
171.59998998	0.00000000	88.54576000	36.31274000
171.79998997	0.00000000	88.54576000	36.31274000
171.99998996	0.00000000	88.54576000	36.31274000
172.19998995	0.00000000	88.54576000	36.31274000
172.39998994	0.00000000	88.54576000	36.31274000
172.59998992	0.00000000	88.54576000	36.31274000
172.79998991	0.00000000	88.54576000	36.31274000
172.99998990	0.00000000	88.54576000	36.31274000
173.19998989	0.00000000	88.54576000	36.35580000
173.39998988	0.00000000	88.54576000	36.68799000
173.59998986	0.00000000	88.54576000	37.05708000
173.79998985	0.00000000	88.54576000	36.68799000
173.99998984	0.00000000	88.54576000	36.35580000
174.19998983	0.00000000	88.54576000	36.31274000
174.39998982	0.00000000	88.54576000	36.31274000
174.59998980	0.00000000	88.54576000	36.31274000
174.79998979	0.00000000	88.54576000	36.31274000
174.99998978	0.00000000	88.54576000	36.31274000
175.19998977	0.00000000	88.54576000	36.31274000
175.39998976	0.00000000	88.54576000	36.31274000
175.59998975	0.00000000	88.54576000	36.31274000
175.79998973	0.00000000	88.54576000	36.31274000
175.99998972	0.00000000	88.54576000	36.31274000
176.19998971	0.00000000	88.54576000	36.31274000
176.39998970	0.00000000	88.54576000	36.31274000
176.59998969	0.00000000	88.54576000	36.31274000
176.79998967	0.00000000	88.54576000	36.31274000
176.99998966	0.00000000	88.54576000	36.31274000
177.19998965	0.00000000	88.54576000	36.31274000
177.39998964	0.00000000	88.54576000	36.31274000
177.59998963	0.00000000	88.50270000	36.31274000
177.79998961	0.00000000	88.17052000	36.31274000
177.99998960	0.00000000	87.80142000	36.31274000
178.19998959	0.00000000	88.17052000	36.31274000
178.39998958	0.00000000	88.50270000	36.31274000
178.59998957	0.00000000	88.54576000	36.31274000
178.79998956	0.00000000	88.54576000	36.31274000
178.99998954	0.00000000	88.54576000	36.31274000
179.19998953	0.00000000	88.54576000	36.31274000
179.39998952	0.00000000	88.54576000	36.31274000
179.59998951	0.00000000	88.54576000	36.31274000
179.79998950	0.00000000	88.54576000	36.31274000
179.99998948	0.00000000	88.50270000	36.31274000
180.19998947	0.00000000	88.17052000	36.31274000
180.39998946	0.00000000	87.75835000	36.31274000
180.59998945	0.00000000	87.79527000	36.31274000
180.79998944	0.00000000	87.75835000	36.31274000
180.99998942	0.00000000	88.17052000	36.31274000
181.19998941	0.00000000	88.50270000	36.31274000
181.39998940	0.00000000	88.50270000	36.31274000
181.59998939	0.00000000	88.17052000	36.31274000
181.79998938	0.00000000	87.80142000	36.31274000
181.99998937	0.00000000	88.17052000	36.31274000
182.19998935	0.00000000	88.50270000	36.31274000
182.39998934	0.00000000	88.54576000	36.31274000
182.59998933	0.00000000	88.54576000	36.31274000
182.79998932	0.00000000	88.54576000	36.31274000
182.99998931	0.00000000	88.54576000	36.31274000
183.19998929	0.00000000	88.54576000	36.26968000
183.39998928	0.00000000	88.50270000	35.93750000
183.59998927	0.00000000	88.17052000	35.57455000
183.79998926	0.00000000	87.80142000	35.93750000
183.99998925	0.00000000	88.12745000	36.26968000
184.19998923	0.00000000	88.07824000	36.31274000
184.39998922	0.00000000	87.43233000	36.31274000
184.59998921	0.00000000	87.38312000	36.35580000
184.79998920	0.00000000	87.75221000	36.68799000
184.99998919	0.00000000	87.75835000	37.05708000
185.19998918	0.00000000	88.17052000	36.68799000
185.39998916	0.00000000	88.50270000	36.35580000
185.59998915	0.00000000	88.54576000	36.31274000
185.79998914	0.00000000	88.54576000	36.31274000
185.99998913	0.00000000	88.54576000	36.31274000
186.19998912	0.00000000	88.54576000	36.31274000
186.39998910	0.00000000	88.54576000	36.31274000
186.59998909	0.00000000	88.54576000	36.31274000
186.79998908	0.00000000	88.54576000	36.31274000
186.99998907	0.00000000	88.54576000	36.35580000
187.19998906	0.00000000	88.50270000	36.73105000
187.39998904	0.00000000	88.17052000	37.47539000
187.59998903	0.00000000	87.80142000	37.85064000
187.79998902	0.00000000	88.17052000	37.89370000
187.99998901	0.00000000	88.50270000	37.89370000
188.19998900	0.00000000	88.54576000	37.89370000
188.39998899	0.00000000	88.54576000	37.85064000
188.59998897	0.00000000	88.54576000	37.47539000
188.79998896	0.00000000	88.54576000	36.73105000
188.99998895	0.00000000	88.54576000	36.35580000
189.19998894	0.00000000	88.54576000	36.31274000
189.39998893	0.00000000	88.54576000	36.31274000
189.59998891	0.00000000	88.54576000	36.31274000
189.79998890	0.00000000	88.54576000	36.31274000
189.99998889	0.00000000	88.54576000	36.35580000
190.19998888	0.00000000	88.54576000	36.73105000
190.39998887	0.00000000	88.54576000	37.47539000
190.59998885	0.00000000	88.54576000	37.85064000
190.79998884	0.00000000	88.54576000	37.85064000
190.99998883	0.00000000	88.54576000	37.47539000
191.19998882	0.00000000	88.54576000	36.73105000
191.39998881	0.00000000	88.54576000	36.35580000
191.59998880	0.00000000	88.54576000	36.35580000
191.79998878	0.00000000	88.54576000	36.68799000
191.99998877	0.00000000	88.54576000	37.00787000
192.19998876	0.00000000	88.54576000	36.31274000
192.39998875	0.00000000	88.50270000	35.61762000
192.59998874	0.00000000	88.12745000	35.93750000
192.79998872	0.00000000	87.38312000	36.26968000
192.99998871	0.00000000	87.00787000	36.31274000
193.19998870	0.00000000	86.96481000	36.31274000
193.39998869	0.00000000	86.96481000	36.31274000
193.59998868	0.00000000	86.96481000	36.31274000
193.79998866	0.00000000	87.00787000	36.31274000
193.99998865	0.00000000	87.38312000	36.31274000
194.19998864	0.00000000	88.12745000	36.31274000
194.39998863	0.00000000	88.50270000	36.31274000
194.59998862	0.00000000	88.54576000	36.31274000
194.79998861	0.00000000	88.54576000	36.31274000
194.99998859	0.00000000	88.54576000	36.31274000
195.19998858	0.00000000	88.50270000	36.31274000
195.39998857	0.00000000	88.12745000	36.31274000
195.59998856	0.00000000	87.38312000	36.31274000
195.79998855	0.00000000	87.00787000	36.31274000
195.99998853	0.00000000	86.96481000	36.31274000
