Time	Channel A	Channel B	Channel C
(us)	(V)	(mV)	(mV)

-4.59999956	0.00000000	90.12672000	38.26894000
-4.39999957	0.00000000	90.12672000	38.63804000
-4.19999958	0.00000000	90.12672000	38.26894000
-3.99999959	0.00000000	90.12672000	37.98597000
-3.79999960	0.00000000	90.12672000	38.31200000
-3.59999962	0.00000000	90.12672000	39.00713000
-3.39999963	0.00000000	90.12672000	39.00713000
-3.19999964	0.00000000	90.12672000	38.31200000
-2.99999965	0.00000000	90.12672000	37.93676000
-2.79999966	0.00000000	90.12672000	37.89370000
-2.59999968	0.00000000	90.12672000	37.89370000
-2.39999969	0.00000000	90.12672000	37.89370000
-2.19999970	0.00000000	90.12672000	37.89370000
-1.99999971	0.00000000	90.12672000	37.89370000
-1.79999972	0.00000000	90.12672000	37.89370000
-1.59999973	0.00000000	90.12672000	37.89370000
-1.39999975	0.00000000	90.12672000	37.89370000
-1.19999976	0.00000000	90.12672000	37.89370000
-0.99999977	0.00000000	90.12672000	37.89370000
-0.79999978	0.00000000	90.12672000	37.89370000
-0.59999979	0.00000000	90.12672000	37.89370000
-0.39999981	0.15871060	90.12672000	37.89370000
-0.19999982	0.47736220	90.12672000	37.89370000
0.00000017	0.79601380	90.12672000	37.89370000
0.20000016	0.95533960	90.12672000	37.89370000
0.40000015	0.95533960	90.12672000	37.89370000
0.60000013	0.63668800	90.12672000	37.89370000
0.80000012	0.00000000	90.12672000	37.89370000
1.00000011	-0.95533960	90.12672000	37.89370000
1.20000010	-1.91129400	90.12672000	37.89370000
1.40000009	-2.70792300	90.12672000	37.89370000
1.60000008	-2.70792300	90.12672000	37.89370000
1.80000006	-1.91129400	90.12672000	37.89370000
2.00000005	-0.47736220	90.12672000	37.89370000
2.20000004	1.59264300	90.12672000	37.89370000
2.40000003	3.66326300	90.12672000	37.89370000
2.60000002	5.09719500	90.12672000	37.85064000
2.80000000	5.25652100	90.12672000	37.47539000
2.99999999	3.98191400	90.12672000	36.73105000
3.19999998	1.43331700	90.08366000	36.35580000
3.39999997	-1.91129400	89.75147000	36.35580000
3.59999996	-5.09719500	89.38238000	36.73105000
3.79999994	-7.32714100	89.75147000	37.47539000
3.99999993	-7.96444400	90.08366000	37.85064000
4.19999992	-6.37180100	90.12672000	37.89370000
4.39999991	-3.02657500	90.12672000	37.89370000
4.59999990	1.27399100	90.12672000	37.89370000
4.79999989	5.41584600	90.12672000	37.89370000
4.99999987	8.44242100	90.12672000	37.89370000
5.19999986	9.39837600	90.12672000	37.85064000
5.39999985	7.96444400	90.12672000	37.47539000
5.59999984	4.45989200	90.12672000	36.78026000
5.79999983	-0.15871060	90.12672000	36.78026000
5.99999981	-4.77854300	90.12672000	37.47539000
6.19999980	-8.12377000	90.12672000	37.85064000
6.39999979	-9.55770200	90.12672000	37.93676000
6.59999978	-8.44242100	90.12672000	38.31200000
6.79999977	-5.41584600	90.12672000	39.05635000
6.99999975	-1.11466500	90.12672000	39.43159000
7.19999974	3.18590100	90.12672000	39.43159000
7.39999973	6.37180100	90.12672000	39.05635000
7.59999972	7.64579200	90.12672000	38.31200000
7.79999971	7.16781500	90.08366000	37.93676000
7.99999970	4.93786900	89.75147000	37.89370000
8.19999968	1.75196900	89.38238000	37.89370000
8.39999967	-1.59264300	89.75147000	37.89370000
8.59999966	-3.98191400	90.08366000	37.89370000
8.79999965	-5.09719500	90.12672000	37.93676000
8.99999964	-4.93786900	90.12672000	38.26894000
9.19999962	-3.50393700	90.12672000	38.63804000
9.39999961	-1.59264300	90.12672000	38.26894000
9.59999960	0.31803640	90.12672000	37.93676000
9.79999959	1.75196900	90.12672000	37.89370000
9.99999958	2.38927200	90.12672000	37.89370000
10.19999956	2.38927200	90.12672000	37.89370000
10.39999955	1.75196900	90.12672000	37.89370000
10.59999954	0.95533960	90.12672000	37.89370000
10.79999953	0.15871060	90.12672000	37.89370000
10.99999952	-0.47736220	90.12672000	37.89370000
11.19999951	-0.95533960	90.12672000	37.89370000
11.39999949	-0.95533960	90.12672000	37.89370000
11.59999948	-0.79601380	90.12672000	37.89370000
11.79999947	-0.63668800	90.12672000	37.89370000
11.99999946	-0.31803640	90.12672000	37.89370000
12.19999945	-0.15871060	90.12672000	37.89370000
12.39999943	-0.15871060	90.12672000	37.89370000
12.59999942	0.00000000	90.12672000	37.89370000
12.79999941	0.00000000	90.12672000	37.89370000
12.99999940	0.00000000	90.12672000	37.89370000
13.19999939	0.00000000	90.08366000	37.89370000
13.39999937	0.00000000	89.75147000	37.89370000
13.59999936	0.00000000	89.38238000	37.89370000
13.79999935	0.00000000	89.75147000	37.89370000
13.99999934	-0.15871060	90.08366000	37.89370000
14.19999933	-0.15871060	90.12672000	37.89370000
14.39999932	-0.15871060	90.12672000	37.89370000
14.59999930	0.00000000	90.12672000	37.89370000
14.79999929	0.00000000	90.12672000	37.89370000
14.99999928	0.00000000	90.12672000	37.89370000
15.19999927	0.00000000	90.12672000	37.89370000
15.39999926	0.00000000	90.12672000	37.89370000
15.59999924	0.00000000	90.12672000	37.89370000
15.79999923	0.00000000	90.12672000	37.89370000
15.99999922	0.00000000	90.12672000	37.89370000
16.19999921	0.00000000	90.12672000	37.89370000
16.39999920	-0.15871060	90.12672000	37.89370000
16.59999919	0.00000000	90.12672000	37.89370000
16.79999917	-0.15871060	90.16978000	37.89370000
16.99999916	0.00000000	90.54502000	37.89370000
17.19999915	0.00000000	91.28937000	37.89370000
17.39999914	0.00000000	91.66460000	37.89370000
17.59999913	0.00000000	91.70767000	37.89370000
17.79999911	0.00000000	91.66460000	37.89370000
17.99999910	0.00000000	91.24016000	37.89370000
18.19999909	0.00000000	90.08366000	37.89370000
18.39999908	0.00000000	88.54576000	37.89370000
18.59999907	0.00000000	86.96481000	37.89370000
18.79999905	0.00000000	85.47613000	37.89370000
18.99999904	0.00000000	84.73178000	37.89370000
19.19999903	0.00000000	85.51919000	37.89370000
19.39999902	0.00000000	87.47539000	37.89370000
19.59999901	0.00000000	90.59423000	37.89370000
19.79999900	0.00000000	94.45127000	37.89370000
19.99999898	0.00000000	97.94537000	37.89370000
20.19999897	0.00000000	100.59670000	37.89370000
20.39999896	0.00000000	101.29180000	37.89370000
20.59999895	0.00000000	98.92347000	37.89370000
20.79999894	0.00000000	93.89764000	37.89370000
20.99999892	0.00000000	86.87254000	37.89370000
21.19999891	0.00000000	79.19537000	37.89370000
21.39999890	0.00000000	72.63779000	37.89370000
21.59999889	0.00000000	69.23597000	37.89370000
21.79999888	0.00000000	70.07874000	37.89370000
21.99999886	0.00000000	75.97810000	37.89370000
22.19999885	0.00000000	86.40501000	37.89370000
22.39999884	0.00000000	99.15108000	37.89370000
22.59999883	0.00000000	111.10970000	37.89370000
22.79999882	0.00000000	119.58050000	37.89370000
22.99999881	0.00000000	122.13950000	37.89370000
23.19999879	0.00000000	117.07060000	37.93676000
23.39999878	0.00000000	104.69980000	38.31200000
23.59999877	0.00000000	88.03519000	39.05635000
23.79999876	0.00000000	70.26328000	39.43159000
23.99999875	0.00000000	55.28420000	39.47465000
24.19999873	0.00000000	47.64394000	39.43159000
24.39999872	0.00000000	49.60014000	39.00713000
24.59999871	0.00000000	61.23277000	37.85064000
24.79999870	0.00000000	80.16732000	36.31274000
24.99999869	0.00000000	102.22690000	34.73794000
25.19999867	0.00000000	122.65010000	33.24926000
25.39999866	0.00000000	136.51570000	32.50492000
25.59999865	0.00000000	139.96680000	33.29232000
25.79999864	0.00000000	132.19120000	35.24852000
25.99999863	0.00000000	114.37010000	38.36122000
26.19999862	0.00000000	90.08366000	42.21210000
26.39999860	0.00000000	65.37278000	45.65698000
26.59999859	0.00000000	46.10605000	48.01919000
26.79999858	0.00000000	36.81102000	48.72662000
26.99999857	0.00000000	39.87451000	47.46555000
27.19999856	0.00000000	53.78937000	43.14714000
27.39999854	0.00000000	75.79970000	36.22662000
27.59999853	0.00000000	100.87350000	28.55561000
27.79999852	0.00000000	122.51480000	21.96112000
27.99999851	0.00000000	136.51570000	18.14714000
28.19999850	0.00000000	140.00980000	17.82111000
28.39999848	0.00000000	132.70180000	22.18873000
28.59999847	0.00000000	116.46160000	31.06545000
28.79999846	0.00000000	94.86958000	42.63041000
28.99999845	0.00000000	73.23450000	54.20152000
29.19999844	0.00000000	56.53297000	63.07824000
29.39999843	0.00000000	47.60088000	67.26131000
29.59999841	0.00000000	47.97613000	65.26205000
29.79999840	0.00000000	57.56028000	56.71751000
29.99999839	0.00000000	73.33292000	43.19020000
30.19999838	0.00000000	91.15402000	27.34990000
30.39999837	0.00000000	107.48650000	12.75836000
30.59999835	0.00000000	119.48820000	3.10039400
30.79999834	0.00000000	124.92620000	0.81815940
30.99999833	0.00000000	122.65010000	6.21309000
31.19999832	0.00000000	113.81030000	18.60851000
31.39999831	0.00000000	100.64590000	35.19931000
31.59999829	0.00000000	85.93749000	52.62057000
31.79999828	0.00000000	72.81618000	67.26131000
31.99999827	0.00000000	64.25935000	75.76279000
32.19999826	0.00000000	61.87869000	76.13804000
32.39999825	0.00000000	65.32972000	68.42396000
32.59999824	0.00000000	73.80044000	54.10925000
32.79999822	0.00000000	85.00861000	36.40502000
32.99999821	0.00000000	96.22908000	19.35900000
33.19999820	0.00000000	105.53030000	6.53297200
33.39999819	0.00000000	110.55610000	-0.43061020
33.59999818	0.00000000	110.60530000	0.03075787
33.79999816	0.00000000	105.99160000	8.53223400
33.99999815	0.00000000	97.94537000	23.16683000
34.19999814	0.00000000	89.05634000	40.50196000
34.39999813	0.00000000	81.28690000	56.34227000
34.59999812	0.00000000	75.89198000	67.21825000
34.79999810	0.00000000	74.35408000	71.48744000
34.99999809	0.00000000	77.00541000	68.42396000
35.19999808	0.00000000	82.73252000	58.80290000
35.39999807	0.00000000	89.65919000	45.28174000
35.59999806	0.00000000	95.81078000	30.59793000
35.79999805	0.00000000	99.71087000	17.91339000
35.99999803	0.00000000	100.51060000	10.57456000
36.19999802	0.00000000	98.59743000	10.10704000
36.39999801	0.00000000	94.35899000	15.87106000
36.59999800	0.00000000	88.96407000	26.27953000
36.79999799	0.00000000	83.98129000	38.96407000
36.99999797	0.00000000	80.54256000	50.48597000
37.19999796	0.00000000	80.16732000	57.78789000
37.39999795	0.00000000	82.77559000	58.99360000
37.59999794	0.00000000	87.00787000	54.06619000
37.79999793	0.00000000	91.66460000	45.23868000
37.99999791	0.00000000	95.93995000	34.91634000
38.19999790	0.00000000	98.96652000	26.09498000
38.39999789	0.00000000	99.76008000	21.85654000
38.59999788	0.00000000	97.85310000	22.56398000
38.79999787	0.00000000	94.40206000	27.99582000
38.99999786	0.00000000	90.08366000	36.73105000
39.19999784	0.00000000	85.47613000	45.92765000
39.39999783	0.00000000	81.66215000	52.44217000
39.59999782	0.00000000	80.08120000	54.76132000
39.79999781	0.00000000	80.77632000	52.02386000
39.99999780	0.00000000	82.73252000	44.77116000
40.19999778	0.00000000	85.85137000	35.20546000
40.39999777	0.00000000	89.70841000	26.37180000
40.59999776	0.00000000	93.24557000	20.60777000
40.79999775	0.00000000	96.35826000	19.49434000
40.99999774	0.00000000	98.64050000	23.72047000
41.19999772	0.00000000	99.05880000	32.12967000
41.39999771	0.00000000	97.89616000	42.11983000
41.59999770	0.00000000	95.52164000	50.95349000
41.79999769	0.00000000	91.66460000	56.34227000
41.99999768	0.00000000	87.47539000	56.76057000
42.19999767	0.00000000	84.35654000	52.57751000
42.39999765	0.00000000	82.73252000	45.23868000
42.59999764	0.00000000	82.35728000	36.40502000
42.79999763	0.00000000	83.15083000	28.32185000
42.99999762	0.00000000	85.47613000	23.30216000
43.19999761	0.00000000	88.50270000	22.09646000
43.39999759	0.00000000	91.24016000	24.79084000
43.59999758	0.00000000	93.19635000	30.51181000
43.79999757	0.00000000	94.35899000	37.38312000
43.99999756	0.00000000	94.40206000	43.23941000
44.19999755	0.00000000	93.66387000	47.14566000
44.39999753	0.00000000	92.91338000	49.04650000
44.59999752	0.00000000	92.12598000	47.88385000
44.79999751	0.00000000	91.75073000	44.16830000
44.99999750	0.00000000	91.70767000	39.93602000
45.19999749	0.00000000	91.66460000	36.36196000
45.39999748	0.00000000	91.19709000	33.24926000
45.59999746	0.00000000	89.61613000	31.01624000
45.79999745	0.00000000	86.92175000	30.97318000
45.99999744	0.00000000	83.84596000	32.83095000
46.19999743	0.00000000	81.15157000	35.11319000
46.39999742	0.00000000	79.65674000	37.51845000
46.59999740	0.00000000	80.08120000	39.80069000
46.79999739	0.00000000	82.81864000	41.75073000
46.99999738	0.00000000	87.47539000	42.49508000
47.19999737	0.00000000	93.33169000	42.11983000
47.39999736	0.00000000	99.43405000	40.54502000
47.59999734	0.00000000	104.03540000	37.89370000
47.79999733	0.00000000	105.16120000	35.19931000
47.99999732	0.00000000	102.82970000	33.24926000
48.19999731	0.00000000	96.96727000	32.08661000
48.39999730	0.00000000	88.54576000	32.08661000
48.59999729	0.00000000	80.08120000	33.24926000
48.79999727	0.00000000	73.89271000	35.24852000
48.99999726	0.00000000	71.14911000	38.31200000
49.19999725	0.00000000	72.35482000	41.75073000
49.39999724	0.00000000	77.47293000	44.03297000
49.59999723	0.00000000	86.31274000	44.82037000
49.79999721	0.00000000	96.64124000	43.65773000
49.99999720	0.00000000	104.69980000	40.96333000
50.19999719	0.00000000	108.64910000	37.47539000
50.39999718	0.00000000	107.86170000	33.62450000
50.59999717	0.00000000	102.82970000	30.55487000
50.79999715	0.00000000	94.35899000	29.01698000
50.99999714	0.00000000	84.77485000	29.39222000
51.19999713	0.00000000	77.05462000	31.71137000
51.39999712	0.00000000	72.77312000	35.19931000
51.59999711	0.00000000	72.77312000	39.43159000
51.79999710	0.00000000	77.00541000	43.28247000
51.99999708	0.00000000	84.31348000	45.56471000
52.19999707	0.00000000	92.77805000	46.01993000
52.39999706	0.00000000	100.04310000	44.45127000
52.59999705	0.00000000	103.90620000	41.75073000
52.79999704	0.00000000	103.16190000	37.89370000
52.99999702	0.00000000	98.59743000	34.08588000
53.19999701	0.00000000	91.70767000	31.75443000
53.39999700	0.00000000	84.77485000	30.93012000
53.59999699	0.00000000	79.74902000	31.75443000
53.79999698	0.00000000	77.42986000	33.99360000
53.99999696	0.00000000	78.63557000	37.10014000
54.19999695	0.00000000	83.19389000	39.75763000
54.39999694	0.00000000	89.70841000	41.70152000
54.59999693	0.00000000	95.85383000	42.03371000
54.79999692	0.00000000	100.08610000	40.58809000
54.99999691	0.00000000	101.24880000	38.31200000
55.19999689	0.00000000	98.97268000	36.40502000
55.39999688	0.00000000	94.40206000	35.24852000
55.59999687	0.00000000	88.96407000	35.24852000
55.79999686	0.00000000	83.98129000	36.40502000
55.99999685	0.00000000	80.54256000	38.31200000
56.19999683	0.00000000	80.12425000	40.58809000
56.39999682	0.00000000	82.35728000	42.07677000
56.59999681	0.00000000	85.85137000	42.07677000
56.79999680	0.00000000	90.12672000	40.50196000
56.99999679	0.00000000	94.31594000	37.43233000
57.19999677	0.00000000	97.01033000	33.62450000
57.39999676	0.00000000	97.43479000	30.59793000
57.59999675	0.00000000	95.93995000	29.44143000
57.79999674	0.00000000	93.19635000	30.64099000
57.99999673	0.00000000	89.75147000	34.08588000
58.19999672	0.00000000	86.31274000	39.09941000
58.39999670	0.00000000	84.39960000	44.11909000
58.59999669	0.00000000	84.31348000	48.35138000
58.79999668	0.00000000	85.47613000	50.57824000
58.99999667	0.00000000	87.38312000	49.37254000
59.19999666	0.00000000	89.70841000	44.77116000
59.39999664	0.00000000	91.61539000	37.89370000
59.59999663	0.00000000	92.77805000	30.97318000
59.79999662	0.00000000	92.77805000	25.90428000
59.99999661	0.00000000	91.70767000	23.25910000
60.19999660	0.00000000	90.54502000	24.09572000
60.39999658	0.00000000	89.75147000	29.06004000
60.59999657	0.00000000	88.96407000	36.31274000
60.79999656	0.00000000	88.58882000	43.70079000
60.99999655	0.00000000	88.58882000	49.84006000
61.19999654	0.00000000	89.01328000	53.32185000
61.39999653	0.00000000	90.12672000	52.90969000
61.59999651	0.00000000	91.19709000	49.04650000
61.79999650	0.00000000	91.19709000	42.07677000
61.99999649	0.00000000	90.08366000	33.66756000
62.19999648	0.00000000	88.58882000	26.32874000
62.39999647	0.00000000	87.43233000	21.72736000
62.59999645	0.00000000	87.00787000	20.93996000
62.79999644	0.00000000	87.00787000	24.37254000
62.99999643	0.00000000	87.43233000	30.51181000
63.19999642	0.00000000	88.58882000	37.89370000
63.39999641	0.00000000	90.12672000	45.18947000
63.59999639	0.00000000	91.66460000	50.57824000
63.79999638	0.00000000	92.82111000	52.52829000
63.99999637	0.00000000	93.19635000	51.03962000
64.19999636	0.00000000	92.82111000	46.77042000
64.39999635	0.00000000	91.61539000	40.63730000
64.59999634	0.00000000	89.75147000	34.04282000
64.79999632	0.00000000	87.80142000	28.64788000
64.99999631	0.00000000	86.68184000	25.12303000
65.19999630	0.00000000	86.22047000	24.37254000
65.39999629	0.00000000	86.68184000	26.23647000
65.59999628	0.00000000	87.75835000	30.13656000
65.79999626	0.00000000	89.33316000	35.11319000
65.99999625	0.00000000	90.45890000	40.16978000
66.19999624	0.00000000	91.24016000	44.03297000
66.39999623	0.00000000	91.19709000	46.43824000
66.59999622	0.00000000	90.08366000	47.23179000
66.79999620	0.00000000	88.58882000	46.85654000
66.99999619	0.00000000	87.38312000	45.28174000
67.19999618	0.00000000	86.68184000	42.58735000
67.39999617	0.00000000	86.68798000	39.42544000
67.59999616	0.00000000	88.26279000	35.93750000
67.79999615	0.00000000	90.50197000	32.46186000
67.99999613	0.00000000	92.87032000	30.08735000
68.19999612	0.00000000	94.73425000	28.51255000
68.39999611	0.00000000	95.47859000	27.81127000
68.59999610	0.00000000	94.31594000	29.01698000
68.79999609	0.00000000	91.61539000	32.08661000
68.99999607	0.00000000	88.12745000	36.31274000
69.19999606	0.00000000	84.27042000	40.58809000
69.39999605	0.00000000	81.23769000	44.11909000
69.59999604	0.00000000	80.08120000	46.85654000
69.79999603	0.00000000	81.28690000	48.30216000
69.99999601	0.00000000	84.73178000	47.50861000
70.19999600	0.00000000	89.79453000	44.07603000
70.39999599	0.00000000	95.15871000	39.47465000
70.59999598	0.00000000	99.80315000	34.78100000
70.79999597	0.00000000	102.09150000	30.51181000
70.99999596	0.00000000	101.71630000	27.48524000
71.19999594	0.00000000	98.59743000	26.69783000
71.39999593	0.00000000	93.19635000	28.64173000
71.59999592	0.00000000	87.05708000	32.46186000
71.79999591	0.00000000	81.61294000	37.47539000
71.99999590	0.00000000	78.12499000	42.07677000
72.19999588	0.00000000	76.96235000	45.18947000
72.39999587	0.00000000	78.54330000	46.39517000
72.59999586	0.00000000	82.77559000	45.61392000
72.79999585	0.00000000	88.54576000	43.37475000
72.99999584	0.00000000	94.35899000	40.31127000
73.19999582	0.00000000	99.01575000	37.98597000
73.39999581	0.00000000	101.71630000	36.36196000
73.59999580	0.00000000	101.66710000	35.24852000
73.79999579	0.00000000	98.64050000	35.24852000
73.99999578	0.00000000	93.66387000	36.31274000
74.19999577	0.00000000	88.63803000	37.47539000
74.39999575	0.00000000	84.35654000	38.22588000
74.59999574	0.00000000	81.61294000	38.58883000
74.79999573	0.00000000	80.81939000	37.80142000
74.99999572	0.00000000	81.61294000	36.36196000
75.19999571	0.00000000	84.31348000	35.19931000
75.39999569	0.00000000	88.12745000	34.87328000
75.59999568	0.00000000	91.61539000	35.66683000
75.79999567	0.00000000	94.31594000	37.94291000
75.99999566	0.00000000	95.47859000	40.63730000
76.19999565	0.00000000	94.77731000	42.96260000
76.39999563	0.00000000	93.28863000	44.86343000
76.59999562	0.00000000	91.70767000	45.14640000
76.79999561	0.00000000	90.16978000	43.23941000
76.99999560	0.00000000	89.01328000	39.38238000
77.19999559	0.00000000	88.54576000	34.73794000
77.39999558	0.00000000	88.17052000	30.13656000
77.59999556	0.00000000	87.80142000	26.70398000
77.79999555	0.00000000	88.17052000	25.90428000
77.99999554	0.00000000	88.45349000	27.44217000
78.19999553	0.00000000	88.12745000	30.97318000
78.39999552	0.00000000	87.38312000	36.36196000
78.59999550	0.00000000	87.00787000	42.11983000
78.79999549	0.00000000	87.00787000	46.72736000
78.99999548	0.00000000	87.47539000	49.04650000
79.19999547	0.00000000	89.01328000	48.30832000
79.39999546	0.00000000	91.28937000	45.28174000
79.59999544	0.00000000	93.19635000	40.96333000
79.79999543	0.00000000	94.40206000	35.94365000
79.99999542	0.00000000	94.69118000	30.93012000
80.19999541	0.00000000	93.56544000	27.48524000
80.39999540	0.00000000	90.87720000	26.27953000
80.59999539	0.00000000	88.21358000	27.39296000
80.79999537	0.00000000	85.80216000	30.08735000
80.99999536	0.00000000	83.93823000	33.57529000
81.19999535	0.00000000	83.19389000	37.47539000
81.39999534	0.00000000	84.35654000	40.96333000
81.59999533	0.00000000	87.00787000	43.70079000
81.79999531	0.00000000	90.08366000	45.23868000
81.99999530	0.00000000	92.77805000	45.28174000
82.19999529	0.00000000	94.31594000	44.11909000
82.39999528	0.00000000	94.35899000	42.16904000
82.59999527	0.00000000	93.24557000	39.42544000
82.79999525	0.00000000	91.66460000	36.36196000
82.99999524	0.00000000	89.70841000	33.61835000
83.19999523	0.00000000	87.43233000	31.66830000
83.39999522	0.00000000	85.93749000	30.46260000
83.59999521	0.00000000	85.85137000	30.13656000
83.79999520	0.00000000	86.58956000	30.93012000
83.99999518	0.00000000	87.38312000	33.24926000
84.19999517	0.00000000	88.58882000	36.36196000
84.39999516	0.00000000	90.08366000	39.84990000
84.59999515	0.00000000	91.19709000	43.32554000
84.79999514	0.00000000	91.24016000	45.61392000
84.99999512	0.00000000	90.54502000	46.39517000
85.19999511	0.00000000	90.16978000	45.23868000
85.39999510	0.00000000	90.12672000	42.54429000
85.59999509	0.00000000	90.12672000	39.00713000
85.79999508	0.00000000	90.12672000	34.73794000
85.99999506	0.00000000	90.12672000	30.55487000
86.19999505	0.00000000	90.12672000	27.90354000
86.39999504	0.00000000	90.08366000	27.86048000
86.59999503	0.00000000	89.65919000	30.17962000
86.79999502	0.00000000	88.54576000	33.99360000
86.99999501	0.00000000	87.43233000	38.68110000
87.19999499	0.00000000	87.00787000	42.91338000
87.39999498	0.00000000	87.00787000	46.39517000
87.59999497	0.00000000	87.43233000	47.84079000
87.79999496	0.00000000	88.58882000	46.35211000
87.99999495	0.00000000	90.08366000	42.53814000
88.19999493	0.00000000	91.28937000	37.89370000
88.39999492	0.00000000	92.03986000	33.24926000
88.59999491	0.00000000	92.45201000	29.43528000
88.79999490	0.00000000	92.03986000	27.90354000
88.99999489	0.00000000	91.28937000	29.01698000
89.19999487	0.00000000	90.08366000	32.12967000
89.39999486	0.00000000	88.54576000	36.73105000
89.59999485	0.00000000	87.05708000	41.70152000
89.79999484	0.00000000	86.26968000	45.14640000
89.99999483	0.00000000	86.68184000	46.35211000
90.19999482	0.00000000	87.75835000	45.18947000
90.39999480	0.00000000	89.29010000	42.11983000
90.59999479	0.00000000	90.08366000	37.85064000
90.79999478	0.00000000	90.54502000	33.24926000
90.99999477	0.00000000	91.24016000	29.43528000
91.19999476	0.00000000	91.24016000	27.94660000
91.39999474	0.00000000	90.50197000	29.43528000
91.59999473	0.00000000	89.79453000	33.24926000
91.79999472	0.00000000	89.38238000	37.85064000
91.99999471	0.00000000	89.75147000	42.11983000
92.19999470	0.00000000	90.08366000	45.18947000
92.39999468	0.00000000	90.08366000	46.30905000
92.59999467	0.00000000	89.70841000	44.77116000
92.79999466	0.00000000	88.92101000	40.92027000
92.99999465	0.00000000	88.17052000	35.98671000
93.19999464	0.00000000	87.34005000	31.34842000
93.39999463	0.00000000	86.63262000	28.69094000
93.59999461	0.00000000	86.22047000	28.27879000
93.79999460	0.00000000	86.68184000	30.59793000
93.99999459	0.00000000	87.80142000	34.73794000
94.19999458	0.00000000	89.75147000	39.00713000
94.39999457	0.00000000	91.66460000	42.49508000
94.59999455	0.00000000	93.24557000	44.77116000
94.79999454	0.00000000	94.35899000	44.77116000
94.99999453	0.00000000	94.31594000	42.45201000
95.19999452	0.00000000	92.77805000	38.63804000
95.39999451	0.00000000	90.12672000	34.04282000
95.59999449	0.00000000	87.38312000	30.64099000
95.79999448	0.00000000	85.00861000	29.44143000
95.99999447	0.00000000	82.73252000	30.55487000
96.19999446	0.00000000	81.66215000	33.20005000
96.39999445	0.00000000	82.77559000	36.31274000
96.59999444	0.00000000	85.47613000	39.42544000
96.79999442	0.00000000	88.96407000	42.07677000
96.99999441	0.00000000	92.82111000	43.23941000
97.19999440	0.00000000	95.89690000	42.49508000
97.39999439	0.00000000	97.47784000	40.58809000
97.59999438	0.00000000	97.47784000	37.89370000
97.79999436	0.00000000	95.89690000	35.24852000
97.99999435	0.00000000	92.82111000	33.71063000
98.19999434	0.00000000	88.96407000	33.62450000
98.39999433	0.00000000	85.47613000	34.36269000
98.59999432	0.00000000	82.73252000	35.15625000
98.79999430	0.00000000	81.19463000	36.31274000
98.99999429	0.00000000	81.23769000	37.42618000
99.19999428	0.00000000	83.19389000	37.85064000
99.39999427	0.00000000	86.96481000	37.89370000
99.59999426	0.00000000	90.82184000	37.89370000
99.79999425	0.00000000	93.62081000	37.93676000
99.99999423	0.00000000	95.93995000	38.31200000
100.19999422	0.00000000	97.05954000	39.05635000
100.39999421	0.00000000	96.31520000	39.43159000
100.59999420	0.00000000	94.40206000	39.47465000
100.79999419	0.00000000	91.66460000	39.43159000
100.99999417	0.00000000	88.58882000	39.00713000
101.19999416	0.00000000	85.85137000	37.80142000
101.39999415	0.00000000	83.89517000	35.93750000
101.59999414	0.00000000	82.73252000	34.03666000
101.79999413	0.00000000	82.77559000	33.29232000
101.99999411	0.00000000	84.31348000	33.62450000
102.19999410	0.00000000	86.96481000	34.87328000
102.39999409	0.00000000	89.65919000	37.15551000
102.59999408	0.00000000	91.66460000	40.21284000
102.79999407	0.00000000	93.24557000	42.49508000
102.99999406	0.00000000	94.35899000	43.70079000
103.19999404	0.00000000	94.35899000	43.65773000
103.39999403	0.00000000	93.19635000	42.11983000
103.59999402	0.00000000	91.28937000	39.42544000
103.79999401	0.00000000	88.96407000	36.36196000
103.99999400	0.00000000	87.05708000	33.61835000
104.19999398	0.00000000	85.85137000	31.71137000
104.39999397	0.00000000	85.47613000	30.97318000
104.59999396	0.00000000	85.85137000	32.12967000
104.79999395	0.00000000	87.00787000	34.78100000
104.99999394	0.00000000	88.54576000	37.85064000
105.19999392	0.00000000	90.08366000	40.58809000
105.39999391	0.00000000	91.24016000	42.49508000
105.59999390	0.00000000	91.66460000	43.28247000
105.79999389	0.00000000	91.66460000	42.45201000
105.99999388	0.00000000	91.24016000	40.26205000
106.19999387	0.00000000	90.08366000	37.52460000
106.39999385	0.00000000	88.58882000	35.61146000
106.59999384	0.00000000	87.47539000	34.03666000
106.79999383	0.00000000	87.43233000	33.71063000
106.99999382	0.00000000	88.17052000	34.78100000
107.19999381	0.00000000	88.96407000	36.31274000
107.39999379	0.00000000	90.12672000	37.89370000
107.59999378	0.00000000	91.24016000	39.43159000
107.79999377	0.00000000	91.61539000	40.54502000
107.99999376	0.00000000	91.24016000	40.54502000
108.19999375	0.00000000	90.08366000	39.43159000
108.39999374	0.00000000	88.58882000	37.89370000
108.59999372	0.00000000	87.43233000	36.31274000
108.79999371	0.00000000	87.00787000	34.82406000
108.99999370	0.00000000	87.00787000	34.04282000
109.19999369	0.00000000	87.38312000	34.40575000
109.39999368	0.00000000	88.17052000	35.19931000
109.59999366	0.00000000	88.96407000	36.73105000
109.79999365	0.00000000	90.12672000	38.63804000
109.99999364	0.00000000	91.24016000	39.75763000
110.19999363	0.00000000	91.61539000	40.21899000
110.39999362	0.00000000	91.24016000	39.75763000
110.59999360	0.00000000	90.12672000	38.63804000
110.79999359	0.00000000	88.96407000	36.73105000
110.99999358	0.00000000	88.17052000	35.24852000
111.19999357	0.00000000	87.38312000	34.78100000
111.39999356	0.00000000	87.00787000	34.73794000
111.59999355	0.00000000	87.05708000	34.78100000
111.79999353	0.00000000	87.75835000	35.15625000
111.99999352	0.00000000	88.91486000	35.93750000
112.19999351	0.00000000	89.29626000	36.68799000
112.39999350	0.00000000	89.75147000	37.47539000
112.59999349	0.00000000	90.08366000	37.85064000
112.79999347	0.00000000	90.12672000	37.89370000
112.99999346	0.00000000	90.08366000	37.89370000
113.19999345	0.00000000	89.70841000	37.89370000
113.39999344	0.00000000	88.96407000	37.85064000
113.59999343	0.00000000	88.58882000	37.47539000
113.79999341	0.00000000	88.54576000	36.73105000
113.99999340	0.00000000	88.54576000	36.35580000
114.19999339	0.00000000	88.54576000	36.31274000
114.39999338	0.00000000	88.58882000	36.31274000
114.59999337	0.00000000	88.96407000	36.31274000
114.79999336	0.00000000	89.70841000	36.31274000
114.99999334	0.00000000	90.08366000	36.31274000
115.19999333	0.00000000	90.12672000	36.31274000
115.39999332	0.00000000	90.12672000	36.35580000
115.59999331	0.00000000	90.12672000	36.73105000
115.79999330	0.00000000	90.08366000	37.51845000
115.99999328	0.00000000	89.70841000	38.26894000
116.19999327	0.00000000	88.96407000	39.05635000
116.39999326	0.00000000	88.58882000	39.43159000
116.59999325	0.00000000	88.54576000	39.47465000
116.79999324	0.00000000	88.58882000	39.47465000
116.99999322	0.00000000	88.96407000	39.38238000
117.19999321	0.00000000	89.70841000	38.63804000
117.39999320	0.00000000	90.08366000	37.10630000
117.59999319	0.00000000	90.16978000	35.98671000
117.79999318	0.00000000	90.54502000	35.15625000
117.99999317	0.00000000	91.24016000	34.78100000
118.19999315	0.00000000	91.24016000	34.78100000
118.39999314	0.00000000	90.50197000	35.19931000
118.59999313	0.00000000	89.70841000	36.31274000
118.79999312	0.00000000	88.54576000	37.47539000
118.99999311	0.00000000	87.43233000	38.26894000
119.19999309	0.00000000	87.00787000	39.05635000
119.39999308	0.00000000	86.96481000	39.38238000
119.59999307	0.00000000	87.00787000	39.05635000
119.79999306	0.00000000	87.43233000	38.31200000
119.99999305	0.00000000	88.58882000	37.93676000
120.19999303	0.00000000	90.08366000	37.85064000
120.39999302	0.00000000	91.24016000	37.47539000
120.59999301	0.00000000	91.66460000	36.73105000
120.79999300	0.00000000	91.70767000	36.35580000
120.99999299	0.00000000	91.66460000	36.31274000
121.19999298	0.00000000	91.24016000	36.31274000
121.39999296	0.00000000	90.08366000	36.31274000
121.59999295	0.00000000	88.58882000	36.35580000
121.79999294	0.00000000	87.43233000	36.73105000
121.99999293	0.00000000	87.00787000	37.47539000
122.19999292	0.00000000	87.00787000	37.85064000
122.39999290	0.00000000	87.38312000	37.89370000
122.59999289	0.00000000	88.17052000	37.93676000
122.79999288	0.00000000	88.96407000	38.31200000
122.99999287	0.00000000	90.12672000	39.00713000
123.19999286	0.00000000	91.24016000	39.00713000
123.39999284	0.00000000	91.66460000	38.26894000
123.59999283	0.00000000	91.70767000	37.51845000
123.79999282	0.00000000	91.66460000	36.73105000
123.99999281	0.00000000	91.28937000	36.35580000
124.19999280	0.00000000	90.50197000	36.31274000
124.39999279	0.00000000	89.75147000	36.31274000
124.59999277	0.00000000	88.92101000	36.31274000
124.79999276	0.00000000	88.17052000	36.35580000
124.99999275	0.00000000	87.38312000	36.68799000
125.19999274	0.00000000	87.00787000	37.10014000
125.39999273	0.00000000	87.00787000	37.10630000
125.59999271	0.00000000	87.38312000	37.51845000
125.79999270	0.00000000	88.17052000	37.85064000
125.99999269	0.00000000	88.96407000	37.89370000
126.19999268	0.00000000	90.12672000	37.89370000
126.39999267	0.00000000	91.24016000	37.89370000
126.59999265	0.00000000	91.61539000	37.85064000
126.79999264	0.00000000	91.28937000	37.47539000
126.99999263	0.00000000	90.50197000	36.73105000
127.19999262	0.00000000	89.70841000	36.35580000
127.39999261	0.00000000	88.54576000	36.26968000
127.59999260	0.00000000	87.43233000	35.93750000
127.79999258	0.00000000	87.00787000	35.57455000
127.99999257	0.00000000	86.96481000	35.93750000
128.19999256	0.00000000	87.00787000	36.26968000
128.39999255	0.00000000	87.43233000	36.35580000
128.59999254	0.00000000	88.54576000	36.73105000
128.79999252	0.00000000	89.70841000	37.47539000
128.99999251	0.00000000	90.50197000	37.80142000
129.19999250	0.00000000	91.24016000	37.47539000
129.39999249	0.00000000	91.19709000	36.73105000
129.59999248	0.00000000	90.12672000	36.35580000
129.79999246	0.00000000	88.96407000	36.31274000
129.99999245	0.00000000	88.17052000	36.31274000
130.19999244	0.00000000	87.38312000	36.31274000
130.39999243	0.00000000	87.05708000	36.35580000
130.59999242	0.00000000	87.38312000	36.73105000
130.79999241	0.00000000	88.17052000	37.47539000
130.99999239	0.00000000	88.92101000	37.85064000
131.19999238	0.00000000	89.70841000	37.89370000
131.39999237	0.00000000	90.08366000	37.85064000
131.59999236	0.00000000	90.12672000	37.47539000
131.79999235	0.00000000	90.08366000	36.73105000
131.99999233	0.00000000	89.70841000	36.35580000
132.19999232	0.00000000	88.96407000	36.31274000
132.39999231	0.00000000	88.58882000	36.31274000
132.59999230	0.00000000	88.54576000	36.35580000
132.79999229	0.00000000	88.54576000	36.73105000
132.99999227	0.00000000	88.54576000	37.51845000
133.19999226	0.00000000	88.54576000	38.26894000
133.39999225	0.00000000	88.58882000	39.05635000
133.59999224	0.00000000	88.92101000	39.43159000
133.79999223	0.00000000	89.29010000	39.43159000
133.99999222	0.00000000	88.92101000	39.05635000
134.19999220	0.00000000	88.58882000	38.26894000
134.39999219	0.00000000	88.54576000	37.51845000
134.59999218	0.00000000	88.54576000	36.68799000
134.79999217	0.00000000	88.58882000	35.98671000
134.99999216	0.00000000	88.96407000	35.57455000
135.19999214	0.00000000	89.70841000	35.93750000
135.39999213	0.00000000	90.08366000	36.31274000
135.59999212	0.00000000	90.12672000	36.73105000
135.79999211	0.00000000	90.08366000	37.47539000
135.99999210	0.00000000	89.70841000	37.89370000
136.19999208	0.00000000	88.92101000	38.26894000
136.39999207	0.00000000	88.17052000	38.63804000
136.59999206	0.00000000	87.43233000	38.26894000
136.79999205	0.00000000	87.43233000	37.93676000
136.99999204	0.00000000	88.12745000	37.85064000
137.19999203	0.00000000	88.54576000	37.47539000
137.39999201	0.00000000	88.96407000	36.73105000
137.59999200	0.00000000	89.70841000	36.35580000
137.79999199	0.00000000	90.08366000	36.26968000
137.99999198	0.00000000	90.12672000	35.89444000
138.19999197	0.00000000	90.08366000	35.19931000
138.39999195	0.00000000	89.70841000	35.19931000
138.59999194	0.00000000	88.92101000	35.89444000
138.79999193	0.00000000	88.17052000	36.31274000
138.99999192	0.00000000	87.38312000	36.73105000
139.19999191	0.00000000	87.05708000	37.47539000
139.39999189	0.00000000	87.38312000	37.85064000
139.59999188	0.00000000	88.12745000	37.89370000
139.79999187	0.00000000	88.54576000	37.89370000
139.99999186	0.00000000	88.96407000	37.85064000
140.19999185	0.00000000	89.70841000	37.47539000
140.39999184	0.00000000	90.08366000	36.73105000
140.59999182	0.00000000	90.08366000	36.31274000
140.79999181	0.00000000	89.70841000	35.89444000
140.99999180	0.00000000	88.96407000	35.15625000
141.19999179	0.00000000	88.58882000	34.83022000
141.39999178	0.00000000	88.50270000	35.15625000
141.59999176	0.00000000	88.17052000	35.93750000
141.79999175	0.00000000	87.80142000	36.68799000
141.99999174	0.00000000	88.17052000	37.47539000
142.19999173	0.00000000	88.54576000	37.85064000
142.39999172	0.00000000	88.92101000	37.89370000
142.59999170	0.00000000	89.29010000	37.89370000
142.79999169	0.00000000	88.92101000	37.85064000
142.99999168	0.00000000	88.58882000	37.47539000
143.19999167	0.00000000	88.54576000	36.68799000
143.39999166	0.00000000	88.54576000	35.93750000
143.59999165	0.00000000	88.54576000	35.15625000
143.79999163	0.00000000	88.54576000	34.83022000
143.99999162	0.00000000	88.54576000	35.15625000
144.19999161	0.00000000	88.54576000	35.93750000
144.39999160	0.00000000	88.58882000	36.68799000
144.59999159	0.00000000	88.96407000	37.47539000
144.79999157	0.00000000	89.70841000	37.85064000
144.99999156	0.00000000	90.03444000	37.89370000
145.19999155	0.00000000	89.70841000	37.89370000
145.39999154	0.00000000	88.96407000	37.85064000
145.59999153	0.00000000	88.58882000	37.47539000
145.79999151	0.00000000	88.54576000	36.73105000
145.99999150	0.00000000	88.54576000	36.35580000
146.19999149	0.00000000	88.54576000	36.31274000
146.39999148	0.00000000	88.54576000	36.31274000
146.59999147	0.00000000	88.58882000	36.31274000
146.79999146	0.00000000	88.92101000	36.31274000
146.99999144	0.00000000	89.33316000	36.35580000
147.19999143	0.00000000	89.29626000	36.73105000
147.39999142	0.00000000	89.33316000	37.47539000
147.59999141	0.00000000	88.92101000	37.85064000
147.79999140	0.00000000	88.58882000	37.89370000
147.99999138	0.00000000	88.54576000	37.89370000
148.19999137	0.00000000	88.54576000	37.89370000
148.39999136	0.00000000	88.54576000	37.89370000
148.59999135	0.00000000	88.54576000	37.85064000
148.79999134	0.00000000	88.54576000	37.47539000
148.99999132	0.00000000	88.58882000	36.73105000
149.19999131	0.00000000	88.96407000	36.35580000
149.39999130	0.00000000	89.70841000	36.35580000
149.59999129	0.00000000	90.08366000	36.68799000
149.79999128	0.00000000	90.12672000	37.10014000
149.99999127	0.00000000	90.12672000	37.10630000
150.19999125	0.00000000	90.08366000	37.51845000
150.39999124	0.00000000	89.70841000	37.85064000
150.59999123	0.00000000	88.96407000	37.89370000
150.79999122	0.00000000	88.58882000	37.89370000
150.99999121	0.00000000	88.54576000	37.89370000
151.19999119	0.00000000	88.54576000	37.89370000
151.39999118	0.00000000	88.54576000	37.85064000
151.59999117	0.00000000	88.54576000	37.47539000
151.79999116	0.00000000	88.54576000	36.73105000
151.99999115	0.00000000	88.58882000	36.35580000
152.19999113	0.00000000	88.96407000	36.31274000
152.39999112	0.00000000	89.70841000	36.31274000
152.59999111	0.00000000	90.08366000	36.35580000
152.79999110	0.00000000	90.12672000	36.73105000
152.99999109	0.00000000	90.12672000	37.47539000
153.19999108	0.00000000	90.08366000	37.85064000
153.39999106	0.00000000	89.70841000	37.89370000
153.59999105	0.00000000	88.96407000	37.89370000
153.79999104	0.00000000	88.58882000	37.89370000
153.99999103	0.00000000	88.50270000	37.89370000
154.19999102	0.00000000	88.17052000	37.85064000
154.39999100	0.00000000	87.80142000	37.47539000
154.59999099	0.00000000	88.17052000	36.73105000
154.79999098	0.00000000	88.50270000	36.35580000
154.99999097	0.00000000	88.58882000	36.31274000
155.19999096	0.00000000	88.92101000	36.26968000
155.39999094	0.00000000	89.33316000	35.93750000
155.59999093	0.00000000	89.33932000	35.57455000
155.79999092	0.00000000	89.70841000	35.93750000
155.99999091	0.00000000	89.65919000	36.26968000
156.19999090	0.00000000	88.96407000	36.35580000
156.39999089	0.00000000	88.58882000	36.73105000
156.59999087	0.00000000	88.54576000	37.47539000
156.79999086	0.00000000	88.50270000	37.85064000
156.99999085	0.00000000	88.12745000	37.89370000
157.19999084	0.00000000	87.38312000	37.89370000
157.39999083	0.00000000	87.05708000	37.85064000
157.59999081	0.00000000	87.38312000	37.47539000
157.79999080	0.00000000	88.17052000	36.73105000
157.99999079	0.00000000	88.92101000	36.35580000
158.19999078	0.00000000	89.65919000	36.31274000
158.39999077	0.00000000	89.70841000	36.31274000
158.59999075	0.00000000	89.38238000	36.31274000
158.79999074	0.00000000	89.70841000	36.31274000
158.99999073	0.00000000	89.65919000	36.31274000
159.19999072	0.00000000	88.96407000	36.35580000
159.39999071	0.00000000	88.58882000	36.73105000
159.59999070	0.00000000	88.54576000	37.47539000
159.79999068	0.00000000	88.54576000	37.85064000
159.99999067	0.00000000	88.54576000	37.89370000
160.19999066	0.00000000	88.54576000	37.89370000
160.39999065	0.00000000	88.54576000	37.85064000
160.59999064	0.00000000	88.54576000	37.47539000
160.79999062	0.00000000	88.54576000	36.73105000
160.99999061	0.00000000	88.54576000	36.35580000
161.19999060	0.00000000	88.54576000	36.31274000
161.39999059	0.00000000	88.58882000	36.31274000
161.59999058	0.00000000	88.96407000	36.31274000
161.79999056	0.00000000	89.70841000	36.35580000
161.99999055	0.00000000	90.08366000	36.73105000
162.19999054	0.00000000	90.08366000	37.47539000
162.39999053	0.00000000	89.70841000	37.85064000
162.59999052	0.00000000	88.96407000	37.89370000
162.79999051	0.00000000	88.58882000	37.89370000
162.99999049	0.00000000	88.54576000	37.89370000
163.19999048	0.00000000	88.54576000	37.89370000
163.39999047	0.00000000	88.54576000	37.85064000
163.59999046	0.00000000	88.54576000	37.47539000
163.79999045	0.00000000	88.54576000	36.73105000
163.99999043	0.00000000	88.54576000	36.40502000
164.19999042	0.00000000	88.54576000	36.68799000
164.39999041	0.00000000	88.58882000	37.10014000
164.59999040	0.00000000	88.92101000	37.06324000
164.79999039	0.00000000	89.33316000	37.10014000
164.99999037	0.00000000	89.33932000	36.73105000
165.19999036	0.00000000	89.75147000	36.78026000
165.39999035	0.00000000	90.03444000	37.47539000
165.59999034	0.00000000	89.70841000	37.85064000
165.79999033	0.00000000	88.96407000	37.89370000
165.99999032	0.00000000	88.58882000	37.89370000
166.19999030	0.00000000	88.54576000	37.89370000
166.39999029	0.00000000	88.54576000	37.89370000
166.59999028	0.00000000	88.54576000	37.85064000
166.79999027	0.00000000	88.54576000	37.47539000
166.99999026	0.00000000	88.54576000	36.73105000
167.19999024	0.00000000	88.54576000	36.35580000
167.39999023	0.00000000	88.54576000	36.31274000
167.59999022	0.00000000	88.58882000	36.31274000
167.79999021	0.00000000	88.92101000	36.31274000
167.99999020	0.00000000	89.33316000	36.31274000
168.19999018	0.00000000	89.29626000	36.31274000
168.39999017	0.00000000	89.33316000	36.31274000
168.59999016	0.00000000	88.92101000	36.35580000
168.79999015	0.00000000	88.58882000	36.68799000
168.99999014	0.00000000	88.54576000	37.05708000
169.19999013	0.00000000	88.54576000	36.68799000
169.39999011	0.00000000	88.54576000	36.35580000
169.59999010	0.00000000	88.54576000	36.31274000
169.79999009	0.00000000	88.54576000	36.31274000
169.99999008	0.00000000	88.54576000	36.31274000
170.19999007	0.00000000	88.54576000	36.31274000
170.39999005	0.00000000	88.54576000	36.31274000
170.59999004	0.00000000	88.54576000	36.31274000
170.79999003	0.00000000	88.58882000	36.31274000
170.99999002	0.00000000	88.92101000	36.31274000
171.19999001	0.00000000	89.29010000	36.31274000
171.39998999	0.00000000	88.92101000	36.31274000
171.59998998	0.00000000	88.63803000	36.31274000
171.79998997	0.00000000	88.92101000	36.31274000
171.99998996	0.00000000	89.29010000	36.31274000
172.19998995	0.00000000	88.92101000	36.31274000
172.39998994	0.00000000	88.58882000	36.31274000
172.59998992	0.00000000	88.54576000	36.31274000
172.79998991	0.00000000	88.54576000	36.31274000
172.99998990	0.00000000	88.54576000	36.31274000
173.19998989	0.00000000	88.54576000	36.31274000
173.39998988	0.00000000	88.54576000	36.31274000
173.59998986	0.00000000	88.58882000	36.31274000
173.79998985	0.00000000	88.92101000	36.31274000
173.99998984	0.00000000	89.29010000	36.31274000
174.19998983	0.00000000	88.92101000	36.31274000
174.39998982	0.00000000	88.58882000	36.31274000
174.59998980	0.00000000	88.54576000	36.31274000
174.79998979	0.00000000	88.54576000	36.31274000
174.99998978	0.00000000	88.54576000	36.31274000
175.19998977	0.00000000	88.54576000	36.31274000
175.39998976	0.00000000	88.54576000	36.31274000
175.59998975	0.00000000	88.54576000	36.35580000
175.79998973	0.00000000	88.54576000	36.68799000
175.99998972	0.00000000	88.54576000	37.10014000
176.19998971	0.00000000	88.54576000	37.06324000
176.39998970	0.00000000	88.54576000	37.10014000
176.59998969	0.00000000	88.54576000	36.73105000
176.79998967	0.00000000	88.54576000	36.78026000
176.99998966	0.00000000	88.54576000	37.42618000
177.19998965	0.00000000	88.54576000	37.47539000
177.39998964	0.00000000	88.54576000	37.10630000
177.59998963	0.00000000	88.54576000	37.14321000
177.79998961	0.00000000	88.54576000	37.10630000
177.99998960	0.00000000	88.54576000	37.47539000
178.19998959	0.00000000	88.54576000	37.42618000
178.39998958	0.00000000	88.54576000	36.73105000
178.59998957	0.00000000	88.54576000	36.35580000
178.79998956	0.00000000	88.54576000	36.35580000
178.99998954	0.00000000	88.54576000	36.68799000
179.19998953	0.00000000	88.54576000	37.10014000
179.39998952	0.00000000	88.54576000	37.06324000
179.59998951	0.00000000	88.54576000	37.10014000
179.79998950	0.00000000	88.54576000	36.68799000
179.99998948	0.00000000	88.54576000	36.35580000
180.19998947	0.00000000	88.54576000	36.31274000
180.39998946	0.00000000	88.54576000	36.31274000
180.59998945	0.00000000	88.54576000	36.31274000
180.79998944	0.00000000	88.54576000	36.35580000
180.99998942	0.00000000	88.54576000	36.73105000
181.19998941	0.00000000	88.54576000	37.47539000
181.39998940	0.00000000	88.54576000	37.85064000
181.59998939	0.00000000	88.54576000	37.89370000
181.79998938	0.00000000	88.54576000	37.89370000
181.99998937	0.00000000	88.54576000	37.89370000
182.19998935	0.00000000	88.54576000	37.89370000
182.39998934	0.00000000	88.54576000	37.89370000
182.59998933	0.00000000	88.58882000	37.85064000
182.79998932	0.00000000	88.92101000	37.47539000
182.99998931	0.00000000	89.29010000	36.73105000
183.19998929	0.00000000	88.92101000	36.35580000
183.39998928	0.00000000	88.58882000	36.31274000
183.59998927	0.00000000	88.54576000	36.35580000
183.79998926	0.00000000	88.54576000	36.68799000
183.99998925	0.00000000	88.54576000	37.10014000
184.19998923	0.00000000	88.54576000	37.10630000
184.39998922	0.00000000	88.54576000	37.51845000
184.59998921	0.00000000	88.54576000	37.85064000
184.79998920	0.00000000	88.54576000	37.89370000
184.99998919	0.00000000	88.54576000	37.89370000
185.19998918	0.00000000	88.54576000	37.85064000
185.39998916	0.00000000	88.58882000	37.47539000
185.59998915	0.00000000	88.92101000	36.73105000
185.79998914	0.00000000	89.29010000	36.35580000
185.99998913	0.00000000	88.92101000	36.26968000
186.19998912	0.00000000	88.58882000	35.93750000
186.39998910	0.00000000	88.54576000	35.53149000
186.59998909	0.00000000	88.54576000	35.56840000
186.79998908	0.00000000	88.54576000	35.53149000
186.99998907	0.00000000	88.54576000	35.93750000
187.19998906	0.00000000	88.54576000	36.31274000
187.39998904	0.00000000	88.54576000	36.73105000
187.59998903	0.00000000	88.54576000	37.42618000
187.79998902	0.00000000	88.54576000	37.47539000
187.99998901	0.00000000	88.54576000	37.10630000
188.19998900	0.00000000	88.54576000	37.10014000
188.39998899	0.00000000	88.54576000	36.68799000
188.59998897	0.00000000	88.54576000	36.31274000
188.79998896	0.00000000	88.54576000	35.93750000
188.99998895	0.00000000	88.54576000	35.53149000
189.19998894	0.00000000	88.54576000	35.56840000
189.39998893	0.00000000	88.54576000	35.53149000
189.59998891	0.00000000	88.54576000	35.93750000
189.79998890	0.00000000	88.54576000	36.26968000
189.99998889	0.00000000	88.54576000	36.31274000
190.19998888	0.00000000	88.54576000	36.31274000
190.39998887	0.00000000	88.54576000	36.31274000
190.59998885	0.00000000	88.54576000	36.31274000
190.79998884	0.00000000	88.54576000	36.31274000
190.99998883	0.00000000	88.54576000	36.31274000
191.19998882	0.00000000	88.54576000	36.35580000
191.39998881	0.00000000	88.54576000	36.68799000
191.59998880	0.00000000	88.54576000	37.05708000
191.79998878	0.00000000	88.54576000	36.68799000
191.99998877	0.00000000	88.54576000	36.35580000
192.19998876	0.00000000	88.54576000	36.31274000
192.39998875	0.00000000	88.54576000	36.31274000
192.59998874	0.00000000	88.54576000	36.31274000
192.79998872	0.00000000	88.54576000	36.31274000
192.99998871	0.00000000	88.54576000	36.31274000
193.19998870	0.00000000	88.54576000	36.35580000
193.39998869	0.00000000	88.54576000	36.73105000
193.59998868	0.00000000	88.54576000	37.47539000
193.79998866	0.00000000	88.54576000	37.85064000
193.99998865	0.00000000	88.54576000	37.89370000
194.19998864	0.00000000	88.58882000	37.89370000
194.39998863	0.00000000	88.92101000	37.89370000
194.59998862	0.00000000	89.29010000	37.89370000
194.79998861	0.00000000	88.92101000	37.89370000
194.99998859	0.00000000	88.58882000	37.85064000
195.19998858	0.00000000	88.54576000	37.47539000
195.39998857	0.00000000	88.54576000	36.73105000
195.59998856	0.00000000	88.54576000	36.35580000
195.79998855	0.00000000	88.54576000	36.35580000
195.99998853	0.00000000	88.54576000	36.73105000
