Time	Channel A	Channel B	Channel C
(us)	(V)	(mV)	(mV)

-4.53333289	0.00000000	41.15403000	14.25320000
-4.33333290	0.00000000	41.11097000	14.21014000
-4.13333291	0.00000000	41.11097000	14.21014000
-3.93333293	0.00000000	41.11097000	14.21014000
-3.73333294	0.00000000	41.11097000	14.21014000
-3.53333295	0.00000000	41.11097000	14.21014000
-3.33333296	0.00000000	41.11097000	14.21014000
-3.13333297	0.00000000	41.11097000	14.21014000
-2.93333299	0.00000000	41.11097000	14.21014000
-2.73333300	0.00000000	41.15403000	14.21014000
-2.53333301	0.00000000	41.48622000	14.21014000
-2.33333302	0.00000000	41.85531000	14.21014000
-2.13333303	0.00000000	41.48622000	14.21014000
-1.93333304	0.00000000	41.15403000	14.21014000
-1.73333306	0.00000000	41.11097000	14.21014000
-1.53333307	0.00000000	41.11097000	14.21014000
-1.33333308	0.00000000	41.11097000	14.21014000
-1.13333309	0.00000000	41.11097000	14.21014000
-0.93333310	0.00000000	41.11097000	14.21014000
-0.73333312	0.00000000	41.11097000	14.21014000
-0.53333313	0.00000000	41.11097000	14.21014000
-0.33333314	0.15871060	41.11097000	14.21014000
-0.13333315	0.47736220	41.11097000	14.21014000
0.06666684	0.95533960	41.11097000	14.21014000
0.26666682	1.11466500	41.11097000	14.16708000
0.46666681	0.95533960	41.11097000	13.83489000
0.66666680	0.47736220	41.11097000	13.46580000
0.86666679	-0.31803640	41.11097000	13.83489000
1.06666678	-1.27399100	41.11097000	14.16708000
1.26666677	-2.22994600	41.11097000	14.21014000
1.46666675	-2.70792300	41.11097000	14.21014000
1.66666674	-2.54859700	41.11097000	14.21014000
1.86666673	-1.59264300	41.11097000	14.21014000
2.06666672	0.00000000	41.11097000	14.21014000
2.26666671	2.22994600	41.11097000	14.21014000
2.46666669	4.14124000	41.11097000	14.21014000
2.66666668	5.25652100	41.11097000	14.21014000
2.86666667	5.09719500	41.11097000	14.21014000
3.06666666	3.50393700	41.06791000	14.16708000
3.26666665	0.63668800	40.73573000	13.83489000
3.46666663	-2.70792300	40.36663000	13.46580000
3.66666662	-5.89382400	40.73573000	13.83489000
3.86666661	-7.64579200	41.06791000	14.16708000
4.06666660	-7.80511800	41.11097000	14.25320000
4.26666659	-5.73449800	41.11097000	14.58538000
4.46666658	-2.07062000	41.11097000	14.94833000
4.66666656	2.38927200	41.11097000	14.62844000
4.86666655	6.37180100	41.11097000	14.62844000
5.06666654	8.92039900	41.11097000	14.94833000
5.26666653	9.39837600	41.11097000	14.53617000
5.46666652	7.32714100	41.11097000	13.87795000
5.66666650	3.50393700	41.11097000	13.46580000
5.86666649	-1.27399100	41.11097000	13.83489000
6.06666648	-5.73449800	41.11097000	14.16708000
6.26666647	-8.76107300	41.11097000	14.25320000
6.46666646	-9.39837600	41.11097000	14.62844000
6.66666644	-7.80511800	41.11097000	15.32357000
6.86666643	-4.30056600	41.11097000	15.32357000
7.06666642	0.00000000	41.11097000	14.62844000
7.26666641	3.98191400	41.11097000	14.25320000
7.46666640	6.84916400	41.11097000	14.21014000
7.66666639	7.80511800	41.11097000	14.21014000
7.86666637	6.69045300	41.11097000	14.21014000
8.06666636	4.14124000	41.11097000	14.21014000
8.26666635	0.95533960	41.11097000	14.21014000
8.46666634	-2.22994600	41.11097000	14.21014000
8.66666633	-4.45989200	41.11097000	14.21014000
8.86666631	-5.25652100	41.11097000	14.25320000
9.06666630	-4.61921700	41.11097000	14.58538000
9.26666629	-3.18590100	41.11097000	14.90526000
9.46666628	-1.11466500	41.11097000	14.21014000
9.66666627	0.79601380	41.11097000	13.46580000
9.86666625	2.07062000	41.11097000	13.45964000
10.06666624	2.54859700	41.11097000	13.42274000
10.26666623	2.38927200	41.11097000	13.83489000
10.46666622	1.59264300	41.11097000	14.16708000
10.66666621	0.79601380	41.11097000	14.21014000
10.86666620	0.00000000	41.11097000	14.21014000
11.06666618	-0.63668800	41.11097000	14.21014000
11.26666617	-0.95533960	41.11097000	14.21014000
11.46666616	-0.95533960	41.11097000	14.16708000
11.66666615	-0.79601380	41.11097000	13.83489000
11.86666614	-0.47736220	41.11097000	13.46580000
12.06666612	-0.15871060	41.11097000	13.83489000
12.26666611	-0.15871060	41.11097000	14.16708000
12.46666610	-0.15871060	41.11097000	14.21014000
12.66666609	0.00000000	41.11097000	14.21014000
12.86666608	0.00000000	41.11097000	14.21014000
13.06666606	0.00000000	41.11097000	14.21014000
13.26666605	0.00000000	41.11097000	14.21014000
13.46666604	0.00000000	41.11097000	14.21014000
13.66666603	0.00000000	41.11097000	14.21014000
13.86666602	0.00000000	41.11097000	14.21014000
14.06666601	-0.15871060	41.11097000	14.21014000
14.26666599	-0.15871060	41.11097000	14.21014000
14.46666598	-0.15871060	41.11097000	14.21014000
14.66666597	-0.15871060	41.11097000	14.21014000
14.86666596	0.00000000	41.11097000	14.21014000
15.06666595	0.00000000	41.11097000	14.21014000
15.26666593	0.00000000	41.11097000	14.21014000
15.46666592	0.00000000	41.11097000	14.21014000
15.66666591	0.00000000	41.11097000	14.21014000
15.86666590	0.00000000	41.11097000	14.21014000
16.06666589	0.00000000	41.11097000	14.21014000
16.26666587	0.00000000	41.11097000	14.21014000
16.46666586	-0.15871060	41.11097000	14.21014000
16.66666585	-0.15871060	41.11097000	14.21014000
16.86666584	-0.15871060	41.15403000	14.21014000
17.06666583	0.00000000	41.52928000	14.21014000
17.26666582	0.00000000	42.27362000	14.21014000
17.46666580	0.00000000	42.64886000	14.21014000
17.66666579	0.00000000	42.69193000	14.21014000
17.86666578	0.00000000	42.64886000	14.21014000
18.06666577	0.00000000	42.22441000	14.21014000
18.26666576	0.00000000	41.01870000	14.21014000
18.46666574	0.00000000	39.15477000	14.16708000
18.66666573	0.00000000	37.20472000	13.83489000
18.86666572	0.00000000	36.08513000	13.46580000
19.06666571	0.00000000	35.71604000	13.83489000
19.26666570	0.00000000	36.92175000	14.16708000
19.46666568	0.00000000	39.57308000	14.21014000
19.66666567	0.00000000	42.73499000	14.16708000
19.86666566	0.00000000	46.27214000	13.83489000
20.06666565	0.00000000	50.08612000	13.46580000
20.26666564	0.00000000	52.69439000	13.83489000
20.46666563	0.00000000	52.65133000	14.16708000
20.66666561	0.00000000	49.53248000	14.21014000
20.86666560	0.00000000	43.71924000	14.21014000
21.06666559	0.00000000	36.36811000	14.21014000
21.26666558	0.00000000	29.01082000	14.21014000
21.46666557	0.00000000	23.24065000	14.21014000
21.66666555	0.00000000	20.63238000	14.21014000
21.86666554	0.00000000	22.63779000	14.21014000
22.06666553	0.00000000	29.65674000	14.16708000
22.26666552	0.00000000	40.50196000	13.83489000
22.46666551	0.00000000	53.24803000	13.46580000
22.66666549	0.00000000	64.74532000	13.83489000
22.86666548	0.00000000	71.67814000	14.16708000
23.06666547	0.00000000	72.01033000	14.25320000
23.26666546	0.00000000	65.35433000	14.62844000
23.46666545	0.00000000	52.14074000	15.36663000
23.66666544	0.00000000	34.73794000	15.74188000
23.86666542	0.00000000	17.05217000	15.78494000
24.06666541	0.00000000	3.56791300	15.74188000
24.26666540	0.00000000	-1.79010800	15.36663000
24.46666539	0.00000000	2.12229300	14.53617000
24.66666538	0.00000000	15.37894000	13.37352000
24.86666536	0.00000000	35.75910000	11.42347000
25.06666535	0.00000000	58.18159000	9.55954600
25.26666534	0.00000000	77.12229000	8.40305000
25.46666533	0.00000000	89.07480000	8.40305000
25.66666532	0.00000000	90.47736000	9.55954600
25.86666530	0.00000000	80.05659000	11.55881000
26.06666529	0.00000000	60.00246000	14.72072000
26.26666528	0.00000000	35.29773000	18.94685000
26.46666527	0.00000000	11.70645000	23.12992000
26.66666526	0.00000000	-5.64714500	25.77510000
26.86666525	0.00000000	-12.57997000	25.73203000
27.06666523	0.00000000	-7.18503900	22.66240000
27.26666522	0.00000000	9.00590400	17.18750000
27.46666521	0.00000000	32.17273000	10.21161000
27.66666520	0.00000000	56.88361000	2.50369100
27.86666519	0.00000000	77.39911000	-3.62942900
28.06666517	0.00000000	89.40698000	-6.69291300
28.26666516	0.00000000	90.56963000	-5.81323800
28.46666515	0.00000000	80.56102000	0.04306102
28.66666514	0.00000000	62.09399000	10.07013000
28.86666513	0.00000000	40.08366000	22.01649000
29.06666511	0.00000000	19.51895000	33.21235000
29.26666510	0.00000000	4.39837600	40.92643000
29.46666509	0.00000000	-2.57751000	43.57775000
29.66666508	0.00000000	0.12303150	39.99754000
29.86666507	0.00000000	11.61417000	29.91511000
30.06666506	0.00000000	28.59252000	15.28051000
30.26666504	0.00000000	46.78888000	-0.51673230
30.46666503	0.00000000	62.69685000	-13.66265000
30.66666502	0.00000000	73.16682000	-21.37672000
30.86666501	0.00000000	76.28567000	-22.12106000
31.06666500	0.00000000	71.72121000	-15.10827000
31.26666498	0.00000000	60.93134000	-1.58710600
31.46666497	0.00000000	47.01648000	15.79109000
31.66666496	0.00000000	32.68332000	33.16314000
31.86666495	0.00000000	21.05684000	46.69045000
32.06666494	0.00000000	14.40084000	53.61097000
32.26666492	0.00000000	13.23819000	52.07923000
32.46666491	0.00000000	17.84572000	42.45817000
32.66666490	0.00000000	27.10384000	27.35605000
32.86666489	0.00000000	38.27509000	9.56569900
33.06666488	0.00000000	49.15723000	-7.39419200
33.26666487	0.00000000	57.25885000	-19.42667000
33.46666485	0.00000000	61.20817000	-24.48942000
33.66666484	0.00000000	60.42076000	-22.16412000
33.86666483	0.00000000	55.38877000	-12.41388000
34.06666482	0.00000000	46.96727000	2.97121000
34.26666481	0.00000000	37.75836000	20.66314000
34.46666479	0.00000000	30.77633000	35.72219000
34.66666478	0.00000000	26.82701000	45.10950000
34.86666477	0.00000000	26.45177000	47.80388000
35.06666476	0.00000000	29.52141000	43.15945000
35.26666475	0.00000000	35.29773000	32.00664000
35.46666473	0.00000000	42.18134000	17.36589000
35.66666472	0.00000000	47.95152000	2.73129900
35.86666471	0.00000000	51.07037000	-8.50762700
36.06666470	0.00000000	51.07037000	-13.94562000
36.26666469	0.00000000	48.04380000	-13.19513000
36.46666468	0.00000000	43.02411000	-6.23154500
36.66666466	0.00000000	37.65994000	5.24729300
36.86666465	0.00000000	33.01550000	17.93184000
37.06666464	0.00000000	30.72711000	28.34030000
37.26666463	0.00000000	31.05930000	34.14124000
37.46666462	0.00000000	33.80290000	34.14124000
37.66666460	0.00000000	38.36737000	28.42643000
37.86666459	0.00000000	43.38705000	18.85458000
38.06666458	0.00000000	47.25640000	8.53838500
38.26666457	0.00000000	49.62475000	0.50442900
38.46666456	0.00000000	49.95078000	-2.60826800
38.66666454	0.00000000	48.04380000	-0.38139760
38.86666453	0.00000000	44.18061000	5.80093500
39.06666452	0.00000000	39.57308000	14.62844000
39.26666451	0.00000000	35.29773000	23.78199000
39.46666450	0.00000000	32.17273000	29.87205000
39.66666449	0.00000000	30.63484000	31.02854000
39.86666447	0.00000000	31.01009000	26.80241000
40.06666446	0.00000000	33.33538000	18.35015000
40.26666445	0.00000000	36.82948000	8.07086500
40.46666444	0.00000000	41.11097000	-0.74434050
40.66666443	0.00000000	45.34325000	-4.98277500
40.86666441	0.00000000	48.46210000	-4.27534400
41.06666440	0.00000000	50.04306000	1.15649600
41.26666439	0.00000000	50.00000000	9.98400600
41.46666438	0.00000000	48.08686000	19.97416000
41.66666437	0.00000000	44.64813000	28.38337000
41.86666435	0.00000000	41.11097000	32.65871000
42.06666434	0.00000000	37.61687000	31.91437000
42.26666433	0.00000000	34.50418000	26.93774000
42.46666432	0.00000000	32.96014000	18.85458000
42.66666431	0.00000000	32.54798000	10.02707000
42.86666430	0.00000000	33.75369000	2.68823800
43.06666428	0.00000000	36.36811000	-1.53789400
43.26666427	0.00000000	39.11171000	-1.58710600
43.46666426	0.00000000	41.44316000	2.22071800
43.66666425	0.00000000	43.38705000	8.31077700
43.86666424	0.00000000	44.18061000	14.90526000
44.06666422	0.00000000	44.22982000	20.30020000
44.26666421	0.00000000	43.85457000	23.82505000
44.46666420	0.00000000	43.11023000	24.57554000
44.66666419	0.00000000	42.73499000	22.71161000
44.86666418	0.00000000	42.69193000	18.90379000
45.06666416	0.00000000	42.69193000	14.67150000
45.26666415	0.00000000	42.59965000	11.14050000
45.46666414	0.00000000	41.80610000	8.44611200
45.66666413	0.00000000	39.86220000	7.28346400
45.86666412	0.00000000	37.53075000	8.02780400
46.06666411	0.00000000	34.78716000	9.93479300
46.26666409	0.00000000	32.12967000	12.62918000
46.46666408	0.00000000	30.68405000	15.32357000
46.66666407	0.00000000	31.47761000	17.27362000
46.86666406	0.00000000	34.96555000	18.43627000
47.06666405	0.00000000	39.99754000	18.43627000
47.26666403	0.00000000	45.85384000	17.32283000
47.46666402	0.00000000	51.58095000	15.74188000
47.66666401	0.00000000	55.38877000	13.74262000
47.86666400	0.00000000	55.72096000	11.04823000
48.06666399	0.00000000	52.27608000	8.44611200
48.26666397	0.00000000	45.67544000	7.28346400
48.46666396	0.00000000	37.57381000	7.98474400
48.66666395	0.00000000	29.47835000	9.55954600
48.86666394	0.00000000	23.70817000	11.93405000
49.06666393	0.00000000	21.79503000	15.36663000
49.26666392	0.00000000	24.12647000	18.39321000
49.46666390	0.00000000	30.68405000	20.01722000
49.66666389	0.00000000	39.57308000	20.39247000
49.86666388	0.00000000	48.83735000	19.55585000
50.06666387	0.00000000	56.50836000	16.85531000
50.26666386	0.00000000	59.95324000	13.04749000
50.46666384	0.00000000	58.46457000	9.55954600
50.66666383	0.00000000	52.65133000	6.82209600
50.86666382	0.00000000	43.80536000	5.33341500
51.06666381	0.00000000	34.22121000	5.75172200
51.26666380	0.00000000	26.91314000	8.44611200
51.46666379	0.00000000	23.75123000	12.67224000
51.66666377	0.00000000	24.91388000	17.27362000
51.86666376	0.00000000	29.93971000	21.13066000
52.06666375	0.00000000	37.99213000	23.03765000
52.26666374	0.00000000	46.41363000	22.71161000
52.46666373	0.00000000	52.55905000	20.39247000
52.66666371	0.00000000	54.92741000	16.94759000
52.86666370	0.00000000	53.02657000	13.04749000
53.06666369	0.00000000	48.04380000	9.60875900
53.26666368	0.00000000	41.11097000	7.28346400
53.46666367	0.00000000	34.22121000	6.90821800
53.66666365	0.00000000	29.56447000	8.40305000
53.86666364	0.00000000	28.03272000	11.09744000
54.06666363	0.00000000	29.98893000	14.16092000
54.26666362	0.00000000	35.34079000	16.81225000
54.46666361	0.00000000	42.18134000	18.01796000
54.66666360	0.00000000	47.95152000	17.64887000
54.86666358	0.00000000	51.07037000	16.52928000
55.06666357	0.00000000	51.11343000	14.58538000
55.26666356	0.00000000	48.41904000	12.76452000
55.46666355	0.00000000	43.76230000	11.93405000
55.66666354	0.00000000	38.03519000	12.34621000
55.86666352	0.00000000	33.05856000	13.46580000
56.06666351	0.00000000	30.72711000	15.40969000
56.26666350	0.00000000	31.05930000	17.27362000
56.46666349	0.00000000	33.75369000	18.39321000
56.66666348	0.00000000	37.99213000	17.97490000
56.86666346	0.00000000	42.59965000	15.64960000
57.06666345	0.00000000	46.46284000	12.21087000
57.26666344	0.00000000	48.36983000	8.35998900
57.46666343	0.00000000	48.04380000	5.33341500
57.66666342	0.00000000	45.76156000	4.21998000
57.86666341	0.00000000	42.69193000	5.80093500
58.06666339	0.00000000	39.57308000	9.98400600
58.26666338	0.00000000	36.87869000	15.36663000
58.46666337	0.00000000	35.34079000	20.39247000
58.66666336	0.00000000	35.29773000	24.24335000
58.86666335	0.00000000	36.46038000	25.68897000
59.06666333	0.00000000	38.36737000	23.78199000
59.26666332	0.00000000	40.64345000	18.71924000
59.46666331	0.00000000	42.18134000	11.83563000
59.66666330	0.00000000	42.64886000	4.55216500
59.86666329	0.00000000	42.64886000	-0.38139760
60.06666327	0.00000000	42.22441000	-1.63016700
60.26666326	0.00000000	41.11097000	0.73203740
60.46666325	0.00000000	39.99754000	6.08390700
60.66666324	0.00000000	39.57308000	13.45964000
60.86666323	0.00000000	39.53002000	20.76772000
61.06666322	0.00000000	39.57308000	26.93774000
61.26666320	0.00000000	39.94832000	29.91511000
61.46666319	0.00000000	40.69267000	28.42643000
61.66666318	0.00000000	41.06791000	23.03765000
61.86666317	0.00000000	41.06791000	15.36663000
62.06666316	0.00000000	40.64345000	7.24040300
62.26666314	0.00000000	39.53002000	0.73203740
62.46666313	0.00000000	38.36737000	-2.79281500
62.66666312	0.00000000	37.61687000	-2.38065900
62.86666311	0.00000000	37.25394000	1.43946800
63.06666310	0.00000000	38.04134000	8.02780400
63.26666308	0.00000000	39.53002000	15.69882000
63.46666307	0.00000000	41.11097000	22.66240000
63.66666306	0.00000000	42.64886000	27.31299000
63.86666305	0.00000000	43.76230000	28.84473000
64.06666304	0.00000000	43.76230000	26.93774000
64.26666303	0.00000000	42.69193000	21.96727000
64.46666301	0.00000000	41.48622000	15.78494000
64.66666300	0.00000000	40.27436000	9.55954600
64.86666299	0.00000000	38.36737000	4.17691900
65.06666298	0.00000000	36.92175000	1.10728300
65.26666297	0.00000000	36.87869000	1.01501000
65.46666295	0.00000000	37.99213000	3.33415300
65.66666294	0.00000000	39.53002000	7.19734200
65.86666293	0.00000000	41.06791000	12.25394000
66.06666292	0.00000000	42.22441000	17.23056000
66.26666291	0.00000000	42.59965000	21.13066000
66.46666289	0.00000000	42.22441000	23.08686000
66.66666288	0.00000000	41.06791000	23.17298000
66.86666287	0.00000000	39.53002000	22.01649000
67.06666286	0.00000000	38.04134000	20.06029000
67.26666285	0.00000000	37.29700000	17.32283000
67.46666284	0.00000000	38.04134000	14.21014000
67.66666282	0.00000000	39.57308000	11.04823000
67.86666281	0.00000000	41.52928000	7.98474400
68.06666280	0.00000000	43.80536000	5.66560000
68.26666279	0.00000000	45.34325000	4.87204700
68.46666278	0.00000000	45.67544000	5.24729300
68.66666276	0.00000000	44.50664000	6.82209600
68.86666275	0.00000000	41.39394000	9.55954600
69.06666274	0.00000000	37.57381000	13.09670000
69.26666273	0.00000000	33.71063000	17.36589000
69.46666272	0.00000000	31.05930000	21.54897000
69.66666270	0.00000000	30.63484000	24.24335000
69.86666269	0.00000000	32.22195000	24.61860000
70.06666268	0.00000000	35.71604000	22.71161000
70.26666267	0.00000000	40.73573000	18.81152000
70.46666266	0.00000000	45.76156000	13.83489000
70.66666265	0.00000000	50.00000000	8.77829600
70.86666263	0.00000000	52.27608000	4.91510800
71.06666262	0.00000000	51.48868000	2.59596400
71.26666261	0.00000000	48.04380000	2.59596400
71.46666260	0.00000000	42.59965000	4.91510800
71.66666259	0.00000000	36.45423000	8.77829600
71.86666257	0.00000000	31.01624000	13.79183000
72.06666256	0.00000000	27.56521000	18.35015000
72.26666255	0.00000000	26.77780000	21.13066000
72.46666254	0.00000000	29.10310000	21.88115000
72.66666253	0.00000000	33.71063000	20.79847000
72.86666251	0.00000000	39.53002000	18.06717000
73.06666250	0.00000000	45.30019000	15.03445000
73.26666249	0.00000000	49.57554000	11.93405000
73.46666248	0.00000000	51.53174000	10.02707000
73.66666247	0.00000000	51.07037000	9.56569900
73.86666246	0.00000000	47.66855000	9.98400600
74.06666244	0.00000000	42.27977000	11.46653000
74.26666243	0.00000000	37.29084000	13.32431000
74.46666242	0.00000000	32.97244000	14.07480000
74.66666241	0.00000000	30.68405000	13.74262000
74.86666240	0.00000000	30.59178000	12.58612000
75.06666238	0.00000000	32.17273000	11.14050000
75.26666237	0.00000000	35.24852000	10.35310000
75.46666236	0.00000000	39.06250000	10.76525000
75.66666235	0.00000000	42.18134000	11.93405000
75.86666234	0.00000000	44.13755000	14.29626000
76.06666232	0.00000000	44.92495000	17.32283000
76.26666231	0.00000000	44.18061000	20.01722000
76.46666230	0.00000000	42.69193000	21.50590000
76.66666229	0.00000000	41.15403000	21.08760000
76.86666228	0.00000000	39.94832000	18.39321000
77.06666227	0.00000000	39.19783000	14.16708000
77.26666225	0.00000000	38.78568000	9.51648500
77.46666224	0.00000000	39.15477000	5.29035400
77.66666223	0.00000000	39.48696000	2.59596400
77.86666222	0.00000000	39.48696000	2.22071800
78.06666221	0.00000000	39.11171000	4.17076700
78.26666219	0.00000000	38.36737000	8.44611200
78.46666218	0.00000000	37.99213000	14.21014000
78.66666217	0.00000000	37.94907000	19.97416000
78.86666216	0.00000000	37.99213000	24.20029000
79.06666215	0.00000000	38.45964000	25.78125000
79.26666213	0.00000000	39.99754000	24.61860000
79.46666212	0.00000000	42.27362000	21.17372000
79.66666211	0.00000000	44.13755000	16.16018000
79.86666210	0.00000000	44.96801000	11.14050000
80.06666209	0.00000000	44.55585000	6.86515700
80.26666208	0.00000000	43.38705000	4.17076700
80.46666206	0.00000000	41.01870000	3.75246000
80.66666205	0.00000000	37.99213000	5.24729300
80.86666204	0.00000000	35.29773000	7.93553100
81.06666203	0.00000000	33.80290000	11.09744000
81.26666202	0.00000000	34.12894000	14.58538000
81.46666200	0.00000000	36.03592000	18.06102000
81.66666199	0.00000000	38.36737000	20.34941000
81.86666198	0.00000000	41.11097000	21.22293000
82.06666197	0.00000000	43.76230000	20.81078000
82.26666196	0.00000000	45.30019000	19.64198000
82.46666194	0.00000000	45.34325000	17.32283000
82.66666193	0.00000000	44.18061000	14.62844000
82.86666192	0.00000000	42.22441000	12.21087000
83.06666191	0.00000000	39.57308000	9.47342500
83.26666190	0.00000000	37.29700000	6.82209600
83.46666189	0.00000000	36.46038000	5.29035400
83.66666187	0.00000000	36.41117000	5.29035400
83.86666186	0.00000000	36.83563000	6.82209600
84.06666185	0.00000000	37.99213000	9.55954600
84.26666184	0.00000000	39.48696000	13.04749000
84.46666183	0.00000000	40.64345000	16.90453000
84.66666181	0.00000000	41.06791000	20.01722000
84.86666180	0.00000000	41.06791000	21.96727000
85.06666179	0.00000000	40.69267000	22.71161000
85.26666178	0.00000000	39.90526000	21.46284000
85.46666177	0.00000000	39.24704000	18.06102000
85.66666175	0.00000000	39.21014000	13.42274000
85.86666174	0.00000000	40.31742000	9.19045200
86.06666173	0.00000000	40.97564000	5.66560000
86.26666172	0.00000000	40.69267000	3.80167300
86.46666171	0.00000000	39.90526000	4.12770700
86.66666170	0.00000000	39.15477000	6.48991100
86.86666168	0.00000000	38.32431000	10.35310000
87.06666167	0.00000000	37.57381000	15.36663000
87.26666166	0.00000000	36.83563000	19.92495000
87.46666165	0.00000000	36.87869000	22.66855000
87.66666164	0.00000000	37.99213000	23.03765000
87.86666162	0.00000000	39.48696000	21.13066000
88.06666161	0.00000000	40.69267000	17.27362000
88.26666160	0.00000000	41.48622000	12.67224000
88.46666159	0.00000000	42.27362000	8.44611200
88.66666158	0.00000000	42.59965000	5.70866100
88.86666156	0.00000000	42.22441000	4.91510800
89.06666155	0.00000000	41.06791000	5.75172200
89.26666154	0.00000000	39.53002000	8.86441900
89.46666153	0.00000000	37.99213000	13.79183000
89.66666152	0.00000000	36.83563000	18.35015000
89.86666151	0.00000000	36.50344000	21.17372000
90.06666149	0.00000000	37.20472000	22.29946000
90.26666148	0.00000000	38.69341000	21.82578000
90.46666147	0.00000000	39.48696000	18.30093000
90.66666146	0.00000000	39.94832000	12.72146000
90.86666145	0.00000000	40.69267000	7.70792300
91.06666143	0.00000000	41.06791000	4.95816900
91.26666142	0.00000000	41.06791000	4.17691900
91.46666141	0.00000000	40.69267000	5.80093500
91.66666140	0.00000000	39.94832000	9.93479300
91.86666139	0.00000000	39.62229000	14.90526000
92.06666137	0.00000000	39.90526000	18.81152000
92.26666136	0.00000000	40.27436000	21.50590000
92.46666135	0.00000000	39.90526000	22.20103000
92.66666134	0.00000000	39.53002000	19.92495000
92.86666133	0.00000000	39.11171000	15.74188000
93.06666132	0.00000000	38.32431000	11.14050000
93.26666130	0.00000000	37.57381000	7.28346400
93.46666129	0.00000000	36.83563000	5.37647600
93.66666128	0.00000000	36.83563000	5.70866100
93.86666127	0.00000000	37.57381000	8.02780400
94.06666126	0.00000000	38.41658000	11.46653000
94.26666124	0.00000000	39.99754000	15.36663000
94.46666123	0.00000000	42.27362000	18.81152000
94.66666122	0.00000000	44.18061000	21.03838000
94.86666121	0.00000000	45.30019000	20.62008000
95.06666120	0.00000000	44.92495000	17.27362000
95.26666118	0.00000000	43.02411000	13.09670000
95.46666117	0.00000000	40.69267000	9.60875900
95.66666116	0.00000000	37.90600000	7.24040300
95.86666115	0.00000000	34.87328000	6.48991100
96.06666114	0.00000000	32.59719000	7.24040300
96.26666113	0.00000000	32.22195000	9.60875900
96.46666111	0.00000000	33.71063000	13.00443000
96.66666110	0.00000000	36.45423000	16.43701000
96.86666109	0.00000000	39.94832000	18.35015000
97.06666108	0.00000000	43.80536000	18.43627000
97.26666107	0.00000000	46.88115000	17.27362000
97.46666105	0.00000000	48.41904000	15.36663000
97.66666104	0.00000000	48.04380000	13.04749000
97.86666103	0.00000000	45.71850000	11.14050000
98.06666102	0.00000000	42.27362000	9.98400600
98.26666101	0.00000000	38.36737000	9.93479300
98.46666099	0.00000000	34.87328000	10.67298000
98.66666098	0.00000000	32.17273000	11.46653000
98.86666097	0.00000000	31.01009000	12.62918000
99.06666096	0.00000000	31.79749000	13.74262000
99.26666095	0.00000000	34.08588000	14.16708000
99.46666094	0.00000000	37.57381000	14.21014000
99.66666092	0.00000000	41.06791000	14.21014000
99.86666091	0.00000000	44.18061000	14.25320000
100.06666090	0.00000000	46.50590000	14.62844000
100.26666089	0.00000000	47.25640000	15.36663000
100.46666088	0.00000000	46.50590000	15.74188000
100.66666086	0.00000000	44.18061000	15.74188000
100.86666085	0.00000000	41.11097000	15.32357000
101.06666084	0.00000000	37.99213000	14.16092000
101.26666083	0.00000000	35.29773000	12.62918000
101.46666082	0.00000000	33.71063000	11.04823000
101.66666080	0.00000000	33.29232000	9.55954600
101.86666079	0.00000000	33.71063000	8.82135800
102.06666078	0.00000000	35.29773000	9.55954600
102.26666077	0.00000000	37.94907000	11.14050000
102.46666076	0.00000000	40.64345000	13.46580000
102.66666075	0.00000000	42.59965000	16.52928000
102.86666073	0.00000000	43.80536000	18.81152000
103.06666072	0.00000000	44.18061000	19.97416000
103.26666071	0.00000000	43.80536000	19.55585000
103.46666070	0.00000000	42.59965000	17.27977000
103.66666069	0.00000000	40.69267000	14.21014000
103.86666067	0.00000000	38.41658000	11.09744000
104.06666066	0.00000000	36.83563000	8.40305000
104.26666065	0.00000000	35.99286000	6.86515700
104.46666064	0.00000000	35.25467000	6.86515700
104.66666063	0.00000000	35.34079000	8.40305000
104.86666061	0.00000000	36.83563000	11.09744000
105.06666060	0.00000000	39.06250000	14.16092000
105.26666059	0.00000000	40.64345000	16.85531000
105.46666058	0.00000000	41.44316000	18.39321000
105.66666057	0.00000000	41.85531000	18.43627000
105.86666056	0.00000000	41.44316000	17.27362000
106.06666054	0.00000000	40.69267000	15.32357000
106.26666053	0.00000000	39.53002000	12.62918000
106.46666052	0.00000000	38.36737000	10.02707000
106.66666051	0.00000000	37.61687000	8.82135800
106.86666050	0.00000000	37.20472000	9.14124000
107.06666048	0.00000000	37.61687000	9.93479300
107.26666047	0.00000000	38.36737000	11.51575000
107.46666046	0.00000000	39.53002000	13.79183000
107.66666045	0.00000000	40.64345000	15.64960000
107.86666044	0.00000000	41.01870000	16.43701000
108.06666042	0.00000000	40.64345000	15.69882000
108.26666041	0.00000000	39.53002000	14.21014000
108.46666040	0.00000000	38.36737000	12.67224000
108.66666039	0.00000000	37.57381000	11.51575000
108.86666038	0.00000000	36.78642000	11.09129000
109.06666037	0.00000000	36.46038000	11.04823000
109.26666035	0.00000000	36.83563000	11.14050000
109.46666034	0.00000000	37.99213000	11.93405000
109.66666033	0.00000000	39.53002000	13.83489000
109.86666032	0.00000000	41.01870000	15.69882000
110.06666031	0.00000000	41.80610000	16.85531000
110.26666029	0.00000000	41.48622000	16.85531000
110.46666028	0.00000000	41.11097000	15.74188000
110.66666027	0.00000000	40.64345000	14.25320000
110.86666026	0.00000000	39.53002000	13.04749000
111.06666025	0.00000000	38.36737000	12.21087000
111.26666023	0.00000000	37.61687000	11.09744000
111.46666022	0.00000000	37.20472000	10.35310000
111.66666021	0.00000000	37.61687000	10.72219000
111.86666020	0.00000000	38.32431000	11.46653000
112.06666019	0.00000000	39.11171000	12.62918000
112.26666018	0.00000000	39.53002000	13.74262000
112.46666016	0.00000000	39.94832000	14.16708000
112.66666015	0.00000000	40.64345000	14.21014000
112.86666014	0.00000000	40.64345000	14.21014000
113.06666013	0.00000000	39.94832000	14.21014000
113.26666012	0.00000000	39.53002000	14.16708000
113.46666010	0.00000000	39.11171000	13.79183000
113.66666009	0.00000000	38.36737000	13.04749000
113.86666008	0.00000000	37.99213000	12.67224000
114.06666007	0.00000000	37.99213000	12.62918000
114.26666006	0.00000000	38.36737000	12.62918000
114.46666004	0.00000000	39.11171000	12.58612000
114.66666003	0.00000000	39.48696000	12.21087000
114.86666002	0.00000000	39.53002000	11.46653000
115.06666001	0.00000000	39.53002000	11.09129000
115.26666000	0.00000000	39.53002000	11.09129000
115.46665999	0.00000000	39.53002000	11.46653000
115.66665997	0.00000000	39.53002000	12.25394000
115.86665996	0.00000000	39.53002000	13.00443000
116.06665995	0.00000000	39.48696000	13.83489000
116.26665994	0.00000000	39.11171000	14.58538000
116.46665993	0.00000000	38.36737000	15.36663000
116.66665991	0.00000000	37.99213000	15.69267000
116.86665990	0.00000000	37.99213000	15.36663000
117.06665989	0.00000000	38.36737000	14.62844000
117.26665988	0.00000000	39.11171000	14.16708000
117.46665987	0.00000000	39.53002000	13.37352000
117.66665985	0.00000000	39.94832000	11.84178000
117.86665984	0.00000000	40.69267000	10.76525000
118.06665983	0.00000000	41.06791000	10.35310000
118.26665982	0.00000000	41.06791000	11.14050000
118.46665981	0.00000000	40.64345000	12.53691000
118.66665980	0.00000000	39.48696000	13.32431000
118.86665978	0.00000000	37.99213000	13.04749000
119.06665977	0.00000000	36.83563000	13.13976000
119.26665976	0.00000000	36.41117000	14.21014000
119.46665975	0.00000000	36.41117000	15.27436000
119.66665974	0.00000000	36.83563000	15.32357000
119.86665972	0.00000000	37.94907000	14.62844000
120.06665971	0.00000000	39.11171000	14.21014000
120.26665970	0.00000000	39.94832000	13.79183000
120.46665969	0.00000000	41.11097000	13.04749000
120.66665968	0.00000000	42.18134000	12.67224000
120.86665966	0.00000000	42.22441000	12.58612000
121.06665965	0.00000000	41.44316000	12.21087000
121.26665964	0.00000000	40.31742000	11.51575000
121.46665963	0.00000000	38.74261000	11.51575000
121.66665962	0.00000000	37.61687000	12.21087000
121.86665961	0.00000000	36.78642000	12.58612000
122.06665959	0.00000000	36.41117000	12.67224000
122.26665958	0.00000000	36.41117000	13.04749000
122.46665957	0.00000000	36.83563000	13.83489000
122.66665956	0.00000000	37.94907000	14.58538000
122.86665955	0.00000000	39.11171000	15.32357000
123.06665953	0.00000000	39.90526000	15.32357000
123.26665952	0.00000000	40.69267000	14.62844000
123.46665951	0.00000000	41.06791000	14.21014000
123.66665950	0.00000000	41.11097000	13.74262000
123.86665949	0.00000000	41.06791000	12.62918000
124.06665947	0.00000000	40.64345000	11.51575000
124.26665946	0.00000000	39.53002000	11.09129000
124.46665945	0.00000000	38.36737000	11.04823000
124.66665944	0.00000000	37.57381000	11.09129000
124.86665943	0.00000000	36.78642000	11.46653000
125.06665942	0.00000000	36.41117000	12.21087000
125.26665940	0.00000000	36.41117000	12.62918000
125.46665939	0.00000000	36.78642000	13.04749000
125.66665938	0.00000000	37.57381000	13.79183000
125.86665937	0.00000000	38.36737000	14.16708000
126.06665936	0.00000000	39.53002000	14.21014000
126.26665934	0.00000000	40.64345000	14.16708000
126.46665933	0.00000000	41.06791000	13.79183000
126.66665932	0.00000000	41.11097000	13.04749000
126.86665931	0.00000000	41.06791000	12.67224000
127.06665930	0.00000000	40.64345000	12.62918000
127.26665928	0.00000000	39.53002000	12.62918000
127.46665927	0.00000000	38.36737000	12.62918000
127.66665926	0.00000000	37.57381000	12.62918000
127.86665925	0.00000000	36.78642000	12.67224000
128.06665924	0.00000000	36.46038000	13.04749000
128.26665923	0.00000000	36.83563000	13.79183000
128.46665921	0.00000000	37.94907000	14.16708000
128.66665920	0.00000000	39.11171000	14.21014000
128.86665919	0.00000000	39.90526000	14.21014000
129.06665918	0.00000000	40.69267000	14.21014000
129.26665917	0.00000000	41.01870000	14.16708000
129.46665915	0.00000000	40.64345000	13.79183000
129.66665914	0.00000000	39.53002000	13.04749000
129.86665913	0.00000000	38.36737000	12.67224000
130.06665912	0.00000000	37.57381000	12.62918000
130.26665911	0.00000000	36.83563000	12.67224000
130.46665909	0.00000000	36.83563000	13.04749000
130.66665908	0.00000000	37.57381000	13.79183000
130.86665907	0.00000000	38.32431000	14.16708000
131.06665906	0.00000000	39.15477000	14.21014000
131.26665905	0.00000000	39.90526000	14.16708000
131.46665904	0.00000000	40.64345000	13.79183000
131.66665902	0.00000000	40.64345000	13.00443000
131.86665901	0.00000000	39.90526000	12.25394000
132.06665900	0.00000000	39.19783000	11.46653000
132.26665899	0.00000000	38.74261000	11.14050000
132.46665898	0.00000000	38.73647000	11.46653000
132.66665896	0.00000000	38.32431000	12.21087000
132.86665895	0.00000000	37.99213000	12.62918000
133.06665894	0.00000000	37.94907000	13.04749000
133.26665893	0.00000000	37.99213000	13.79183000
133.46665892	0.00000000	38.32431000	14.16708000
133.66665890	0.00000000	38.73647000	14.21014000
133.86665889	0.00000000	38.69955000	14.16708000
134.06665888	0.00000000	38.73647000	13.79183000
134.26665887	0.00000000	38.32431000	13.00443000
134.46665886	0.00000000	38.04134000	12.25394000
134.66665885	0.00000000	38.36737000	11.46653000
134.86665883	0.00000000	39.11171000	11.09129000
135.06665882	0.00000000	39.48696000	11.04823000
135.26665881	0.00000000	39.53002000	11.09129000
135.46665880	0.00000000	39.53002000	11.46653000
135.66665879	0.00000000	39.53002000	12.25394000
135.86665877	0.00000000	39.48696000	13.00443000
136.06665876	0.00000000	39.11171000	13.79183000
136.26665875	0.00000000	38.32431000	14.16708000
136.46665874	0.00000000	37.57381000	14.21014000
136.66665873	0.00000000	36.83563000	14.21014000
136.86665871	0.00000000	36.83563000	14.16708000
137.06665870	0.00000000	37.57381000	13.79183000
137.26665869	0.00000000	38.32431000	13.00443000
137.46665868	0.00000000	39.11171000	12.25394000
137.66665867	0.00000000	39.53002000	11.46653000
137.86665866	0.00000000	39.90526000	11.09129000
138.06665864	0.00000000	40.27436000	11.04823000
138.26665863	0.00000000	39.90526000	11.09129000
138.46665862	0.00000000	39.48696000	11.46653000
138.66665861	0.00000000	38.73647000	12.21087000
138.86665860	0.00000000	37.57997000	12.62918000
139.06665858	0.00000000	37.24163000	13.04749000
139.26665857	0.00000000	37.16166000	13.79183000
139.46665856	0.00000000	37.57381000	14.16708000
139.66665855	0.00000000	37.94907000	14.21014000
139.86665854	0.00000000	38.36737000	14.21014000
140.06665852	0.00000000	39.11171000	14.16708000
140.26665851	0.00000000	39.48696000	13.79183000
140.46665850	0.00000000	39.53002000	13.00443000
140.66665849	0.00000000	39.53002000	12.25394000
140.86665848	0.00000000	39.48696000	11.46653000
141.06665847	0.00000000	39.11171000	11.09129000
141.26665845	0.00000000	38.36737000	11.09129000
141.46665844	0.00000000	37.99213000	11.51575000
141.66665843	0.00000000	37.94907000	12.62918000
141.86665842	0.00000000	37.99213000	13.79183000
142.06665841	0.00000000	38.36737000	14.58538000
142.26665839	0.00000000	39.11171000	15.32357000
142.46665838	0.00000000	39.48696000	15.32357000
142.66665837	0.00000000	39.48696000	14.58538000
142.86665836	0.00000000	39.15477000	13.83489000
143.06665835	0.00000000	38.74261000	13.04749000
143.26665834	0.00000000	38.73647000	12.62918000
143.46665832	0.00000000	38.32431000	12.21087000
143.66665831	0.00000000	37.99213000	11.46653000
143.86665830	0.00000000	37.94907000	11.14050000
144.06665829	0.00000000	37.99213000	11.46653000
144.26665828	0.00000000	38.36737000	12.25394000
144.46665826	0.00000000	39.11171000	13.00443000
144.66665825	0.00000000	39.48696000	13.79183000
144.86665824	0.00000000	39.53002000	14.16708000
145.06665823	0.00000000	39.53002000	14.21014000
145.26665822	0.00000000	39.48696000	14.16708000
145.46665820	0.00000000	39.11171000	13.79183000
145.66665819	0.00000000	38.36737000	13.04749000
145.86665818	0.00000000	37.99213000	12.67224000
146.06665817	0.00000000	37.94907000	12.58612000
146.26665816	0.00000000	37.94907000	12.25394000
146.46665815	0.00000000	37.99213000	11.88484000
146.66665813	0.00000000	38.32431000	12.25394000
146.86665812	0.00000000	38.73647000	12.58612000
147.06665811	0.00000000	38.69955000	12.62918000
147.26665810	0.00000000	38.77953000	12.62918000
147.46665809	0.00000000	38.74261000	12.67224000
147.66665807	0.00000000	39.11171000	13.00443000
147.86665806	0.00000000	39.06250000	13.41658000
148.06665805	0.00000000	38.36737000	13.37967000
148.26665804	0.00000000	37.99213000	13.41658000
148.46665803	0.00000000	37.94907000	13.00443000
148.66665801	0.00000000	37.99213000	12.67224000
148.86665800	0.00000000	38.32431000	12.58612000
149.06665799	0.00000000	38.73647000	12.21087000
149.26665798	0.00000000	38.74261000	11.51575000
149.46665797	0.00000000	39.15477000	11.51575000
149.66665796	0.00000000	39.48696000	12.21087000
149.86665794	0.00000000	39.53002000	12.58612000
150.06665793	0.00000000	39.53002000	12.67224000
150.26665792	0.00000000	39.48696000	13.04749000
150.46665791	0.00000000	39.11171000	13.79183000
150.66665790	0.00000000	38.36737000	14.16708000
150.86665788	0.00000000	37.99213000	14.21014000
151.06665787	0.00000000	37.94907000	14.16708000
151.26665786	0.00000000	37.94907000	13.79183000
151.46665785	0.00000000	37.94907000	13.04749000
151.66665784	0.00000000	37.94907000	12.67224000
151.86665782	0.00000000	37.94907000	12.62918000
152.06665781	0.00000000	37.99213000	12.62918000
152.26665780	0.00000000	38.36737000	12.62918000
152.46665779	0.00000000	39.11171000	12.62918000
152.66665778	0.00000000	39.48696000	12.62918000
152.86665777	0.00000000	39.53002000	12.62918000
153.06665775	0.00000000	39.53002000	12.62918000
153.26665774	0.00000000	39.48696000	12.62918000
153.46665773	0.00000000	39.11171000	12.62918000
153.66665772	0.00000000	38.36737000	12.67224000
153.86665771	0.00000000	37.99213000	13.04749000
154.06665769	0.00000000	37.94907000	13.74262000
154.26665768	0.00000000	37.94907000	13.74262000
154.46665767	0.00000000	37.94907000	13.04749000
154.66665766	0.00000000	37.94907000	12.67224000
154.86665765	0.00000000	37.94907000	12.62918000
155.06665763	0.00000000	37.99213000	12.62918000
155.26665762	0.00000000	38.36737000	12.62918000
155.46665761	0.00000000	39.11171000	12.62918000
155.66665760	0.00000000	39.48696000	12.62918000
155.86665759	0.00000000	39.53002000	12.62918000
156.06665758	0.00000000	39.53002000	12.62918000
156.26665756	0.00000000	39.48696000	12.67224000
156.46665755	0.00000000	39.11171000	13.04749000
156.66665754	0.00000000	38.36737000	13.79183000
156.86665753	0.00000000	37.94907000	14.16708000
157.06665752	0.00000000	37.57381000	14.21014000
157.26665750	0.00000000	37.20472000	14.16708000
157.46665749	0.00000000	37.57381000	13.79183000
157.66665748	0.00000000	37.90600000	13.04749000
157.86665747	0.00000000	37.94907000	12.67224000
158.06665746	0.00000000	37.99213000	12.62918000
158.26665744	0.00000000	38.36737000	12.58612000
158.46665743	0.00000000	39.11171000	12.25394000
158.66665742	0.00000000	39.48696000	11.88484000
158.86665741	0.00000000	39.48696000	12.25394000
159.06665740	0.00000000	39.11171000	12.62918000
159.26665739	0.00000000	38.36737000	13.00443000
159.46665737	0.00000000	37.99213000	13.41658000
159.66665736	0.00000000	37.94907000	13.42274000
159.86665735	0.00000000	37.94907000	13.83489000
160.06665734	0.00000000	37.94907000	14.11786000
160.26665733	0.00000000	37.94907000	13.79183000
160.46665731	0.00000000	37.94907000	13.04749000
160.66665730	0.00000000	37.94907000	12.67224000
160.86665729	0.00000000	37.94907000	12.62918000
161.06665728	0.00000000	37.94907000	12.58612000
161.26665727	0.00000000	37.94907000	12.25394000
161.46665725	0.00000000	37.94907000	11.88484000
161.66665724	0.00000000	37.99213000	12.25394000
161.86665723	0.00000000	38.36737000	12.58612000
162.06665722	0.00000000	39.06250000	12.62918000
162.26665721	0.00000000	39.06250000	12.62918000
162.46665720	0.00000000	38.36737000	12.62918000
162.66665718	0.00000000	37.99213000	12.62918000
162.86665717	0.00000000	37.94907000	12.62918000
163.06665716	0.00000000	37.94907000	12.67224000
163.26665715	0.00000000	37.94907000	13.00443000
163.46665714	0.00000000	37.94907000	13.37352000
163.66665712	0.00000000	37.94907000	13.00443000
163.86665711	0.00000000	37.94907000	12.67224000
164.06665710	0.00000000	37.94907000	12.62918000
164.26665709	0.00000000	37.94907000	12.62918000
164.46665708	0.00000000	37.94907000	12.62918000
164.66665706	0.00000000	37.99213000	12.62918000
164.86665705	0.00000000	38.36737000	12.62918000
165.06665704	0.00000000	39.06250000	12.58612000
165.26665703	0.00000000	39.11171000	12.29700000
165.46665702	0.00000000	38.74261000	12.26009000
165.66665701	0.00000000	38.73647000	12.99828000
165.86665699	0.00000000	38.32431000	12.96137000
166.06665698	0.00000000	37.99213000	12.67224000
166.26665697	0.00000000	37.94907000	12.62918000
166.46665696	0.00000000	37.90600000	12.62918000
166.66665695	0.00000000	37.57381000	12.62918000
166.86665693	0.00000000	37.20472000	12.62918000
167.06665692	0.00000000	37.57381000	12.62918000
167.26665691	0.00000000	37.90600000	12.62918000
167.46665690	0.00000000	37.94907000	12.62918000
167.66665689	0.00000000	37.94907000	12.62918000
167.86665687	0.00000000	37.99213000	12.62918000
168.06665686	0.00000000	38.36737000	12.62918000
168.26665685	0.00000000	39.06250000	12.62918000
168.46665684	0.00000000	39.06250000	12.62918000
168.66665683	0.00000000	38.36737000	12.62918000
168.86665682	0.00000000	37.99213000	12.62918000
169.06665680	0.00000000	37.94907000	12.62918000
169.26665679	0.00000000	37.94907000	12.62918000
169.46665678	0.00000000	37.94907000	12.62918000
169.66665677	0.00000000	37.94907000	12.62918000
169.86665676	0.00000000	37.94907000	12.62918000
170.06665674	0.00000000	37.90600000	12.62918000
170.26665673	0.00000000	37.61687000	12.62918000
170.46665672	0.00000000	37.57997000	12.62918000
170.66665671	0.00000000	38.31816000	12.62918000
170.86665670	0.00000000	38.28125000	12.62918000
171.06665668	0.00000000	37.99213000	12.62918000
171.26665667	0.00000000	37.94907000	12.62918000
171.46665666	0.00000000	37.94907000	12.62918000
171.66665665	0.00000000	37.94907000	12.62918000
171.86665664	0.00000000	37.94907000	12.62918000
172.06665663	0.00000000	37.94907000	12.62918000
172.26665661	0.00000000	37.94907000	12.62918000
172.46665660	0.00000000	37.94907000	12.62918000
172.66665659	0.00000000	37.94907000	12.67224000
172.86665658	0.00000000	37.94907000	13.00443000
173.06665657	0.00000000	37.94907000	13.37352000
173.26665655	0.00000000	37.94907000	13.04749000
173.46665654	0.00000000	37.94907000	13.04749000
173.66665653	0.00000000	37.94907000	13.32431000
173.86665652	0.00000000	37.94907000	12.62918000
174.06665651	0.00000000	37.94907000	11.84178000
174.26665649	0.00000000	37.94907000	11.46038000
174.46665648	0.00000000	37.94907000	10.72835000
174.66665647	0.00000000	37.94907000	11.14050000
174.86665646	0.00000000	37.94907000	12.16166000
175.06665645	0.00000000	37.94907000	12.58612000
175.26665644	0.00000000	37.94907000	12.62918000
175.46665642	0.00000000	37.94907000	12.62918000
175.66665641	0.00000000	37.94907000	12.62918000
175.86665640	0.00000000	37.94907000	12.62918000
176.06665639	0.00000000	37.94907000	12.62918000
176.26665638	0.00000000	37.94907000	12.62918000
176.46665636	0.00000000	37.94907000	12.62918000
176.66665635	0.00000000	37.94907000	12.62918000
176.86665634	0.00000000	37.94907000	12.62918000
177.06665633	0.00000000	37.94907000	12.62918000
177.26665632	0.00000000	37.94907000	12.62918000
177.46665630	0.00000000	37.94907000	12.62918000
177.66665629	0.00000000	37.94907000	12.62918000
177.86665628	0.00000000	37.94907000	12.62918000
178.06665627	0.00000000	37.94907000	12.62918000
178.26665626	0.00000000	37.94907000	12.62918000
178.46665625	0.00000000	37.94907000	12.62918000
178.66665623	0.00000000	37.94907000	12.62918000
178.86665622	0.00000000	37.94907000	12.62918000
179.06665621	0.00000000	37.94907000	12.67224000
179.26665620	0.00000000	37.99213000	13.00443000
179.46665619	0.00000000	38.32431000	13.37352000
179.66665617	0.00000000	38.69341000	13.00443000
179.86665616	0.00000000	38.32431000	12.67224000
180.06665615	0.00000000	37.99213000	12.62918000
180.26665614	0.00000000	37.94907000	12.62918000
180.46665613	0.00000000	37.94907000	12.62918000
180.66665611	0.00000000	37.94907000	12.62918000
180.86665610	0.00000000	37.94907000	12.62918000
181.06665609	0.00000000	37.94907000	12.62918000
181.26665608	0.00000000	37.94907000	12.62918000
181.46665607	0.00000000	37.94907000	12.62918000
181.66665606	0.00000000	37.94907000	12.62918000
181.86665604	0.00000000	37.94907000	12.67224000
182.06665603	0.00000000	37.94907000	13.00443000
182.26665602	0.00000000	37.94907000	13.37352000
182.46665601	0.00000000	37.94907000	13.00443000
182.66665600	0.00000000	37.94907000	12.67224000
182.86665598	0.00000000	37.94907000	12.62918000
183.06665597	0.00000000	37.94907000	12.58612000
183.26665596	0.00000000	37.94907000	12.25394000
183.46665595	0.00000000	37.94907000	11.88484000
183.66665594	0.00000000	37.94907000	12.25394000
183.86665592	0.00000000	37.94907000	12.58612000
184.06665591	0.00000000	37.94907000	12.62918000
184.26665590	0.00000000	37.94907000	12.62918000
184.46665589	0.00000000	37.94907000	12.62918000
184.66665588	0.00000000	37.94907000	12.62918000
184.86665587	0.00000000	37.94907000	12.62918000
185.06665585	0.00000000	37.94907000	12.62918000
185.26665584	0.00000000	37.94907000	12.62918000
185.46665583	0.00000000	37.94907000	12.62918000
185.66665582	0.00000000	37.94907000	12.58612000
185.86665581	0.00000000	37.94907000	12.21087000
186.06665579	0.00000000	37.94907000	11.46653000
186.26665578	0.00000000	37.94907000	11.09129000
186.46665577	0.00000000	37.94907000	11.09129000
186.66665576	0.00000000	37.94907000	11.46653000
186.86665575	0.00000000	37.94907000	12.21087000
187.06665573	0.00000000	37.90600000	12.58612000
187.26665572	0.00000000	37.57381000	12.67224000
187.46665571	0.00000000	37.20472000	13.04749000
187.66665570	0.00000000	37.57381000	13.74262000
187.86665569	0.00000000	37.90600000	13.74262000
188.06665568	0.00000000	37.94907000	13.04749000
188.26665566	0.00000000	37.94907000	12.67224000
188.46665565	0.00000000	37.94907000	12.62918000
188.66665564	0.00000000	37.94907000	12.62918000
188.86665563	0.00000000	37.94907000	12.62918000
189.06665562	0.00000000	37.94907000	12.58612000
189.26665560	0.00000000	37.94907000	12.21087000
189.46665559	0.00000000	37.94907000	11.51575000
189.66665558	0.00000000	37.90600000	11.51575000
189.86665557	0.00000000	37.57381000	12.21087000
190.06665556	0.00000000	37.20472000	12.58612000
190.26665554	0.00000000	37.57381000	12.62918000
190.46665553	0.00000000	37.90600000	12.62918000
190.66665552	0.00000000	37.94907000	12.62918000
190.86665551	0.00000000	37.94907000	12.62918000
191.06665550	0.00000000	37.99213000	12.62918000
191.26665549	0.00000000	38.32431000	12.62918000
191.46665547	0.00000000	38.69341000	12.62918000
191.66665546	0.00000000	38.32431000	12.62918000
191.86665545	0.00000000	37.99213000	12.62918000
192.06665544	0.00000000	37.94907000	12.62918000
192.26665543	0.00000000	37.94907000	12.62918000
192.46665541	0.00000000	37.94907000	12.62918000
192.66665540	0.00000000	37.94907000	12.62918000
192.86665539	0.00000000	37.94907000	12.62918000
193.06665538	0.00000000	37.94907000	12.62918000
193.26665537	0.00000000	37.94907000	12.62918000
193.46665535	0.00000000	37.90600000	12.62918000
193.66665534	0.00000000	37.57381000	12.62918000
193.86665533	0.00000000	37.20472000	12.62918000
194.06665532	0.00000000	37.57381000	12.62918000
194.26665531	0.00000000	37.90600000	12.62918000
194.46665530	0.00000000	37.94907000	12.62918000
194.66665528	0.00000000	37.94907000	12.62918000
194.86665527	0.00000000	37.94907000	12.62918000
195.06665526	0.00000000	37.94907000	12.62918000
195.26665525	0.00000000	37.94907000	12.62918000
195.46665524	0.00000000	37.90600000	12.62918000
195.66665522	0.00000000	37.57381000	12.62918000
195.86665521	0.00000000	37.16166000	12.62918000
196.06665520	0.00000000	37.19857000	12.62918000
