Time	Channel A	Channel B	Channel C
(us)	(V)	(mV)	(mV)

-4.59999956	0.00000000	89.01328000	39.47465000
-4.39999957	0.00000000	89.01328000	39.47465000
-4.19999958	0.00000000	89.70841000	39.47465000
-3.99999959	0.00000000	90.08366000	39.47465000
-3.79999960	0.00000000	90.12672000	39.47465000
-3.59999962	0.00000000	90.08366000	39.47465000
-3.39999963	0.00000000	89.75147000	39.47465000
-3.19999964	0.00000000	89.38238000	39.47465000
-2.99999965	0.00000000	89.75147000	39.47465000
-2.79999966	0.00000000	90.08366000	39.47465000
-2.59999968	0.00000000	90.12672000	39.43159000
-2.39999969	0.00000000	90.12672000	39.09941000
-2.19999970	0.00000000	90.12672000	38.73031000
-1.99999971	0.00000000	90.12672000	39.05635000
-1.79999972	0.00000000	90.12672000	39.05635000
-1.59999973	0.00000000	90.12672000	38.68725000
-1.39999975	0.00000000	90.12672000	38.68110000
-1.19999976	0.00000000	90.12672000	38.31200000
-0.99999977	0.00000000	90.12672000	38.31200000
-0.79999978	0.00000000	90.12672000	38.68110000
-0.59999979	0.00000000	90.12672000	38.64419000
-0.39999981	0.00000000	90.08366000	38.68110000
-0.19999982	0.31803640	89.75147000	38.31200000
0.00000017	0.79601380	89.33932000	38.31200000
0.20000016	0.95533960	89.37623000	38.63804000
0.40000015	1.11466500	89.29626000	38.26894000
0.60000013	0.79601380	89.37623000	37.93676000
0.80000012	0.15871060	89.33932000	37.89370000
1.00000011	-0.79601380	89.70841000	37.89370000
1.20000010	-1.75196900	89.70841000	37.93676000
1.40000009	-2.54859700	89.38238000	38.31200000
1.60000008	-2.70792300	89.75147000	39.05635000
1.80000006	-2.22994600	90.08366000	39.43159000
2.00000005	-0.95533960	90.12672000	39.47465000
2.20000004	1.11466500	90.12672000	39.47465000
2.40000003	3.18590100	90.12672000	39.47465000
2.60000002	4.77854300	90.08366000	39.43159000
2.80000000	5.41584600	89.70841000	39.05635000
2.99999999	4.61921700	88.96407000	38.31200000
3.19999998	2.38927200	88.63803000	37.93676000
3.39999997	-0.79601380	88.96407000	37.89370000
3.59999996	-4.14124000	89.70841000	37.93676000
3.79999994	-6.84916400	90.08366000	38.31200000
3.99999993	-7.96444400	90.12672000	39.05635000
4.19999992	-7.00848900	90.12672000	39.47465000
4.39999991	-4.30056600	90.12672000	39.84990000
4.59999990	-0.15871060	90.12672000	40.21899000
4.79999989	4.30056600	90.12672000	39.84990000
4.99999987	7.80511800	90.08366000	39.51771000
5.19999986	9.39837600	89.70841000	39.43159000
5.39999985	8.76107300	88.96407000	39.05635000
5.59999984	5.89382400	88.58882000	38.31200000
5.79999983	1.43331700	88.58882000	37.93676000
5.99999981	-3.50393700	88.96407000	37.89370000
6.19999980	-7.32714100	89.70841000	37.93676000
6.39999979	-9.39837600	90.08366000	38.31200000
6.59999978	-9.07972400	90.08366000	39.05635000
6.79999977	-6.53112700	89.75147000	39.43159000
6.99999975	-2.38927200	89.38238000	39.47465000
7.19999974	1.91129400	89.75147000	39.47465000
7.39999973	5.41584600	90.08366000	39.47465000
7.59999972	7.48646600	90.12672000	39.47465000
7.79999971	7.48646600	90.12672000	39.47465000
7.99999970	5.73449800	90.12672000	39.47465000
8.19999968	2.70792300	90.12672000	39.47465000
8.39999967	-0.63668800	90.12672000	39.47465000
8.59999966	-3.34522600	90.12672000	39.47465000
8.79999965	-4.93786900	90.12672000	39.47465000
8.99999964	-5.09719500	90.12672000	39.47465000
9.19999962	-4.14124000	90.12672000	39.47465000
9.39999961	-2.22994600	90.12672000	39.47465000
9.59999960	-0.31803640	90.12672000	39.47465000
9.79999959	1.43331700	90.12672000	39.47465000
9.99999958	2.38927200	90.12672000	39.47465000
10.19999956	2.54859700	90.12672000	39.47465000
10.39999955	2.07062000	90.12672000	39.47465000
10.59999954	1.27399100	90.12672000	39.47465000
10.79999953	0.31803640	90.12672000	39.47465000
10.99999952	-0.31803640	90.12672000	39.47465000
11.19999951	-0.79601380	90.12672000	39.47465000
11.39999949	-0.95533960	90.12672000	39.47465000
11.59999948	-0.95533960	90.12672000	39.47465000
11.79999947	-0.63668800	90.12672000	39.47465000
11.99999946	-0.31803640	90.12672000	39.47465000
12.19999945	-0.15871060	90.12672000	39.47465000
12.39999943	-0.15871060	90.12672000	39.47465000
12.59999942	0.00000000	90.12672000	39.47465000
12.79999941	0.00000000	90.12672000	39.47465000
12.99999940	0.00000000	90.12672000	39.47465000
13.19999939	0.15871060	90.12672000	39.47465000
13.39999937	0.00000000	90.12672000	39.47465000
13.59999936	0.00000000	90.12672000	39.47465000
13.79999935	0.00000000	90.12672000	39.43159000
13.99999934	0.00000000	90.12672000	39.09941000
14.19999933	-0.15871060	90.12672000	38.73031000
14.39999932	-0.15871060	90.12672000	39.05635000
14.59999930	-0.15871060	90.12672000	39.05635000
14.79999929	0.00000000	90.12672000	38.68725000
14.99999928	0.00000000	90.12672000	38.68110000
15.19999927	0.00000000	90.12672000	38.26894000
15.39999926	0.00000000	90.08366000	37.93676000
15.59999924	0.00000000	89.70841000	37.89370000
15.79999923	0.00000000	88.96407000	37.89370000
15.99999922	0.00000000	88.58882000	37.89370000
16.19999921	0.00000000	88.58882000	37.89370000
16.39999920	0.00000000	88.96407000	37.93676000
16.59999919	-0.15871060	89.70841000	38.26894000
16.79999917	0.00000000	90.08366000	38.63804000
16.99999916	-0.15871060	90.16978000	38.26894000
17.19999915	0.00000000	90.54502000	37.93676000
17.39999914	0.00000000	91.28937000	37.89370000
17.59999913	0.00000000	91.66460000	37.89370000
17.79999911	0.00000000	91.66460000	37.93676000
17.99999910	0.00000000	91.24016000	38.26894000
18.19999909	0.00000000	90.08366000	38.68110000
18.39999908	0.00000000	88.54576000	38.68725000
18.59999907	0.00000000	86.96481000	39.09941000
18.79999905	0.00000000	85.42691000	39.38238000
18.99999904	0.00000000	84.31348000	39.09941000
19.19999903	0.00000000	84.35654000	38.73031000
19.39999902	0.00000000	85.93749000	39.05635000
19.59999901	0.00000000	89.01328000	39.05635000
19.79999900	0.00000000	92.91338000	38.73031000
19.99999898	0.00000000	96.73966000	39.09941000
20.19999897	0.00000000	99.84620000	39.43159000
20.39999896	0.00000000	100.92890000	39.47465000
20.59999895	0.00000000	99.76008000	39.47465000
20.79999894	0.00000000	95.81078000	39.47465000
20.99999892	0.00000000	89.61613000	39.47465000
21.19999891	0.00000000	82.22194000	39.47465000
21.39999890	0.00000000	74.96309000	39.47465000
21.59999889	0.00000000	70.02953000	39.47465000
21.79999888	0.00000000	69.70349000	39.47465000
21.99999886	0.00000000	74.35408000	39.47465000
22.19999885	0.00000000	83.32922000	39.47465000
22.39999884	0.00000000	95.28789000	39.47465000
22.59999883	0.00000000	107.70790000	39.47465000
22.79999882	0.00000000	117.63040000	39.47465000
22.99999881	0.00000000	122.60090000	39.51771000
23.19999879	0.00000000	119.77120000	39.89296000
23.39999878	0.00000000	109.71950000	40.63730000
23.59999877	0.00000000	93.85457000	41.01255000
23.79999876	0.00000000	75.70742000	41.05561000
23.99999875	0.00000000	59.87943000	41.05561000
24.19999873	0.00000000	49.51402000	41.01255000
24.39999872	0.00000000	48.06225000	40.58809000
24.59999871	0.00000000	56.57603000	39.43159000
24.79999870	0.00000000	73.23450000	37.89370000
24.99999869	0.00000000	94.91880000	36.31274000
25.19999867	0.00000000	116.87990000	34.82406000
25.39999866	0.00000000	133.82140000	34.04282000
25.59999865	0.00000000	141.08020000	34.45497000
25.79999864	0.00000000	136.47270000	35.66683000
25.99999863	0.00000000	120.97690000	38.40428000
26.19999862	0.00000000	98.22219000	42.25517000
26.39999860	0.00000000	73.10531000	46.11835000
26.59999859	0.00000000	51.88238000	49.55708000
26.79999858	0.00000000	39.08710000	50.99655000
26.99999857	0.00000000	37.59227000	49.46481000
27.19999856	0.00000000	48.01919000	45.19562000
27.39999854	0.00000000	68.07332000	38.96407000
27.59999853	0.00000000	92.77805000	31.62524000
27.79999852	0.00000000	116.32630000	24.69857000
27.99999851	0.00000000	133.35380000	20.09719000
28.19999850	0.00000000	140.00980000	18.98376000
28.39999848	0.00000000	135.82060000	22.14567000
28.59999847	0.00000000	122.23180000	29.52756000
28.79999846	0.00000000	101.75930000	40.02829000
28.99999845	0.00000000	79.05388000	51.92544000
29.19999844	0.00000000	60.07012000	62.28469000
29.39999843	0.00000000	48.76353000	67.67963000
29.59999841	0.00000000	46.39517000	67.26131000
29.79999840	0.00000000	53.32185000	60.61147000
29.99999839	0.00000000	67.56274000	48.25910000
30.19999838	0.00000000	85.38385000	33.20005000
30.39999837	0.00000000	103.16190000	18.47318000
30.59999835	0.00000000	117.11370000	6.95127900
30.79999834	0.00000000	124.13880000	1.61171300
30.99999833	0.00000000	123.85580000	4.34916300
31.19999832	0.00000000	116.87990000	14.75763000
31.39999831	0.00000000	104.87820000	30.59793000
31.59999829	0.00000000	90.21899000	48.35138000
31.79999828	0.00000000	76.31028000	64.24089000
31.99999827	0.00000000	66.57849000	75.02460000
32.19999826	0.00000000	62.25393000	78.50024000
32.39999825	0.00000000	63.79183000	73.44365000
32.59999824	0.00000000	70.72466000	61.12204000
32.79999822	0.00000000	81.15157000	44.07603000
32.99999821	0.00000000	92.73499000	25.99655000
33.19999820	0.00000000	102.78670000	10.85753000
33.39999819	0.00000000	109.02440000	1.97465500
33.59999818	0.00000000	110.60530000	0.40600390
33.79999816	0.00000000	107.52950000	6.99434000
33.99999815	0.00000000	100.59670000	20.05413000
34.19999814	0.00000000	91.75688000	36.36196000
34.39999813	0.00000000	83.24310000	52.95275000
34.59999812	0.00000000	77.05462000	66.46776000
34.79999810	0.00000000	74.35408000	73.40058000
34.99999809	0.00000000	75.89198000	72.69316000
35.19999808	0.00000000	81.19463000	64.60999000
35.39999807	0.00000000	88.12745000	51.50713000
35.59999806	0.00000000	94.69118000	36.44808000
35.79999805	0.00000000	99.71703000	22.56398000
35.99999803	0.00000000	101.62400000	13.31201000
36.19999802	0.00000000	100.13530000	10.57456000
36.39999801	0.00000000	95.89690000	14.75763000
36.59999800	0.00000000	90.16978000	24.37254000
36.79999799	0.00000000	84.77485000	36.68799000
36.99999797	0.00000000	81.28690000	49.00344000
37.19999796	0.00000000	80.12425000	57.83095000
37.39999795	0.00000000	81.66215000	60.94365000
37.59999794	0.00000000	85.47613000	57.92323000
37.79999793	0.00000000	90.12672000	49.88312000
37.99999791	0.00000000	94.77731000	39.56693000
38.19999790	0.00000000	98.59743000	29.94586000
38.39999789	0.00000000	100.12920000	23.81275000
38.59999788	0.00000000	99.01575000	22.65010000
38.79999787	0.00000000	95.93995000	26.88238000
38.99999786	0.00000000	91.66460000	35.24852000
39.19999784	0.00000000	87.05708000	44.82037000
39.39999783	0.00000000	83.15083000	52.48523000
39.59999782	0.00000000	80.81939000	56.29921000
39.79999781	0.00000000	80.03198000	54.76132000
39.99999780	0.00000000	81.23769000	48.30832000
40.19999778	0.00000000	84.31348000	39.47465000
40.39999777	0.00000000	88.54576000	30.55487000
40.59999776	0.00000000	92.82111000	23.34522000
40.79999775	0.00000000	96.35826000	20.33095000
40.99999774	0.00000000	99.05880000	23.34522000
41.19999772	0.00000000	100.17840000	30.59793000
41.39999771	0.00000000	99.05880000	39.89296000
41.59999770	0.00000000	96.35826000	49.46481000
41.79999769	0.00000000	92.87032000	56.34227000
41.99999768	0.00000000	88.96407000	58.29847000
42.19999767	0.00000000	85.51919000	55.27190000
42.39999765	0.00000000	83.15083000	48.35138000
42.59999764	0.00000000	82.35728000	39.56693000
42.79999763	0.00000000	82.73252000	31.44069000
42.99999762	0.00000000	84.31348000	25.99655000
43.19999761	0.00000000	87.00787000	23.62820000
43.39999759	0.00000000	90.08366000	24.83391000
43.59999758	0.00000000	92.77805000	29.39222000
43.79999757	0.00000000	94.31594000	35.93750000
43.99999756	0.00000000	94.40206000	42.45201000
44.19999755	0.00000000	93.70693000	47.50861000
44.39999753	0.00000000	93.28863000	49.79700000
44.59999752	0.00000000	92.87032000	49.13878000
44.79999751	0.00000000	92.12598000	46.07529000
44.99999750	0.00000000	91.75073000	42.25517000
45.19999749	0.00000000	91.66460000	38.31200000
45.39999748	0.00000000	91.24016000	34.87328000
45.59999746	0.00000000	90.03444000	32.54798000
45.79999745	0.00000000	88.12745000	32.17273000
45.99999744	0.00000000	85.75910000	33.61835000
46.19999743	0.00000000	83.42766000	35.93750000
46.39999742	0.00000000	81.19463000	38.26894000
46.59999740	0.00000000	80.49950000	40.63730000
46.79999739	0.00000000	82.44955000	42.54429000
46.99999738	0.00000000	86.31274000	43.70079000
47.19999737	0.00000000	91.79995000	43.70079000
47.39999736	0.00000000	97.89616000	42.54429000
47.59999734	0.00000000	102.92200000	40.58809000
47.79999733	0.00000000	105.16120000	37.89370000
47.99999732	0.00000000	103.99240000	35.24852000
48.19999731	0.00000000	98.92347000	33.66756000
48.39999730	0.00000000	91.28937000	33.29232000
48.59999729	0.00000000	83.10777000	34.08588000
48.79999727	0.00000000	76.16879000	36.40502000
48.99999726	0.00000000	71.61047000	39.47465000
49.19999725	0.00000000	71.65969000	42.58735000
49.39999724	0.00000000	76.63017000	45.28174000
49.59999723	0.00000000	84.73178000	46.77042000
49.79999721	0.00000000	94.35899000	46.39517000
49.99999720	0.00000000	102.82970000	44.07603000
50.19999719	0.00000000	107.90480000	40.63730000
50.39999718	0.00000000	109.02440000	36.73105000
50.59999717	0.00000000	105.53030000	33.29232000
50.79999715	0.00000000	97.85310000	30.97318000
50.99999714	0.00000000	88.63803000	30.59793000
51.19999713	0.00000000	80.12425000	32.12967000
51.39999712	0.00000000	74.39714000	35.24852000
51.59999711	0.00000000	73.19143000	39.51771000
51.79999710	0.00000000	76.63017000	44.07603000
51.99999708	0.00000000	83.15083000	47.55782000
52.19999707	0.00000000	91.28937000	48.72662000
52.39999706	0.00000000	98.92347000	47.97613000
52.59999705	0.00000000	103.94930000	45.23868000
52.79999704	0.00000000	104.69980000	41.05561000
52.99999702	0.00000000	101.29800000	36.82332000
53.19999701	0.00000000	94.78345000	33.71063000
53.39999700	0.00000000	87.47539000	32.17273000
53.59999699	0.00000000	81.32996000	32.54798000
53.79999698	0.00000000	77.84818000	34.82406000
53.99999696	0.00000000	78.26033000	37.85064000
54.19999695	0.00000000	82.03740000	40.58809000
54.39999694	0.00000000	88.17052000	42.49508000
54.59999693	0.00000000	94.31594000	43.28247000
54.79999692	0.00000000	98.92347000	42.54429000
54.99999691	0.00000000	100.91660000	41.00639000
55.19999689	0.00000000	99.76624000	39.09941000
55.39999688	0.00000000	96.68430000	37.24163000
55.59999687	0.00000000	91.61539000	36.86639000
55.79999686	0.00000000	85.93749000	37.98597000
55.99999685	0.00000000	81.70521000	39.89296000
56.19999683	0.00000000	80.16732000	42.16904000
56.39999682	0.00000000	81.66215000	43.65773000
56.59999681	0.00000000	85.47613000	43.65773000
56.79999680	0.00000000	90.08366000	42.11983000
56.99999679	0.00000000	94.35899000	39.42544000
57.19999677	0.00000000	97.43479000	36.31274000
57.39999676	0.00000000	98.59129000	33.24926000
57.59999675	0.00000000	97.47784000	31.01624000
57.79999674	0.00000000	94.77731000	31.06545000
57.99999673	0.00000000	91.33242000	33.75369000
58.19999672	0.00000000	87.85063000	38.40428000
58.39999670	0.00000000	85.56225000	44.11909000
58.59999669	0.00000000	84.73178000	49.08956000
58.79999668	0.00000000	85.56225000	51.41486000
58.99999667	0.00000000	87.75835000	51.03962000
59.19999666	0.00000000	90.44660000	47.88385000
59.39999664	0.00000000	91.99065000	42.11983000
59.59999663	0.00000000	92.87032000	35.19931000
59.79999662	0.00000000	93.19635000	29.06619000
59.99999661	0.00000000	92.82111000	25.20915000
60.19999660	0.00000000	91.70767000	24.88312000
60.39999658	0.00000000	90.54502000	28.32185000
60.59999657	0.00000000	89.75147000	34.87328000
60.79999656	0.00000000	89.01328000	42.54429000
60.99999655	0.00000000	89.01328000	49.50787000
61.19999654	0.00000000	89.75147000	54.06619000
61.39999653	0.00000000	90.50197000	54.85359000
61.59999651	0.00000000	91.28937000	51.41486000
61.79999650	0.00000000	91.61539000	45.23868000
61.99999649	0.00000000	91.24016000	37.51845000
62.19999648	0.00000000	90.12672000	29.81053000
62.39999647	0.00000000	88.96407000	24.46481000
62.59999645	0.00000000	88.17052000	22.47170000
62.79999644	0.00000000	87.43233000	24.41560000
62.99999643	0.00000000	87.47539000	29.39222000
63.19999642	0.00000000	88.58882000	36.40502000
63.39999641	0.00000000	90.12672000	44.07603000
63.59999639	0.00000000	91.66460000	50.62130000
63.79999638	0.00000000	92.82111000	54.06619000
63.99999637	0.00000000	93.24557000	53.74015000
64.19999636	0.00000000	93.19635000	49.88312000
64.39999635	0.00000000	92.40280000	43.74385000
64.59999634	0.00000000	90.50197000	36.78026000
64.79999632	0.00000000	88.63803000	30.64099000
64.99999631	0.00000000	87.43233000	26.74705000
65.19999630	0.00000000	87.05708000	25.90428000
65.39999629	0.00000000	87.43233000	27.39296000
65.59999628	0.00000000	88.58882000	30.55487000
65.79999626	0.00000000	90.12672000	35.15625000
65.99999625	0.00000000	91.66460000	40.16978000
66.19999624	0.00000000	92.77805000	44.07603000
66.39999623	0.00000000	92.77805000	46.85654000
66.59999622	0.00000000	91.66460000	48.39444000
66.79999620	0.00000000	90.12672000	48.43750000
66.99999619	0.00000000	88.58882000	47.23179000
67.19999618	0.00000000	87.47539000	44.90649000
67.39999617	0.00000000	87.47539000	41.43085000
67.59999616	0.00000000	88.63803000	37.94291000
67.79999615	0.00000000	90.59423000	34.78100000
67.99999613	0.00000000	93.24557000	32.08661000
68.19999612	0.00000000	95.52164000	30.51181000
68.39999611	0.00000000	96.31520000	30.13656000
68.59999610	0.00000000	95.89690000	30.93012000
68.79999609	0.00000000	93.94069000	33.29232000
68.99999607	0.00000000	90.45890000	36.78026000
69.19999606	0.00000000	86.63262000	41.05561000
69.39999605	0.00000000	83.15083000	45.32480000
69.59999604	0.00000000	81.28690000	48.76968000
69.79999603	0.00000000	81.66215000	50.67052000
69.99999601	0.00000000	84.35654000	49.92618000
70.19999600	0.00000000	88.63803000	47.23179000
70.39999599	0.00000000	93.70693000	43.32554000
70.59999598	0.00000000	99.05880000	38.31200000
70.79999597	0.00000000	102.82970000	33.66756000
70.99999596	0.00000000	103.25420000	30.22268000
71.19999594	0.00000000	100.59670000	28.69709000
71.39999593	0.00000000	95.93995000	30.22268000
71.59999592	0.00000000	90.08366000	33.62450000
71.79999591	0.00000000	83.93823000	37.93676000
71.99999590	0.00000000	78.96161000	42.53814000
72.19999588	0.00000000	77.00541000	46.35211000
72.39999587	0.00000000	78.12499000	47.92691000
72.59999586	0.00000000	81.61294000	47.23179000
72.79999585	0.00000000	87.05708000	45.32480000
72.99999584	0.00000000	93.19635000	42.58735000
73.19999582	0.00000000	98.59743000	39.51771000
73.39999581	0.00000000	101.71630000	36.82332000
73.59999580	0.00000000	102.13460000	35.29158000
73.79999579	0.00000000	100.22150000	35.24852000
73.99999578	0.00000000	96.36441000	36.36196000
74.19999577	0.00000000	91.70767000	37.85064000
74.39999575	0.00000000	87.05708000	39.00713000
74.59999574	0.00000000	83.19389000	39.33932000
74.79999573	0.00000000	81.28690000	38.63804000
74.99999572	0.00000000	81.61294000	37.10630000
75.19999571	0.00000000	83.93823000	35.98671000
75.39999569	0.00000000	87.38312000	35.24852000
75.59999568	0.00000000	91.24016000	35.70989000
75.79999567	0.00000000	94.31594000	37.98597000
75.99999566	0.00000000	95.89690000	41.05561000
76.19999565	0.00000000	95.89690000	44.11909000
76.39999563	0.00000000	94.40206000	46.39517000
76.59999562	0.00000000	92.17519000	46.77042000
76.79999561	0.00000000	90.59423000	45.23868000
76.99999560	0.00000000	89.75147000	42.11983000
77.19999559	0.00000000	89.01328000	37.85064000
77.39999558	0.00000000	89.01328000	33.24926000
77.59999556	0.00000000	89.70841000	29.39222000
77.79999555	0.00000000	90.03444000	27.48524000
77.99999554	0.00000000	89.70841000	27.90354000
78.19999553	0.00000000	88.96407000	31.01624000
78.39999552	0.00000000	88.54576000	36.36196000
78.59999550	0.00000000	88.17052000	42.16289000
78.79999549	0.00000000	87.85063000	47.18872000
78.99999548	0.00000000	88.63803000	50.62130000
79.19999547	0.00000000	90.12672000	50.99655000
79.39999546	0.00000000	91.75073000	48.39444000
79.59999544	0.00000000	93.66387000	44.11909000
79.79999543	0.00000000	95.52164000	39.09941000
79.99999542	0.00000000	95.89690000	34.08588000
80.19999541	0.00000000	94.77731000	30.59793000
80.39999540	0.00000000	92.82111000	28.97392000
80.59999539	0.00000000	90.12672000	29.01698000
80.79999537	0.00000000	87.43233000	30.93012000
80.99999536	0.00000000	85.51919000	34.40575000
81.19999535	0.00000000	84.73178000	38.26894000
81.39999534	0.00000000	85.51919000	42.16904000
81.59999533	0.00000000	87.43233000	45.23868000
81.79999531	0.00000000	90.12672000	46.85654000
81.99999530	0.00000000	92.77805000	47.23179000
82.19999529	0.00000000	94.40206000	46.48745000
82.39999528	0.00000000	95.15255000	44.53740000
82.59999527	0.00000000	95.14641000	42.21210000
82.79999525	0.00000000	93.57159000	39.42544000
82.99999524	0.00000000	91.33242000	36.36196000
83.19999523	0.00000000	89.01328000	33.66756000
83.39999522	0.00000000	87.47539000	32.08661000
83.59999521	0.00000000	87.05708000	31.71137000
83.79999520	0.00000000	87.43233000	32.46186000
83.99999518	0.00000000	88.58882000	34.44881000
84.19999517	0.00000000	90.08366000	37.15551000
84.39999516	0.00000000	91.24016000	40.68036000
84.59999515	0.00000000	91.66460000	44.11909000
84.79999514	0.00000000	91.70767000	46.85654000
84.99999512	0.00000000	91.70767000	48.35138000
85.19999511	0.00000000	91.66460000	47.97613000
85.39999510	0.00000000	91.33242000	45.65698000
85.59999509	0.00000000	90.96333000	42.16904000
85.79999508	0.00000000	91.33242000	37.89370000
85.99999506	0.00000000	91.66460000	33.66756000
86.19999505	0.00000000	91.70767000	30.59793000
86.39999504	0.00000000	91.66460000	29.44143000
86.59999503	0.00000000	91.24016000	30.64099000
86.79999502	0.00000000	90.12672000	34.08588000
86.99999501	0.00000000	88.96407000	39.05635000
87.19999499	0.00000000	88.17052000	43.70079000
87.39999498	0.00000000	87.43233000	47.18872000
87.59999497	0.00000000	87.47539000	49.08956000
87.79999496	0.00000000	88.58882000	48.30832000
87.99999495	0.00000000	90.12672000	45.28174000
88.19999493	0.00000000	91.70767000	41.00639000
88.39999492	0.00000000	93.19635000	36.36196000
88.59999491	0.00000000	93.98376000	32.17273000
88.79999490	0.00000000	93.57159000	29.85974000
88.99999489	0.00000000	92.45201000	30.22268000
89.19999487	0.00000000	90.54502000	32.54798000
89.39999486	0.00000000	89.01328000	36.82332000
89.59999485	0.00000000	88.17052000	42.11983000
89.79999484	0.00000000	87.43233000	46.35211000
89.99999483	0.00000000	87.47539000	48.30216000
90.19999482	0.00000000	88.54576000	47.93307000
90.39999480	0.00000000	89.70841000	45.23868000
90.59999479	0.00000000	90.54502000	41.00639000
90.79999478	0.00000000	91.66460000	36.36196000
90.99999477	0.00000000	92.35974000	32.17273000
91.19999476	0.00000000	91.70767000	29.90280000
91.39999474	0.00000000	91.01255000	30.64099000
91.59999473	0.00000000	91.28937000	33.66756000
91.79999472	0.00000000	91.24016000	37.93676000
91.99999471	0.00000000	90.54502000	42.53814000
92.19999470	0.00000000	90.21899000	46.35211000
92.39999468	0.00000000	90.50197000	47.88385000
92.59999467	0.00000000	90.87106000	46.77042000
92.79999466	0.00000000	90.45890000	43.70079000
92.99999465	0.00000000	89.75147000	39.43159000
93.19999464	0.00000000	88.92101000	34.87328000
93.39999463	0.00000000	88.17052000	31.39149000
93.59999461	0.00000000	87.43233000	30.27190000
93.79999460	0.00000000	87.47539000	31.39149000
93.99999459	0.00000000	88.58882000	34.87328000
94.19999458	0.00000000	90.16978000	39.43159000
94.39999457	0.00000000	92.12598000	43.65773000
94.59999455	0.00000000	94.40206000	46.35211000
94.79999454	0.00000000	95.89690000	46.77042000
94.99999453	0.00000000	95.93995000	45.18947000
95.19999452	0.00000000	94.77731000	41.75073000
95.39999451	0.00000000	92.82111000	37.19857000
95.59999449	0.00000000	90.08366000	33.75369000
95.79999448	0.00000000	87.00787000	32.12967000
95.99999447	0.00000000	84.31348000	32.12967000
96.19999446	0.00000000	82.81864000	33.71063000
96.39999445	0.00000000	83.24310000	36.78026000
96.59999444	0.00000000	85.89443000	40.58809000
96.79999442	0.00000000	89.70841000	43.61467000
96.99999441	0.00000000	93.24557000	44.82037000
97.19999440	0.00000000	96.35826000	44.11909000
97.39999439	0.00000000	98.64050000	42.58735000
97.59999438	0.00000000	99.05880000	40.63730000
97.79999436	0.00000000	97.89616000	38.36122000
97.99999435	0.00000000	95.52164000	36.82332000
98.19999434	0.00000000	91.66460000	36.35580000
98.39999433	0.00000000	87.47539000	36.35580000
98.59999432	0.00000000	84.35654000	36.78026000
98.79999430	0.00000000	82.77559000	37.93676000
98.99999429	0.00000000	82.77559000	39.43159000
99.19999428	0.00000000	84.31348000	40.58809000
99.39999427	0.00000000	87.05708000	41.01255000
99.59999426	0.00000000	90.50197000	41.05561000
99.79999425	0.00000000	94.03297000	41.05561000
99.99999423	0.00000000	96.73351000	41.05561000
100.19999422	0.00000000	98.64050000	41.09867000
100.39999421	0.00000000	98.59129000	41.43085000
100.59999420	0.00000000	96.35826000	41.79380000
100.79999419	0.00000000	93.28863000	41.38164000
100.99999417	0.00000000	90.16978000	40.63730000
101.19999416	0.00000000	87.43233000	39.43159000
101.39999415	0.00000000	85.47613000	37.89370000
101.59999414	0.00000000	84.31348000	36.36196000
101.79999413	0.00000000	84.31348000	35.19931000
101.99999411	0.00000000	85.47613000	34.87328000
102.19999410	0.00000000	87.38312000	35.66683000
102.39999409	0.00000000	89.75147000	37.98597000
102.59999408	0.00000000	92.08292000	41.00639000
102.79999407	0.00000000	94.40206000	43.70079000
102.99999406	0.00000000	95.89690000	45.23868000
103.19999404	0.00000000	95.93995000	45.28174000
103.39999403	0.00000000	94.82652000	44.07603000
103.59999402	0.00000000	93.24557000	41.75073000
103.79999401	0.00000000	91.28937000	38.31200000
103.99999400	0.00000000	89.01328000	35.24852000
104.19999398	0.00000000	87.47539000	33.29232000
104.39999397	0.00000000	87.00787000	32.50492000
104.59999396	0.00000000	87.00787000	33.29232000
104.79999395	0.00000000	87.43233000	35.19931000
104.99999394	0.00000000	88.63803000	37.94291000
105.19999392	0.00000000	90.50197000	41.00639000
105.39999391	0.00000000	92.40280000	43.65773000
105.59999390	0.00000000	93.19635000	44.82037000
105.79999389	0.00000000	93.24557000	44.07603000
105.99999388	0.00000000	92.82111000	42.16904000
106.19999387	0.00000000	91.66460000	39.47465000
106.39999385	0.00000000	90.16978000	36.78026000
106.59999384	0.00000000	89.01328000	34.87328000
106.79999383	0.00000000	88.63803000	34.08588000
106.99999382	0.00000000	88.96407000	34.87328000
107.19999381	0.00000000	89.75147000	36.73105000
107.39999379	0.00000000	90.50197000	39.05635000
107.59999378	0.00000000	91.28937000	40.96333000
107.79999377	0.00000000	91.66460000	42.11983000
107.99999376	0.00000000	91.70767000	42.11983000
108.19999375	0.00000000	91.61539000	41.00639000
108.39999374	0.00000000	90.87106000	39.47465000
108.59999372	0.00000000	89.33932000	37.89370000
108.79999371	0.00000000	88.21358000	36.40502000
108.99999370	0.00000000	87.43233000	35.61762000
109.19999369	0.00000000	87.47539000	35.98671000
109.39999368	0.00000000	88.54576000	36.78026000
109.59999366	0.00000000	89.70841000	38.31200000
109.79999365	0.00000000	90.54502000	40.21899000
109.99999364	0.00000000	91.70767000	41.38164000
110.19999363	0.00000000	92.77805000	42.16904000
110.39999362	0.00000000	92.77805000	42.11983000
110.59999360	0.00000000	91.66460000	41.00639000
110.79999359	0.00000000	90.21899000	39.47465000
110.99999358	0.00000000	89.38238000	37.93676000
111.19999357	0.00000000	89.33316000	36.78026000
111.39999356	0.00000000	88.92101000	36.35580000
111.59999355	0.00000000	88.63803000	36.35580000
111.79999353	0.00000000	88.96407000	36.78026000
111.99999352	0.00000000	89.75147000	37.89370000
112.19999351	0.00000000	90.50197000	39.00713000
112.39999350	0.00000000	91.28937000	39.47465000
112.59999349	0.00000000	91.66460000	39.89296000
112.79999347	0.00000000	91.70767000	40.63730000
112.99999346	0.00000000	91.70767000	41.01255000
113.19999345	0.00000000	91.66460000	41.01255000
113.39999344	0.00000000	91.28937000	40.63730000
113.59999343	0.00000000	90.54502000	39.89296000
113.79999341	0.00000000	90.16978000	39.47465000
113.99999340	0.00000000	90.12672000	39.05635000
114.19999339	0.00000000	90.16978000	38.36122000
114.39999338	0.00000000	90.50197000	38.31200000
114.59999337	0.00000000	90.87106000	38.63804000
114.79999336	0.00000000	90.54502000	38.26894000
114.99999334	0.00000000	90.59423000	37.93676000
115.19999333	0.00000000	91.28937000	37.89370000
115.39999332	0.00000000	91.66460000	37.93676000
115.59999331	0.00000000	91.70767000	38.31200000
115.79999330	0.00000000	91.66460000	39.09941000
115.99999328	0.00000000	91.28937000	39.84990000
116.19999327	0.00000000	90.54502000	40.63730000
116.39999326	0.00000000	90.16978000	41.01255000
116.59999325	0.00000000	90.12672000	41.05561000
116.79999324	0.00000000	90.12672000	41.01255000
116.99999322	0.00000000	90.16978000	40.63730000
117.19999321	0.00000000	90.54502000	39.84990000
117.39999320	0.00000000	91.28937000	39.09941000
117.59999319	0.00000000	91.70767000	38.26894000
117.79999318	0.00000000	92.12598000	37.56152000
117.99999317	0.00000000	92.87032000	37.10630000
118.19999315	0.00000000	93.19635000	37.14321000
118.39999314	0.00000000	92.82111000	37.14936000
118.59999313	0.00000000	91.70767000	37.93676000
118.79999312	0.00000000	90.54502000	39.05635000
118.99999311	0.00000000	89.75147000	39.84990000
119.19999309	0.00000000	88.96407000	40.63730000
119.39999308	0.00000000	88.58882000	41.01255000
119.59999307	0.00000000	88.58882000	41.05561000
119.79999306	0.00000000	88.96407000	41.01255000
119.99999305	0.00000000	89.79453000	40.63730000
120.19999303	0.00000000	90.92027000	39.89296000
120.39999302	0.00000000	92.45201000	39.47465000
120.59999301	0.00000000	93.19635000	39.05635000
120.79999300	0.00000000	93.24557000	38.31200000
120.99999299	0.00000000	92.87032000	37.93676000
121.19999298	0.00000000	92.08292000	37.89370000
121.39999296	0.00000000	91.28937000	37.89370000
121.59999295	0.00000000	90.12672000	37.89370000
121.79999294	0.00000000	88.96407000	37.93676000
121.99999293	0.00000000	88.21358000	38.31200000
122.19999292	0.00000000	87.80142000	39.05635000
122.39999290	0.00000000	88.21358000	39.47465000
122.59999289	0.00000000	88.92101000	39.84990000
122.79999288	0.00000000	89.75147000	40.21899000
122.99999287	0.00000000	90.54502000	39.84990000
123.19999286	0.00000000	91.70767000	39.51771000
123.39999284	0.00000000	92.77805000	39.47465000
123.59999283	0.00000000	92.82111000	39.43159000
123.79999282	0.00000000	92.12598000	39.05635000
123.99999281	0.00000000	91.75073000	38.31200000
124.19999280	0.00000000	91.66460000	37.93676000
124.39999279	0.00000000	91.28937000	37.89370000
124.59999277	0.00000000	90.50197000	37.89370000
124.79999276	0.00000000	89.75147000	37.93676000
124.99999275	0.00000000	88.96407000	38.31200000
125.19999274	0.00000000	88.58882000	39.05635000
125.39999273	0.00000000	88.54576000	39.43159000
125.59999271	0.00000000	88.58882000	39.47465000
125.79999270	0.00000000	89.01328000	39.47465000
125.99999269	0.00000000	90.12672000	39.47465000
126.19999268	0.00000000	91.28937000	39.47465000
126.39999267	0.00000000	92.08292000	39.47465000
126.59999265	0.00000000	92.82111000	39.43159000
126.79999264	0.00000000	92.82111000	39.05635000
126.99999263	0.00000000	92.08292000	38.31200000
127.19999262	0.00000000	91.33242000	37.93676000
127.39999261	0.00000000	90.50197000	37.89370000
127.59999260	0.00000000	89.75147000	37.89370000
127.79999258	0.00000000	88.96407000	37.93676000
127.99999257	0.00000000	88.58882000	38.31200000
128.19999256	0.00000000	88.63803000	39.05635000
128.39999255	0.00000000	89.38238000	39.43159000
128.59999254	0.00000000	90.91412000	39.47465000
128.79999252	0.00000000	92.03986000	39.47465000
128.99999251	0.00000000	92.87032000	39.47465000
129.19999250	0.00000000	93.19635000	39.51771000
129.39999249	0.00000000	92.82111000	39.80684000
129.59999248	0.00000000	91.70767000	39.84375000
129.79999246	0.00000000	90.59423000	39.10556000
129.99999245	0.00000000	90.12672000	39.14247000
130.19999244	0.00000000	89.70841000	39.43159000
130.39999243	0.00000000	89.01328000	39.47465000
130.59999242	0.00000000	89.01328000	39.51771000
130.79999241	0.00000000	89.75147000	39.89296000
130.99999239	0.00000000	90.50197000	40.63730000
131.19999238	0.00000000	91.33242000	40.96333000
131.39999237	0.00000000	92.08292000	40.63730000
131.59999236	0.00000000	92.82111000	39.89296000
131.79999235	0.00000000	92.82111000	39.51771000
131.99999233	0.00000000	92.08292000	39.43159000
132.19999232	0.00000000	91.33242000	39.09941000
132.39999231	0.00000000	90.54502000	38.73031000
132.59999230	0.00000000	90.16978000	39.09941000
132.79999229	0.00000000	90.12672000	39.43159000
132.99999227	0.00000000	90.12672000	39.51771000
133.19999226	0.00000000	90.16978000	39.89296000
133.39999225	0.00000000	90.54502000	40.63730000
133.59999224	0.00000000	91.28937000	41.01255000
133.79999223	0.00000000	91.61539000	41.05561000
133.99999222	0.00000000	91.28937000	41.01255000
134.19999220	0.00000000	90.54502000	40.63730000
134.39999219	0.00000000	90.16978000	39.84990000
134.59999218	0.00000000	90.12672000	39.05635000
134.79999217	0.00000000	90.16978000	37.93676000
134.99999216	0.00000000	90.54502000	37.19857000
135.19999214	0.00000000	91.28937000	37.51845000
135.39999213	0.00000000	91.66460000	37.85064000
135.59999212	0.00000000	91.70767000	37.93676000
135.79999211	0.00000000	91.70767000	38.31200000
135.99999210	0.00000000	91.66460000	39.05635000
136.19999208	0.00000000	91.24016000	39.47465000
136.39999207	0.00000000	90.12672000	39.84990000
136.59999206	0.00000000	89.01328000	40.21899000
136.79999205	0.00000000	88.63803000	39.84990000
136.99999204	0.00000000	88.96407000	39.47465000
137.19999203	0.00000000	89.75147000	39.05635000
137.39999201	0.00000000	90.50197000	38.26894000
137.59999200	0.00000000	91.28937000	37.51845000
137.79999199	0.00000000	91.66460000	36.73105000
137.99999198	0.00000000	91.70767000	36.35580000
138.19999197	0.00000000	91.66460000	36.35580000
138.39999195	0.00000000	91.28937000	36.73105000
138.59999194	0.00000000	90.54502000	37.47539000
138.79999193	0.00000000	90.12672000	37.89370000
138.99999192	0.00000000	89.70841000	38.31200000
139.19999191	0.00000000	89.01328000	39.05635000
139.39999189	0.00000000	89.01328000	39.43159000
139.59999188	0.00000000	89.70841000	39.47465000
139.79999187	0.00000000	90.08366000	39.47465000
139.99999186	0.00000000	90.16978000	39.47465000
140.19999185	0.00000000	90.54502000	39.43159000
140.39999184	0.00000000	91.28937000	39.05635000
140.59999182	0.00000000	91.61539000	38.26894000
140.79999181	0.00000000	91.28937000	37.51845000
140.99999180	0.00000000	90.54502000	36.78026000
141.19999179	0.00000000	90.16978000	36.78026000
141.39999178	0.00000000	90.12672000	37.47539000
141.59999176	0.00000000	90.12672000	37.89370000
141.79999175	0.00000000	90.12672000	38.36122000
141.99999174	0.00000000	90.16978000	39.47465000
142.19999173	0.00000000	90.54502000	40.58809000
142.39999172	0.00000000	91.28937000	41.01255000
142.59999170	0.00000000	91.66460000	41.01255000
142.79999169	0.00000000	91.70767000	40.63730000
142.99999168	0.00000000	91.66460000	39.84990000
143.19999167	0.00000000	91.28937000	39.09941000
143.39999166	0.00000000	90.54502000	38.31200000
143.59999165	0.00000000	90.16978000	37.93676000
143.79999163	0.00000000	90.12672000	37.89370000
143.99999162	0.00000000	90.16978000	37.93676000
144.19999161	0.00000000	90.54502000	38.31200000
144.39999160	0.00000000	91.28937000	39.09941000
144.59999159	0.00000000	91.66460000	39.84990000
144.79999157	0.00000000	91.70767000	40.63730000
144.99999156	0.00000000	91.70767000	41.01255000
145.19999155	0.00000000	91.66460000	41.01255000
145.39999154	0.00000000	91.33242000	40.63730000
145.59999153	0.00000000	90.87720000	39.84990000
145.79999151	0.00000000	90.53887000	39.14247000
145.99999150	0.00000000	89.75762000	38.68725000
146.19999149	0.00000000	89.84374000	38.68110000
146.39999148	0.00000000	90.50197000	38.26894000
146.59999147	0.00000000	91.28937000	37.93676000
146.79999146	0.00000000	91.66460000	37.93676000
146.99999144	0.00000000	91.70767000	38.31200000
147.19999143	0.00000000	91.70767000	39.05635000
147.39999142	0.00000000	91.70767000	39.47465000
147.59999141	0.00000000	91.66460000	39.89296000
147.79999140	0.00000000	91.28937000	40.58809000
147.99999138	0.00000000	90.54502000	40.58809000
148.19999137	0.00000000	90.16978000	39.89296000
148.39999136	0.00000000	90.12672000	39.51771000
148.59999135	0.00000000	90.12672000	39.47465000
148.79999134	0.00000000	90.16978000	39.43159000
148.99999132	0.00000000	90.54502000	39.05635000
149.19999131	0.00000000	91.28937000	38.31200000
149.39999130	0.00000000	91.66460000	37.93676000
149.59999129	0.00000000	91.70767000	37.93676000
149.79999128	0.00000000	91.70767000	38.31200000
149.99999127	0.00000000	91.70767000	39.05635000
150.19999125	0.00000000	91.66460000	39.43159000
150.39999124	0.00000000	91.28937000	39.47465000
150.59999123	0.00000000	90.54502000	39.47465000
150.79999122	0.00000000	90.16978000	39.47465000
150.99999121	0.00000000	90.12672000	39.47465000
151.19999119	0.00000000	90.12672000	39.47465000
151.39999118	0.00000000	90.12672000	39.47465000
151.59999117	0.00000000	90.12672000	39.43159000
151.79999116	0.00000000	90.12672000	39.05635000
151.99999115	0.00000000	90.16978000	38.31200000
152.19999113	0.00000000	90.54502000	37.98597000
152.39999112	0.00000000	91.28937000	38.26894000
152.59999111	0.00000000	91.66460000	38.68110000
152.79999110	0.00000000	91.70767000	38.68725000
152.99999109	0.00000000	91.70767000	39.09941000
153.19999108	0.00000000	91.66460000	39.43159000
153.39999106	0.00000000	91.28937000	39.47465000
153.59999105	0.00000000	90.54502000	39.47465000
153.79999104	0.00000000	90.16978000	39.47465000
153.99999103	0.00000000	90.12672000	39.47465000
154.19999102	0.00000000	90.12672000	39.47465000
154.39999100	0.00000000	90.12672000	39.47465000
154.59999099	0.00000000	90.12672000	39.47465000
154.79999098	0.00000000	90.12672000	39.43159000
154.99999097	0.00000000	90.12672000	39.05635000
155.19999096	0.00000000	90.21899000	38.31200000
155.39999094	0.00000000	90.92027000	37.93676000
155.59999093	0.00000000	92.02756000	37.89370000
155.79999092	0.00000000	92.03986000	37.93676000
155.99999091	0.00000000	91.75073000	38.31200000
156.19999090	0.00000000	91.66460000	39.05635000
156.39999089	0.00000000	91.28937000	39.43159000
156.59999087	0.00000000	90.54502000	39.47465000
156.79999086	0.00000000	90.16978000	39.47465000
156.99999085	0.00000000	90.12672000	39.47465000
157.19999084	0.00000000	90.08366000	39.47465000
157.39999083	0.00000000	89.75147000	39.47465000
157.59999081	0.00000000	89.38238000	39.47465000
157.79999080	0.00000000	89.75147000	39.43159000
157.99999079	0.00000000	90.12672000	39.05635000
158.19999078	0.00000000	90.54502000	38.31200000
158.39999077	0.00000000	91.28937000	37.93676000
158.59999075	0.00000000	91.66460000	37.93676000
158.79999074	0.00000000	91.70767000	38.26894000
158.99999073	0.00000000	91.70767000	38.68110000
159.19999072	0.00000000	91.66460000	38.68725000
159.39999071	0.00000000	91.28937000	39.09941000
159.59999070	0.00000000	90.54502000	39.47465000
159.79999068	0.00000000	90.16978000	39.89296000
159.99999067	0.00000000	90.12672000	40.58809000
160.19999066	0.00000000	90.12672000	40.58809000
160.39999065	0.00000000	90.12672000	39.89296000
160.59999064	0.00000000	90.12672000	39.51771000
160.79999062	0.00000000	90.12672000	39.47465000
160.99999061	0.00000000	90.12672000	39.43159000
161.19999060	0.00000000	90.12672000	39.05635000
161.39999059	0.00000000	90.16978000	38.36122000
161.59999058	0.00000000	90.54502000	38.36122000
161.79999056	0.00000000	91.28937000	39.05635000
161.99999055	0.00000000	91.66460000	39.43159000
162.19999054	0.00000000	91.70767000	39.47465000
162.39999053	0.00000000	91.70767000	39.47465000
162.59999052	0.00000000	91.66460000	39.47465000
162.79999051	0.00000000	91.28937000	39.47465000
162.99999049	0.00000000	90.54502000	39.47465000
163.19999048	0.00000000	90.16978000	39.47465000
163.39999047	0.00000000	90.12672000	39.47465000
163.59999046	0.00000000	90.12672000	39.47465000
163.79999045	0.00000000	90.12672000	39.47465000
163.99999043	0.00000000	90.12672000	39.47465000
164.19999042	0.00000000	90.12672000	39.47465000
164.39999041	0.00000000	90.16978000	39.43159000
164.59999040	0.00000000	90.54502000	39.05635000
164.79999039	0.00000000	91.28937000	38.36122000
164.99999037	0.00000000	91.66460000	38.36122000
165.19999036	0.00000000	91.70767000	39.05635000
165.39999035	0.00000000	91.70767000	39.43159000
165.59999034	0.00000000	91.70767000	39.47465000
165.79999033	0.00000000	91.66460000	39.47465000
165.99999032	0.00000000	91.28937000	39.47465000
166.19999030	0.00000000	90.54502000	39.47465000
166.39999029	0.00000000	90.16978000	39.47465000
166.59999028	0.00000000	90.12672000	39.47465000
166.79999027	0.00000000	90.12672000	39.43159000
166.99999026	0.00000000	90.12672000	39.05635000
167.19999024	0.00000000	90.12672000	38.36122000
167.39999023	0.00000000	90.16978000	38.31200000
167.59999022	0.00000000	90.54502000	38.63804000
167.79999021	0.00000000	91.28937000	38.26894000
167.99999020	0.00000000	91.66460000	37.93676000
168.19999018	0.00000000	91.70767000	37.89370000
168.39999017	0.00000000	91.70767000	37.93676000
168.59999016	0.00000000	91.70767000	38.26894000
168.79999015	0.00000000	91.66460000	38.68110000
168.99999014	0.00000000	91.28937000	38.64419000
169.19999013	0.00000000	90.54502000	38.72416000
169.39999011	0.00000000	90.16978000	38.64419000
169.59999010	0.00000000	90.12672000	38.68110000
169.79999009	0.00000000	90.12672000	38.26894000
169.99999008	0.00000000	90.12672000	37.93676000
170.19999007	0.00000000	90.12672000	37.93676000
170.39999005	0.00000000	90.12672000	38.26894000
170.59999004	0.00000000	90.12672000	38.63804000
170.79999003	0.00000000	90.12672000	38.26894000
170.99999002	0.00000000	90.16978000	37.93676000
171.19999001	0.00000000	90.54502000	37.89370000
171.39998999	0.00000000	91.28937000	37.89370000
171.59998998	0.00000000	91.61539000	37.89370000
171.79998997	0.00000000	91.28937000	37.89370000
171.99998996	0.00000000	90.54502000	37.89370000
172.19998995	0.00000000	90.16978000	37.89370000
172.39998994	0.00000000	90.12672000	37.93676000
172.59998992	0.00000000	90.12672000	38.31200000
172.79998991	0.00000000	90.12672000	39.05635000
172.99998990	0.00000000	90.12672000	39.43159000
173.19998989	0.00000000	90.12672000	39.43159000
173.39998988	0.00000000	90.12672000	39.09941000
173.59998986	0.00000000	90.12672000	38.73031000
173.79998985	0.00000000	90.16978000	39.09941000
173.99998984	0.00000000	90.50197000	39.43159000
174.19998983	0.00000000	90.91412000	39.47465000
174.39998982	0.00000000	90.87720000	39.47465000
174.59998980	0.00000000	90.95718000	39.47465000
174.79998979	0.00000000	90.92027000	39.47465000
174.99998978	0.00000000	91.28937000	39.47465000
175.19998977	0.00000000	91.24016000	39.43159000
175.39998976	0.00000000	90.54502000	39.09941000
175.59998975	0.00000000	90.16978000	38.73031000
175.79998973	0.00000000	90.12672000	39.09941000
175.99998972	0.00000000	90.16978000	39.43159000
176.19998971	0.00000000	90.54502000	39.47465000
176.39998970	0.00000000	91.28937000	39.47465000
176.59998969	0.00000000	91.61539000	39.47465000
176.79998967	0.00000000	91.33242000	39.47465000
176.99998966	0.00000000	90.96333000	39.47465000
177.19998965	0.00000000	91.28937000	39.43159000
177.39998964	0.00000000	91.24016000	39.09941000
177.59998963	0.00000000	90.59423000	38.73031000
177.79998961	0.00000000	90.54502000	39.09941000
177.99998960	0.00000000	90.87106000	39.43159000
178.19998959	0.00000000	90.54502000	39.51771000
178.39998958	0.00000000	90.54502000	39.84990000
178.59998957	0.00000000	90.91412000	40.21899000
178.79998956	0.00000000	90.92027000	39.84990000
178.99998954	0.00000000	91.33242000	39.51771000
179.19998953	0.00000000	91.66460000	39.47465000
179.39998952	0.00000000	91.70767000	39.47465000
179.59998951	0.00000000	91.70767000	39.47465000
179.79998950	0.00000000	91.70767000	39.47465000
179.99998948	0.00000000	91.70767000	39.47465000
180.19998947	0.00000000	91.70767000	39.47465000
180.39998946	0.00000000	91.70767000	39.47465000
180.59998945	0.00000000	91.70767000	39.47465000
180.79998944	0.00000000	91.66460000	39.47465000
180.99998942	0.00000000	91.28937000	39.47465000
181.19998941	0.00000000	90.59423000	39.47465000
181.39998940	0.00000000	90.54502000	39.47465000
181.59998939	0.00000000	90.87106000	39.47465000
181.79998938	0.00000000	90.54502000	39.47465000
181.99998937	0.00000000	90.59423000	39.47465000
182.19998935	0.00000000	91.28937000	39.47465000
182.39998934	0.00000000	91.66460000	39.47465000
182.59998933	0.00000000	91.70767000	39.47465000
182.79998932	0.00000000	91.70767000	39.43159000
182.99998931	0.00000000	91.70767000	39.05635000
183.19998929	0.00000000	91.66460000	38.31200000
183.39998928	0.00000000	91.28937000	37.93676000
183.59998927	0.00000000	90.54502000	37.89370000
183.79998926	0.00000000	90.16978000	37.93676000
183.99998925	0.00000000	90.12672000	38.31200000
184.19998923	0.00000000	90.12672000	39.05635000
184.39998922	0.00000000	90.12672000	39.43159000
184.59998921	0.00000000	90.12672000	39.47465000
184.79998920	0.00000000	90.12672000	39.47465000
184.99998919	0.00000000	90.12672000	39.47465000
185.19998918	0.00000000	90.12672000	39.47465000
185.39998916	0.00000000	90.12672000	39.43159000
185.59998915	0.00000000	90.16978000	39.05635000
185.79998914	0.00000000	90.50197000	38.31200000
185.99998913	0.00000000	90.87106000	37.93676000
186.19998912	0.00000000	90.54502000	37.89370000
186.39998910	0.00000000	90.54502000	37.89370000
186.59998909	0.00000000	90.87106000	37.89370000
186.79998908	0.00000000	90.50197000	37.89370000
186.99998907	0.00000000	90.16978000	37.89370000
187.19998906	0.00000000	90.16978000	37.93676000
187.39998904	0.00000000	90.50197000	38.31200000
187.59998903	0.00000000	90.87106000	39.05635000
187.79998902	0.00000000	90.50197000	39.43159000
187.99998901	0.00000000	90.16978000	39.47465000
188.19998900	0.00000000	90.12672000	39.47465000
188.39998899	0.00000000	90.16978000	39.43159000
188.59998897	0.00000000	90.54502000	39.05635000
188.79998896	0.00000000	91.28937000	38.31200000
188.99998895	0.00000000	91.61539000	37.93676000
189.19998894	0.00000000	91.28937000	37.89370000
189.39998893	0.00000000	90.54502000	37.93676000
189.59998891	0.00000000	90.16978000	38.31200000
189.79998890	0.00000000	90.12672000	39.05635000
189.99998889	0.00000000	90.12672000	39.43159000
190.19998888	0.00000000	90.12672000	39.47465000
190.39998887	0.00000000	90.12672000	39.47465000
190.59998885	0.00000000	90.12672000	39.47465000
190.79998884	0.00000000	90.16978000	39.47465000
190.99998883	0.00000000	90.54502000	39.47465000
191.19998882	0.00000000	91.28937000	39.47465000
191.39998881	0.00000000	91.66460000	39.47465000
191.59998880	0.00000000	91.70767000	39.47465000
191.79998878	0.00000000	91.70767000	39.47465000
191.99998877	0.00000000	91.66460000	39.47465000
192.19998876	0.00000000	91.33242000	39.47465000
192.39998875	0.00000000	90.96333000	39.47465000
192.59998874	0.00000000	91.28937000	39.47465000
192.79998872	0.00000000	91.28937000	39.47465000
192.99998871	0.00000000	90.92027000	39.47465000
193.19998870	0.00000000	90.91412000	39.47465000
193.39998869	0.00000000	90.50197000	39.47465000
193.59998868	0.00000000	90.21899000	39.47465000
193.79998866	0.00000000	90.54502000	39.47465000
193.99998865	0.00000000	91.28937000	39.47465000
194.19998864	0.00000000	91.66460000	39.47465000
194.39998863	0.00000000	91.70767000	39.47465000
194.59998862	0.00000000	91.70767000	39.47465000
194.79998861	0.00000000	91.66460000	39.47465000
194.99998859	0.00000000	91.33242000	39.47465000
195.19998858	0.00000000	90.96333000	39.47465000
195.39998857	0.00000000	91.28937000	39.47465000
195.59998856	0.00000000	91.24016000	39.47465000
195.79998855	0.00000000	90.54502000	39.47465000
195.99998853	0.00000000	90.16978000	39.47465000
