Time	Channel A	Channel B	Channel C
(us)	(V)	(mV)	(mV)

-4.49999956	0.00000000	22.22564000	14.21014000
-4.29999957	0.00000000	22.50861000	14.21014000
-4.09999958	0.00000000	22.87770000	14.21014000
-3.89999959	0.00000000	22.55167000	14.21014000
-3.69999960	0.00000000	22.55167000	14.21014000
-3.49999962	0.00000000	22.92076000	14.21014000
-3.29999963	0.00000000	22.88386000	14.21014000
-3.09999964	0.00000000	22.96383000	14.21014000
-2.89999965	0.00000000	22.88386000	14.21014000
-2.69999966	0.00000000	22.96383000	14.21014000
-2.49999968	0.00000000	22.92692000	14.21014000
-2.29999969	0.00000000	23.29601000	14.21014000
-2.09999970	0.00000000	23.29601000	14.21014000
-1.89999971	0.00000000	22.96998000	14.21014000
-1.69999972	0.00000000	23.33907000	14.21014000
-1.49999973	0.00000000	23.67126000	14.21014000
-1.29999975	0.00000000	23.71432000	14.21014000
-1.09999976	0.00000000	23.67126000	14.21014000
-0.89999977	0.00000000	23.33907000	14.21014000
-0.69999978	0.00000000	22.96998000	14.21014000
-0.49999979	0.00000000	23.33907000	14.21014000
-0.29999981	0.31803640	23.67126000	14.21014000
-0.09999982	0.63668800	23.67126000	14.21014000
0.10000017	0.95533960	23.33907000	14.21014000
0.30000016	0.95533960	22.92692000	14.21014000
0.50000015	0.95533960	22.92076000	14.21014000
0.70000013	0.31803640	22.55167000	14.21014000
0.90000012	-0.47736220	22.60088000	14.21014000
1.10000011	-1.43331700	23.29601000	14.21014000
1.30000010	-2.38927200	23.67126000	14.21014000
1.50000009	-2.70792300	23.71432000	14.25320000
1.70000008	-2.38927200	23.71432000	14.62844000
1.90000006	-1.27399100	23.71432000	15.36663000
2.10000005	0.47736220	23.71432000	15.69267000
2.30000004	2.54859700	23.71432000	15.36663000
2.50000003	4.45989200	23.71432000	14.62844000
2.70000002	5.25652100	23.71432000	14.25320000
2.90000000	4.93786900	23.71432000	14.21014000
3.09999999	3.02657500	23.71432000	14.21014000
3.29999998	0.00000000	23.71432000	14.21014000
3.49999997	-3.34522600	23.71432000	14.21014000
3.69999996	-6.37180100	23.71432000	14.21014000
3.89999994	-7.80511800	23.71432000	14.25320000
4.09999993	-7.48646600	23.71432000	14.62844000
4.29999992	-5.25652100	23.71432000	15.36663000
4.49999991	-1.27399100	23.71432000	15.69267000
4.69999990	3.18590100	23.71432000	15.36663000
4.89999989	7.00848900	23.71432000	14.62844000
5.09999987	9.23905000	23.71432000	14.25320000
5.29999986	9.23905000	23.71432000	14.21014000
5.49999985	6.69045300	23.71432000	14.21014000
5.69999984	2.54859700	23.71432000	14.21014000
5.89999983	-2.22994600	23.71432000	14.21014000
6.09999981	-6.53112700	23.71432000	14.21014000
6.29999980	-9.07972400	23.71432000	14.21014000
6.49999979	-9.23905000	23.71432000	14.21014000
6.69999978	-7.16781500	23.71432000	14.25320000
6.89999977	-3.50393700	23.71432000	14.58538000
7.09999975	0.79601380	23.71432000	14.94833000
7.29999974	4.77854300	23.71432000	14.58538000
7.49999973	7.16781500	23.71432000	14.25320000
7.69999972	7.64579200	23.71432000	14.21014000
7.89999971	6.21247500	23.71432000	14.21014000
8.09999970	3.50393700	23.71432000	14.21014000
8.29999968	0.31803640	23.71432000	14.21014000
8.49999967	-2.70792300	23.71432000	14.21014000
8.69999966	-4.61921700	23.71432000	14.21014000
8.89999965	-5.09719500	23.71432000	14.21014000
9.09999964	-4.45989200	23.71432000	14.21014000
9.29999962	-2.70792300	23.71432000	14.21014000
9.49999961	-0.79601380	23.71432000	14.21014000
9.69999960	1.11466500	23.71432000	14.21014000
9.89999959	2.22994600	23.71432000	14.21014000
10.09999958	2.54859700	23.71432000	14.21014000
10.29999956	2.22994600	23.71432000	14.21014000
10.49999955	1.43331700	23.71432000	14.21014000
10.69999954	0.47736220	23.71432000	14.21014000
10.89999953	-0.15871060	23.71432000	14.21014000
11.09999952	-0.79601380	23.71432000	14.21014000
11.29999951	-0.95533960	23.71432000	14.21014000
11.49999949	-0.95533960	23.71432000	14.21014000
11.69999948	-0.79601380	23.71432000	14.21014000
11.89999947	-0.47736220	23.71432000	14.21014000
12.09999946	-0.15871060	23.75738000	14.21014000
12.29999945	-0.15871060	24.08957000	14.21014000
12.49999943	-0.15871060	24.45866000	14.21014000
12.69999942	0.00000000	24.08957000	14.21014000
12.89999941	0.00000000	23.75738000	14.21014000
13.09999940	0.00000000	23.71432000	14.25320000
13.29999939	0.15871060	23.71432000	14.58538000
13.49999937	0.00000000	23.71432000	14.94833000
13.69999936	0.00000000	23.71432000	14.58538000
13.89999935	0.00000000	23.71432000	14.25320000
14.09999934	-0.15871060	23.75738000	14.25320000
14.29999933	-0.15871060	24.08957000	14.58538000
14.49999932	-0.15871060	24.45866000	14.99139000
14.69999930	-0.15871060	24.08957000	14.95448000
14.89999929	0.00000000	23.75738000	15.04060000
15.09999928	0.00000000	23.75738000	15.00369000
15.29999927	0.00000000	24.08957000	15.36663000
15.49999926	0.00000000	24.45866000	15.32357000
15.69999924	0.00000000	24.08957000	14.62844000
15.89999923	0.00000000	23.75738000	14.30241000
16.09999922	0.00000000	23.71432000	14.58538000
16.29999921	0.00000000	23.71432000	14.99139000
16.49999920	-0.15871060	23.75738000	14.95448000
16.69999919	-0.15871060	24.13263000	14.99139000
16.89999917	0.00000000	24.87697000	14.58538000
17.09999916	0.00000000	25.25221000	14.25320000
17.29999915	0.00000000	25.33834000	14.25320000
17.49999914	0.00000000	25.67052000	14.62844000
17.69999913	0.00000000	26.03961000	15.32357000
17.89999911	0.00000000	25.62746000	15.32357000
18.09999910	0.00000000	24.87697000	14.67150000
18.29999909	0.00000000	23.62205000	14.62844000
18.49999908	0.00000000	21.75812000	14.94833000
18.69999907	0.00000000	19.85728000	14.58538000
18.89999905	0.00000000	19.10679000	14.25320000
19.09999904	0.00000000	19.43897000	14.21014000
19.29999903	0.00000000	20.68774000	14.21014000
19.49999902	0.00000000	23.01919000	14.21014000
19.69999901	0.00000000	26.54404000	14.21014000
19.89999900	0.00000000	30.37032000	14.21014000
20.09999898	0.00000000	33.85827000	14.21014000
20.29999897	0.00000000	35.67913000	14.21014000
20.49999896	0.00000000	34.92864000	14.21014000
20.69999895	0.00000000	31.39763000	14.21014000
20.89999894	0.00000000	25.90428000	14.21014000
21.09999892	0.00000000	18.50394000	14.21014000
21.29999891	0.00000000	10.50689000	14.21014000
21.49999890	0.00000000	4.77977300	14.21014000
21.69999889	0.00000000	3.24188000	14.21014000
21.89999888	0.00000000	6.40378900	14.21014000
22.09999886	0.00000000	14.22244000	14.21014000
22.29999885	0.00000000	25.80585000	14.21014000
22.49999884	0.00000000	38.50886000	14.21014000
22.69999883	0.00000000	48.93578000	14.21014000
22.89999882	0.00000000	54.69980000	14.21014000
23.09999881	0.00000000	54.19537000	14.25320000
23.29999879	0.00000000	46.37672000	14.62844000
23.49999878	0.00000000	32.04970000	15.40969000
23.69999877	0.00000000	14.32087000	16.16018000
23.89999876	0.00000000	-2.65748000	16.89837000
24.09999875	0.00000000	-14.57308000	16.89837000
24.29999873	0.00000000	-18.38706000	16.16018000
24.49999872	0.00000000	-12.48154000	15.36663000
24.69999871	0.00000000	2.59596400	14.16092000
24.89999870	0.00000000	23.84965000	12.62918000
25.09999869	0.00000000	46.19217000	11.09744000
25.29999867	0.00000000	64.33317000	9.93479300
25.49999866	0.00000000	73.59743000	9.60875900
25.69999865	0.00000000	72.01648000	10.44537000
25.89999864	0.00000000	59.59030000	13.13976000
26.09999863	0.00000000	38.33046000	16.99065000
26.29999862	0.00000000	13.29355000	20.85384000
26.49999860	0.00000000	-9.49803200	24.33563000
26.69999859	0.00000000	-24.53248000	26.19955000
26.89999858	0.00000000	-28.43258000	25.77510000
27.09999857	0.00000000	-20.34326000	22.61934000
27.29999856	0.00000000	-2.57135800	16.81225000
27.49999854	0.00000000	21.01993000	9.47342500
27.69999853	0.00000000	45.30634000	2.12844500
27.89999852	0.00000000	64.24705000	-3.58636800
28.09999851	0.00000000	73.59743000	-5.85629900
28.29999850	0.00000000	72.10260000	-3.49409400
28.49999848	0.00000000	60.51919000	3.10039400
28.69999847	0.00000000	41.57849000	13.22589000
28.89999846	0.00000000	19.57431000	25.17224000
29.09999845	0.00000000	-0.52288380	36.32505000
29.29999844	0.00000000	-14.06250000	43.57775000
29.49999843	0.00000000	-18.43012000	44.73425000
29.69999841	0.00000000	-13.45349000	39.30241000
29.89999840	0.00000000	-1.12573800	28.42643000
30.09999839	0.00000000	15.90182000	13.74877000
30.29999838	0.00000000	33.72293000	-1.67322800
30.49999837	0.00000000	48.80044000	-13.98868000
30.69999835	0.00000000	58.09547000	-20.58317000
30.89999834	0.00000000	59.35654000	-19.75271000
31.09999833	0.00000000	53.62943000	-11.62032000
31.29999832	0.00000000	42.74114000	2.73129900
31.49999831	0.00000000	28.45718000	20.43553000
31.69999829	0.00000000	14.17938000	37.43848000
31.89999828	0.00000000	3.33415300	49.79700000
32.09999827	-0.15871060	-2.19611200	55.18577000
32.29999826	0.00000000	-1.82701800	52.07308000
32.49999825	0.00000000	3.57406500	40.92643000
32.69999824	0.00000000	13.24434000	24.71087000
32.89999822	0.00000000	24.83391000	6.91437000
33.09999821	0.00000000	35.62992000	-8.96899500
33.29999820	0.00000000	43.39321000	-19.79577000
33.49999819	0.00000000	46.09990000	-23.65280000
33.69999818	0.00000000	43.90379000	-19.37746000
33.89999816	0.00000000	37.72145000	-7.81250000
34.09999815	0.00000000	29.61983000	8.35998900
34.29999814	0.00000000	21.06299000	25.35679000
34.49999813	0.00000000	13.80413000	39.30241000
34.69999812	0.00000000	9.94094400	47.84694000
34.89999810	0.00000000	10.64222000	49.33562000
35.09999809	0.00000000	14.82529000	43.20251000
35.29999808	0.00000000	20.97072000	30.88705000
35.49999807	0.00000000	27.52830000	15.87721000
35.69999806	0.00000000	32.56028000	1.57480300
35.89999805	0.00000000	35.25467000	-8.83366100
36.09999803	0.00000000	34.87943000	-13.10900000
36.29999802	0.00000000	31.44069000	-10.45768000
36.49999801	0.00000000	26.45792000	-2.04847400
36.69999800	0.00000000	21.06299000	9.51648500
36.89999799	0.00000000	16.83071000	21.46284000
37.09999797	0.00000000	14.91757000	31.07775000
37.29999796	0.00000000	15.66806000	35.72219000
37.49999795	0.00000000	19.14985000	34.60876000
37.69999794	0.00000000	24.08957000	28.47564000
37.89999793	0.00000000	29.15231000	18.90379000
38.09999791	0.00000000	32.97859000	8.95669300
38.29999790	0.00000000	34.97170000	1.66092500
38.49999789	0.00000000	34.55955000	-1.03346500
38.69999788	0.00000000	32.22810000	1.61786400
38.89999787	0.00000000	27.98966000	8.48917200
39.09999786	0.00000000	23.01919000	17.32283000
39.29999784	0.00000000	19.10679000	25.73203000
39.49999783	0.00000000	16.32013000	31.02854000
39.69999782	0.00000000	14.82529000	31.02854000
39.89999781	0.00000000	15.24975000	25.68897000
40.09999780	0.00000000	17.94414000	16.90453000
40.29999778	0.00000000	22.17643000	7.28961600
40.49999777	0.00000000	26.83317000	-0.38139760
40.69999776	0.00000000	31.06545000	-4.23228400
40.89999775	0.00000000	33.80905000	-3.03272600
41.09999774	0.00000000	34.65182000	3.10039400
41.29999772	0.00000000	34.23351000	12.72146000
41.49999771	0.00000000	32.27116000	23.03765000
41.69999770	0.00000000	28.78937000	31.12082000
41.89999769	0.00000000	24.92003000	34.56570000
42.09999768	0.00000000	21.01993000	32.74483000
42.29999767	0.00000000	17.98720000	26.61786000
42.49999765	0.00000000	16.78149000	18.52854000
42.69999764	0.00000000	17.52584000	10.02707000
42.89999763	0.00000000	19.43897000	3.14960600
43.09999762	0.00000000	22.13336000	-0.00615157
43.29999761	0.00000000	24.82775000	0.73203740
43.49999759	0.00000000	26.83317000	4.59522600
43.69999758	0.00000000	28.41412000	11.09744000
43.89999757	0.00000000	29.52756000	17.97490000
44.09999756	0.00000000	29.57062000	23.08686000
44.29999755	0.00000000	28.83243000	26.19955000
44.49999753	0.00000000	28.08194000	26.93774000
44.69999752	0.00000000	27.34375000	24.66781000
44.89999751	0.00000000	27.29453000	20.47859000
45.09999750	0.00000000	27.62057000	15.87721000
45.29999749	0.00000000	27.15920000	11.97711000
45.49999748	0.00000000	26.03961000	9.69488100
45.69999746	0.00000000	24.04650000	9.23966500
45.89999745	0.00000000	21.71506000	10.72219000
46.09999744	0.00000000	19.01451000	12.62918000
46.29999743	0.00000000	16.78149000	14.62844000
46.49999742	0.00000000	16.40625000	16.94759000
46.69999740	0.00000000	17.98720000	18.85458000
46.89999739	0.00000000	21.52436000	20.06029000
47.09999738	0.00000000	26.96850000	20.39247000
47.29999737	0.00000000	33.11393000	19.64198000
47.49999736	0.00000000	38.50886000	17.69808000
47.69999734	0.00000000	41.53543000	15.40969000
47.89999733	0.00000000	41.11712000	13.04749000
48.09999732	0.00000000	36.83563000	11.18356000
48.29999731	0.00000000	29.52756000	10.35310000
48.49999730	0.00000000	21.01993000	10.76525000
48.69999729	0.00000000	13.33661000	11.97711000
48.89999727	0.00000000	8.27386800	14.67150000
49.09999726	0.00000000	7.19119100	18.06102000
49.29999725	0.00000000	10.27313000	20.39247000
49.49999724	0.00000000	17.61811000	21.59203000
49.69999723	0.00000000	26.83317000	21.54897000
49.89999721	0.00000000	35.72219000	20.01722000
50.09999720	0.00000000	42.27977000	17.27977000
50.29999719	0.00000000	44.56200000	13.83489000
50.49999718	0.00000000	42.27977000	10.35310000
50.69999717	0.00000000	35.72219000	8.02780400
50.89999715	0.00000000	26.87623000	6.90821800
51.09999714	0.00000000	17.98720000	7.70177100
51.29999713	0.00000000	11.10359000	10.76525000
51.49999712	0.00000000	8.40920300	14.58538000
51.69999711	0.00000000	10.68528000	18.52854000
51.89999710	0.00000000	16.78149000	21.92421000
52.09999708	0.00000000	24.87697000	23.86811000
52.29999707	0.00000000	32.56028000	23.45595000
52.49999706	0.00000000	37.99828000	21.17372000
52.69999705	0.00000000	39.86835000	17.32283000
52.89999704	0.00000000	37.62303000	13.13976000
53.09999702	0.00000000	31.85900000	10.02707000
53.29999701	0.00000000	24.96309000	8.44611200
53.49999700	0.00000000	18.41166000	8.44611200
53.69999699	0.00000000	14.22244000	9.98400600
53.89999698	0.00000000	13.80413000	12.67224000
54.09999696	0.00000000	16.83071000	15.74188000
54.29999695	0.00000000	22.22564000	18.39321000
54.49999694	0.00000000	28.37106000	19.55585000
54.69999693	0.00000000	33.76599000	18.85458000
54.89999692	0.00000000	36.79257000	17.32283000
55.09999691	0.00000000	36.46653000	15.40969000
55.29999689	0.00000000	33.02165000	13.50886000
55.49999688	0.00000000	28.03888000	12.80758000
55.69999687	0.00000000	22.64394000	13.50886000
55.89999686	0.00000000	18.41166000	15.45891000
56.09999685	0.00000000	16.45546000	17.69808000
56.29999683	0.00000000	16.87377000	19.64198000
56.49999682	0.00000000	19.94340000	20.34941000
56.69999681	0.00000000	24.87697000	19.55585000
56.89999680	0.00000000	29.48450000	16.85531000
57.09999679	0.00000000	32.64640000	13.04749000
57.29999677	0.00000000	34.18430000	9.60875900
57.49999676	0.00000000	33.80905000	7.33267600
57.69999675	0.00000000	31.48376000	7.33267600
57.89999674	0.00000000	28.03888000	9.65182000
58.09999673	0.00000000	24.22490000	13.55807000
58.29999672	0.00000000	21.52436000	18.94685000
58.49999670	0.00000000	20.68774000	24.29257000
58.69999669	0.00000000	21.06299000	27.73130000
58.89999668	0.00000000	22.60088000	28.47564000
59.09999667	0.00000000	24.87697000	25.73203000
59.29999666	0.00000000	26.83317000	20.01722000
59.49999664	0.00000000	28.41412000	13.09670000
59.69999663	0.00000000	29.52756000	6.90821800
59.89999662	0.00000000	29.52756000	2.68208600
60.09999661	0.00000000	28.41412000	1.56865100
60.29999660	0.00000000	26.91929000	4.26304100
60.49999658	0.00000000	25.76279000	10.02707000
60.69999657	0.00000000	25.33834000	17.36589000
60.89999656	0.00000000	25.33834000	24.66166000
61.09999655	0.00000000	25.76279000	30.00738000
61.29999654	0.00000000	26.87623000	31.58834000
61.49999653	0.00000000	27.94660000	29.26919000
61.69999651	0.00000000	27.98966000	23.86811000
61.89999650	0.00000000	27.25147000	16.16018000
62.09999649	0.00000000	26.45792000	8.48917200
62.29999648	0.00000000	25.29527000	2.63902500
62.49999647	0.00000000	24.18184000	-0.38139760
62.69999645	0.00000000	23.75738000	0.36909450
62.89999644	0.00000000	23.75738000	5.00738200
63.09999643	0.00000000	24.18184000	11.93405000
63.29999642	0.00000000	25.33834000	20.01722000
63.49999641	0.00000000	26.87623000	26.93774000
63.69999639	0.00000000	28.41412000	30.84399000
63.89999638	0.00000000	29.57062000	31.63140000
64.09999637	0.00000000	29.94586000	28.89395000
64.29999636	0.00000000	29.52756000	23.17298000
64.49999635	0.00000000	27.98966000	16.25246000
64.69999634	0.00000000	25.71358000	10.02707000
64.89999632	0.00000000	23.84965000	5.37647600
65.09999631	0.00000000	23.01919000	3.05733300
65.29999630	0.00000000	23.38214000	3.79552100
65.49999629	0.00000000	24.18184000	6.82209600
65.69999628	0.00000000	25.71358000	11.09129000
65.89999626	0.00000000	27.57136000	15.74188000
66.09999625	0.00000000	28.36491000	20.01722000
66.29999624	0.00000000	28.41412000	23.17298000
66.49999623	0.00000000	27.98966000	25.12918000
66.69999622	0.00000000	26.83317000	25.86737000
66.89999620	0.00000000	25.33834000	24.71087000
67.09999619	0.00000000	24.18184000	22.05955000
67.29999618	0.00000000	23.80659000	18.94685000
67.49999617	0.00000000	24.22490000	15.78494000
67.69999616	0.00000000	25.80585000	12.67224000
67.89999615	0.00000000	28.45718000	9.93479300
68.09999613	0.00000000	31.10851000	7.98474400
68.29999612	0.00000000	32.64640000	6.82209600
68.49999611	0.00000000	32.60334000	6.90821800
68.69999610	0.00000000	30.69020000	8.82135800
68.89999609	0.00000000	27.20841000	12.29700000
69.09999607	0.00000000	23.33907000	16.20325000
69.29999606	0.00000000	19.48204000	20.47859000
69.49999605	0.00000000	16.87377000	24.29257000
69.69999604	0.00000000	16.87377000	26.24262000
69.89999603	0.00000000	19.52510000	26.28568000
70.09999601	0.00000000	23.80659000	24.66166000
70.29999600	0.00000000	28.83243000	21.13066000
70.49999599	0.00000000	33.85827000	15.78494000
70.69999598	0.00000000	37.30315000	10.40231000
70.89999597	0.00000000	38.50886000	6.53912400
71.09999596	0.00000000	37.30315000	4.59522600
71.29999594	0.00000000	33.76599000	5.37647600
71.49999593	0.00000000	27.99582000	8.40305000
71.69999592	0.00000000	21.48130000	12.67224000
71.89999591	0.00000000	16.45546000	17.32283000
72.09999590	0.00000000	13.71186000	21.54897000
72.29999588	0.00000000	13.75492000	24.24335000
72.49999587	0.00000000	16.83071000	24.66781000
72.69999586	0.00000000	22.22564000	23.17298000
72.89999585	0.00000000	28.37106000	20.47859000
73.09999584	0.00000000	33.80905000	17.41511000
73.29999582	0.00000000	37.30315000	14.72072000
73.49999581	0.00000000	38.50886000	13.13976000
73.69999580	0.00000000	37.30315000	12.72146000
73.89999579	0.00000000	33.85827000	13.09670000
74.09999578	0.00000000	28.83243000	14.25320000
74.29999577	0.00000000	23.84965000	15.69882000
74.49999575	0.00000000	19.94340000	16.48007000
74.69999574	0.00000000	17.98720000	16.11712000
74.89999573	0.00000000	17.98720000	15.36663000
75.09999572	0.00000000	19.90034000	14.21014000
75.29999571	0.00000000	23.33907000	13.13976000
75.49999569	0.00000000	26.83317000	13.18282000
75.69999568	0.00000000	29.94586000	14.72072000
75.89999567	0.00000000	32.27116000	17.41511000
76.09999566	0.00000000	33.06471000	20.47859000
76.29999565	0.00000000	32.64640000	23.17298000
76.49999563	0.00000000	30.78248000	24.61860000
76.69999562	0.00000000	28.13730000	23.82505000
76.89999561	0.00000000	26.59326000	20.43553000
77.09999560	0.00000000	25.76279000	16.16018000
77.29999559	0.00000000	25.76279000	11.83563000
77.49999558	0.00000000	26.45792000	7.28346400
77.69999556	0.00000000	26.83317000	4.63828700
77.89999555	0.00000000	26.83317000	5.00738200
78.09999554	0.00000000	26.45792000	7.70792300
78.29999553	0.00000000	25.71358000	12.72146000
78.49999552	0.00000000	25.33834000	18.47933000
78.69999550	0.00000000	25.33834000	23.54823000
78.89999549	0.00000000	25.76279000	27.40526000
79.09999548	0.00000000	26.91929000	28.89395000
79.29999547	0.00000000	28.45718000	27.40526000
79.49999546	0.00000000	30.03814000	23.54823000
79.69999544	0.00000000	31.57603000	18.52854000
79.89999543	0.00000000	32.64640000	13.13976000
80.09999542	0.00000000	32.27116000	8.86441900
80.29999541	0.00000000	30.37032000	6.53912400
80.49999540	0.00000000	28.03888000	6.12696800
80.69999539	0.00000000	25.29527000	8.02780400
80.89999537	0.00000000	22.68701000	11.09744000
81.09999536	0.00000000	21.52436000	14.62844000
81.29999535	0.00000000	22.26870000	18.47933000
81.49999534	0.00000000	24.18184000	21.59203000
81.69999533	0.00000000	26.87623000	23.54823000
81.89999531	0.00000000	29.57062000	24.33563000
82.09999530	0.00000000	31.52682000	23.59129000
82.29999529	0.00000000	32.68946000	22.05955000
82.49999528	0.00000000	32.64640000	20.06029000
82.69999527	0.00000000	31.15157000	17.32283000
82.89999525	0.00000000	28.87549000	14.25320000
83.09999524	0.00000000	26.91929000	11.51575000
83.29999523	0.00000000	25.33834000	9.55954600
83.49999522	0.00000000	24.22490000	8.44611200
83.69999521	0.00000000	24.22490000	8.82135800
83.89999520	0.00000000	25.29527000	10.72219000
84.09999518	0.00000000	26.45792000	13.09055000
84.29999517	0.00000000	27.25147000	16.25246000
84.49999516	0.00000000	28.03888000	20.06029000
84.69999515	0.00000000	28.41412000	23.12992000
84.89999514	0.00000000	28.41412000	24.71087000
85.09999512	0.00000000	28.03888000	24.71087000
85.29999511	0.00000000	27.34375000	23.12992000
85.49999510	0.00000000	27.34375000	20.01722000
85.69999509	0.00000000	28.03888000	15.78494000
85.89999508	0.00000000	28.41412000	11.55881000
86.09999506	0.00000000	28.45718000	8.44611200
86.29999505	0.00000000	28.41412000	6.90821800
86.49999504	0.00000000	27.98966000	7.33267600
86.69999503	0.00000000	26.87623000	10.02707000
86.89999502	0.00000000	25.71358000	14.25320000
87.09999501	0.00000000	24.92003000	18.90379000
87.29999499	0.00000000	24.18184000	23.12992000
87.49999498	0.00000000	24.22490000	25.82431000
87.69999497	0.00000000	25.33834000	26.19955000
87.89999496	0.00000000	26.87623000	24.24335000
88.09999495	0.00000000	28.45718000	20.01722000
88.29999493	0.00000000	29.99508000	14.67766000
88.49999492	0.00000000	31.10851000	10.07013000
88.69999491	0.00000000	31.10851000	7.37573800
88.89999490	0.00000000	30.03814000	7.33267600
89.09999489	0.00000000	28.83243000	9.60875900
89.29999487	0.00000000	27.62057000	13.09670000
89.49999486	0.00000000	25.76279000	17.36589000
89.69999485	0.00000000	24.64321000	21.54897000
89.89999484	0.00000000	24.96309000	24.24335000
90.09999483	0.00000000	25.71358000	24.61860000
90.29999482	0.00000000	26.87623000	22.71161000
90.49999480	0.00000000	27.98966000	18.85458000
90.69999479	0.00000000	28.41412000	14.25320000
90.89999478	0.00000000	28.50024000	10.02707000
91.09999477	0.00000000	28.83243000	7.37573800
91.29999476	0.00000000	29.20152000	7.37573800
91.49999474	0.00000000	28.83243000	10.02707000
91.69999473	0.00000000	28.50024000	14.25320000
91.89999472	0.00000000	28.45718000	18.90379000
92.09999471	0.00000000	28.45718000	23.12992000
92.29999470	0.00000000	28.45718000	25.77510000
92.49999468	0.00000000	28.41412000	25.77510000
92.69999467	0.00000000	28.03888000	23.08686000
92.89999466	0.00000000	27.25147000	18.52854000
93.09999465	0.00000000	26.50098000	13.55807000
93.29999464	0.00000000	25.71358000	10.07013000
93.49999463	0.00000000	25.33834000	8.48917200
93.69999461	0.00000000	25.33834000	8.90747900
93.89999460	0.00000000	25.80585000	11.60187000
94.09999459	0.00000000	27.34375000	15.83415000
94.29999458	0.00000000	29.61983000	20.43553000
94.49999457	0.00000000	31.57603000	24.24335000
94.69999455	0.00000000	33.11393000	25.73203000
94.89999454	0.00000000	33.85211000	24.24335000
95.09999453	0.00000000	33.06471000	20.47859000
95.29999452	0.00000000	31.15157000	16.25246000
95.49999451	0.00000000	28.41412000	12.76452000
95.69999449	0.00000000	25.33834000	10.44537000
95.89999448	0.00000000	22.64394000	10.07013000
96.09999447	0.00000000	21.10605000	11.55881000
96.29999446	0.00000000	21.10605000	14.25320000
96.49999445	0.00000000	22.68701000	17.32283000
96.69999444	0.00000000	25.76279000	20.01722000
96.89999442	0.00000000	29.61983000	21.54897000
97.09999441	0.00000000	33.11393000	21.59203000
97.29999440	0.00000000	35.81446000	20.43553000
97.49999439	0.00000000	36.97712000	18.47933000
97.69999438	0.00000000	36.18971000	15.83415000
97.89999436	0.00000000	33.90133000	13.55807000
98.09999435	0.00000000	30.37032000	12.76452000
98.29999434	0.00000000	26.54404000	13.09670000
98.49999433	0.00000000	23.01919000	14.21014000
98.69999432	0.00000000	20.73080000	15.36663000
98.89999430	0.00000000	19.94340000	16.16018000
99.09999429	0.00000000	21.10605000	16.94759000
99.29999428	0.00000000	23.80659000	17.32283000
99.49999427	0.00000000	27.25147000	17.36589000
99.69999426	0.00000000	30.78248000	17.36589000
99.89999425	0.00000000	33.48917000	17.40895000
100.09999423	0.00000000	35.43922000	17.78420000
100.29999422	0.00000000	35.76525000	18.52854000
100.49999421	0.00000000	34.27657000	18.90379000
100.69999420	0.00000000	31.57603000	18.90379000
100.89999419	0.00000000	28.50024000	18.43627000
101.09999417	0.00000000	25.76279000	16.90453000
101.29999416	0.00000000	23.75738000	14.62844000
101.49999415	0.00000000	22.22564000	12.72146000
101.69999414	0.00000000	21.52436000	11.55881000
101.89999413	0.00000000	22.64394000	11.55881000
102.09999411	0.00000000	24.92003000	12.72146000
102.29999410	0.00000000	27.25147000	14.67150000
102.49999409	0.00000000	29.61983000	17.36589000
102.69999408	0.00000000	31.52682000	20.06029000
102.89999407	0.00000000	32.73252000	22.01649000
103.09999406	0.00000000	33.10777000	23.12992000
103.29999404	0.00000000	32.68946000	22.71161000
103.49999403	0.00000000	31.15157000	20.43553000
103.69999402	0.00000000	28.87549000	17.36589000
103.89999401	0.00000000	26.91929000	14.25320000
104.09999400	0.00000000	25.33834000	11.55881000
104.29999398	0.00000000	24.22490000	10.07013000
104.49999397	0.00000000	24.22490000	10.44537000
104.69999396	0.00000000	25.29527000	12.72146000
104.89999395	0.00000000	26.50098000	15.78494000
105.09999394	0.00000000	27.71284000	18.89764000
105.29999392	0.00000000	29.61983000	21.59203000
105.49999391	0.00000000	31.10851000	23.08686000
105.69999390	0.00000000	31.52682000	22.75467000
105.89999389	0.00000000	31.15157000	20.85384000
106.09999388	0.00000000	29.99508000	18.57160000
106.29999387	0.00000000	28.50024000	16.20325000
106.49999385	0.00000000	27.34375000	14.29626000
106.69999384	0.00000000	26.91929000	13.13976000
106.89999383	0.00000000	26.91929000	13.13976000
107.09999382	0.00000000	27.34375000	14.29626000
107.29999381	0.00000000	28.45718000	16.20325000
107.49999379	0.00000000	29.61983000	18.47933000
107.69999378	0.00000000	30.37032000	20.01722000
107.89999377	0.00000000	30.78248000	20.43553000
108.09999376	0.00000000	30.37032000	20.06029000
108.29999375	0.00000000	29.52756000	18.85458000
108.49999374	0.00000000	27.70669000	16.99065000
108.69999372	0.00000000	25.85507000	15.08981000
108.89999371	0.00000000	26.16880000	14.30241000
109.09999370	0.00000000	26.83317000	14.25320000
109.29999369	0.00000000	27.34375000	14.72072000
109.49999368	0.00000000	28.45718000	16.20325000
109.69999366	0.00000000	29.61983000	18.11024000
109.89999365	0.00000000	30.41338000	19.27903000
110.09999364	0.00000000	31.15157000	20.06029000
110.29999363	0.00000000	31.15157000	20.01722000
110.49999362	0.00000000	30.41338000	18.94685000
110.69999360	0.00000000	29.61983000	17.78420000
110.89999359	0.00000000	28.45718000	16.94759000
111.09999358	0.00000000	27.34375000	15.78494000
111.29999357	0.00000000	26.91929000	14.67150000
111.49999356	0.00000000	26.91929000	14.30241000
111.69999355	0.00000000	27.29453000	14.62844000
111.89999353	0.00000000	28.08194000	15.40969000
112.09999352	0.00000000	28.83243000	16.16018000
112.29999351	0.00000000	29.61983000	16.94759000
112.49999350	0.00000000	29.99508000	17.36589000
112.69999349	0.00000000	30.03814000	17.78420000
112.89999347	0.00000000	30.03814000	18.47933000
113.09999346	0.00000000	29.99508000	18.47933000
113.29999345	0.00000000	29.61983000	17.78420000
113.49999344	0.00000000	28.87549000	17.36589000
113.69999343	0.00000000	28.50024000	16.94759000
113.89999341	0.00000000	28.45718000	16.20325000
114.09999340	0.00000000	28.45718000	15.82800000
114.29999339	0.00000000	28.45718000	15.78494000
114.49999338	0.00000000	28.45718000	15.78494000
114.69999337	0.00000000	28.45718000	15.74188000
114.89999336	0.00000000	28.50024000	15.36663000
115.09999334	0.00000000	28.87549000	14.67150000
115.29999333	0.00000000	29.61983000	14.67150000
115.49999332	0.00000000	29.99508000	15.40969000
115.69999331	0.00000000	29.99508000	16.16018000
115.89999330	0.00000000	29.61983000	16.99065000
116.09999328	0.00000000	28.87549000	17.74114000
116.29999327	0.00000000	28.50024000	18.52854000
116.49999326	0.00000000	28.45718000	18.90379000
116.69999325	0.00000000	28.45718000	18.90379000
116.89999324	0.00000000	28.45718000	18.47933000
117.09999322	0.00000000	28.50024000	17.36589000
117.29999321	0.00000000	28.87549000	16.25246000
117.49999320	0.00000000	29.66289000	15.78494000
117.69999319	0.00000000	30.41338000	15.36663000
117.89999318	0.00000000	31.20078000	14.62844000
118.09999317	0.00000000	31.52682000	14.30241000
118.29999315	0.00000000	31.20078000	14.67150000
118.49999314	0.00000000	30.41338000	15.78494000
118.69999313	0.00000000	29.61983000	16.94759000
118.89999312	0.00000000	28.45718000	17.74114000
119.09999311	0.00000000	27.34375000	18.52854000
119.29999309	0.00000000	26.91929000	18.90379000
119.49999308	0.00000000	26.91929000	18.94685000
119.69999307	0.00000000	27.34375000	18.94685000
119.89999306	0.00000000	28.50024000	18.90379000
120.09999305	0.00000000	29.99508000	18.52854000
120.29999303	0.00000000	31.20078000	17.74114000
120.49999302	0.00000000	31.99434000	16.99065000
120.69999301	0.00000000	32.73252000	16.20325000
120.89999300	0.00000000	32.68946000	15.82800000
121.09999299	0.00000000	31.57603000	15.78494000
121.29999298	0.00000000	30.08120000	15.78494000
121.49999296	0.00000000	28.87549000	15.82800000
121.69999295	0.00000000	28.08194000	16.20325000
121.89999294	0.00000000	27.29453000	16.94759000
122.09999293	0.00000000	26.91929000	17.32283000
122.29999292	0.00000000	26.91929000	17.40895000
122.49999290	0.00000000	27.34375000	17.78420000
122.69999289	0.00000000	28.45718000	18.52854000
122.89999288	0.00000000	29.61983000	18.90379000
123.09999287	0.00000000	30.41338000	18.90379000
123.29999286	0.00000000	31.20078000	18.52854000
123.49999284	0.00000000	31.57603000	17.78420000
123.69999283	0.00000000	31.57603000	17.36589000
123.89999282	0.00000000	31.20078000	16.94759000
124.09999281	0.00000000	30.45644000	16.25246000
124.29999280	0.00000000	30.03814000	16.20325000
124.49999279	0.00000000	29.61983000	16.52928000
124.69999277	0.00000000	28.87549000	16.20325000
124.89999276	0.00000000	28.50024000	16.25246000
125.09999275	0.00000000	28.45718000	16.94759000
125.29999274	0.00000000	28.45718000	17.36589000
125.49999273	0.00000000	28.50024000	17.78420000
125.69999271	0.00000000	28.87549000	18.52854000
125.89999270	0.00000000	29.66289000	18.90379000
126.09999269	0.00000000	30.41338000	18.94685000
126.29999268	0.00000000	31.20078000	18.90379000
126.49999267	0.00000000	31.57603000	18.52854000
126.69999265	0.00000000	31.61909000	17.78420000
126.89999264	0.00000000	31.57603000	17.40895000
127.09999263	0.00000000	31.15157000	17.32283000
127.29999262	0.00000000	30.03814000	16.94759000
127.49999261	0.00000000	28.92470000	16.25246000
127.69999260	0.00000000	28.45718000	16.25246000
127.89999258	0.00000000	28.08194000	16.94759000
128.09999257	0.00000000	27.71284000	17.32283000
128.29999256	0.00000000	28.12500000	17.36589000
128.49999255	0.00000000	28.87549000	17.36589000
128.69999254	0.00000000	30.03814000	17.36589000
128.89999252	0.00000000	31.15157000	17.36589000
129.09999251	0.00000000	31.57603000	17.36589000
129.29999250	0.00000000	31.57603000	17.32283000
129.49999249	0.00000000	31.20078000	16.94759000
129.69999248	0.00000000	30.41338000	16.20325000
129.89999246	0.00000000	29.66289000	15.82800000
130.09999245	0.00000000	28.87549000	15.82800000
130.29999244	0.00000000	28.50024000	16.20325000
130.49999243	0.00000000	28.45718000	16.94759000
130.69999242	0.00000000	28.50024000	17.32283000
130.89999241	0.00000000	28.92470000	17.36589000
131.09999239	0.00000000	30.03814000	17.36589000
131.29999238	0.00000000	31.15157000	17.36589000
131.49999237	0.00000000	31.57603000	17.32283000
131.69999236	0.00000000	31.57603000	16.94759000
131.89999235	0.00000000	31.20078000	16.20325000
132.09999233	0.00000000	30.41338000	15.82800000
132.29999232	0.00000000	29.66289000	15.78494000
132.49999231	0.00000000	28.87549000	15.78494000
132.69999230	0.00000000	28.50024000	15.82800000
132.89999229	0.00000000	28.50024000	16.20325000
133.09999227	0.00000000	28.87549000	16.99065000
133.29999226	0.00000000	29.61983000	17.74114000
133.49999225	0.00000000	29.99508000	18.52854000
133.69999224	0.00000000	30.03814000	18.85458000
133.89999223	0.00000000	30.03814000	18.52854000
134.09999222	0.00000000	30.03814000	17.78420000
134.29999220	0.00000000	30.03814000	17.36589000
134.49999219	0.00000000	30.03814000	16.94759000
134.69999218	0.00000000	30.03814000	16.20325000
134.89999217	0.00000000	30.08120000	15.82800000
135.09999216	0.00000000	30.45644000	15.78494000
135.29999214	0.00000000	31.20078000	15.82800000
135.49999213	0.00000000	31.52682000	16.20325000
135.69999212	0.00000000	31.20078000	16.99065000
135.89999211	0.00000000	30.41338000	17.74114000
136.09999210	0.00000000	29.66289000	18.52854000
136.29999208	0.00000000	28.87549000	18.90379000
136.49999207	0.00000000	28.50024000	18.94685000
136.69999206	0.00000000	28.50024000	18.94685000
136.89999205	0.00000000	28.87549000	18.90379000
137.09999204	0.00000000	29.66289000	18.52854000
137.29999203	0.00000000	30.41338000	17.78420000
137.49999201	0.00000000	31.20078000	17.36589000
137.69999200	0.00000000	31.57603000	16.94759000
137.89999199	0.00000000	31.61909000	16.20325000
138.09999198	0.00000000	31.57603000	15.87721000
138.29999197	0.00000000	31.20078000	16.20325000
138.49999195	0.00000000	30.45644000	16.94759000
138.69999194	0.00000000	30.03814000	17.36589000
138.89999193	0.00000000	29.61983000	17.78420000
139.09999192	0.00000000	28.87549000	18.52854000
139.29999191	0.00000000	28.54946000	18.90379000
139.49999189	0.00000000	28.87549000	18.94685000
139.69999188	0.00000000	29.66289000	18.94685000
139.89999187	0.00000000	30.41338000	18.94685000
140.09999186	0.00000000	31.20078000	18.90379000
140.29999185	0.00000000	31.57603000	18.47933000
140.49999184	0.00000000	31.57603000	17.36589000
140.69999182	0.00000000	31.24384000	16.25246000
140.89999181	0.00000000	30.83169000	15.82800000
141.09999180	0.00000000	30.82554000	15.82800000
141.29999179	0.00000000	30.41338000	16.20325000
141.49999178	0.00000000	30.08120000	16.99065000
141.69999176	0.00000000	30.03814000	17.74114000
141.89999175	0.00000000	30.03814000	18.52854000
142.09999174	0.00000000	30.08120000	18.90379000
142.29999173	0.00000000	30.45644000	18.94685000
142.49999172	0.00000000	31.20078000	18.94685000
142.69999170	0.00000000	31.57603000	18.90379000
142.89999169	0.00000000	31.57603000	18.47933000
143.09999168	0.00000000	31.20078000	17.36589000
143.29999167	0.00000000	30.45644000	16.25246000
143.49999166	0.00000000	30.08120000	15.82800000
143.69999165	0.00000000	30.03814000	15.82800000
143.89999163	0.00000000	30.03814000	16.20325000
144.09999162	0.00000000	30.08120000	16.94759000
144.29999161	0.00000000	30.45644000	17.32283000
144.49999160	0.00000000	31.20078000	17.40895000
144.69999159	0.00000000	31.57603000	17.78420000
144.89999157	0.00000000	31.61909000	18.52854000
145.09999156	0.00000000	31.57603000	18.90379000
145.29999155	0.00000000	31.20078000	18.90379000
145.49999154	0.00000000	30.45644000	18.52854000
145.69999153	0.00000000	30.08120000	17.74114000
145.89999151	0.00000000	30.03814000	16.99065000
146.09999150	0.00000000	30.03814000	16.20325000
146.29999149	0.00000000	30.03814000	15.82800000
146.49999148	0.00000000	30.03814000	15.78494000
146.69999147	0.00000000	30.08120000	15.82800000
146.89999146	0.00000000	30.45644000	16.20325000
147.09999144	0.00000000	31.20078000	16.99065000
147.29999143	0.00000000	31.52682000	17.74114000
147.49999142	0.00000000	31.20078000	18.52854000
147.69999141	0.00000000	30.45644000	18.90379000
147.89999140	0.00000000	30.08120000	18.94685000
148.09999138	0.00000000	30.03814000	18.90379000
148.29999137	0.00000000	30.03814000	18.52854000
148.49999136	0.00000000	30.03814000	17.78420000
148.69999135	0.00000000	30.03814000	17.40895000
148.89999134	0.00000000	30.03814000	17.36589000
149.09999132	0.00000000	30.08120000	17.36589000
149.29999131	0.00000000	30.45644000	17.36589000
149.49999130	0.00000000	31.20078000	17.36589000
149.69999129	0.00000000	31.57603000	17.36589000
149.89999128	0.00000000	31.61909000	17.40895000
150.09999127	0.00000000	31.61909000	17.78420000
150.29999125	0.00000000	31.57603000	18.52854000
150.49999124	0.00000000	31.20078000	18.90379000
150.69999123	0.00000000	30.45644000	18.94685000
150.89999122	0.00000000	30.08120000	18.94685000
151.09999121	0.00000000	30.03814000	18.94685000
151.29999119	0.00000000	30.03814000	18.90379000
151.49999118	0.00000000	30.03814000	18.52854000
151.69999117	0.00000000	30.08120000	17.78420000
151.89999116	0.00000000	30.45644000	17.40895000
152.09999115	0.00000000	31.20078000	17.36589000
152.29999113	0.00000000	31.57603000	17.36589000
152.49999112	0.00000000	31.61909000	17.40895000
152.69999111	0.00000000	31.61909000	17.78420000
152.89999110	0.00000000	31.61909000	18.52854000
153.09999109	0.00000000	31.61909000	18.90379000
153.29999108	0.00000000	31.61909000	18.94685000
153.49999106	0.00000000	31.57603000	18.94685000
153.69999105	0.00000000	31.20078000	18.94685000
153.89999104	0.00000000	30.45644000	18.94685000
154.09999103	0.00000000	30.08120000	18.94685000
154.29999102	0.00000000	30.03814000	18.94685000
154.49999100	0.00000000	30.03814000	18.94685000
154.69999099	0.00000000	30.08120000	18.94685000
154.89999098	0.00000000	30.45644000	18.90379000
155.09999097	0.00000000	31.20078000	18.52854000
155.29999096	0.00000000	31.61909000	17.78420000
155.49999094	0.00000000	32.03740000	17.40895000
155.69999093	0.00000000	32.73252000	17.36589000
155.89999092	0.00000000	32.78174000	17.40895000
156.09999091	0.00000000	32.41265000	17.78420000
156.29999090	0.00000000	32.36343000	18.52854000
156.49999089	0.00000000	31.57603000	18.90379000
156.69999087	0.00000000	30.50566000	18.94685000
156.89999086	0.00000000	30.08120000	18.94685000
157.09999085	0.00000000	30.03814000	18.94685000
157.29999084	0.00000000	30.03814000	18.94685000
157.49999083	0.00000000	30.08120000	18.94685000
157.69999081	0.00000000	30.45644000	18.90379000
157.89999080	0.00000000	31.20078000	18.52854000
158.09999079	0.00000000	31.57603000	17.78420000
158.29999078	0.00000000	31.61909000	17.40895000
158.49999077	0.00000000	31.61909000	17.36589000
158.69999075	0.00000000	31.61909000	17.36589000
158.89999074	0.00000000	31.61909000	17.36589000
159.09999073	0.00000000	31.61909000	17.40895000
159.29999072	0.00000000	31.61909000	17.78420000
159.49999071	0.00000000	31.57603000	18.52854000
159.69999070	0.00000000	31.20078000	18.90379000
159.89999068	0.00000000	30.45644000	18.94685000
160.09999067	0.00000000	30.08120000	18.90379000
160.29999066	0.00000000	30.03814000	18.52854000
160.49999065	0.00000000	30.03814000	17.78420000
160.69999064	0.00000000	30.08120000	17.40895000
160.89999062	0.00000000	30.45644000	17.36589000
161.09999061	0.00000000	31.20078000	17.36589000
161.29999060	0.00000000	31.57603000	17.36589000
161.49999059	0.00000000	31.61909000	17.36589000
161.69999058	0.00000000	31.61909000	17.36589000
161.89999056	0.00000000	31.61909000	17.36589000
162.09999055	0.00000000	31.61909000	17.36589000
162.29999054	0.00000000	31.61909000	17.40895000
162.49999053	0.00000000	31.61909000	17.78420000
162.69999052	0.00000000	31.61909000	18.52854000
162.89999051	0.00000000	31.57603000	18.90379000
163.09999049	0.00000000	31.20078000	18.90379000
163.29999048	0.00000000	30.45644000	18.57160000
163.49999047	0.00000000	30.13041000	18.15945000
163.69999046	0.00000000	30.45644000	18.15330000
163.89999045	0.00000000	31.15157000	17.74114000
164.09999043	0.00000000	31.20078000	17.40895000
164.29999042	0.00000000	30.87475000	17.36589000
164.49999041	0.00000000	31.24384000	17.36589000
164.69999040	0.00000000	31.57603000	17.36589000
164.89999039	0.00000000	31.61909000	17.36589000
165.09999037	0.00000000	31.66215000	17.36589000
165.29999036	0.00000000	31.99434000	17.36589000
165.49999035	0.00000000	32.36343000	17.40895000
165.69999034	0.00000000	31.99434000	17.78420000
165.89999033	0.00000000	31.66215000	18.52854000
166.09999032	0.00000000	31.61909000	18.90379000
166.29999030	0.00000000	31.61909000	18.90379000
166.49999029	0.00000000	31.61909000	18.57160000
166.69999028	0.00000000	31.61909000	18.20251000
166.89999027	0.00000000	31.61909000	18.57160000
167.09999026	0.00000000	31.61909000	18.90379000
167.29999024	0.00000000	31.61909000	18.94685000
167.49999023	0.00000000	31.61909000	18.94685000
167.69999022	0.00000000	31.61909000	18.94685000
167.89999021	0.00000000	31.66215000	18.90379000
168.09999020	0.00000000	31.99434000	18.57160000
168.29999018	0.00000000	32.36343000	18.20251000
168.49999017	0.00000000	31.99434000	18.57160000
168.69999016	0.00000000	31.66215000	18.90379000
168.89999015	0.00000000	31.61909000	18.94685000
169.09999014	0.00000000	31.61909000	18.94685000
169.29999013	0.00000000	31.61909000	18.94685000
169.49999011	0.00000000	31.61909000	18.94685000
169.69999010	0.00000000	31.61909000	18.94685000
169.89999009	0.00000000	31.61909000	18.94685000
170.09999008	0.00000000	31.61909000	18.94685000
170.29999007	0.00000000	31.61909000	18.94685000
170.49999005	0.00000000	31.61909000	18.94685000
170.69999004	0.00000000	31.61909000	18.94685000
170.89999003	0.00000000	31.61909000	18.94685000
171.09999002	0.00000000	31.61909000	18.90379000
171.29999001	0.00000000	31.61909000	18.52854000
171.49998999	0.00000000	31.66215000	17.83341000
171.69998998	0.00000000	31.99434000	17.78420000
171.89998997	0.00000000	32.40649000	18.15330000
172.09998996	0.00000000	32.36959000	18.11639000
172.29998995	0.00000000	32.44956000	18.19636000
172.49998994	0.00000000	32.36959000	18.15945000
172.69998992	0.00000000	32.40649000	18.57160000
172.89998991	0.00000000	31.99434000	18.90379000
173.09998990	0.00000000	31.66215000	18.94685000
173.29998989	0.00000000	31.61909000	18.94685000
173.49998988	0.00000000	31.61909000	18.90379000
173.69998986	0.00000000	31.61909000	18.57160000
173.89998985	0.00000000	31.61909000	18.15945000
174.09998984	0.00000000	31.61909000	18.19636000
174.29998983	0.00000000	31.61909000	18.11639000
174.49998982	0.00000000	31.61909000	18.15330000
174.69998980	0.00000000	31.61909000	17.74114000
174.89998979	0.00000000	31.61909000	17.40895000
175.09998978	0.00000000	31.61909000	17.36589000
175.29998977	0.00000000	31.61909000	17.40895000
175.49998976	0.00000000	31.61909000	17.74114000
175.69998975	0.00000000	31.61909000	18.15330000
175.89998973	0.00000000	31.61909000	18.15945000
176.09998972	0.00000000	31.61909000	18.52854000
176.29998971	0.00000000	31.61909000	18.52854000
176.49998970	0.00000000	31.61909000	18.15945000
176.69998969	0.00000000	31.61909000	18.15330000
176.89998967	0.00000000	31.61909000	17.74114000
177.09998966	0.00000000	31.61909000	17.40895000
177.29998965	0.00000000	31.61909000	17.40895000
177.49998964	0.00000000	31.61909000	17.74114000
177.69998963	0.00000000	31.61909000	18.11024000
177.89998961	0.00000000	31.61909000	17.74114000
178.09998960	0.00000000	31.61909000	17.40895000
178.29998959	0.00000000	31.61909000	17.40895000
178.49998958	0.00000000	31.61909000	17.78420000
178.69998957	0.00000000	31.61909000	18.52854000
178.89998956	0.00000000	31.61909000	18.90379000
179.09998954	0.00000000	31.61909000	18.90379000
179.29998953	0.00000000	31.66215000	18.57160000
179.49998952	0.00000000	31.99434000	18.20251000
179.69998951	0.00000000	32.40649000	18.57160000
179.89998950	0.00000000	32.36959000	18.90379000
180.09998948	0.00000000	32.44956000	18.94685000
180.29998947	0.00000000	32.41265000	18.90379000
180.49998946	0.00000000	32.78174000	18.57160000
180.69998945	0.00000000	32.73252000	18.15945000
180.89998944	0.00000000	32.03740000	18.15330000
181.09998942	0.00000000	31.66215000	17.78420000
181.29998941	0.00000000	31.66215000	17.83341000
181.49998940	0.00000000	32.03740000	18.52854000
181.69998939	0.00000000	32.73252000	18.90379000
181.89998938	0.00000000	32.78174000	18.94685000
182.09998937	0.00000000	32.45571000	18.94685000
182.29998935	0.00000000	32.82480000	18.94685000
182.49998934	0.00000000	33.15699000	18.90379000
182.69998933	0.00000000	33.15699000	18.57160000
182.89998932	0.00000000	32.82480000	18.20251000
183.09998931	0.00000000	32.45571000	18.52854000
183.29998929	0.00000000	32.82480000	18.52854000
183.49998928	0.00000000	33.15699000	18.20251000
183.69998927	0.00000000	33.20005000	18.57160000
183.89998926	0.00000000	33.20005000	18.90379000
184.09998925	0.00000000	33.20005000	18.94685000
184.29998923	0.00000000	33.20005000	18.98991000
184.49998922	0.00000000	33.20005000	19.36516000
184.69998921	0.00000000	33.20005000	20.10950000
184.89998920	0.00000000	33.20005000	20.48474000
185.09998919	0.00000000	33.20005000	20.48474000
185.29998918	0.00000000	33.20005000	20.10950000
185.49998916	0.00000000	33.20005000	19.36516000
185.69998915	0.00000000	33.20005000	18.98991000
185.89998914	0.00000000	33.20005000	18.94685000
186.09998913	0.00000000	33.20005000	18.94685000
186.29998912	0.00000000	33.20005000	18.94685000
186.49998910	0.00000000	33.20005000	18.94685000
186.69998909	0.00000000	33.20005000	18.94685000
186.89998908	0.00000000	33.20005000	18.94685000
187.09998907	0.00000000	33.20005000	18.98991000
187.29998906	0.00000000	33.20005000	19.36516000
187.49998904	0.00000000	33.20005000	20.06029000
187.69998903	0.00000000	33.20005000	20.10950000
187.89998902	0.00000000	33.20005000	19.78346000
188.09998901	0.00000000	33.20005000	20.10950000
188.29998900	0.00000000	33.20005000	20.06029000
188.49998899	0.00000000	33.20005000	19.36516000
188.69998897	0.00000000	33.20005000	18.94685000
188.89998896	0.00000000	33.20005000	18.52854000
189.09998895	0.00000000	33.20005000	17.78420000
189.29998894	0.00000000	33.20005000	17.40895000
189.49998893	0.00000000	33.20005000	17.40895000
189.69998891	0.00000000	33.15699000	17.78420000
189.89998890	0.00000000	32.78174000	18.52854000
190.09998889	0.00000000	32.08661000	18.90379000
190.29998888	0.00000000	32.08661000	18.94685000
190.49998887	0.00000000	32.78174000	18.94685000
190.69998885	0.00000000	33.15699000	18.94685000
190.89998884	0.00000000	33.20005000	18.94685000
191.09998883	0.00000000	33.20005000	18.94685000
191.29998882	0.00000000	33.20005000	18.94685000
191.49998881	0.00000000	33.20005000	18.94685000
191.69998880	0.00000000	33.20005000	18.94685000
191.89998878	0.00000000	33.20005000	18.90379000
192.09998877	0.00000000	33.20005000	18.52854000
192.29998876	0.00000000	33.20005000	17.78420000
192.49998875	0.00000000	33.20005000	17.40895000
192.69998874	0.00000000	33.20005000	17.36589000
192.89998872	0.00000000	33.20005000	17.36589000
193.09998871	0.00000000	33.20005000	17.36589000
193.29998870	0.00000000	33.20005000	17.40895000
193.49998869	0.00000000	33.20005000	17.78420000
193.69998868	0.00000000	33.20005000	18.52854000
193.89998866	0.00000000	33.20005000	18.90379000
194.09998865	0.00000000	33.20005000	18.94685000
194.29998864	0.00000000	33.20005000	18.94685000
194.49998863	0.00000000	33.20005000	18.94685000
194.69998862	0.00000000	33.20005000	18.94685000
194.89998861	0.00000000	33.20005000	18.94685000
195.09998859	0.00000000	33.20005000	18.94685000
195.29998858	0.00000000	33.20005000	18.94685000
195.49998857	0.00000000	33.20005000	18.90379000
195.69998856	0.00000000	33.20005000	18.57160000
195.89998855	0.00000000	33.20005000	18.20251000
196.09998853	0.00000000	33.20005000	18.57160000
