Time	Channel A	Channel B	Channel C
(us)	(V)	(mV)	(mV)

-4.49999956	0.00000000	39.11171000	14.21014000
-4.29999957	0.00000000	38.78568000	14.21014000
-4.09999958	0.00000000	39.15477000	14.21014000
-3.89999959	0.00000000	39.48696000	14.21014000
-3.69999960	0.00000000	39.53002000	14.21014000
-3.49999962	0.00000000	39.53002000	14.21014000
-3.29999963	0.00000000	39.53002000	14.16708000
-3.09999964	0.00000000	39.53002000	13.83489000
-2.89999965	0.00000000	39.53002000	13.42274000
-2.69999966	0.00000000	39.53002000	13.45964000
-2.49999968	0.00000000	39.48696000	13.42274000
-2.29999969	0.00000000	39.15477000	13.87795000
-2.09999970	0.00000000	38.78568000	14.53617000
-1.89999971	0.00000000	39.11171000	14.90526000
-1.69999972	0.00000000	39.06250000	14.21014000
-1.49999973	0.00000000	38.36737000	13.51501000
-1.29999975	0.00000000	38.04134000	13.83489000
-1.09999976	0.00000000	38.32431000	14.16708000
-0.89999977	0.00000000	38.73647000	14.21014000
-0.69999978	0.00000000	38.74261000	14.21014000
-0.49999979	0.00000000	39.15477000	14.21014000
-0.29999981	0.31803640	39.48696000	14.21014000
-0.09999982	0.63668800	39.53002000	14.21014000
0.10000017	0.95533960	39.53002000	14.21014000
0.30000016	0.95533960	39.53002000	14.21014000
0.50000015	0.79601380	39.53002000	14.21014000
0.70000013	0.47736220	39.48696000	14.16708000
0.90000012	-0.47736220	39.11171000	13.83489000
1.10000011	-1.43331700	38.41658000	13.46580000
1.30000010	-2.22994600	38.41658000	13.83489000
1.50000009	-2.70792300	39.11171000	14.16708000
1.70000008	-2.54859700	39.48696000	14.21014000
1.90000006	-1.43331700	39.53002000	14.21014000
2.10000005	0.31803640	39.53002000	14.21014000
2.30000004	2.38927200	39.53002000	14.21014000
2.50000003	4.30056600	39.53002000	14.21014000
2.70000002	5.25652100	39.53002000	14.21014000
2.90000000	4.93786900	39.48696000	14.16708000
3.09999999	3.18590100	39.11171000	13.79183000
3.29999998	0.31803640	38.41658000	13.09670000
3.49999997	-3.18590100	38.41658000	13.09670000
3.69999996	-6.21247500	39.11171000	13.79183000
3.89999994	-7.80511800	39.48696000	14.16708000
4.09999993	-7.64579200	39.53002000	14.21014000
4.29999992	-5.41584600	39.53002000	14.25320000
4.49999991	-1.59264300	39.53002000	14.58538000
4.69999990	2.86724900	39.53002000	14.94833000
4.89999989	6.84916400	39.48696000	14.58538000
5.09999987	9.07972400	39.11171000	14.21014000
5.29999986	9.23905000	38.36737000	13.79183000
5.49999985	7.00848900	37.99213000	13.04749000
5.69999984	2.86724900	37.94907000	12.67224000
5.89999983	-1.91129400	37.94907000	12.67224000
6.09999981	-6.21247500	37.99213000	13.04749000
6.29999980	-8.92039900	38.36737000	13.79183000
6.49999979	-9.39837600	39.11171000	14.16708000
6.69999978	-7.48646600	39.48696000	14.21014000
6.89999977	-3.82258900	39.48696000	14.21014000
7.09999975	0.47736220	39.15477000	14.21014000
7.29999974	4.45989200	38.78568000	14.21014000
7.49999973	7.00848900	39.11171000	14.21014000
7.69999972	7.80511800	39.06250000	14.16708000
7.89999971	6.37180100	38.36737000	13.79183000
8.09999970	3.66326300	37.99213000	13.09670000
8.29999968	0.47736220	37.94907000	13.09670000
8.49999967	-2.54859700	37.94907000	13.74262000
8.69999966	-4.61921700	37.94907000	13.79183000
8.89999965	-5.25652100	37.94907000	13.46580000
9.09999964	-4.45989200	37.99213000	13.83489000
9.29999962	-2.86724900	38.32431000	14.16708000
9.49999961	-0.95533960	38.69341000	14.21014000
9.69999960	0.95533960	38.32431000	14.21014000
9.89999959	2.07062000	38.04134000	14.21014000
10.09999958	2.54859700	38.32431000	14.21014000
10.29999956	2.22994600	38.69341000	14.21014000
10.49999955	1.59264300	38.32431000	14.16708000
10.69999954	0.63668800	38.04134000	13.83489000
10.89999953	-0.15871060	38.36737000	13.42274000
11.09999952	-0.63668800	39.11171000	13.45964000
11.29999951	-0.95533960	39.48696000	13.37967000
11.49999949	-0.95533960	39.48696000	13.45964000
11.69999948	-0.79601380	39.15477000	13.42274000
11.89999947	-0.47736220	38.74261000	13.83489000
12.09999946	-0.15871060	38.73647000	14.11786000
12.29999945	-0.15871060	38.32431000	13.83489000
12.49999943	-0.15871060	37.99213000	13.46580000
12.69999942	0.00000000	37.99213000	13.83489000
12.89999941	0.00000000	38.32431000	14.16708000
13.09999940	0.00000000	38.69341000	14.16708000
13.29999939	0.00000000	38.32431000	13.83489000
13.49999937	0.00000000	38.04134000	13.42274000
13.69999936	0.00000000	38.32431000	13.45964000
13.89999935	0.00000000	38.69341000	13.42274000
14.09999934	-0.15871060	38.32431000	13.83489000
14.29999933	-0.15871060	37.99213000	14.16708000
14.49999932	-0.15871060	37.99213000	14.21014000
14.69999930	0.00000000	38.32431000	14.21014000
14.89999929	0.00000000	38.69341000	14.16708000
15.09999928	0.00000000	38.36737000	13.83489000
15.29999927	0.00000000	38.36737000	13.46580000
15.49999926	0.00000000	38.69341000	13.83489000
15.69999924	0.00000000	38.32431000	14.11786000
15.89999923	0.00000000	37.99213000	13.83489000
16.09999922	0.00000000	37.94907000	13.46580000
16.29999921	0.00000000	37.94907000	13.83489000
16.49999920	-0.15871060	37.99213000	14.16708000
16.69999919	-0.15871060	38.36737000	14.21014000
16.89999917	-0.15871060	39.11171000	14.21014000
17.09999916	0.00000000	39.53002000	14.21014000
17.29999915	0.00000000	39.94832000	14.21014000
17.49999914	0.00000000	40.64345000	14.21014000
17.69999913	0.00000000	40.64345000	14.21014000
17.89999911	0.00000000	39.90526000	14.21014000
18.09999910	0.00000000	39.11171000	14.21014000
18.29999909	0.00000000	37.90600000	14.21014000
18.49999908	0.00000000	36.36811000	14.21014000
18.69999907	0.00000000	34.83022000	14.21014000
18.89999905	0.00000000	33.71063000	14.21014000
19.09999904	0.00000000	33.71063000	14.21014000
19.29999903	0.00000000	34.87328000	14.21014000
19.49999902	0.00000000	36.87869000	14.21014000
19.69999901	0.00000000	39.99754000	14.21014000
19.89999900	0.00000000	43.85457000	14.21014000
20.09999898	0.00000000	47.29946000	14.21014000
20.29999897	0.00000000	49.57554000	14.21014000
20.49999896	0.00000000	49.53248000	14.21014000
20.69999895	0.00000000	46.78888000	14.21014000
20.89999894	0.00000000	41.67076000	14.16708000
21.09999892	0.00000000	34.31963000	13.83489000
21.29999891	0.00000000	26.27337000	13.46580000
21.49999890	0.00000000	20.12795000	13.79183000
21.69999889	0.00000000	17.47047000	13.74262000
21.89999888	0.00000000	19.47589000	13.04749000
22.09999886	0.00000000	26.49483000	12.67224000
22.29999885	0.00000000	37.34006000	12.62918000
22.49999884	0.00000000	50.08612000	12.67224000
22.69999883	0.00000000	61.62647000	13.04749000
22.89999882	0.00000000	68.93454000	13.79183000
23.09999881	0.00000000	70.00491000	14.16708000
23.29999879	0.00000000	63.72416000	14.25320000
23.49999878	0.00000000	50.55979000	14.62844000
23.69999877	0.00000000	33.20005000	15.36663000
23.89999876	0.00000000	15.80339000	15.74188000
24.09999875	0.00000000	2.30684000	15.74188000
24.29999873	0.00000000	-4.15846400	15.36663000
24.49999872	0.00000000	-0.95349410	14.58538000
24.69999871	0.00000000	12.16781000	13.74262000
24.89999870	0.00000000	32.26501000	12.16781000
25.09999869	0.00000000	54.69365000	9.93479300
25.29999867	0.00000000	74.70472000	8.35998900
25.49999866	0.00000000	87.03248000	7.65255800
25.69999865	0.00000000	88.20127000	8.12622900
25.89999864	0.00000000	78.51870000	11.18356000
26.09999863	0.00000000	59.49188000	15.32357000
26.29999862	0.00000000	34.83022000	18.89764000
26.49999860	0.00000000	10.54380000	22.05955000
26.69999859	0.00000000	-7.22810000	24.66166000
26.89999858	0.00000000	-14.62229000	25.35679000
27.09999857	0.00000000	-10.34695000	22.99459000
27.29999856	0.00000000	4.73056000	17.97490000
27.49999854	0.00000000	27.52214000	10.96211000
27.69999853	0.00000000	52.55905000	3.24803100
27.89999852	0.00000000	73.86810000	-3.62942900
28.09999851	0.00000000	86.62032000	-7.43725300
28.29999850	0.00000000	88.61343000	-6.60679100
28.49999848	0.00000000	79.35531000	-1.16879900
28.69999847	0.00000000	61.62647000	8.53838500
28.89999846	0.00000000	39.57308000	20.47859000
29.09999845	0.00000000	17.93799000	32.09276000
29.29999844	0.00000000	1.65477300	40.87721000
29.49999843	0.00000000	-6.11466500	44.31594000
29.69999841	0.00000000	-4.20152500	40.79109000
29.89999840	0.00000000	6.91437000	31.12082000
30.09999839	0.00000000	23.89271000	16.76919000
30.29999838	0.00000000	42.51353000	0.59670270
30.49999837	0.00000000	59.58415000	-13.66265000
30.69999835	0.00000000	71.49975000	-22.53937000
30.89999834	0.00000000	75.44906000	-24.02805000
31.09999833	0.00000000	70.89074000	-17.42741000
31.29999832	0.00000000	60.13779000	-3.53715500
31.49999831	0.00000000	45.76156000	14.25320000
31.69999829	0.00000000	30.68405000	32.42495000
31.89999828	0.00000000	17.89493000	47.42864000
32.09999827	0.00000000	10.16855000	55.09965000
32.29999826	0.00000000	8.96284400	53.65403000
32.49999825	0.00000000	14.30856000	43.99606000
32.69999824	0.00000000	24.31717000	28.51870000
32.89999822	0.00000000	36.31890000	9.94094400
33.09999821	0.00000000	47.95152000	-7.81250000
33.29999820	0.00000000	56.79134000	-20.95841000
33.49999819	0.00000000	60.69759000	-26.76550000
33.69999818	0.00000000	58.79060000	-24.07111000
33.89999816	0.00000000	52.31914000	-13.66265000
34.09999815	0.00000000	43.01796000	2.17765700
34.29999814	0.00000000	33.42765000	19.92495000
34.49999813	0.00000000	25.66437000	35.77140000
34.69999812	0.00000000	21.79503000	46.22293000
34.89999810	0.00000000	22.12721000	49.33562000
35.09999809	0.00000000	26.40256000	44.73425000
35.29999808	0.00000000	33.61835000	33.53838000
35.49999807	0.00000000	41.33858000	18.52854000
35.69999806	0.00000000	47.12106000	3.10654500
35.89999805	0.00000000	50.22760000	-8.88287400
36.09999803	0.00000000	49.44020000	-15.10827000
36.29999802	0.00000000	45.34325000	-14.68996000
36.49999801	0.00000000	39.90526000	-7.39419200
36.69999800	0.00000000	34.49803000	4.87204700
36.89999799	0.00000000	29.89665000	18.25787000
37.09999797	0.00000000	27.98351000	29.07849000
37.29999796	0.00000000	29.10310000	34.51648000
37.49999795	0.00000000	32.54798000	34.19045000
37.69999794	0.00000000	37.57381000	28.42643000
37.89999793	0.00000000	42.55659000	18.85458000
38.09999791	0.00000000	46.41363000	8.53838500
38.29999790	0.00000000	47.99458000	0.46136810
38.49999789	0.00000000	47.25640000	-2.98351400
38.69999788	0.00000000	44.92495000	-1.11958700
38.89999787	0.00000000	41.01870000	5.42568800
39.09999786	0.00000000	36.45423000	14.58538000
39.29999784	0.00000000	32.59719000	23.73892000
39.49999783	0.00000000	30.54872000	29.45374000
39.69999782	0.00000000	29.75517000	29.95817000
39.89999781	0.00000000	29.85359000	26.06422000
40.09999780	0.00000000	32.12967000	18.71309000
40.29999778	0.00000000	35.57455000	8.73523500
40.49999777	0.00000000	38.69955000	-0.38139760
40.69999776	0.00000000	41.85531000	-5.72096400
40.89999775	0.00000000	44.13755000	-5.34571800
41.09999774	0.00000000	45.34325000	0.73203740
41.29999772	0.00000000	45.34325000	9.94094400
41.49999771	0.00000000	44.22982000	20.01722000
41.69999770	0.00000000	42.59965000	28.80167000
41.89999769	0.00000000	40.22515000	33.77214000
42.09999768	0.00000000	36.78642000	33.02780000
42.29999767	0.00000000	33.75369000	27.35605000
42.49999765	0.00000000	32.08661000	18.85458000
42.69999764	0.00000000	31.33612000	9.60875900
42.89999763	0.00000000	31.34227000	1.52559000
43.09999762	0.00000000	32.87401000	-3.11884800
43.29999761	0.00000000	34.78716000	-3.53715500
43.49999759	0.00000000	36.78642000	-0.09842519
43.69999758	0.00000000	39.06250000	6.40378900
43.89999757	0.00000000	40.60039000	13.69956000
44.09999756	0.00000000	41.11097000	19.93110000
44.29999755	0.00000000	41.52928000	24.20029000
44.49999753	0.00000000	42.27362000	25.73203000
44.69999752	0.00000000	42.64886000	24.20029000
44.89999751	0.00000000	42.64886000	20.01722000
45.09999750	0.00000000	42.22441000	14.67766000
45.29999749	0.00000000	41.06791000	10.02707000
45.49999748	0.00000000	39.43774000	6.86515700
45.69999746	0.00000000	37.06324000	5.29035400
45.89999745	0.00000000	33.57529000	5.29035400
46.09999744	0.00000000	30.17347000	6.82209600
46.29999743	0.00000000	27.84818000	9.55954600
46.49999742	0.00000000	27.47293000	13.00443000
46.69999740	0.00000000	29.05389000	16.48622000
46.89999739	0.00000000	32.59719000	18.76845000
47.09999738	0.00000000	38.03519000	19.59892000
47.29999737	0.00000000	44.18061000	18.81152000
47.49999736	0.00000000	49.62475000	16.94759000
47.69999734	0.00000000	53.06963000	14.58538000
47.89999733	0.00000000	53.80782000	12.25394000
48.09999732	0.00000000	51.02116000	9.89173200
48.29999731	0.00000000	44.83267000	8.02780400
48.49999730	0.00000000	36.36811000	7.28346400
48.69999729	0.00000000	27.89739000	8.44611200
48.89999727	0.00000000	21.70891000	11.09744000
49.09999726	0.00000000	19.00837000	14.21014000
49.29999725	0.00000000	20.58932000	17.32283000
49.49999724	0.00000000	26.40871000	19.97416000
49.69999723	0.00000000	35.24852000	21.13066000
49.89999721	0.00000000	44.88189000	20.34941000
50.09999720	0.00000000	52.60211000	18.06102000
50.29999719	0.00000000	56.88361000	14.53617000
50.49999718	0.00000000	56.84055000	10.72219000
50.69999717	0.00000000	52.18381000	7.24040300
50.89999715	0.00000000	43.76230000	5.33341500
51.09999714	0.00000000	34.17815000	5.33341500
51.29999713	0.00000000	26.45177000	7.28346400
51.49999712	0.00000000	22.17027000	11.09129000
51.69999711	0.00000000	22.17027000	15.32357000
51.89999710	0.00000000	26.35950000	18.85458000
52.09999708	0.00000000	33.29232000	21.50590000
52.29999707	0.00000000	41.01870000	22.24409000
52.49999706	0.00000000	47.90846000	20.39247000
52.69999705	0.00000000	51.72244000	17.32283000
52.89999704	0.00000000	50.97810000	13.79183000
53.09999702	0.00000000	46.46284000	9.98400600
53.29999701	0.00000000	39.90526000	7.28346400
53.49999700	0.00000000	33.37844000	6.53912400
53.69999699	0.00000000	28.35876000	7.65871000
53.89999698	0.00000000	26.45177000	10.72219000
54.09999696	0.00000000	27.94045000	14.07480000
54.29999695	0.00000000	32.22195000	16.43701000
54.49999694	0.00000000	38.32431000	17.23056000
54.69999693	0.00000000	44.41437000	16.85531000
54.89999692	0.00000000	47.85925000	15.32357000
55.09999691	0.00000000	47.95152000	13.04749000
55.29999689	0.00000000	45.30019000	11.18356000
55.49999688	0.00000000	41.01870000	10.40231000
55.69999687	0.00000000	35.99286000	11.18356000
55.89999686	0.00000000	31.01624000	13.09055000
56.09999685	0.00000000	27.98351000	15.78494000
56.29999683	0.00000000	27.94045000	18.39321000
56.49999682	0.00000000	30.59178000	19.55585000
56.69999681	0.00000000	34.83022000	18.71924000
56.89999680	0.00000000	39.43774000	16.01870000
57.09999679	0.00000000	43.34399000	11.46653000
57.29999677	0.00000000	45.62623000	7.28346400
57.49999676	0.00000000	46.03838000	4.87204700
57.69999675	0.00000000	44.09449000	3.75246000
57.89999674	0.00000000	40.69267000	4.63828700
58.09999673	0.00000000	36.82948000	8.48917200
58.29999672	0.00000000	33.75369000	14.25320000
58.49999670	0.00000000	32.17273000	20.39247000
58.69999669	0.00000000	32.17273000	25.31373000
58.89999668	0.00000000	33.66756000	26.85162000
59.09999667	0.00000000	35.99286000	24.57554000
59.29999666	0.00000000	38.28125000	19.59892000
59.49999664	0.00000000	40.22515000	13.00443000
59.69999663	0.00000000	40.97564000	6.44685000
59.89999662	0.00000000	40.64345000	1.06422200
60.09999661	0.00000000	39.48696000	-1.58710600
60.29999660	0.00000000	37.94907000	-0.42445860
60.49999658	0.00000000	36.46038000	4.17691900
60.69999657	0.00000000	35.67298000	11.14050000
60.89999656	0.00000000	36.03592000	18.85458000
61.09999655	0.00000000	36.78642000	25.73203000
61.29999654	0.00000000	37.99213000	29.53986000
61.49999653	0.00000000	39.48696000	28.80167000
61.69999651	0.00000000	40.60039000	24.20029000
61.89999650	0.00000000	40.60039000	16.85531000
62.09999649	0.00000000	39.48696000	8.44611200
62.29999648	0.00000000	37.94907000	1.52559000
62.49999647	0.00000000	36.36811000	-2.00541300
62.69999645	0.00000000	34.83022000	-2.00541300
62.89999644	0.00000000	33.71063000	1.48253000
63.09999643	0.00000000	33.71063000	7.98474400
63.29999642	0.00000000	34.87328000	15.27436000
63.49999641	0.00000000	36.83563000	21.50590000
63.69999639	0.00000000	39.48696000	25.77510000
63.89999638	0.00000000	41.76304000	27.31299000
64.09999637	0.00000000	42.55659000	25.77510000
64.29999636	0.00000000	42.22441000	21.54897000
64.49999635	0.00000000	41.01870000	15.74188000
64.69999634	0.00000000	39.06250000	9.60875900
64.89999632	0.00000000	36.36811000	4.59522600
65.09999631	0.00000000	33.75369000	2.22071800
65.29999630	0.00000000	32.59104000	2.17150600
65.49999629	0.00000000	33.33538000	4.12770700
65.69999628	0.00000000	35.16240000	7.93553100
65.89999626	0.00000000	37.15551000	12.16166000
66.09999625	0.00000000	38.69955000	15.69882000
66.29999624	0.00000000	40.22515000	18.47933000
66.49999623	0.00000000	40.55733000	20.43553000
66.69999622	0.00000000	39.48696000	21.59203000
66.89999620	0.00000000	37.94907000	21.59203000
67.09999619	0.00000000	36.36811000	20.43553000
67.29999618	0.00000000	34.87328000	18.47933000
67.49999617	0.00000000	34.17815000	15.74188000
67.69999616	0.00000000	35.34079000	12.62918000
67.89999615	0.00000000	37.94907000	9.51648500
68.09999613	0.00000000	40.64345000	6.77903500
68.29999612	0.00000000	42.59965000	4.82283400
68.49999611	0.00000000	43.71924000	3.70939900
68.69999610	0.00000000	43.30093000	4.17076700
68.89999609	0.00000000	40.93258000	6.86515700
69.09999607	0.00000000	37.10630000	11.09129000
69.29999606	0.00000000	32.50492000	15.78494000
69.49999605	0.00000000	29.05389000	20.43553000
69.69999604	0.00000000	27.47293000	24.24335000
69.89999603	0.00000000	27.94045000	25.78125000
70.09999601	0.00000000	31.05930000	24.61860000
70.29999600	0.00000000	36.41117000	21.13066000
70.49999599	0.00000000	42.18134000	15.69882000
70.69999598	0.00000000	46.88115000	9.60875900
70.89999597	0.00000000	49.95078000	4.54601300
71.09999596	0.00000000	50.64591000	1.84547200
71.29999594	0.00000000	47.90846000	1.43331700
71.49999593	0.00000000	42.18134000	3.80167300
71.69999592	0.00000000	35.24852000	8.35998900
71.89999591	0.00000000	29.06004000	13.74262000
72.09999590	0.00000000	24.77854000	18.39321000
72.29999588	0.00000000	23.24065000	21.46284000
72.49999587	0.00000000	24.77854000	22.29331000
72.69999586	0.00000000	29.06004000	20.76772000
72.89999585	0.00000000	35.20546000	18.11024000
73.09999584	0.00000000	41.80610000	14.62844000
73.29999582	0.00000000	47.20718000	11.60187000
73.49999581	0.00000000	50.69513000	10.02707000
73.69999580	0.00000000	51.02116000	9.98400600
73.89999579	0.00000000	47.99458000	11.09744000
74.09999578	0.00000000	42.59965000	12.62918000
74.29999577	0.00000000	36.45423000	14.11786000
74.49999575	0.00000000	31.01624000	14.85605000
74.69999574	0.00000000	27.52214000	14.07480000
74.89999573	0.00000000	26.31643000	12.21087000
75.09999572	0.00000000	27.52214000	9.93479300
75.29999571	0.00000000	30.92396000	8.44611200
75.49999569	0.00000000	35.52534000	8.44611200
75.69999568	0.00000000	39.39468000	9.98400600
75.89999567	0.00000000	42.18134000	12.72146000
76.09999566	0.00000000	43.71924000	16.20325000
76.29999565	0.00000000	43.76230000	20.01722000
76.49999563	0.00000000	42.55659000	22.61934000
76.69999562	0.00000000	40.31742000	22.61934000
76.89999561	0.00000000	37.62918000	19.92495000
77.09999560	0.00000000	36.08513000	15.32357000
77.29999559	0.00000000	35.25467000	9.89173200
77.49999558	0.00000000	35.25467000	4.91510800
77.69999556	0.00000000	35.94980000	1.43946800
77.89999555	0.00000000	36.32505000	0.68897630
78.09999554	0.00000000	36.36811000	2.59596400
78.29999553	0.00000000	36.32505000	6.90821800
78.49999552	0.00000000	35.94980000	13.04749000
78.69999550	0.00000000	35.25467000	19.55585000
78.89999549	0.00000000	35.29773000	24.20029000
79.09999548	0.00000000	36.41117000	26.19955000
79.29999547	0.00000000	37.94907000	25.77510000
79.49999546	0.00000000	39.53002000	22.66240000
79.69999544	0.00000000	41.06791000	17.32283000
79.89999543	0.00000000	42.18134000	11.51575000
80.09999542	0.00000000	42.18134000	6.48991100
80.29999541	0.00000000	41.01870000	2.96505900
80.49999540	0.00000000	39.06250000	1.84547200
80.69999539	0.00000000	36.31890000	2.92199800
80.89999537	0.00000000	33.29232000	6.02854300
81.09999536	0.00000000	31.01009000	9.84867000
81.29999535	0.00000000	30.63484000	13.79183000
81.49999534	0.00000000	32.17273000	17.27977000
81.69999533	0.00000000	35.20546000	20.06029000
81.89999531	0.00000000	38.64419000	21.96727000
82.09999530	0.00000000	41.01870000	22.71161000
82.29999529	0.00000000	42.59965000	21.54897000
82.49999528	0.00000000	43.30093000	18.89764000
82.69999527	0.00000000	42.18134000	15.78494000
82.89999525	0.00000000	39.90526000	12.62918000
83.09999524	0.00000000	37.57381000	9.51648500
83.29999523	0.00000000	35.24852000	6.82209600
83.49999522	0.00000000	33.75369000	5.24729300
83.69999521	0.00000000	33.66756000	4.82898600
83.89999520	0.00000000	34.41191000	5.29035400
84.09999518	0.00000000	35.20546000	7.28346400
84.29999517	0.00000000	36.36811000	11.14050000
84.49999516	0.00000000	37.53075000	15.69882000
84.69999515	0.00000000	38.28125000	19.59892000
84.89999514	0.00000000	38.69341000	21.92421000
85.09999512	0.00000000	38.32431000	22.71161000
85.29999511	0.00000000	37.99213000	21.50590000
85.49999510	0.00000000	37.94907000	18.43627000
85.69999509	0.00000000	37.99213000	14.16708000
85.89999508	0.00000000	38.36737000	9.51648500
86.09999506	0.00000000	39.06250000	5.29035400
86.29999505	0.00000000	39.06250000	2.63902500
86.49999504	0.00000000	38.32431000	2.59596400
86.69999503	0.00000000	37.53075000	4.91510800
86.89999502	0.00000000	36.36811000	8.77829600
87.09999501	0.00000000	35.20546000	13.83489000
87.29999499	0.00000000	34.45497000	18.81152000
87.49999498	0.00000000	34.08588000	22.61934000
87.69999497	0.00000000	34.87328000	23.78199000
87.89999496	0.00000000	36.36811000	21.92421000
88.09999495	0.00000000	37.94907000	18.43627000
88.29999493	0.00000000	39.48696000	13.79183000
88.49999492	0.00000000	40.64345000	8.82135800
88.69999491	0.00000000	41.01870000	5.37647600
88.89999490	0.00000000	40.64345000	4.17691900
89.09999489	0.00000000	39.48696000	5.33341500
89.29999487	0.00000000	37.90600000	8.40305000
89.49999486	0.00000000	35.99286000	12.67224000
89.69999485	0.00000000	34.12894000	17.23056000
89.89999484	0.00000000	33.71063000	20.66314000
90.09999483	0.00000000	34.41191000	21.46284000
90.29999482	0.00000000	35.20546000	20.01722000
90.49999480	0.00000000	36.41117000	17.23056000
90.69999479	0.00000000	37.90600000	13.37352000
90.89999478	0.00000000	39.06250000	8.82135800
91.09999477	0.00000000	39.48696000	5.80093500
91.29999476	0.00000000	39.48696000	5.33341500
91.49999474	0.00000000	39.11171000	6.91437000
91.69999473	0.00000000	38.32431000	10.35310000
91.89999472	0.00000000	37.57381000	14.94833000
92.09999471	0.00000000	36.78642000	18.76845000
92.29999470	0.00000000	36.41117000	21.08760000
92.49999468	0.00000000	36.36811000	21.08760000
92.69999467	0.00000000	36.36811000	18.76845000
92.89999466	0.00000000	36.32505000	14.94833000
93.09999465	0.00000000	35.94980000	10.31004000
93.29999464	0.00000000	35.20546000	6.53912400
93.49999463	0.00000000	34.83022000	4.59522600
93.69999461	0.00000000	34.83022000	5.33341500
93.89999460	0.00000000	35.25467000	7.98474400
94.09999459	0.00000000	36.41117000	11.51575000
94.29999458	0.00000000	37.94907000	15.74188000
94.49999457	0.00000000	39.53002000	19.50664000
94.69999455	0.00000000	41.06791000	21.04454000
94.89999454	0.00000000	42.18134000	19.92495000
95.09999453	0.00000000	42.13828000	16.85531000
95.29999452	0.00000000	40.60039000	12.62918000
95.49999451	0.00000000	37.94907000	8.44611200
95.69999449	0.00000000	35.20546000	5.75172200
95.89999448	0.00000000	32.87401000	5.33341500
96.09999447	0.00000000	30.92396000	6.82209600
96.29999446	0.00000000	30.21653000	9.55954600
96.49999445	0.00000000	30.96703000	13.00443000
96.69999444	0.00000000	33.33538000	16.43701000
96.89999442	0.00000000	36.78642000	18.39321000
97.09999441	0.00000000	40.64345000	18.81152000
97.29999440	0.00000000	43.71924000	18.01796000
97.49999439	0.00000000	45.30019000	15.69882000
97.69999438	0.00000000	45.25713000	12.67224000
97.89999436	0.00000000	43.38705000	9.98400600
98.09999435	0.00000000	40.23130000	8.44611200
98.29999434	0.00000000	36.73105000	8.40305000
98.49999433	0.00000000	32.50492000	9.51648500
98.69999432	0.00000000	29.47835000	11.04823000
98.89999430	0.00000000	28.63558000	12.62918000
99.09999429	0.00000000	29.38607000	14.16092000
99.29999428	0.00000000	31.71137000	15.27436000
99.49999427	0.00000000	34.83022000	15.32357000
99.69999426	0.00000000	38.32431000	14.62844000
99.89999425	0.00000000	41.80610000	14.25320000
100.09999423	0.00000000	44.09449000	14.21014000
100.29999422	0.00000000	44.92495000	14.21014000
100.49999421	0.00000000	44.13755000	14.25320000
100.69999420	0.00000000	42.22441000	14.58538000
100.89999419	0.00000000	39.48696000	14.90526000
101.09999417	0.00000000	36.41117000	14.11786000
101.29999416	0.00000000	33.71063000	12.62918000
101.49999415	0.00000000	32.12967000	11.09744000
101.69999414	0.00000000	31.66215000	9.89173200
101.89999413	0.00000000	31.71137000	9.19045200
102.09999411	0.00000000	32.54798000	9.19660400
102.29999410	0.00000000	34.83022000	10.76525000
102.49999409	0.00000000	37.48154000	13.00443000
102.69999408	0.00000000	39.43774000	15.36663000
102.89999407	0.00000000	40.64345000	17.32283000
103.09999406	0.00000000	41.06791000	18.85458000
103.29999404	0.00000000	41.06791000	19.55585000
103.49999403	0.00000000	40.60039000	18.35015000
103.69999402	0.00000000	39.06250000	15.36663000
103.89999401	0.00000000	36.78642000	11.88484000
104.09999400	0.00000000	34.87328000	9.18430000
104.29999398	0.00000000	33.66756000	7.24040300
104.49999397	0.00000000	33.29232000	6.90821800
104.69999396	0.00000000	33.66756000	8.35383800
104.89999395	0.00000000	34.83022000	10.67298000
105.09999394	0.00000000	36.32505000	13.04749000
105.29999392	0.00000000	37.53075000	15.74188000
105.49999391	0.00000000	38.32431000	17.97490000
105.69999390	0.00000000	39.06250000	18.39321000
105.89999389	0.00000000	39.01944000	17.27362000
106.09999388	0.00000000	37.94907000	15.36663000
106.29999387	0.00000000	36.78642000	13.04749000
106.49999385	0.00000000	35.99286000	11.14050000
106.69999384	0.00000000	35.25467000	9.98400600
106.89999383	0.00000000	35.25467000	9.93479300
107.09999382	0.00000000	35.99286000	10.67298000
107.29999381	0.00000000	36.74335000	11.51575000
107.49999379	0.00000000	37.53075000	13.04749000
107.69999378	0.00000000	37.90600000	14.90526000
107.89999377	0.00000000	37.94907000	15.64960000
108.09999376	0.00000000	37.90600000	15.32357000
108.29999375	0.00000000	37.48154000	14.21014000
108.49999374	0.00000000	36.36811000	13.00443000
108.69999372	0.00000000	35.20546000	11.83563000
108.89999371	0.00000000	34.45497000	10.35310000
109.09999370	0.00000000	34.08588000	9.98400600
109.29999369	0.00000000	34.87328000	10.72219000
109.49999368	0.00000000	36.36811000	11.88484000
109.69999366	0.00000000	37.90600000	13.83489000
109.89999365	0.00000000	39.06250000	15.64960000
110.09999364	0.00000000	39.43774000	16.48007000
110.29999363	0.00000000	39.11171000	16.11712000
110.49999362	0.00000000	38.32431000	15.36663000
110.69999360	0.00000000	37.53075000	14.16092000
110.89999359	0.00000000	36.36811000	12.67224000
111.09999358	0.00000000	35.20546000	11.46653000
111.29999357	0.00000000	34.45497000	10.72219000
111.49999356	0.00000000	34.04282000	10.31004000
111.69999355	0.00000000	34.45497000	10.72219000
111.89999353	0.00000000	35.20546000	11.46653000
112.09999352	0.00000000	36.36811000	12.62918000
112.29999351	0.00000000	37.48154000	13.74262000
112.49999350	0.00000000	37.90600000	14.16708000
112.69999349	0.00000000	37.94907000	14.21014000
112.89999347	0.00000000	37.90600000	14.21014000
113.09999346	0.00000000	37.53075000	14.21014000
113.29999345	0.00000000	36.78642000	14.16708000
113.49999344	0.00000000	36.41117000	13.79183000
113.69999343	0.00000000	36.36811000	13.04749000
113.89999341	0.00000000	36.36811000	12.67224000
114.09999340	0.00000000	36.36811000	12.62918000
114.29999339	0.00000000	36.36811000	12.58612000
114.49999338	0.00000000	36.41117000	12.21087000
114.69999337	0.00000000	36.78642000	11.46653000
114.89999336	0.00000000	37.53075000	11.09129000
115.09999334	0.00000000	37.90600000	11.04823000
115.29999333	0.00000000	37.90600000	11.04823000
115.49999332	0.00000000	37.57381000	11.09129000
115.69999331	0.00000000	37.16166000	11.51575000
115.89999330	0.00000000	37.15551000	12.62918000
116.09999328	0.00000000	36.74335000	13.79183000
116.29999327	0.00000000	36.41117000	14.58538000
116.49999326	0.00000000	36.32505000	15.32357000
116.69999325	0.00000000	35.99286000	15.32357000
116.89999324	0.00000000	35.62377000	14.58538000
117.09999322	0.00000000	35.99286000	13.83489000
117.29999321	0.00000000	36.36811000	13.00443000
117.49999320	0.00000000	36.78642000	12.25394000
117.69999319	0.00000000	37.53075000	11.46653000
117.89999318	0.00000000	37.90600000	11.09129000
118.09999317	0.00000000	37.94907000	11.04823000
118.29999315	0.00000000	37.94907000	11.09129000
118.49999314	0.00000000	37.90600000	11.46653000
118.69999313	0.00000000	37.48154000	12.25394000
118.89999312	0.00000000	36.32505000	13.00443000
119.09999311	0.00000000	34.83022000	13.79183000
119.29999309	0.00000000	33.71063000	14.16708000
119.49999308	0.00000000	33.66756000	14.21014000
119.69999307	0.00000000	34.41191000	14.21014000
119.89999306	0.00000000	35.20546000	14.16708000
120.09999305	0.00000000	36.41117000	13.79183000
120.29999303	0.00000000	37.90600000	13.04749000
120.49999302	0.00000000	39.06250000	12.67224000
120.69999301	0.00000000	39.48696000	12.58612000
120.89999300	0.00000000	39.48696000	12.21087000
121.09999299	0.00000000	39.06250000	11.46653000
121.29999298	0.00000000	37.90600000	11.09129000
121.49999296	0.00000000	36.41117000	11.09129000
121.69999295	0.00000000	35.25467000	11.46653000
121.89999294	0.00000000	34.78716000	12.21087000
122.09999293	0.00000000	34.41191000	12.62918000
122.29999292	0.00000000	34.08588000	13.04749000
122.49999290	0.00000000	34.83022000	13.79183000
122.69999289	0.00000000	35.90059000	14.16708000
122.89999288	0.00000000	36.36811000	14.21014000
123.09999287	0.00000000	36.78642000	14.16708000
123.29999286	0.00000000	37.53075000	13.83489000
123.49999284	0.00000000	37.90600000	13.46580000
123.69999283	0.00000000	37.94907000	13.79183000
123.89999282	0.00000000	37.94907000	13.69956000
124.09999281	0.00000000	37.90600000	12.62918000
124.29999280	0.00000000	37.53075000	11.55881000
124.49999279	0.00000000	36.74335000	11.46653000
124.69999277	0.00000000	35.99286000	11.83563000
124.89999276	0.00000000	35.20546000	11.84178000
125.09999275	0.00000000	34.83022000	12.25394000
125.29999274	0.00000000	34.78716000	12.62918000
125.49999273	0.00000000	34.83022000	13.04749000
125.69999271	0.00000000	35.20546000	13.79183000
125.89999270	0.00000000	35.99286000	14.16708000
126.09999269	0.00000000	36.74335000	14.21014000
126.29999268	0.00000000	37.57381000	14.21014000
126.49999267	0.00000000	38.28125000	14.16708000
126.69999265	0.00000000	38.69341000	13.79183000
126.89999264	0.00000000	38.28125000	13.04749000
127.09999263	0.00000000	37.57381000	12.62918000
127.29999262	0.00000000	36.74335000	12.25394000
127.49999261	0.00000000	35.99286000	11.88484000
127.69999260	0.00000000	35.20546000	12.25394000
127.89999258	0.00000000	34.83022000	12.58612000
128.09999257	0.00000000	34.78716000	12.62918000
128.29999256	0.00000000	34.83022000	12.67224000
128.49999255	0.00000000	35.25467000	13.00443000
128.69999254	0.00000000	36.36811000	13.41658000
128.89999252	0.00000000	37.48154000	13.37967000
129.09999251	0.00000000	37.90600000	13.41658000
129.29999250	0.00000000	37.94907000	13.00443000
129.49999249	0.00000000	37.90600000	12.67224000
129.69999248	0.00000000	37.48154000	12.62918000
129.89999246	0.00000000	36.32505000	12.62918000
130.09999245	0.00000000	34.87328000	12.62918000
130.29999244	0.00000000	34.08588000	12.62918000
130.49999243	0.00000000	34.41191000	12.67224000
130.69999242	0.00000000	34.78716000	13.00443000
130.89999241	0.00000000	35.20546000	13.41658000
131.09999239	0.00000000	35.99286000	13.37967000
131.29999238	0.00000000	36.74335000	13.41658000
131.49999237	0.00000000	37.53075000	13.00443000
131.69999236	0.00000000	37.90600000	12.67224000
131.89999235	0.00000000	37.90600000	12.58612000
132.09999233	0.00000000	37.53075000	12.21087000
132.29999232	0.00000000	36.74335000	11.46653000
132.49999231	0.00000000	35.99286000	11.14050000
132.69999230	0.00000000	35.20546000	11.46653000
132.89999229	0.00000000	34.87943000	12.25394000
133.09999227	0.00000000	35.20546000	13.00443000
133.29999226	0.00000000	35.94980000	13.79183000
133.49999225	0.00000000	36.36811000	14.16708000
133.69999224	0.00000000	36.74335000	14.21014000
133.89999223	0.00000000	37.11245000	14.16708000
134.09999222	0.00000000	36.74335000	13.79183000
134.29999220	0.00000000	36.41117000	13.00443000
134.49999219	0.00000000	36.36811000	12.25394000
134.69999218	0.00000000	36.36811000	11.46653000
134.89999217	0.00000000	36.36811000	11.09129000
135.09999216	0.00000000	36.36811000	11.04823000
135.29999214	0.00000000	36.36811000	11.09129000
135.49999213	0.00000000	36.36811000	11.46653000
135.69999212	0.00000000	36.36811000	12.25394000
135.89999211	0.00000000	36.36811000	13.00443000
136.09999210	0.00000000	36.36811000	13.79183000
136.29999208	0.00000000	36.36811000	14.16708000
136.49999207	0.00000000	36.32505000	14.16708000
136.69999206	0.00000000	35.94980000	13.79183000
136.89999205	0.00000000	35.25467000	13.04749000
137.09999204	0.00000000	35.20546000	12.62918000
137.29999203	0.00000000	35.57455000	12.21087000
137.49999201	0.00000000	35.62377000	11.51575000
137.69999200	0.00000000	36.41117000	11.51575000
137.89999199	0.00000000	37.48154000	12.16166000
138.09999198	0.00000000	37.90600000	12.16166000
138.29999197	0.00000000	37.90600000	11.46653000
138.49999195	0.00000000	37.48154000	11.14050000
138.69999194	0.00000000	36.36811000	11.42347000
138.89999193	0.00000000	35.25467000	11.83563000
139.09999192	0.00000000	34.83022000	11.88484000
139.29999191	0.00000000	34.78716000	12.67224000
139.49999189	0.00000000	34.83022000	13.74262000
139.69999188	0.00000000	35.20546000	14.16708000
139.89999187	0.00000000	35.99286000	14.21014000
140.09999186	0.00000000	36.74335000	14.16708000
140.29999185	0.00000000	37.53075000	13.74262000
140.49999184	0.00000000	37.85679000	12.62918000
140.69999182	0.00000000	37.53075000	11.51575000
140.89999181	0.00000000	36.74335000	11.09129000
141.09999180	0.00000000	36.03592000	11.04823000
141.29999179	0.00000000	35.58071000	11.04823000
141.49999178	0.00000000	35.57455000	11.09129000
141.69999176	0.00000000	35.16240000	11.51575000
141.89999175	0.00000000	34.87943000	12.62918000
142.09999174	0.00000000	35.20546000	13.79183000
142.29999173	0.00000000	35.94980000	14.53617000
142.49999172	0.00000000	36.32505000	14.94833000
142.69999170	0.00000000	36.36811000	14.58538000
142.89999169	0.00000000	36.36811000	14.21014000
143.09999168	0.00000000	36.36811000	13.74262000
143.29999167	0.00000000	36.32505000	12.62918000
143.49999166	0.00000000	35.99286000	11.51575000
143.69999165	0.00000000	35.62377000	11.09129000
143.89999163	0.00000000	35.99286000	11.04823000
144.09999162	0.00000000	36.32505000	11.09129000
144.29999161	0.00000000	36.36811000	11.46653000
144.49999160	0.00000000	36.36811000	12.25394000
144.69999159	0.00000000	36.36811000	13.00443000
144.89999157	0.00000000	36.36811000	13.79183000
145.09999156	0.00000000	36.36811000	14.16708000
145.29999155	0.00000000	36.36811000	14.16708000
145.49999154	0.00000000	36.36811000	13.79183000
145.69999153	0.00000000	36.36811000	13.04749000
145.89999151	0.00000000	36.36811000	12.62918000
146.09999150	0.00000000	36.36811000	12.21087000
146.29999149	0.00000000	36.36811000	11.46653000
146.49999148	0.00000000	36.36811000	11.09129000
146.69999147	0.00000000	36.36811000	11.09129000
146.89999146	0.00000000	36.36811000	11.46653000
147.09999144	0.00000000	36.36811000	12.21087000
147.29999143	0.00000000	36.36811000	12.58612000
147.49999142	0.00000000	36.36811000	12.67224000
147.69999141	0.00000000	36.36811000	13.04749000
147.89999140	0.00000000	36.36811000	13.79183000
148.09999138	0.00000000	36.32505000	14.16708000
148.29999137	0.00000000	35.94980000	14.16708000
148.49999136	0.00000000	35.20546000	13.79183000
148.69999135	0.00000000	34.87943000	13.04749000
148.89999134	0.00000000	35.20546000	12.67224000
149.09999132	0.00000000	35.94980000	12.62918000
149.29999131	0.00000000	36.36811000	12.62918000
149.49999130	0.00000000	36.74335000	12.58612000
149.69999129	0.00000000	37.11245000	12.25394000
149.89999128	0.00000000	36.74335000	11.88484000
150.09999127	0.00000000	36.41117000	12.29700000
150.29999125	0.00000000	36.36811000	12.96137000
150.49999124	0.00000000	36.36811000	13.37352000
150.69999123	0.00000000	36.32505000	13.00443000
150.89999122	0.00000000	35.94980000	12.67224000
151.09999121	0.00000000	35.20546000	12.62918000
151.29999119	0.00000000	34.87943000	12.62918000
151.49999118	0.00000000	35.20546000	12.67224000
151.69999117	0.00000000	35.94980000	13.00443000
151.89999116	0.00000000	36.32505000	13.32431000
152.09999115	0.00000000	36.36811000	12.62918000
152.29999113	0.00000000	36.36811000	11.93405000
152.49999112	0.00000000	36.36811000	12.25394000
152.69999111	0.00000000	36.36811000	12.58612000
152.89999110	0.00000000	36.36811000	12.62918000
153.09999109	0.00000000	36.36811000	12.62918000
153.29999108	0.00000000	36.36811000	12.67224000
153.49999106	0.00000000	36.36811000	13.04749000
153.69999105	0.00000000	36.32505000	13.79183000
153.89999104	0.00000000	35.94980000	14.16708000
154.09999103	0.00000000	35.20546000	14.16708000
154.29999102	0.00000000	34.83022000	13.79183000
154.49999100	0.00000000	34.78716000	13.04749000
154.69999099	0.00000000	34.83022000	12.67224000
154.89999098	0.00000000	35.20546000	12.62918000
155.09999097	0.00000000	35.94980000	12.58612000
155.29999096	0.00000000	36.32505000	12.25394000
155.49999094	0.00000000	36.36811000	11.88484000
155.69999093	0.00000000	36.36811000	12.25394000
155.89999092	0.00000000	36.36811000	12.53691000
156.09999091	0.00000000	36.36811000	12.25394000
156.29999090	0.00000000	36.36811000	11.88484000
156.49999089	0.00000000	36.32505000	12.25394000
156.69999087	0.00000000	35.94980000	12.62918000
156.89999086	0.00000000	35.20546000	13.04749000
157.09999085	0.00000000	34.83022000	13.79183000
157.29999084	0.00000000	34.78716000	14.16708000
157.49999083	0.00000000	34.78716000	14.16708000
157.69999081	0.00000000	34.83022000	13.79183000
157.89999080	0.00000000	35.20546000	13.04749000
158.09999079	0.00000000	35.94980000	12.67224000
158.29999078	0.00000000	36.32505000	12.58612000
158.49999077	0.00000000	36.36811000	12.25394000
158.69999075	0.00000000	36.36811000	11.88484000
158.89999074	0.00000000	36.36811000	12.25394000
159.09999073	0.00000000	36.36811000	12.58612000
159.29999072	0.00000000	36.36811000	12.62918000
159.49999071	0.00000000	36.36811000	12.67224000
159.69999070	0.00000000	36.32505000	13.04749000
159.89999068	0.00000000	35.94980000	13.79183000
160.09999067	0.00000000	35.25467000	14.16708000
160.29999066	0.00000000	35.20546000	14.21014000
160.49999065	0.00000000	35.57455000	14.16708000
160.69999064	0.00000000	35.58071000	13.79183000
160.89999062	0.00000000	35.94980000	13.04749000
161.09999061	0.00000000	35.94980000	12.67224000
161.29999060	0.00000000	35.62377000	12.62918000
161.49999059	0.00000000	35.99286000	12.62918000
161.69999058	0.00000000	36.32505000	12.62918000
161.89999056	0.00000000	36.32505000	12.62918000
162.09999055	0.00000000	35.99286000	12.67224000
162.29999054	0.00000000	35.62377000	13.00443000
162.49999053	0.00000000	35.99286000	13.37352000
162.69999052	0.00000000	36.32505000	13.04749000
162.89999051	0.00000000	36.36811000	13.04749000
163.09999049	0.00000000	36.32505000	13.37352000
163.29999048	0.00000000	35.94980000	13.00443000
163.49999047	0.00000000	35.20546000	12.67224000
163.69999046	0.00000000	34.83022000	12.62918000
163.89999045	0.00000000	34.78716000	12.62918000
164.09999043	0.00000000	34.83022000	12.62918000
164.29999042	0.00000000	35.20546000	12.62918000
164.49999041	0.00000000	35.94980000	12.58612000
164.69999040	0.00000000	36.32505000	12.21087000
164.89999039	0.00000000	36.36811000	11.51575000
165.09999037	0.00000000	36.36811000	11.46653000
165.29999036	0.00000000	36.36811000	11.83563000
165.49999035	0.00000000	36.36811000	11.84178000
165.69999034	0.00000000	36.32505000	12.25394000
165.89999033	0.00000000	35.94980000	12.58612000
166.09999032	0.00000000	35.20546000	12.62918000
166.29999030	0.00000000	34.83022000	12.62918000
166.49999029	0.00000000	34.78716000	12.62918000
166.69999028	0.00000000	34.78716000	12.62918000
166.89999027	0.00000000	34.78716000	12.62918000
167.09999026	0.00000000	34.78716000	12.58612000
167.29999024	0.00000000	34.78716000	12.25394000
167.49999023	0.00000000	34.83022000	11.84178000
167.69999022	0.00000000	35.20546000	11.87869000
167.89999021	0.00000000	35.94980000	11.84178000
168.09999020	0.00000000	36.32505000	12.25394000
168.29999018	0.00000000	36.36811000	12.58612000
168.49999017	0.00000000	36.36811000	12.62918000
168.69999016	0.00000000	36.36811000	12.62918000
168.89999015	0.00000000	36.36811000	12.62918000
169.09999014	0.00000000	36.36811000	12.58612000
169.29999013	0.00000000	36.36811000	12.25394000
169.49999011	0.00000000	36.32505000	11.88484000
169.69999010	0.00000000	35.94980000	12.25394000
169.89999009	0.00000000	35.20546000	12.58612000
170.09999008	0.00000000	34.87943000	12.62918000
170.29999007	0.00000000	35.20546000	12.62918000
170.49999005	0.00000000	35.90059000	12.62918000
170.69999004	0.00000000	35.94980000	12.62918000
170.89999003	0.00000000	35.58071000	12.62918000
171.09999002	0.00000000	35.66068000	12.62918000
171.29999001	0.00000000	35.91289000	12.62918000
171.49998999	0.00000000	36.36196000	12.62918000
171.69998998	0.00000000	35.95595000	12.62918000
171.89998997	0.00000000	36.03592000	12.62918000
172.09998996	0.00000000	36.27584000	12.62918000
172.29998995	0.00000000	35.94980000	12.62918000
172.49998994	0.00000000	35.25467000	12.62918000
172.69998992	0.00000000	35.25467000	12.67224000
172.89998991	0.00000000	35.94980000	13.00443000
173.09998990	0.00000000	36.32505000	13.37352000
173.29998989	0.00000000	36.36811000	13.00443000
173.49998988	0.00000000	36.36811000	12.67224000
173.69998986	0.00000000	36.36811000	12.62918000
173.89998985	0.00000000	36.36811000	12.62918000
174.09998984	0.00000000	36.32505000	12.62918000
174.29998983	0.00000000	35.99286000	12.62918000
174.49998982	0.00000000	35.62377000	12.62918000
174.69998980	0.00000000	35.99286000	12.62918000
174.89998979	0.00000000	36.27584000	12.62918000
175.09998978	0.00000000	35.94980000	12.62918000
175.29998977	0.00000000	35.20546000	12.62918000
175.49998976	0.00000000	34.83022000	12.62918000
175.69998975	0.00000000	34.78716000	12.62918000
175.89998973	0.00000000	34.83022000	12.62918000
176.09998972	0.00000000	35.16240000	12.62918000
176.29998971	0.00000000	35.57455000	12.62918000
176.49998970	0.00000000	35.58071000	12.62918000
176.69998969	0.00000000	35.99286000	12.62918000
176.89998967	0.00000000	36.32505000	12.62918000
177.09998966	0.00000000	36.32505000	12.62918000
177.29998965	0.00000000	35.94980000	12.62918000
177.49998964	0.00000000	35.25467000	12.62918000
177.69998963	0.00000000	35.20546000	12.62918000
177.89998961	0.00000000	35.57455000	12.62918000
178.09998960	0.00000000	35.53765000	12.62918000
178.29998959	0.00000000	35.57455000	12.62918000
178.49998958	0.00000000	35.20546000	12.62918000
178.69998957	0.00000000	35.20546000	12.62918000
178.89998956	0.00000000	35.53149000	12.62918000
179.09998954	0.00000000	35.16240000	12.62918000
179.29998953	0.00000000	34.87943000	12.62918000
179.49998952	0.00000000	35.20546000	12.62918000
179.69998951	0.00000000	35.90059000	12.58612000
179.89998950	0.00000000	35.90059000	12.21087000
180.09998948	0.00000000	35.20546000	11.46653000
180.29998947	0.00000000	34.83022000	11.09129000
180.49998946	0.00000000	34.78716000	11.04823000
180.69998945	0.00000000	34.78716000	11.09129000
180.89998944	0.00000000	34.78716000	11.46653000
181.09998942	0.00000000	34.78716000	12.21087000
181.29998941	0.00000000	34.78716000	12.58612000
181.49998940	0.00000000	34.78716000	12.62918000
181.69998939	0.00000000	34.78716000	12.62918000
181.89998938	0.00000000	34.83022000	12.62918000
182.09998937	0.00000000	35.20546000	12.62918000
182.29998935	0.00000000	35.94980000	12.62918000
182.49998934	0.00000000	36.32505000	12.62918000
182.69998933	0.00000000	36.36811000	12.62918000
182.89998932	0.00000000	36.36811000	12.58612000
183.09998931	0.00000000	36.32505000	12.21087000
183.29998929	0.00000000	35.99286000	11.51575000
183.49998928	0.00000000	35.62377000	11.51575000
183.69998927	0.00000000	35.94980000	12.21087000
183.89998926	0.00000000	35.90059000	12.58612000
184.09998925	0.00000000	35.20546000	12.62918000
184.29998923	0.00000000	34.87943000	12.62918000
184.49998922	0.00000000	35.20546000	12.67224000
184.69998921	0.00000000	35.90059000	13.04749000
184.89998920	0.00000000	35.90059000	13.74262000
185.09998919	0.00000000	35.20546000	13.74262000
185.29998918	0.00000000	34.83022000	13.04749000
185.49998916	0.00000000	34.78716000	12.67224000
185.69998915	0.00000000	34.83022000	12.62918000
185.89998914	0.00000000	35.20546000	12.58612000
186.09998913	0.00000000	35.90059000	12.21087000
186.29998912	0.00000000	35.94980000	11.46653000
186.49998910	0.00000000	35.58071000	11.09129000
186.69998909	0.00000000	35.57455000	11.09129000
186.89998908	0.00000000	35.16240000	11.46653000
187.09998907	0.00000000	34.83022000	12.21087000
187.29998906	0.00000000	34.78716000	12.58612000
187.49998904	0.00000000	34.78716000	12.62918000
187.69998903	0.00000000	34.78716000	12.62918000
187.89998902	0.00000000	34.78716000	12.62918000
188.09998901	0.00000000	34.83022000	12.62918000
188.29998900	0.00000000	35.16240000	12.62918000
188.49998899	0.00000000	35.48228000	12.58612000
188.69998897	0.00000000	34.83022000	12.21087000
188.89998896	0.00000000	34.46112000	11.46653000
189.09998895	0.00000000	35.19931000	11.09129000
189.29998894	0.00000000	35.48843000	11.04823000
189.49998893	0.00000000	35.57455000	11.04823000
189.69998891	0.00000000	35.16240000	11.09129000
189.89998890	0.00000000	34.83022000	11.46653000
190.09998889	0.00000000	34.78716000	12.21087000
190.29998888	0.00000000	34.78716000	12.58612000
190.49998887	0.00000000	34.78716000	12.62918000
190.69998885	0.00000000	34.78716000	12.62918000
190.89998884	0.00000000	34.78716000	12.62918000
191.09998883	0.00000000	34.78716000	12.62918000
191.29998882	0.00000000	34.78716000	12.62918000
191.49998881	0.00000000	34.78716000	12.62918000
191.69998880	0.00000000	34.83022000	12.62918000
191.89998878	0.00000000	35.16240000	12.62918000
192.09998877	0.00000000	35.57455000	12.58612000
192.29998876	0.00000000	35.53765000	12.21087000
192.49998875	0.00000000	35.61762000	11.46653000
192.69998874	0.00000000	35.53765000	11.14050000
192.89998872	0.00000000	35.57455000	11.46653000
193.09998871	0.00000000	35.16240000	12.21087000
193.29998870	0.00000000	34.83022000	12.58612000
193.49998869	0.00000000	34.78716000	12.62918000
193.69998868	0.00000000	34.78716000	12.62918000
193.89998866	0.00000000	34.83022000	12.62918000
194.09998865	0.00000000	35.20546000	12.62918000
194.29998864	0.00000000	35.90059000	12.62918000
194.49998863	0.00000000	35.94980000	12.62918000
194.69998862	0.00000000	35.62377000	12.62918000
194.89998861	0.00000000	35.94980000	12.62918000
195.09998859	0.00000000	35.90059000	12.62918000
195.29998858	0.00000000	35.20546000	12.62918000
195.49998857	0.00000000	34.83022000	12.58612000
195.69998856	0.00000000	34.78716000	12.21087000
195.89998855	0.00000000	34.78716000	11.51575000
196.09998853	0.00000000	34.78716000	11.51575000
