Time	Channel A	Channel B	Channel C
(us)	(V)	(mV)	(mV)

-4.59999956	0.00000000	30.03814000	9.47342500
-4.39999957	0.00000000	29.99508000	9.47342500
-4.19999958	0.00000000	29.61983000	9.47342500
-3.99999959	0.00000000	28.92470000	9.47342500
-3.79999960	0.00000000	28.92470000	9.47342500
-3.59999962	0.00000000	29.57062000	9.47342500
-3.39999963	0.00000000	29.61983000	9.47342500
-3.19999964	0.00000000	29.25074000	9.47342500
-2.99999965	0.00000000	29.28765000	9.47342500
-2.79999966	0.00000000	29.20767000	9.47342500
-2.59999968	0.00000000	29.24459000	9.47342500
-2.39999969	0.00000000	28.83243000	9.47342500
-2.19999970	0.00000000	28.50024000	9.47342500
-1.99999971	0.00000000	28.45718000	9.43036400
-1.79999972	0.00000000	28.45718000	9.09817800
-1.59999973	0.00000000	28.50024000	8.72908400
-1.39999975	0.00000000	28.83243000	9.09817800
-1.19999976	0.00000000	29.20152000	9.43036400
-0.99999977	0.00000000	28.83243000	9.47342500
-0.79999978	0.00000000	28.50024000	9.47342500
-0.59999979	0.00000000	28.45718000	9.47342500
-0.39999981	0.31803640	28.45718000	9.47342500
-0.19999982	0.63668800	28.45718000	9.47342500
0.00000017	0.79601380	28.45718000	9.47342500
0.20000016	0.95533960	28.45718000	9.47342500
0.40000015	0.79601380	28.45718000	9.47342500
0.60000013	0.47736220	28.45718000	9.47342500
0.80000012	-0.47736220	28.50024000	9.47342500
1.00000011	-1.43331700	28.83243000	9.47342500
1.20000010	-2.22994600	29.20152000	9.47342500
1.40000009	-2.70792300	28.87549000	9.47342500
1.60000008	-2.54859700	28.92470000	9.47342500
1.80000006	-1.43331700	29.61983000	9.47342500
2.00000005	0.31803640	29.94586000	9.47342500
2.20000004	2.38927200	29.61983000	9.47342500
2.40000003	4.30056600	28.87549000	9.47342500
2.60000002	5.25652100	28.50024000	9.47342500
2.80000000	4.93786900	28.45718000	9.43036400
2.99999999	3.18590100	28.45718000	9.05511800
3.19999998	0.31803640	28.45718000	8.35998900
3.39999997	-3.18590100	28.45718000	8.35998900
3.59999996	-6.21247500	28.50024000	9.05511800
3.79999994	-7.80511800	28.83243000	9.47342500
3.99999993	-7.64579200	29.24459000	9.89173200
4.19999992	-5.41584600	29.25074000	10.62992000
4.39999991	-1.59264300	29.61983000	11.00517000
4.59999990	2.86724900	29.61983000	11.00517000
4.79999989	6.84916400	29.25074000	10.62992000
4.99999987	9.07972400	29.24459000	9.89173200
5.19999986	9.23905000	28.83243000	9.51648500
5.39999985	7.00848900	28.50024000	9.47342500
5.59999984	2.86724900	28.45718000	9.47342500
5.79999983	-1.91129400	28.45718000	9.47342500
5.99999981	-6.21247500	28.45718000	9.47342500
6.19999980	-8.92039900	28.45718000	9.47342500
6.39999979	-9.39837600	28.50024000	9.51648500
6.59999978	-7.48646600	28.87549000	9.89173200
6.79999977	-3.82258900	29.61983000	10.62992000
6.99999975	0.47736220	29.99508000	10.95595000
7.19999974	4.45989200	29.99508000	10.62992000
7.39999973	7.00848900	29.61983000	9.89173200
7.59999972	7.64579200	28.87549000	9.51648500
7.79999971	6.53112700	28.50024000	9.47342500
7.99999970	3.66326300	28.45718000	9.47342500
8.19999968	0.47736220	28.45718000	9.47342500
8.39999967	-2.54859700	28.45718000	9.47342500
8.59999966	-4.61921700	28.45718000	9.47342500
8.79999965	-5.25652100	28.45718000	9.47342500
8.99999964	-4.45989200	28.45718000	9.47342500
9.19999962	-2.86724900	28.45718000	9.47342500
9.39999961	-0.95533960	28.45718000	9.47342500
9.59999960	0.95533960	28.45718000	9.47342500
9.79999959	2.07062000	28.45718000	9.47342500
9.99999958	2.54859700	28.45718000	9.47342500
10.19999956	2.22994600	28.45718000	9.47342500
10.39999955	1.59264300	28.45718000	9.47342500
10.59999954	0.63668800	28.45718000	9.47342500
10.79999953	-0.15871060	28.45718000	9.47342500
10.99999952	-0.63668800	28.45718000	9.47342500
11.19999951	-0.95533960	28.45718000	9.47342500
11.39999949	-0.95533960	28.45718000	9.47342500
11.59999948	-0.79601380	28.45718000	9.47342500
11.79999947	-0.47736220	28.45718000	9.47342500
11.99999946	-0.15871060	28.45718000	9.47342500
12.19999945	-0.15871060	28.45718000	9.43036400
12.39999943	-0.15871060	28.45718000	9.09817800
12.59999942	0.00000000	28.45718000	8.72908400
12.79999941	0.00000000	28.50024000	9.09817800
12.99999940	0.00000000	28.83243000	9.43036400
13.19999939	0.00000000	29.20152000	9.47342500
13.39999937	0.00000000	28.83243000	9.47342500
13.59999936	0.00000000	28.50024000	9.47342500
13.79999935	0.00000000	28.45718000	9.47342500
13.99999934	-0.15871060	28.45718000	9.47342500
14.19999933	-0.15871060	28.45718000	9.47342500
14.39999932	-0.15871060	28.45718000	9.47342500
14.59999930	-0.15871060	28.45718000	9.43036400
14.79999929	0.00000000	28.45718000	9.05511800
14.99999928	0.00000000	28.45718000	8.35998900
15.19999927	0.00000000	28.45718000	8.35998900
15.39999926	0.15871060	28.45718000	9.05511800
15.59999924	0.00000000	28.45718000	9.38115100
15.79999923	0.00000000	28.45718000	9.09817800
15.99999922	0.00000000	28.45718000	8.72908400
16.19999921	0.00000000	28.45718000	9.09817800
16.39999920	-0.15871060	28.50024000	9.43036400
16.59999919	-0.15871060	28.83243000	9.47342500
16.79999917	-0.15871060	29.24459000	9.47342500
16.99999916	0.00000000	29.25074000	9.47342500
17.19999915	0.00000000	29.66289000	9.47342500
17.39999914	0.00000000	29.99508000	9.47342500
17.59999913	0.00000000	30.03814000	9.47342500
17.79999911	0.00000000	29.99508000	9.47342500
17.99999910	0.00000000	29.57062000	9.47342500
18.19999909	0.00000000	28.41412000	9.47342500
18.39999908	0.00000000	26.87623000	9.47342500
18.59999907	0.00000000	25.33834000	9.47342500
18.79999905	0.00000000	24.18184000	9.47342500
18.99999904	0.00000000	23.84965000	9.47342500
19.19999903	0.00000000	24.64321000	9.47342500
19.39999902	0.00000000	27.01156000	9.47342500
19.59999901	0.00000000	30.45644000	9.47342500
19.79999900	0.00000000	34.36884000	9.47342500
19.99999898	0.00000000	37.81373000	9.47342500
20.19999897	0.00000000	40.04675000	9.47342500
20.39999896	0.00000000	39.67150000	9.43036400
20.59999895	0.00000000	36.55881000	9.09817800
20.79999894	0.00000000	31.80979000	8.72908400
20.99999892	0.00000000	24.78469000	9.09817800
21.19999891	0.00000000	16.78149000	9.43036400
21.39999890	0.00000000	10.64222000	9.47342500
21.59999889	0.00000000	7.98474400	9.47342500
21.79999888	0.00000000	9.99015700	9.43036400
21.99999886	0.00000000	16.96604000	9.09817800
22.19999885	0.00000000	27.42987000	8.72908400
22.39999884	0.00000000	39.48080000	9.09817800
22.59999883	0.00000000	51.02116000	9.43036400
22.79999882	0.00000000	58.98130000	9.47342500
22.99999881	0.00000000	60.09473000	9.47342500
23.19999879	0.00000000	53.49409000	9.51648500
23.39999878	0.00000000	40.69882000	9.89173200
23.59999877	0.00000000	23.62820000	10.62992000
23.79999876	0.00000000	5.94242000	11.00517000
23.99999875	0.00000000	-7.91707600	11.00517000
24.19999873	0.00000000	-14.01944000	10.62992000
24.39999872	0.00000000	-10.52534000	9.79945900
24.59999871	0.00000000	2.26377900	8.63681000
24.79999870	0.00000000	21.66585000	6.68676100
24.99999869	0.00000000	44.04527000	4.82283400
25.19999867	0.00000000	64.42545000	3.66633800
25.39999866	0.00000000	76.75935000	3.66633800
25.59999865	0.00000000	78.29724000	4.82283400
25.79999864	0.00000000	68.56544000	6.82209600
25.99999863	0.00000000	48.88656000	9.98400600
26.19999862	0.00000000	24.22490000	14.21014000
26.39999860	0.00000000	0.59055110	18.39321000
26.59999859	0.00000000	-17.18135000	21.03838000
26.79999858	0.00000000	-25.22761000	21.03838000
26.99999857	0.00000000	-20.99532000	18.25787000
27.19999856	0.00000000	-5.54872000	12.86294000
27.39999854	0.00000000	17.24902000	5.53026500
27.59999853	0.00000000	42.69808000	-1.43946800
27.79999852	0.00000000	64.33317000	-7.29576700
27.99999851	0.00000000	77.13459000	-11.05438000
28.19999850	0.00000000	79.12770000	-10.92520000
28.39999848	0.00000000	69.86958000	-5.85629900
28.59999847	0.00000000	52.14074000	3.80167300
28.79999846	0.00000000	30.08735000	15.74188000
28.99999845	0.00000000	8.45226300	27.35605000
29.19999844	0.00000000	-7.83095500	36.18971000
29.39999843	0.00000000	-15.60039000	39.95448000
29.59999841	0.00000000	-13.73647000	36.79257000
29.79999840	0.00000000	-2.94660400	26.75935000
29.99999839	0.00000000	13.61959000	12.07554000
30.19999838	0.00000000	32.22810000	-4.14000900
30.39999837	0.00000000	48.88656000	-18.39936000
30.59999835	0.00000000	60.51919000	-27.23302000
30.79999834	0.00000000	64.80068000	-28.38951000
30.99999833	0.00000000	60.98056000	-21.42593000
31.19999832	0.00000000	50.60285000	-7.89862200
31.39999831	0.00000000	36.27584000	9.51648500
31.59999829	0.00000000	21.19833000	27.31299000
31.79999828	0.00000000	8.40920300	41.94759000
31.99999827	0.00000000	0.63976370	50.03075000
32.19999826	0.00000000	-0.94119090	49.24335000
32.39999825	0.00000000	3.70939900	39.99754000
32.59999824	0.00000000	13.71186000	24.15723000
32.79999822	0.00000000	26.41486000	5.24729300
32.99999821	0.00000000	38.37352000	-12.54921000
33.19999820	0.00000000	46.97957000	-25.69513000
33.39999819	0.00000000	50.84276000	-31.50221000
33.59999818	0.00000000	49.67397000	-28.80782000
33.79999816	0.00000000	43.15945000	-18.39936000
33.99999815	0.00000000	33.57529000	-2.55905500
34.19999814	0.00000000	23.94193000	15.18824000
34.39999813	0.00000000	16.17864000	31.02854000
34.59999812	0.00000000	12.30930000	41.48622000
34.79999810	0.00000000	12.64149000	44.59892000
34.99999809	0.00000000	16.87377000	39.99754000
35.19999808	0.00000000	23.75738000	28.80167000
35.39999807	0.00000000	31.06545000	13.79183000
35.59999806	0.00000000	36.88484000	-1.63016700
35.79999805	0.00000000	39.91141000	-13.61343000
35.99999803	0.00000000	39.21014000	-19.79577000
36.19999802	0.00000000	35.02707000	-19.05143000
36.39999801	0.00000000	29.66289000	-11.38656000
36.59999800	0.00000000	24.18184000	0.46751960
36.79999799	0.00000000	19.61737000	13.23819000
36.99999797	0.00000000	17.34129000	24.02190000
37.19999796	0.00000000	18.45472000	30.52411000
37.39999795	0.00000000	22.26870000	30.52411000
37.59999794	0.00000000	27.29453000	24.10802000
37.79999793	0.00000000	32.68946000	14.21014000
37.99999791	0.00000000	36.88484000	4.17691900
38.19999790	0.00000000	38.50886000	-3.53715500
38.39999789	0.00000000	37.77067000	-7.34498000
38.59999788	0.00000000	35.43922000	-5.81323800
38.79999787	0.00000000	31.53297000	0.68897630
38.99999786	0.00000000	26.91929000	9.84867000
39.19999784	0.00000000	22.68701000	19.04527000
39.39999783	0.00000000	19.99262000	25.13533000
39.59999782	0.00000000	19.52510000	26.29183000
39.79999781	0.00000000	20.64468000	22.06570000
39.99999780	0.00000000	22.60088000	13.65650000
40.19999778	0.00000000	25.33834000	3.66633800
40.39999777	0.00000000	28.45718000	-5.11811000
40.59999776	0.00000000	31.57603000	-10.08243000
40.79999775	0.00000000	34.27657000	-9.34424200
40.99999774	0.00000000	35.81446000	-3.62942900
41.19999772	0.00000000	35.85752000	5.24729300
41.39999771	0.00000000	34.73794000	15.23130000
41.59999770	0.00000000	33.11393000	23.68971000
41.79999769	0.00000000	30.78248000	28.34030000
41.99999768	0.00000000	27.66978000	28.34030000
42.19999767	0.00000000	24.96309000	23.68971000
42.39999765	0.00000000	22.60088000	15.23130000
42.59999764	0.00000000	21.10605000	5.29035400
42.79999763	0.00000000	21.06299000	-3.16806100
42.99999762	0.00000000	22.22564000	-7.81250000
43.19999761	0.00000000	24.13263000	-7.90477300
43.39999759	0.00000000	26.45792000	-4.09694900
43.59999758	0.00000000	28.41412000	2.08538400
43.79999757	0.00000000	30.03814000	9.38115100
43.99999756	0.00000000	31.57603000	15.93258000
44.19999755	0.00000000	32.73252000	19.83883000
44.39999753	0.00000000	33.15699000	21.04454000
44.59999752	0.00000000	33.15699000	19.50664000
44.79999751	0.00000000	32.78174000	15.69882000
44.99999750	0.00000000	31.99434000	11.04823000
45.19999749	0.00000000	31.15157000	6.40378900
45.39999748	0.00000000	29.52756000	2.54675200
45.59999746	0.00000000	26.83317000	0.63976370
45.79999745	0.00000000	23.71432000	0.92888770
45.99999744	0.00000000	20.59547000	2.87278500
46.19999743	0.00000000	17.94414000	5.57332700
46.39999742	0.00000000	16.87377000	9.05511800
46.59999740	0.00000000	18.41166000	12.07554000
46.79999739	0.00000000	22.31176000	13.69956000
46.99999738	0.00000000	27.76206000	14.11786000
47.19999737	0.00000000	34.31963000	13.74262000
47.39999736	0.00000000	40.08981000	12.53691000
47.59999734	0.00000000	43.58390000	10.58686000
47.79999733	0.00000000	44.32209000	7.89247000
47.99999732	0.00000000	41.53543000	5.19808000
48.19999731	0.00000000	35.34695000	3.29109200
48.39999730	0.00000000	26.83317000	2.54675200
48.59999729	0.00000000	17.98720000	3.70939900
48.79999727	0.00000000	11.06053000	6.36072800
48.99999726	0.00000000	7.98474400	9.47342500
49.19999725	0.00000000	9.56569900	12.58612000
49.39999724	0.00000000	15.71112000	15.27436000
49.59999723	0.00000000	24.96924000	16.76919000
49.79999721	0.00000000	34.60876000	16.39395000
49.99999720	0.00000000	42.74114000	14.07480000
50.19999719	0.00000000	47.35482000	10.58686000
50.39999718	0.00000000	47.30561000	6.35457700
50.59999717	0.00000000	42.32283000	2.54675200
50.79999715	0.00000000	33.48917000	0.59670270
50.99999714	0.00000000	23.94193000	0.59670270
51.19999713	0.00000000	16.12943000	2.54675200
51.39999712	0.00000000	11.89099000	6.40378900
51.59999711	0.00000000	11.47884000	10.95595000
51.79999710	0.00000000	15.38509000	14.85605000
51.99999708	0.00000000	22.64394000	17.13829000
52.19999707	0.00000000	31.06545000	17.55044000
52.39999706	0.00000000	37.99828000	15.60654000
52.59999705	0.00000000	41.49237000	12.21087000
52.79999704	0.00000000	41.11712000	8.31077700
52.99999702	0.00000000	36.88484000	4.87204700
53.19999701	0.00000000	30.03814000	2.54675200
53.39999700	0.00000000	23.10531000	2.17150600
53.59999699	0.00000000	18.12254000	3.66633800
53.79999698	0.00000000	16.17864000	6.36072800
53.99999696	0.00000000	18.07948000	9.38115100
54.19999695	0.00000000	22.64394000	11.70029000
54.39999694	0.00000000	28.45718000	12.49385000
54.59999693	0.00000000	34.18430000	12.11860000
54.79999692	0.00000000	37.99828000	10.58686000
54.99999691	0.00000000	38.42273000	8.35383800
55.19999689	0.00000000	35.76525000	6.82209600
55.39999688	0.00000000	31.15772000	6.40378900
55.59999687	0.00000000	25.76279000	6.82209600
55.79999686	0.00000000	21.14911000	8.40305000
55.99999685	0.00000000	18.45472000	11.04823000
56.19999683	0.00000000	18.45472000	13.69956000
56.39999682	0.00000000	21.14911000	15.18824000
56.59999681	0.00000000	25.71358000	14.76993000
56.79999680	0.00000000	30.69020000	12.03248000
56.99999679	0.00000000	34.18430000	7.47416300
57.19999677	0.00000000	35.81446000	2.55290300
57.39999676	0.00000000	35.77140000	-0.51673230
57.59999675	0.00000000	33.85827000	-0.97810030
57.79999674	0.00000000	30.41338000	0.59670270
57.99999673	0.00000000	26.91929000	4.12770700
58.19999672	0.00000000	23.80659000	9.55954600
58.39999670	0.00000000	21.57357000	15.64960000
58.59999669	0.00000000	21.52436000	20.62008000
58.79999668	0.00000000	23.38214000	22.48400000
58.99999667	0.00000000	25.67052000	20.62008000
59.19999666	0.00000000	28.03888000	15.60654000
59.39999664	0.00000000	29.94586000	9.05511800
59.59999663	0.00000000	31.10851000	2.08538400
59.79999662	0.00000000	31.10851000	-3.62942900
59.99999661	0.00000000	29.99508000	-6.32381900
60.19999660	0.00000000	28.45718000	-5.16117100
60.39999658	0.00000000	26.96850000	-0.51673230
60.59999657	0.00000000	26.18110000	6.77903500
60.79999656	0.00000000	26.54404000	14.81299000
60.99999655	0.00000000	27.25147000	20.99532000
61.19999654	0.00000000	28.08194000	24.10802000
61.39999653	0.00000000	28.83243000	23.68971000
61.59999651	0.00000000	29.61983000	19.42052000
61.79999650	0.00000000	29.90280000	12.11860000
61.99999649	0.00000000	29.20152000	3.70939900
62.19999648	0.00000000	27.62672000	-3.25418300
62.39999647	0.00000000	26.12574000	-7.11737200
62.59999645	0.00000000	24.55093000	-7.52952700
62.79999644	0.00000000	23.84965000	-4.04773600
62.99999643	0.00000000	24.18184000	2.08538400
63.19999642	0.00000000	25.38755000	9.47342500
63.39999641	0.00000000	27.29453000	16.72613000
63.59999639	0.00000000	29.61983000	21.73966000
63.79999638	0.00000000	31.52682000	22.95152000
63.99999637	0.00000000	32.68946000	21.08760000
64.19999636	0.00000000	32.64640000	16.81225000
64.39999635	0.00000000	31.10851000	11.00517000
64.59999634	0.00000000	28.45718000	4.87204700
64.79999632	0.00000000	25.76279000	-0.14148620
64.99999631	0.00000000	23.80659000	-2.50984200
65.19999630	0.00000000	22.64394000	-2.55905500
65.39999629	0.00000000	22.68701000	-0.64591530
65.59999628	0.00000000	24.18184000	2.82972400
65.79999626	0.00000000	26.50098000	6.68676100
65.99999625	0.00000000	28.74015000	10.58686000
66.19999624	0.00000000	30.31496000	13.69956000
66.39999623	0.00000000	30.32111000	15.69882000
66.59999622	0.00000000	29.57062000	16.85531000
66.79999620	0.00000000	27.98966000	16.85531000
66.99999619	0.00000000	25.76279000	15.69882000
67.19999618	0.00000000	24.26796000	13.74262000
67.39999617	0.00000000	24.22490000	11.00517000
67.59999616	0.00000000	25.38755000	7.89247000
67.79999615	0.00000000	27.34375000	4.77977300
67.99999613	0.00000000	30.03814000	2.04232300
68.19999612	0.00000000	32.68946000	0.13533460
68.39999611	0.00000000	34.18430000	-0.65206690
68.59999610	0.00000000	33.76599000	0.17839570
68.79999609	0.00000000	31.06545000	2.50369100
68.99999607	0.00000000	26.87623000	6.44685000
69.19999606	0.00000000	22.60088000	11.42347000
69.39999605	0.00000000	19.14985000	16.43701000
69.59999604	0.00000000	17.24902000	19.88189000
69.79999603	0.00000000	18.03642000	21.04454000
69.99999601	0.00000000	21.10605000	19.46358000
70.19999600	0.00000000	25.80585000	15.28051000
70.39999599	0.00000000	31.57603000	9.84867000
70.59999598	0.00000000	36.97096000	4.41067900
70.79999597	0.00000000	40.37893000	-0.55979330
70.99999596	0.00000000	40.74188000	-3.25418300
71.19999594	0.00000000	37.30315000	-2.93430100
71.39999593	0.00000000	31.53297000	-0.60285430
71.59999592	0.00000000	24.92003000	3.66633800
71.79999591	0.00000000	18.36245000	9.00590400
71.99999590	0.00000000	13.80413000	13.65650000
72.19999588	0.00000000	12.59842000	16.72613000
72.39999587	0.00000000	14.87451000	17.50738000
72.59999586	0.00000000	19.48204000	15.64960000
72.79999585	0.00000000	25.33834000	12.62918000
72.99999584	0.00000000	31.53297000	9.51648500
73.19999582	0.00000000	36.92790000	6.82209600
73.39999581	0.00000000	40.00369000	5.29035400
73.59999580	0.00000000	40.04675000	5.24729300
73.79999579	0.00000000	37.34621000	6.36072800
73.99999578	0.00000000	32.68946000	7.84940900
74.19999577	0.00000000	26.91929000	9.00590400
74.39999575	0.00000000	21.48130000	9.38115100
74.59999574	0.00000000	17.66117000	8.96284400
74.79999573	0.00000000	16.08637000	7.43110200
74.99999572	0.00000000	17.61811000	5.19808000
75.19999571	0.00000000	21.01993000	3.70939900
75.39999569	0.00000000	25.29527000	3.70939900
75.59999568	0.00000000	29.52756000	5.29035400
75.79999567	0.00000000	32.64640000	8.35998900
75.99999566	0.00000000	34.18430000	12.21087000
76.19999565	0.00000000	33.85827000	15.69882000
76.39999563	0.00000000	31.95128000	18.30093000
76.59999562	0.00000000	29.66289000	18.67003000
76.79999561	0.00000000	27.34375000	15.93873000
76.99999560	0.00000000	25.80585000	11.37426000
77.19999559	0.00000000	25.33834000	5.53026500
77.39999558	0.00000000	25.33834000	0.22145670
77.59999556	0.00000000	25.71358000	-3.29724400
77.79999555	0.00000000	26.45792000	-4.04773600
77.99999554	0.00000000	26.78395000	-2.14074800
78.19999553	0.00000000	26.45792000	2.12844500
78.39999552	0.00000000	25.71358000	7.93553100
78.59999550	0.00000000	25.33834000	14.07480000
78.79999549	0.00000000	25.33834000	19.08834000
78.99999548	0.00000000	25.76279000	21.37057000
79.19999547	0.00000000	26.96850000	20.66314000
79.39999546	0.00000000	28.83243000	17.18750000
79.59999544	0.00000000	30.73326000	12.16166000
79.79999543	0.00000000	31.52682000	6.36072800
79.99999542	0.00000000	31.52682000	1.01501000
80.19999541	0.00000000	30.69020000	-2.14074800
80.39999540	0.00000000	28.41412000	-2.97736200
80.59999539	0.00000000	25.71358000	-2.18380900
80.79999537	0.00000000	23.38214000	0.55364170
80.99999536	0.00000000	21.48130000	4.73671200
81.19999535	0.00000000	21.14911000	9.00590400
81.39999534	0.00000000	22.64394000	12.53691000
81.59999533	0.00000000	25.33834000	15.27436000
81.79999531	0.00000000	28.36491000	16.81225000
81.99999530	0.00000000	30.78248000	16.85531000
82.19999529	0.00000000	32.27731000	15.69882000
82.39999528	0.00000000	33.05856000	13.74262000
82.59999527	0.00000000	31.85900000	11.00517000
82.79999525	0.00000000	29.66289000	7.89247000
82.99999524	0.00000000	27.29453000	4.77977300
83.19999523	0.00000000	25.38755000	2.04232300
83.39999522	0.00000000	24.18184000	0.13533460
83.59999521	0.00000000	23.80659000	-0.60285430
83.79999520	0.00000000	24.18184000	0.55364170
83.99999518	0.00000000	25.29527000	3.24803100
84.19999517	0.00000000	26.45792000	6.77903500
84.39999516	0.00000000	27.25147000	11.04823000
84.59999515	0.00000000	28.03888000	15.23130000
84.79999514	0.00000000	28.41412000	17.97490000
84.99999512	0.00000000	28.41412000	18.71924000
85.19999511	0.00000000	28.03888000	17.55659000
85.39999510	0.00000000	27.34375000	14.03174000
85.59999509	0.00000000	27.34375000	9.09817800
85.79999508	0.00000000	28.03888000	4.04158400
85.99999506	0.00000000	28.41412000	0.17839570
86.19999505	0.00000000	28.41412000	-2.18380900
86.39999504	0.00000000	28.03888000	-2.50984200
86.59999503	0.00000000	27.25147000	-0.55979330
86.79999502	0.00000000	26.45792000	3.66633800
86.99999501	0.00000000	25.29527000	9.05511800
87.19999499	0.00000000	24.18184000	14.03174000
87.39999498	0.00000000	23.80659000	17.50738000
87.59999497	0.00000000	24.18184000	18.30093000
87.79999496	0.00000000	25.33834000	16.76919000
87.99999495	0.00000000	26.87623000	13.28125000
88.19999493	0.00000000	28.45718000	8.31077700
88.39999492	0.00000000	29.94586000	3.70939900
88.59999491	0.00000000	30.73326000	0.59670270
88.79999490	0.00000000	30.32111000	-0.55979330
88.99999489	0.00000000	29.20152000	0.59670270
89.19999487	0.00000000	27.25147000	3.66633800
89.39999486	0.00000000	25.33834000	7.89247000
89.59999485	0.00000000	23.80659000	12.11860000
89.79999484	0.00000000	23.01919000	15.18824000
89.99999483	0.00000000	23.38214000	16.34473000
90.19999482	0.00000000	24.13263000	15.18824000
90.39999480	0.00000000	25.33834000	12.11860000
90.59999479	0.00000000	26.87623000	7.89247000
90.79999478	0.00000000	28.36491000	3.70939900
90.99999477	0.00000000	29.15231000	1.01501000
91.19999476	0.00000000	28.83243000	0.63976370
91.39999474	0.00000000	28.45718000	2.54675200
91.59999473	0.00000000	28.03888000	6.40378900
91.79999472	0.00000000	27.29453000	10.95595000
91.99999471	0.00000000	26.91929000	14.81299000
92.19999470	0.00000000	26.87623000	16.71998000
92.39999468	0.00000000	26.87623000	16.35089000
92.59999467	0.00000000	26.83317000	13.65650000
92.79999466	0.00000000	26.45792000	9.47342500
92.99999465	0.00000000	25.67052000	5.24729300
93.19999464	0.00000000	24.92003000	2.12844500
93.39999463	0.00000000	24.18184000	0.59670270
93.59999461	0.00000000	24.18184000	0.97194880
93.79999460	0.00000000	24.92003000	3.33415300
93.99999459	0.00000000	25.76279000	7.14812900
94.19999458	0.00000000	27.34375000	11.74336000
94.39999457	0.00000000	29.57062000	15.14518000
94.59999455	0.00000000	31.15157000	16.34473000
94.79999454	0.00000000	31.90207000	15.18824000
94.99999453	0.00000000	31.89591000	12.11860000
95.19999452	0.00000000	30.32111000	7.89247000
95.39999451	0.00000000	28.03888000	3.70939900
95.59999449	0.00000000	25.25221000	1.01501000
95.79999448	0.00000000	22.22564000	0.59670270
95.99999447	0.00000000	19.94340000	2.08538400
96.19999446	0.00000000	19.52510000	4.82283400
96.39999445	0.00000000	20.68774000	8.26771600
96.59999444	0.00000000	23.06225000	11.74951000
96.79999442	0.00000000	26.87623000	14.03174000
96.99999441	0.00000000	30.73326000	14.81299000
97.19999440	0.00000000	33.48917000	13.65650000
97.39999439	0.00000000	35.43922000	11.00517000
97.59999438	0.00000000	35.72219000	7.93553100
97.79999436	0.00000000	33.80905000	5.29035400
97.99999435	0.00000000	29.99508000	4.08464600
98.19999434	0.00000000	25.76279000	4.40452700
98.39999433	0.00000000	22.22564000	5.15501900
98.59999432	0.00000000	19.48204000	6.36072800
98.79999430	0.00000000	17.98720000	7.84940900
98.99999429	0.00000000	18.36245000	9.00590400
99.19999428	0.00000000	20.68774000	9.43036400
99.39999427	0.00000000	24.13263000	9.47342500
99.59999426	0.00000000	28.03888000	9.47342500
99.79999425	0.00000000	31.48376000	9.47342500
99.99999423	0.00000000	33.85827000	9.47342500
100.19999422	0.00000000	34.60876000	9.51648500
100.39999421	0.00000000	33.85827000	9.84867000
100.59999420	0.00000000	31.53297000	10.21161000
100.79999419	0.00000000	28.45718000	9.79945900
100.99999417	0.00000000	25.33834000	9.05511800
101.19999416	0.00000000	22.64394000	7.84940900
101.39999415	0.00000000	21.06299000	6.31151500
101.59999414	0.00000000	20.64468000	4.77977300
101.79999413	0.00000000	21.01993000	3.66633800
101.99999411	0.00000000	22.22564000	3.70939900
102.19999410	0.00000000	24.18184000	5.24729300
102.39999409	0.00000000	26.87623000	7.93553100
102.59999408	0.00000000	29.52756000	10.96211000
102.79999407	0.00000000	31.10851000	13.28125000
102.99999406	0.00000000	31.52682000	14.07480000
103.19999404	0.00000000	31.15157000	13.74262000
103.39999403	0.00000000	29.99508000	12.49385000
103.59999402	0.00000000	28.41412000	10.16855000
103.79999401	0.00000000	26.45792000	6.72982200
103.99999400	0.00000000	24.18184000	3.70939900
104.19999398	0.00000000	22.64394000	2.12844500
104.39999397	0.00000000	22.22564000	2.08538400
104.59999396	0.00000000	22.60088000	3.24803100
104.79999395	0.00000000	23.75738000	5.19808000
104.99999394	0.00000000	25.29527000	7.93553100
105.19999392	0.00000000	26.83317000	10.96211000
105.39999391	0.00000000	28.03888000	13.23819000
105.59999390	0.00000000	28.78937000	13.65650000
105.79999389	0.00000000	29.15231000	12.53691000
105.99999388	0.00000000	28.36491000	10.62992000
106.19999387	0.00000000	26.91929000	8.31077700
106.39999385	0.00000000	25.76279000	6.40378900
106.59999384	0.00000000	25.33834000	5.24729300
106.79999383	0.00000000	25.29527000	5.24729300
106.99999382	0.00000000	25.33834000	6.36072800
107.19999381	0.00000000	25.76279000	7.84940900
107.39999379	0.00000000	26.87623000	9.05511800
107.59999378	0.00000000	27.98966000	9.84867000
107.79999377	0.00000000	28.36491000	10.58686000
107.99999376	0.00000000	27.98966000	10.53765000
108.19999375	0.00000000	26.87623000	9.42421200
108.39999374	0.00000000	25.71358000	7.89247000
108.59999372	0.00000000	24.92003000	6.36072800
108.79999371	0.00000000	24.18184000	5.24729300
108.99999370	0.00000000	24.18184000	5.24729300
109.19999369	0.00000000	24.92003000	6.36072800
109.39999368	0.00000000	25.71358000	7.89247000
109.59999366	0.00000000	26.91929000	9.42421200
109.79999365	0.00000000	28.36491000	10.58686000
109.99999364	0.00000000	29.15231000	11.00517000
110.19999363	0.00000000	28.78937000	11.00517000
110.39999362	0.00000000	28.03888000	10.58686000
110.59999360	0.00000000	26.83317000	9.42421200
110.79999359	0.00000000	25.33834000	7.89247000
110.99999358	0.00000000	24.18184000	6.36072800
111.19999357	0.00000000	23.80659000	5.19808000
111.39999356	0.00000000	24.13263000	4.82898600
111.59999355	0.00000000	24.92003000	5.19808000
111.79999353	0.00000000	25.67052000	6.31151500
111.99999352	0.00000000	26.50098000	7.47416300
112.19999351	0.00000000	27.25147000	8.26771600
112.39999350	0.00000000	28.03888000	9.05511800
112.59999349	0.00000000	28.36491000	9.43036400
112.79999347	0.00000000	28.03888000	9.47342500
112.99999346	0.00000000	27.25147000	9.43036400
113.19999345	0.00000000	26.50098000	9.05511800
113.39999344	0.00000000	25.71358000	8.31077700
113.59999343	0.00000000	25.33834000	7.93553100
113.79999341	0.00000000	25.29527000	7.89247000
113.99999340	0.00000000	25.29527000	7.89247000
114.19999339	0.00000000	25.29527000	7.89247000
114.39999338	0.00000000	25.33834000	7.84940900
114.59999337	0.00000000	25.71358000	7.47416300
114.79999336	0.00000000	26.45792000	6.72982200
114.99999334	0.00000000	26.83317000	6.35457700
115.19999333	0.00000000	26.87623000	6.35457700
115.39999332	0.00000000	26.87623000	6.72982200
115.59999331	0.00000000	26.87623000	7.51722400
115.79999330	0.00000000	26.83317000	8.26771600
115.99999328	0.00000000	26.45792000	9.05511800
116.19999327	0.00000000	25.71358000	9.43036400
116.39999326	0.00000000	25.33834000	9.47342500
116.59999325	0.00000000	25.29527000	9.47342500
116.79999324	0.00000000	25.33834000	9.43036400
116.99999322	0.00000000	25.67052000	9.00590400
117.19999321	0.00000000	26.08268000	7.89247000
117.39999320	0.00000000	26.13189000	6.77903500
117.59999319	0.00000000	26.91929000	6.35457700
117.79999318	0.00000000	27.98966000	6.31151500
117.99999317	0.00000000	28.41412000	6.31151500
118.19999315	0.00000000	28.41412000	6.31151500
118.39999314	0.00000000	27.98966000	6.35457700
118.59999313	0.00000000	26.83317000	6.77903500
118.79999312	0.00000000	25.33834000	7.89247000
118.99999311	0.00000000	24.18184000	9.00590400
119.19999309	0.00000000	23.75738000	9.43036400
119.39999308	0.00000000	23.75738000	9.47342500
119.59999307	0.00000000	24.13263000	9.47342500
119.79999306	0.00000000	24.92003000	9.43036400
119.99999305	0.00000000	25.71358000	9.05511800
120.19999303	0.00000000	26.87623000	8.31077700
120.39999302	0.00000000	27.98966000	7.93553100
120.59999301	0.00000000	28.41412000	7.89247000
120.79999300	0.00000000	28.41412000	7.84940900
120.99999299	0.00000000	27.98966000	7.47416300
121.19999298	0.00000000	26.83317000	6.72982200
121.39999296	0.00000000	25.33834000	6.35457700
121.59999295	0.00000000	24.18184000	6.35457700
121.79999294	0.00000000	23.75738000	6.72982200
121.99999293	0.00000000	23.71432000	7.47416300
122.19999292	0.00000000	23.75738000	7.89247000
122.39999290	0.00000000	24.13263000	8.31077700
122.59999289	0.00000000	24.92003000	9.05511800
122.79999288	0.00000000	25.67052000	9.43036400
122.99999287	0.00000000	26.50098000	9.47342500
123.19999286	0.00000000	27.25147000	9.43036400
123.39999284	0.00000000	28.03888000	9.05511800
123.59999283	0.00000000	28.36491000	8.31077700
123.79999282	0.00000000	28.03888000	7.89247000
123.99999281	0.00000000	27.29453000	7.47416300
124.19999280	0.00000000	26.87623000	6.72982200
124.39999279	0.00000000	26.40871000	6.35457700
124.59999277	0.00000000	25.29527000	6.35457700
124.79999276	0.00000000	24.18184000	6.72982200
124.99999275	0.00000000	23.75738000	7.47416300
125.19999274	0.00000000	23.71432000	7.89247000
125.39999273	0.00000000	23.75738000	8.31077700
125.59999271	0.00000000	24.13263000	9.05511800
125.79999270	0.00000000	24.92003000	9.43036400
125.99999269	0.00000000	25.71358000	9.47342500
126.19999268	0.00000000	26.87623000	9.43036400
126.39999267	0.00000000	27.98966000	9.05511800
126.59999265	0.00000000	28.36491000	8.31077700
126.79999264	0.00000000	28.03888000	7.89247000
126.99999263	0.00000000	27.25147000	7.51722400
127.19999262	0.00000000	26.45792000	7.10506800
127.39999261	0.00000000	25.29527000	7.09891700
127.59999260	0.00000000	24.18184000	6.72982200
127.79999258	0.00000000	23.75738000	6.77903500
127.99999257	0.00000000	23.75738000	7.47416300
128.19999256	0.00000000	24.18184000	7.84940900
128.39999255	0.00000000	25.29527000	7.89247000
128.59999254	0.00000000	26.45792000	7.89247000
128.79999252	0.00000000	27.25147000	7.89247000
128.99999251	0.00000000	27.98966000	7.89247000
129.19999250	0.00000000	27.98966000	7.89247000
129.39999249	0.00000000	27.25147000	7.84940900
129.59999248	0.00000000	26.45792000	7.51722400
129.79999246	0.00000000	25.29527000	7.14812900
129.99999245	0.00000000	24.13263000	7.47416300
130.19999244	0.00000000	23.38214000	7.47416300
130.39999243	0.00000000	22.96998000	7.14812900
130.59999242	0.00000000	23.38214000	7.51722400
130.79999241	0.00000000	24.13263000	7.84940900
130.99999239	0.00000000	25.33834000	7.89247000
131.19999238	0.00000000	26.78395000	7.89247000
131.39999237	0.00000000	27.57136000	7.89247000
131.59999236	0.00000000	27.25147000	7.84940900
131.79999235	0.00000000	26.87623000	7.47416300
131.99999233	0.00000000	26.45792000	6.72982200
132.19999232	0.00000000	25.67052000	6.35457700
132.39999231	0.00000000	24.92003000	6.35457700
132.59999230	0.00000000	24.13263000	6.72982200
132.79999229	0.00000000	23.80659000	7.51722400
132.99999227	0.00000000	24.13263000	8.26771600
133.19999226	0.00000000	24.92003000	9.05511800
133.39999225	0.00000000	25.67052000	9.43036400
133.59999224	0.00000000	26.45792000	9.47342500
133.79999223	0.00000000	26.78395000	9.43036400
133.99999222	0.00000000	26.45792000	9.05511800
134.19999220	0.00000000	25.71358000	8.26771600
134.39999219	0.00000000	25.33834000	7.51722400
134.59999218	0.00000000	25.29527000	6.72982200
134.79999217	0.00000000	25.33834000	6.35457700
134.99999216	0.00000000	25.67052000	6.31151500
135.19999214	0.00000000	26.08268000	6.35457700
135.39999213	0.00000000	26.08883000	6.72982200
135.59999212	0.00000000	26.50098000	7.47416300
135.79999211	0.00000000	26.78395000	7.89247000
135.99999210	0.00000000	26.45792000	8.31077700
136.19999208	0.00000000	25.67052000	9.05511800
136.39999207	0.00000000	24.92003000	9.43036400
136.59999206	0.00000000	24.13263000	9.43036400
136.79999205	0.00000000	23.80659000	9.05511800
136.99999204	0.00000000	24.13263000	8.31077700
137.19999203	0.00000000	24.92003000	7.93553100
137.39999201	0.00000000	25.67052000	7.84940900
137.59999200	0.00000000	26.45792000	7.47416300
137.79999199	0.00000000	26.83317000	6.72982200
137.99999198	0.00000000	26.87623000	6.35457700
138.19999197	0.00000000	26.83317000	6.35457700
138.39999195	0.00000000	26.45792000	6.72982200
138.59999194	0.00000000	25.67052000	7.47416300
138.79999193	0.00000000	24.92003000	7.84940900
138.99999192	0.00000000	24.13263000	7.89247000
139.19999191	0.00000000	23.75738000	7.93553100
139.39999189	0.00000000	23.75738000	8.31077700
139.59999188	0.00000000	24.13263000	9.05511800
139.79999187	0.00000000	24.92003000	9.43036400
139.99999186	0.00000000	25.67052000	9.43036400
140.19999185	0.00000000	26.50098000	9.05511800
140.39999184	0.00000000	27.20841000	8.26771600
140.59999182	0.00000000	27.57136000	7.47416300
140.79999181	0.00000000	26.83317000	6.31151500
140.99999180	0.00000000	25.76279000	5.24729300
141.19999179	0.00000000	25.29527000	5.19808000
141.39999178	0.00000000	24.92003000	5.93626900
141.59999176	0.00000000	24.55093000	6.72982200
141.79999175	0.00000000	24.92003000	7.89247000
141.99999174	0.00000000	25.29527000	9.00590400
142.19999173	0.00000000	25.71358000	9.43036400
142.39999172	0.00000000	26.45792000	9.47342500
142.59999170	0.00000000	26.78395000	9.43036400
142.79999169	0.00000000	26.45792000	9.05511800
142.99999168	0.00000000	25.71358000	8.26771600
143.19999167	0.00000000	25.33834000	7.51722400
143.39999166	0.00000000	25.29527000	6.68676100
143.59999165	0.00000000	25.29527000	5.98548200
143.79999163	0.00000000	25.29527000	5.57332700
143.99999162	0.00000000	25.29527000	5.98548200
144.19999161	0.00000000	25.29527000	6.68676100
144.39999160	0.00000000	25.33834000	7.51722400
144.59999159	0.00000000	25.67052000	8.26771600
144.79999157	0.00000000	26.03961000	9.05511800
144.99999156	0.00000000	25.67052000	9.38115100
145.19999155	0.00000000	25.33834000	9.05511800
145.39999154	0.00000000	25.29527000	8.26771600
145.59999153	0.00000000	25.29527000	7.56028500
145.79999151	0.00000000	25.25221000	7.10506800
145.99999150	0.00000000	24.92003000	7.09891700
146.19999149	0.00000000	24.55093000	6.68676100
146.39999148	0.00000000	24.92003000	6.35457700
146.59999147	0.00000000	25.25221000	6.31151500
146.79999146	0.00000000	25.29527000	6.35457700
146.99999144	0.00000000	25.29527000	6.68676100
147.19999143	0.00000000	25.29527000	7.09891700
147.39999142	0.00000000	25.29527000	7.10506800
147.59999141	0.00000000	25.29527000	7.51722400
147.79999140	0.00000000	25.29527000	7.84940900
147.99999138	0.00000000	25.29527000	7.89247000
148.19999137	0.00000000	25.25221000	7.89247000
148.39999136	0.00000000	24.87697000	7.89247000
148.59999135	0.00000000	24.18184000	7.89247000
148.79999134	0.00000000	24.18184000	7.84940900
148.99999132	0.00000000	24.87697000	7.47416300
149.19999131	0.00000000	25.25221000	6.72982200
149.39999130	0.00000000	25.33834000	6.35457700
149.59999129	0.00000000	25.71358000	6.31151500
149.79999128	0.00000000	26.40871000	6.35457700
149.99999127	0.00000000	26.40871000	6.72982200
150.19999125	0.00000000	25.71358000	7.47416300
150.39999124	0.00000000	25.33834000	7.84940900
150.59999123	0.00000000	25.29527000	7.89247000
150.79999122	0.00000000	25.25221000	7.89247000
150.99999121	0.00000000	24.87697000	7.89247000
151.19999119	0.00000000	24.13263000	7.89247000
151.39999118	0.00000000	23.80659000	7.89247000
151.59999117	0.00000000	24.13263000	7.89247000
151.79999116	0.00000000	24.87697000	7.84940900
151.99999115	0.00000000	25.25221000	7.51722400
152.19999113	0.00000000	25.33834000	7.10506800
152.39999112	0.00000000	25.67052000	7.09891700
152.59999111	0.00000000	26.03961000	6.72982200
152.79999110	0.00000000	25.67052000	6.77903500
152.99999109	0.00000000	25.29527000	7.47416300
153.19999108	0.00000000	24.87697000	7.84940900
153.39999106	0.00000000	24.18184000	7.89247000
153.59999105	0.00000000	24.13263000	7.89247000
153.79999104	0.00000000	24.45866000	7.89247000
153.99999103	0.00000000	24.08957000	7.89247000
154.19999102	0.00000000	23.75738000	7.89247000
154.39999100	0.00000000	23.75738000	7.89247000
154.59999099	0.00000000	24.13263000	7.89247000
154.79999098	0.00000000	24.87697000	7.89247000
154.99999097	0.00000000	25.25221000	7.89247000
155.19999096	0.00000000	25.29527000	7.84940900
155.39999094	0.00000000	25.33834000	7.47416300
155.59999093	0.00000000	25.67052000	6.72982200
155.79999092	0.00000000	26.03961000	6.40378900
155.99999091	0.00000000	25.67052000	6.72982200
156.19999090	0.00000000	25.33834000	7.47416300
156.39999089	0.00000000	25.25221000	7.84940900
156.59999087	0.00000000	24.87697000	7.93553100
156.79999086	0.00000000	24.13263000	8.31077700
156.99999085	0.00000000	23.75738000	9.00590400
157.19999084	0.00000000	23.71432000	9.05511800
157.39999083	0.00000000	23.75738000	8.68602300
157.59999081	0.00000000	24.13263000	8.67987200
157.79999080	0.00000000	24.87697000	8.26771600
157.99999079	0.00000000	25.25221000	7.89247000
158.19999078	0.00000000	25.29527000	7.47416300
158.39999077	0.00000000	25.29527000	6.72982200
158.59999075	0.00000000	25.29527000	6.35457700
158.79999074	0.00000000	25.29527000	6.35457700
158.99999073	0.00000000	25.29527000	6.72982200
159.19999072	0.00000000	25.29527000	7.47416300
159.39999071	0.00000000	25.29527000	7.84940900
159.59999070	0.00000000	25.25221000	7.89247000
159.79999068	0.00000000	24.92003000	7.93553100
159.99999067	0.00000000	24.50787000	8.26771600
160.19999066	0.00000000	24.50172000	8.63681000
160.39999065	0.00000000	24.13263000	8.26771600
160.59999064	0.00000000	24.18184000	7.93553100
160.79999062	0.00000000	24.87697000	7.84940900
160.99999061	0.00000000	25.25221000	7.47416300
161.19999060	0.00000000	25.29527000	6.72982200
161.39999059	0.00000000	25.29527000	6.35457700
161.59999058	0.00000000	25.29527000	6.31151500
161.79999056	0.00000000	25.29527000	6.35457700
161.99999055	0.00000000	25.25221000	6.72982200
162.19999054	0.00000000	24.92003000	7.47416300
162.39999053	0.00000000	24.55093000	7.84940900
162.59999052	0.00000000	24.87697000	7.89247000
162.79999051	0.00000000	24.87697000	7.89247000
162.99999049	0.00000000	24.50787000	7.89247000
163.19999048	0.00000000	24.50172000	7.89247000
163.39999047	0.00000000	24.13263000	7.89247000
163.59999046	0.00000000	24.13263000	7.89247000
163.79999045	0.00000000	24.50172000	7.89247000
163.99999043	0.00000000	24.50787000	7.84940900
164.19999042	0.00000000	24.92003000	7.47416300
164.39999041	0.00000000	25.25221000	6.72982200
164.59999040	0.00000000	25.29527000	6.40378900
164.79999039	0.00000000	25.29527000	6.72982200
164.99999037	0.00000000	25.29527000	7.42495000
165.19999036	0.00000000	25.29527000	7.47416300
165.39999035	0.00000000	25.29527000	7.14812900
165.59999034	0.00000000	25.29527000	7.51722400
165.79999033	0.00000000	25.25221000	7.84940900
165.99999032	0.00000000	24.92003000	7.89247000
166.19999030	0.00000000	24.50787000	7.89247000
166.39999029	0.00000000	24.50172000	7.89247000
166.59999028	0.00000000	24.08957000	7.89247000
166.79999027	0.00000000	23.75738000	7.89247000
166.99999026	0.00000000	23.75738000	7.84940900
167.19999024	0.00000000	24.13263000	7.51722400
167.39999023	0.00000000	24.87697000	7.10506800
167.59999022	0.00000000	25.25221000	7.09891700
167.79999021	0.00000000	25.29527000	6.68676100
167.99999020	0.00000000	25.29527000	6.40378900
168.19999018	0.00000000	25.29527000	6.68676100
168.39999017	0.00000000	25.29527000	7.09891700
168.59999016	0.00000000	25.29527000	7.10506800
168.79999015	0.00000000	25.29527000	7.47416300
168.99999014	0.00000000	25.25221000	7.42495000
169.19999013	0.00000000	24.92003000	6.77903500
169.39999011	0.00000000	24.50787000	6.72982200
169.59999010	0.00000000	24.50172000	7.09891700
169.79999009	0.00000000	24.08957000	7.10506800
169.99999008	0.00000000	23.80659000	7.51722400
170.19999007	0.00000000	24.13263000	7.84940900
170.39999005	0.00000000	24.87697000	7.89247000
170.59999004	0.00000000	25.25221000	7.89247000
170.79999003	0.00000000	25.29527000	7.89247000
170.99999002	0.00000000	25.29527000	7.84940900
171.19999001	0.00000000	25.29527000	7.47416300
171.39998999	0.00000000	25.25221000	6.72982200
171.59998998	0.00000000	24.92003000	6.35457700
171.79998997	0.00000000	24.50787000	6.31151500
171.99998996	0.00000000	24.54478000	6.31151500
172.19998995	0.00000000	24.46481000	6.31151500
172.39998994	0.00000000	24.50172000	6.35457700
172.59998992	0.00000000	24.13263000	6.72982200
172.79998991	0.00000000	24.18184000	7.47416300
172.99998990	0.00000000	24.82775000	7.84940900
173.19998989	0.00000000	24.87697000	7.84940900
173.39998988	0.00000000	24.55093000	7.51722400
173.59998986	0.00000000	24.92003000	7.14812900
173.79998985	0.00000000	25.25221000	7.47416300
173.99998984	0.00000000	25.29527000	7.42495000
174.19998983	0.00000000	25.29527000	6.72982200
174.39998982	0.00000000	25.29527000	6.40378900
174.59998980	0.00000000	25.25221000	6.68676100
174.79998979	0.00000000	24.92003000	7.05585600
174.99998978	0.00000000	24.50787000	6.68676100
175.19998977	0.00000000	24.54478000	6.40378900
175.39998976	0.00000000	24.46481000	6.72982200
175.59998975	0.00000000	24.54478000	7.47416300
175.79998973	0.00000000	24.46481000	7.84940900
175.99998972	0.00000000	24.54478000	7.89247000
176.19998971	0.00000000	24.50787000	7.89247000
176.39998970	0.00000000	24.92003000	7.89247000
176.59998969	0.00000000	25.25221000	7.89247000
176.79998967	0.00000000	25.29527000	7.89247000
176.99998966	0.00000000	25.25221000	7.84940900
177.19998965	0.00000000	24.87697000	7.47416300
177.39998964	0.00000000	24.13263000	6.72982200
177.59998963	0.00000000	23.75738000	6.35457700
177.79998961	0.00000000	23.71432000	6.31151500
177.99998960	0.00000000	23.71432000	6.31151500
178.19998959	0.00000000	23.75738000	6.35457700
178.39998958	0.00000000	24.13263000	6.72982200
178.59998957	0.00000000	24.87697000	7.47416300
178.79998956	0.00000000	25.25221000	7.84940900
178.99998954	0.00000000	25.29527000	7.89247000
179.19998953	0.00000000	25.29527000	7.89247000
179.39998952	0.00000000	25.25221000	7.89247000
179.59998951	0.00000000	24.92003000	7.89247000
179.79998950	0.00000000	24.50787000	7.89247000
179.99998948	0.00000000	24.54478000	7.89247000
180.19998947	0.00000000	24.46481000	7.84940900
180.39998946	0.00000000	24.54478000	7.47416300
180.59998945	0.00000000	24.46481000	6.72982200
180.79998944	0.00000000	24.50172000	6.35457700
180.99998942	0.00000000	24.08957000	6.35457700
181.19998941	0.00000000	23.75738000	6.72982200
181.39998940	0.00000000	23.71432000	7.47416300
181.59998939	0.00000000	23.71432000	7.84940900
181.79998938	0.00000000	23.71432000	7.89247000
181.99998937	0.00000000	23.75738000	7.89247000
182.19998935	0.00000000	24.13263000	7.89247000
182.39998934	0.00000000	24.87697000	7.84940900
182.59998933	0.00000000	25.25221000	7.47416300
182.79998932	0.00000000	25.29527000	6.72982200
182.99998931	0.00000000	25.29527000	6.35457700
183.19998929	0.00000000	25.25221000	6.31151500
183.39998928	0.00000000	24.92003000	6.31151500
183.59998927	0.00000000	24.50787000	6.31151500
183.79998926	0.00000000	24.50172000	6.31151500
183.99998925	0.00000000	24.08957000	6.35457700
184.19998923	0.00000000	23.75738000	6.72982200
184.39998922	0.00000000	23.71432000	7.47416300
184.59998921	0.00000000	23.71432000	7.84940900
184.79998920	0.00000000	23.71432000	7.89247000
184.99998919	0.00000000	23.75738000	7.89247000
185.19998918	0.00000000	24.13263000	7.84940900
185.39998916	0.00000000	24.87697000	7.47416300
185.59998915	0.00000000	25.20300000	6.72982200
185.79998914	0.00000000	24.92003000	6.35457700
185.99998913	0.00000000	24.50787000	6.31151500
186.19998912	0.00000000	24.50172000	6.31151500
186.39998910	0.00000000	24.08957000	6.31151500
186.59998909	0.00000000	23.75738000	6.31151500
186.79998908	0.00000000	23.71432000	6.35457700
186.99998907	0.00000000	23.71432000	6.72982200
187.19998906	0.00000000	23.71432000	7.47416300
187.39998904	0.00000000	23.71432000	7.84940900
187.59998903	0.00000000	23.71432000	7.89247000
187.79998902	0.00000000	23.71432000	7.89247000
187.99998901	0.00000000	23.71432000	7.89247000
188.19998900	0.00000000	23.75738000	7.89247000
188.39998899	0.00000000	24.13263000	7.84940900
188.59998897	0.00000000	24.87697000	7.47416300
188.79998896	0.00000000	25.20300000	6.72982200
188.99998895	0.00000000	24.87697000	6.35457700
189.19998894	0.00000000	24.18184000	6.31151500
189.39998893	0.00000000	24.13263000	6.31151500
189.59998891	0.00000000	24.45866000	6.31151500
189.79998890	0.00000000	24.08957000	6.31151500
189.99998889	0.00000000	23.75738000	6.35457700
190.19998888	0.00000000	23.71432000	6.72982200
190.39998887	0.00000000	23.71432000	7.47416300
190.59998885	0.00000000	23.71432000	7.84940900
190.79998884	0.00000000	23.71432000	7.89247000
190.99998883	0.00000000	23.71432000	7.89247000
191.19998882	0.00000000	23.71432000	7.89247000
191.39998881	0.00000000	23.75738000	7.89247000
191.59998880	0.00000000	24.13263000	7.84940900
191.79998878	0.00000000	24.87697000	7.47416300
191.99998877	0.00000000	25.25221000	6.72982200
192.19998876	0.00000000	25.25221000	6.35457700
192.39998875	0.00000000	24.87697000	6.31151500
192.59998874	0.00000000	24.13263000	6.31151500
192.79998872	0.00000000	23.75738000	6.31151500
192.99998871	0.00000000	23.71432000	6.31151500
193.19998870	0.00000000	23.71432000	6.31151500
193.39998869	0.00000000	23.71432000	6.31151500
193.59998868	0.00000000	23.71432000	6.35457700
193.79998866	0.00000000	23.71432000	6.72982200
193.99998865	0.00000000	23.71432000	7.42495000
194.19998864	0.00000000	23.71432000	7.47416300
194.39998863	0.00000000	23.71432000	7.14812900
194.59998862	0.00000000	23.71432000	7.47416300
194.79998861	0.00000000	23.75738000	7.42495000
194.99998859	0.00000000	24.08957000	6.72982200
195.19998858	0.00000000	24.45866000	6.35457700
195.39998857	0.00000000	24.08957000	6.31151500
195.59998856	0.00000000	23.75738000	6.31151500
195.79998855	0.00000000	23.71432000	6.31151500
195.99998853	0.00000000	23.71432000	6.31151500
