Time	Channel A	Channel B	Channel C
(us)	(V)	(mV)	(mV)

-4.49999956	0.00000000	56.92052000	22.10261000
-4.29999957	0.00000000	56.92052000	22.10261000
-4.09999958	0.00000000	56.92052000	22.10261000
-3.89999959	0.00000000	56.92052000	22.10261000
-3.69999960	0.00000000	56.92052000	22.10261000
-3.49999962	0.00000000	56.92052000	22.10261000
-3.29999963	0.00000000	56.92052000	22.10261000
-3.09999964	0.00000000	56.92052000	22.10261000
-2.89999965	0.00000000	56.92052000	22.10261000
-2.69999966	0.00000000	56.92052000	22.10261000
-2.49999968	0.00000000	56.92052000	22.10261000
-2.29999969	0.00000000	56.92052000	22.10261000
-2.09999970	0.00000000	56.92052000	22.10261000
-1.89999971	0.00000000	56.92052000	22.10261000
-1.69999972	0.00000000	56.92052000	22.10261000
-1.49999973	0.00000000	56.87746000	22.10261000
-1.29999975	0.00000000	56.54527000	22.10261000
-1.09999976	0.00000000	56.17618000	22.10261000
-0.89999977	0.00000000	56.54527000	22.10261000
-0.69999978	0.00000000	56.87746000	22.10261000
-0.49999979	0.00000000	56.92052000	22.10261000
-0.29999981	0.31803640	56.92052000	22.10261000
-0.09999982	0.63668800	56.92052000	22.10261000
0.10000017	0.95533960	56.92052000	22.10261000
0.30000016	0.95533960	56.92052000	22.10261000
0.50000015	0.79601380	56.92052000	22.10261000
0.70000013	0.15871060	56.87746000	22.10261000
0.90000012	-0.79601380	56.54527000	22.10261000
1.10000011	-1.75196900	56.13312000	22.10261000
1.30000010	-2.54859700	56.17002000	22.10261000
1.50000009	-2.86724900	56.13312000	22.10261000
1.70000008	-2.22994600	56.54527000	22.10261000
1.90000006	-0.95533960	56.87746000	22.10261000
2.10000005	1.11466500	56.92052000	22.10261000
2.30000004	3.18590100	56.92052000	22.10261000
2.50000003	4.77854300	56.92052000	22.10261000
2.70000002	5.41584600	56.92052000	22.05955000
2.90000000	4.45989200	56.92052000	21.68430000
3.09999999	2.22994600	56.92052000	20.94611000
3.29999998	-0.95533960	56.92052000	20.62008000
3.49999997	-4.45989200	56.92052000	20.94611000
3.69999996	-6.84916400	56.92052000	21.68430000
3.89999994	-7.96444400	56.92052000	22.05955000
4.09999993	-7.00848900	56.96358000	22.14567000
4.29999992	-3.98191400	57.29576000	22.47785000
4.49999991	0.15871060	57.66486000	22.84695000
4.69999990	4.45989200	57.29576000	22.47785000
4.89999989	7.96444400	56.96358000	22.14567000
5.09999987	9.39837600	56.87746000	22.10261000
5.29999986	8.60174700	56.50221000	22.05955000
5.49999985	5.57517200	55.80708000	21.68430000
5.69999984	1.27399100	55.80708000	20.94611000
5.89999983	-3.66326300	56.50221000	20.62008000
6.09999981	-7.48646600	56.87746000	20.94611000
6.29999980	-9.39837600	56.92052000	21.77658000
6.49999979	-8.92039900	56.87746000	22.81004000
6.69999978	-6.37180100	56.50221000	23.62820000
6.89999977	-2.38927200	55.85014000	23.22835000
7.09999975	2.07062000	56.13312000	22.93307000
7.29999974	5.57517200	56.86515000	22.43479000
7.49999973	7.48646600	56.46530000	21.77658000
7.69999972	7.48646600	56.21309000	21.36442000
7.89999971	5.57517200	56.13312000	21.68430000
8.09999970	2.54859700	56.54527000	21.68430000
8.29999968	-0.79601380	56.87746000	21.36442000
8.49999967	-3.50393700	56.87746000	21.72736000
8.69999966	-4.93786900	56.54527000	22.05955000
8.89999965	-5.09719500	56.17618000	22.10261000
9.09999964	-3.98191400	56.54527000	22.10261000
9.29999962	-2.07062000	56.87746000	22.10261000
9.49999961	-0.15871060	56.92052000	22.10261000
9.69999960	1.43331700	56.92052000	22.10261000
9.89999959	2.38927200	56.92052000	22.10261000
10.09999958	2.54859700	56.92052000	22.10261000
10.29999956	1.91129400	56.87746000	22.10261000
10.49999955	1.27399100	56.54527000	22.10261000
10.69999954	0.31803640	56.17618000	22.10261000
10.89999953	-0.31803640	56.54527000	22.10261000
11.09999952	-0.79601380	56.82825000	22.10261000
11.29999951	-0.95533960	56.54527000	22.10261000
11.49999949	-0.95533960	56.17618000	22.10261000
11.69999948	-0.63668800	56.54527000	22.10261000
11.89999947	-0.31803640	56.87746000	22.10261000
12.09999946	-0.15871060	56.92052000	22.10261000
12.29999945	-0.15871060	56.92052000	22.10261000
12.49999943	0.00000000	56.92052000	22.10261000
12.69999942	0.00000000	56.92052000	22.10261000
12.89999941	0.00000000	56.92052000	22.10261000
13.09999940	0.00000000	56.92052000	22.10261000
13.29999939	0.00000000	56.92052000	22.10261000
13.49999937	0.00000000	56.92052000	22.10261000
13.69999936	0.00000000	56.92052000	22.10261000
13.89999935	0.00000000	56.92052000	22.10261000
14.09999934	-0.15871060	56.92052000	22.10261000
14.29999933	-0.15871060	56.87746000	22.10261000
14.49999932	-0.15871060	56.54527000	22.10261000
14.69999930	0.00000000	56.13312000	22.10261000
14.89999929	0.00000000	56.12696000	22.10261000
15.09999928	0.00000000	55.75787000	22.10261000
15.29999927	0.00000000	55.75787000	22.10261000
15.49999926	0.00000000	56.08390000	22.10261000
15.69999924	0.00000000	55.71481000	22.10261000
15.89999923	0.00000000	55.38263000	22.10261000
16.09999922	0.00000000	55.33957000	22.10261000
16.29999921	0.00000000	55.38263000	22.10261000
16.49999920	-0.15871060	55.75787000	22.10261000
16.69999919	-0.15871060	56.50221000	22.10261000
16.89999917	0.00000000	56.87746000	22.10261000
17.09999916	0.00000000	56.96358000	22.10261000
17.29999915	0.00000000	57.33883000	22.10261000
17.49999914	0.00000000	58.03395000	22.10261000
17.69999913	0.00000000	58.03395000	22.10261000
17.89999911	0.00000000	57.29576000	22.10261000
18.09999910	0.00000000	56.50221000	22.10261000
18.29999909	0.00000000	55.29650000	22.10261000
18.49999908	0.00000000	53.75861000	22.10261000
18.69999907	0.00000000	52.22071000	22.10261000
18.89999905	0.00000000	51.10728000	22.10261000
19.09999904	0.00000000	51.15034000	22.10261000
19.29999903	0.00000000	52.68823000	22.10261000
19.49999902	0.00000000	55.43184000	22.10261000
19.69999901	0.00000000	58.91978000	22.10261000
19.89999900	0.00000000	62.77681000	22.10261000
20.09999898	0.00000000	65.80955000	22.14567000
20.29999897	0.00000000	67.01525000	22.47785000
20.49999896	0.00000000	66.13557000	22.84695000
20.69999895	0.00000000	62.96751000	22.47785000
20.89999894	0.00000000	56.74212000	22.10261000
21.09999892	0.00000000	49.05881000	21.68430000
21.29999891	0.00000000	41.70767000	20.94611000
21.49999890	0.00000000	36.40502000	20.57087000
21.69999889	0.00000000	35.28543000	20.52780000
21.89999888	0.00000000	39.19168000	20.52780000
22.09999886	0.00000000	47.33637000	20.52780000
22.29999885	0.00000000	58.63681000	20.52780000
22.49999884	0.00000000	70.97687000	20.57087000
22.69999883	0.00000000	81.71751000	20.90305000
22.89999882	0.00000000	87.40157000	21.30905000
23.09999881	0.00000000	85.82062000	21.32136000
23.29999879	0.00000000	76.88238000	21.77658000
23.49999878	0.00000000	62.13705000	22.47785000
23.69999877	0.00000000	44.35900000	23.26525000
23.89999876	0.00000000	27.42372000	23.59129000
24.09999875	0.00000000	15.93258000	23.26525000
24.29999873	0.00000000	13.23204000	22.47785000
24.49999872	0.00000000	20.25098000	21.68430000
24.69999871	0.00000000	35.79601000	20.47859000
24.89999870	0.00000000	57.43110000	18.94685000
25.09999869	0.00000000	80.13657000	17.40895000
25.29999867	0.00000000	97.87155000	16.29552000
25.49999866	0.00000000	106.42840000	16.33858000
25.69999865	0.00000000	104.01700000	17.87647000
25.89999864	0.00000000	90.79724000	20.61393000
26.09999863	0.00000000	68.41782000	24.10187000
26.29999862	0.00000000	42.64272000	28.00197000
26.49999860	0.00000000	20.20792000	31.44069000
26.69999859	0.00000000	5.88090500	33.71678000
26.89999858	0.00000000	2.81127000	33.63066000
27.09999857	0.00000000	11.65108000	30.46875000
27.29999856	0.00000000	30.21038000	24.28642000
27.49999854	0.00000000	54.17691000	16.20325000
27.69999853	0.00000000	78.55560000	8.53223400
27.89999852	0.00000000	97.82848000	3.10039400
28.09999851	0.00000000	107.49880000	1.24261800
28.29999850	0.00000000	105.22270000	3.61097400
28.49999848	0.00000000	92.14443000	10.62377000
28.69999847	0.00000000	71.67200000	21.08145000
28.89999846	0.00000000	48.49901000	33.07087000
29.09999845	0.00000000	28.02657000	44.17446000
29.29999844	0.00000000	14.81299000	51.09497000
29.49999843	0.00000000	11.23277000	51.79626000
29.69999841	0.00000000	16.95374000	45.98302000
29.89999840	0.00000000	30.12426000	33.95669000
30.09999839	0.00000000	47.94537000	18.52854000
30.29999838	0.00000000	66.87991000	2.68823800
30.49999837	0.00000000	82.70177000	-9.99630800
30.69999835	0.00000000	91.63385000	-16.17864000
30.89999834	0.00000000	92.14443000	-14.59769000
31.09999833	0.00000000	85.21161000	-5.30265700
31.29999832	0.00000000	72.87770000	10.16240000
31.49999831	0.00000000	57.76328000	28.32800000
31.69999829	0.00000000	43.42396000	45.70620000
31.89999828	0.00000000	32.16658000	58.39074000
32.09999827	0.00000000	26.39640000	63.04133000
32.29999826	0.00000000	27.51599000	58.81520000
32.49999825	0.00000000	34.77485000	46.82579000
32.69999824	0.00000000	45.98917000	29.49065000
32.89999822	0.00000000	58.32308000	10.86983000
33.09999821	0.00000000	69.20522000	-5.35802100
33.29999820	0.00000000	76.14419000	-16.54158000
33.49999819	0.00000000	78.13730000	-19.19906000
33.69999818	0.00000000	74.65550000	-13.15207000
33.89999816	0.00000000	67.01525000	-0.42445860
34.09999815	0.00000000	57.38804000	15.87721000
34.29999814	0.00000000	48.45595000	32.93553000
34.49999813	0.00000000	41.93528000	47.93922000
34.69999812	0.00000000	39.19783000	56.72367000
34.89999810	0.00000000	41.46777000	56.81594000
35.09999809	0.00000000	46.78272000	48.81889000
35.29999808	0.00000000	53.80167000	35.71604000
35.49999807	0.00000000	61.06668000	20.57087000
35.69999806	0.00000000	66.41855000	5.93626900
35.89999805	0.00000000	67.95644000	-4.79207600
36.09999803	0.00000000	65.39124000	-8.32308000
36.29999802	0.00000000	60.41461000	-4.56446800
36.49999801	0.00000000	54.96432000	4.68134800
36.69999800	0.00000000	49.56939000	17.36589000
36.89999799	0.00000000	45.75541000	30.05044000
37.09999797	0.00000000	44.96186000	39.30241000
37.29999796	0.00000000	46.87500000	43.20251000
37.49999795	0.00000000	51.10728000	40.92643000
37.69999794	0.00000000	56.45300000	33.67372000
37.89999793	0.00000000	61.10974000	23.68356000
38.09999791	0.00000000	64.22859000	13.73647000
38.29999790	0.00000000	65.38509000	6.85900500
38.49999789	0.00000000	64.17938000	5.28420300
38.69999788	0.00000000	60.77756000	9.09202700
38.89999787	0.00000000	56.17618000	16.75689000
39.09999786	0.00000000	52.26993000	26.28568000
39.29999784	0.00000000	49.15108000	34.36884000
39.49999783	0.00000000	47.25024000	38.55807000
39.69999782	0.00000000	47.57013000	38.13361000
39.89999781	0.00000000	49.05881000	31.95743000
40.09999780	0.00000000	51.10728000	22.10261000
40.29999778	0.00000000	54.17691000	12.11245000
40.49999777	0.00000000	57.66486000	4.77362200
40.69999776	0.00000000	60.36540000	1.70398600
40.89999775	0.00000000	62.35851000	3.70324800
41.09999774	0.00000000	63.10900000	10.99901000
41.29999772	0.00000000	62.77681000	21.68430000
41.49999771	0.00000000	61.57111000	32.04970000
41.69999770	0.00000000	59.61491000	39.39468000
41.89999769	0.00000000	56.87746000	42.08907000
42.09999768	0.00000000	53.80167000	39.43774000
42.29999767	0.00000000	51.10728000	32.51722000
42.49999765	0.00000000	49.52633000	23.26525000
42.69999764	0.00000000	49.10802000	13.65034000
42.89999763	0.00000000	49.48326000	6.35457700
43.09999762	0.00000000	50.68897000	3.23572800
43.29999761	0.00000000	52.59596000	4.73056000
43.49999759	0.00000000	54.92125000	10.07013000
43.69999758	0.00000000	56.87746000	17.36589000
43.89999757	0.00000000	58.45841000	24.71087000
44.09999756	0.00000000	59.61491000	30.51796000
44.29999755	0.00000000	60.03937000	33.63066000
44.49999753	0.00000000	60.08243000	33.67372000
44.69999752	0.00000000	60.08243000	30.97933000
44.89999751	0.00000000	60.03937000	26.37795000
45.09999750	0.00000000	59.57185000	21.03223000
45.29999749	0.00000000	57.99089000	16.76304000
45.49999748	0.00000000	55.29650000	14.38853000
45.69999746	0.00000000	52.22071000	13.55807000
45.89999745	0.00000000	49.43405000	14.34547000
46.09999744	0.00000000	47.10260000	16.25246000
46.29999743	0.00000000	45.20177000	18.98991000
46.49999742	0.00000000	44.91880000	22.05955000
46.69999740	0.00000000	46.87500000	24.75394000
46.89999739	0.00000000	51.15034000	26.32874000
47.09999738	0.00000000	56.96358000	26.74705000
47.29999737	0.00000000	63.15822000	26.32874000
47.49999736	0.00000000	68.55315000	24.75394000
47.69999734	0.00000000	71.57972000	22.10261000
47.89999733	0.00000000	71.16142000	19.36516000
48.09999732	0.00000000	66.87991000	17.03986000
48.29999731	0.00000000	59.57185000	15.18209000
48.49999730	0.00000000	51.06422000	15.18209000
48.69999729	0.00000000	43.33784000	17.08292000
48.89999727	0.00000000	37.94291000	19.78346000
49.09999726	0.00000000	36.44808000	23.26525000
49.29999725	0.00000000	39.52387000	26.32874000
49.49999724	0.00000000	46.49975000	28.28494000
49.69999723	0.00000000	55.75787000	29.02928000
49.89999721	0.00000000	65.34202000	27.86663000
50.09999720	0.00000000	72.27484000	25.17224000
50.29999719	0.00000000	74.65550000	21.64124000
50.49999718	0.00000000	72.69930000	17.45817000
50.69999717	0.00000000	66.51082000	14.01944000
50.89999715	0.00000000	57.29576000	12.85064000
51.09999714	0.00000000	48.08071000	13.60113000
51.29999713	0.00000000	41.10482000	16.33858000
51.49999712	0.00000000	38.02903000	20.52780000
51.69999711	0.00000000	39.56693000	24.75394000
51.89999710	0.00000000	45.29404000	27.86663000
52.09999708	0.00000000	53.34030000	29.40452000
52.29999707	0.00000000	61.06668000	29.02928000
52.49999706	0.00000000	66.83685000	26.70398000
52.69999705	0.00000000	69.11909000	23.26525000
52.89999704	0.00000000	66.87991000	19.40822000
53.09999702	0.00000000	61.52805000	16.33858000
53.29999701	0.00000000	54.96432000	14.76378000
53.49999700	0.00000000	48.45595000	14.76378000
53.69999699	0.00000000	44.26673000	16.29552000
53.89999698	0.00000000	43.84842000	18.98991000
54.09999696	0.00000000	46.87500000	22.01649000
54.29999695	0.00000000	52.22071000	24.29257000
54.49999694	0.00000000	57.99089000	24.75394000
54.69999693	0.00000000	62.64764000	24.01575000
54.89999692	0.00000000	65.34202000	22.80389000
55.09999691	0.00000000	65.29897000	20.52780000
55.29999689	0.00000000	62.22318000	18.33784000
55.49999688	0.00000000	56.87746000	17.96260000
55.69999687	0.00000000	51.15034000	19.45743000
55.89999686	0.00000000	46.91806000	22.10261000
56.09999685	0.00000000	45.33710000	24.79700000
56.29999683	0.00000000	46.45054000	26.70398000
56.49999682	0.00000000	49.56939000	27.39911000
56.69999681	0.00000000	54.17691000	25.86737000
56.89999680	0.00000000	59.15354000	22.43479000
57.09999679	0.00000000	62.59842000	18.57160000
57.29999677	0.00000000	63.85334000	14.67150000
57.49999676	0.00000000	63.06594000	11.69414000
57.69999675	0.00000000	60.73450000	10.99901000
57.89999674	0.00000000	56.87746000	13.69340000
58.09999673	0.00000000	52.73130000	19.03912000
58.29999672	0.00000000	49.98769000	25.17224000
58.49999670	0.00000000	49.15108000	30.60408000
58.69999669	0.00000000	49.52633000	34.04897000
58.89999668	0.00000000	51.10728000	34.78716000
59.09999667	0.00000000	53.75861000	32.04970000
59.29999666	0.00000000	56.40993000	26.28568000
59.49999664	0.00000000	57.99089000	18.98991000
59.69999663	0.00000000	58.40920000	12.06939000
59.89999662	0.00000000	58.03395000	7.46801100
60.09999661	0.00000000	56.87746000	6.30536400
60.29999660	0.00000000	55.38263000	8.99975300
60.49999658	0.00000000	54.17691000	14.80684000
60.69999657	0.00000000	53.42642000	22.47785000
60.89999656	0.00000000	53.06348000	30.18578000
61.09999655	0.00000000	53.85088000	35.53765000
61.29999654	0.00000000	55.29650000	37.43848000
61.49999653	0.00000000	56.50221000	34.78716000
61.69999651	0.00000000	57.20349000	28.70325000
61.89999650	0.00000000	57.24040000	21.68430000
62.09999649	0.00000000	56.04699000	14.29626000
62.29999648	0.00000000	54.54601000	7.83710600
62.49999647	0.00000000	52.59596000	4.77362200
62.69999645	0.00000000	51.10728000	5.88705700
62.89999644	0.00000000	50.68897000	10.48843000
63.09999643	0.00000000	51.10728000	17.45817000
63.29999642	0.00000000	52.64517000	25.12918000
63.49999641	0.00000000	54.92125000	31.67446000
63.69999639	0.00000000	56.87746000	35.16240000
63.89999638	0.00000000	58.45841000	35.20546000
64.09999637	0.00000000	59.52879000	32.13582000
64.29999636	0.00000000	59.15354000	26.75320000
64.49999635	0.00000000	57.25270000	20.61393000
64.69999634	0.00000000	54.96432000	15.13902000
64.89999632	0.00000000	52.64517000	11.27584000
65.09999631	0.00000000	51.10728000	9.33193800
65.29999630	0.00000000	50.68897000	10.07013000
65.49999629	0.00000000	51.10728000	12.72146000
65.69999628	0.00000000	52.64517000	16.25246000
65.89999626	0.00000000	54.92125000	20.52780000
66.09999625	0.00000000	56.82825000	24.71087000
66.29999624	0.00000000	57.99089000	27.49138000
66.49999623	0.00000000	57.99089000	28.70325000
66.69999622	0.00000000	56.82825000	29.11540000
66.89999620	0.00000000	54.92125000	28.32800000
67.09999619	0.00000000	52.64517000	26.83932000
67.29999618	0.00000000	51.15034000	25.21530000
67.49999617	0.00000000	51.15034000	23.17298000
67.69999616	0.00000000	52.68823000	20.06029000
67.89999615	0.00000000	55.33957000	16.25246000
68.09999613	0.00000000	58.03395000	13.18282000
68.29999612	0.00000000	59.94709000	11.60187000
68.49999611	0.00000000	60.69144000	11.60187000
68.69999610	0.00000000	59.48573000	13.18282000
68.89999609	0.00000000	56.40993000	16.29552000
69.09999607	0.00000000	52.17765000	20.57087000
69.29999606	0.00000000	47.94537000	25.22145000
69.49999605	0.00000000	44.86958000	29.49065000
69.69999604	0.00000000	43.75615000	32.51722000
69.89999603	0.00000000	45.38017000	33.25541000
70.09999601	0.00000000	49.94463000	30.93627000
70.29999600	0.00000000	56.08390000	26.32874000
70.49999599	0.00000000	61.48499000	20.52780000
70.69999598	0.00000000	65.43430000	14.76378000
70.89999597	0.00000000	67.34743000	10.53765000
71.09999596	0.00000000	66.87991000	8.95669300
71.29999594	0.00000000	63.38583000	10.11319000
71.49999593	0.00000000	57.20349000	13.55807000
71.69999592	0.00000000	50.31373000	18.57160000
71.89999591	0.00000000	44.13140000	23.54823000
72.09999590	0.00000000	40.68651000	27.44832000
72.29999588	0.00000000	40.59424000	29.40452000
72.49999587	0.00000000	43.33784000	29.44759000
72.69999586	0.00000000	48.40674000	27.86663000
72.89999585	0.00000000	55.33957000	24.79700000
73.09999584	0.00000000	62.22933000	21.03838000
73.29999582	0.00000000	66.87991000	18.33784000
73.49999581	0.00000000	68.46703000	17.50123000
73.69999580	0.00000000	66.92913000	17.83341000
73.89999579	0.00000000	62.69069000	18.98991000
74.09999578	0.00000000	56.92052000	20.52780000
74.29999577	0.00000000	51.10728000	22.01649000
74.49999575	0.00000000	46.45054000	22.71161000
74.69999574	0.00000000	43.75615000	21.59203000
74.89999573	0.00000000	43.75615000	19.36516000
75.09999572	0.00000000	46.40748000	17.50123000
75.29999571	0.00000000	50.59670000	16.67077000
75.49999569	0.00000000	54.87204000	17.12598000
75.69999568	0.00000000	58.36614000	18.67003000
75.89999567	0.00000000	60.69144000	21.81964000
76.09999566	0.00000000	61.10974000	25.59055000
76.29999565	0.00000000	59.99015000	29.02928000
76.49999563	0.00000000	58.08316000	30.51796000
76.69999562	0.00000000	55.75787000	29.39837000
76.89999561	0.00000000	53.85088000	26.28568000
77.09999560	0.00000000	52.64517000	21.63509000
77.29999559	0.00000000	52.26993000	16.25246000
77.49999558	0.00000000	52.59596000	11.64493000
77.69999556	0.00000000	53.34030000	8.95669300
77.89999555	0.00000000	53.71555000	8.95669300
78.09999554	0.00000000	53.75861000	11.69414000
78.29999553	0.00000000	53.71555000	16.71383000
78.49999552	0.00000000	53.34030000	23.26525000
78.69999550	0.00000000	52.64517000	29.40452000
78.89999549	0.00000000	52.68823000	33.63066000
79.09999548	0.00000000	53.80167000	34.78716000
79.29999547	0.00000000	55.33957000	32.56028000
79.49999546	0.00000000	56.92052000	28.32800000
79.69999544	0.00000000	58.45841000	23.26525000
79.89999543	0.00000000	59.57185000	17.83341000
80.09999542	0.00000000	59.52879000	13.22589000
80.29999541	0.00000000	57.99089000	10.48843000
80.49999540	0.00000000	55.33957000	10.11319000
80.69999539	0.00000000	52.59596000	11.97711000
80.89999537	0.00000000	50.26451000	15.45891000
81.09999536	0.00000000	48.40674000	19.32210000
81.29999535	0.00000000	48.45595000	23.26525000
81.49999534	0.00000000	50.68897000	26.70398000
81.69999533	0.00000000	53.71555000	29.07234000
81.89999531	0.00000000	56.45300000	29.82283000
82.09999530	0.00000000	58.40920000	29.11540000
82.29999529	0.00000000	59.57185000	27.17150000
82.49999528	0.00000000	59.52879000	24.84621000
82.69999527	0.00000000	58.03395000	22.05955000
82.89999525	0.00000000	55.75787000	18.94685000
83.09999524	0.00000000	53.80167000	15.83415000
83.29999523	0.00000000	52.22071000	13.18282000
83.49999522	0.00000000	51.06422000	12.02018000
83.69999521	0.00000000	50.68897000	12.76452000
83.89999520	0.00000000	51.06422000	14.67150000
84.09999518	0.00000000	52.22071000	17.45817000
84.29999517	0.00000000	53.71555000	20.94611000
84.49999516	0.00000000	54.87204000	24.84621000
84.69999515	0.00000000	55.29650000	28.28494000
84.89999514	0.00000000	55.33957000	30.60408000
85.09999512	0.00000000	55.33957000	30.93627000
85.29999511	0.00000000	55.33957000	28.98007000
85.49999510	0.00000000	55.33957000	24.79700000
85.69999509	0.00000000	55.33957000	19.78346000
85.89999508	0.00000000	55.33957000	15.50197000
86.09999506	0.00000000	55.33957000	11.97711000
86.29999505	0.00000000	55.29650000	10.11319000
86.49999504	0.00000000	54.92125000	10.53765000
86.69999503	0.00000000	54.13385000	13.60113000
86.89999502	0.00000000	53.34030000	18.57160000
87.09999501	0.00000000	52.17765000	23.59129000
87.29999499	0.00000000	51.10728000	27.86663000
87.49999498	0.00000000	51.10728000	30.51181000
87.69999497	0.00000000	52.22071000	30.56102000
87.89999496	0.00000000	53.75861000	28.24188000
88.09999495	0.00000000	55.33957000	24.37869000
88.29999493	0.00000000	56.87746000	19.36516000
88.49999492	0.00000000	57.99089000	14.80684000
88.69999491	0.00000000	57.99089000	12.06939000
88.89999490	0.00000000	56.87746000	11.69414000
89.09999489	0.00000000	55.33957000	13.60113000
89.29999487	0.00000000	53.75861000	17.45817000
89.49999486	0.00000000	52.26993000	22.05955000
89.69999485	0.00000000	51.43332000	26.24262000
89.89999484	0.00000000	51.42716000	28.56176000
90.09999483	0.00000000	51.43332000	28.19267000
90.29999482	0.00000000	52.26993000	25.95964000
90.49999480	0.00000000	53.75861000	22.43479000
90.69999479	0.00000000	55.29650000	18.61466000
90.89999478	0.00000000	56.45300000	15.13902000
91.09999477	0.00000000	56.82825000	13.27510000
91.29999476	0.00000000	56.50221000	13.60113000
91.49999474	0.00000000	55.75787000	15.96334000
91.69999473	0.00000000	55.33957000	19.78346000
91.89999472	0.00000000	54.96432000	24.37869000
92.09999471	0.00000000	54.55216000	27.82357000
92.29999470	0.00000000	54.54601000	29.35531000
92.49999468	0.00000000	54.13385000	28.56176000
92.69999467	0.00000000	53.80167000	25.12918000
92.89999466	0.00000000	53.75861000	20.57087000
93.09999465	0.00000000	53.71555000	16.29552000
93.29999464	0.00000000	53.34030000	13.22589000
93.49999463	0.00000000	52.59596000	12.11245000
93.69999461	0.00000000	52.26993000	13.64419000
93.89999460	0.00000000	52.64517000	17.45817000
94.09999459	0.00000000	53.80167000	22.01033000
94.29999458	0.00000000	55.33957000	25.91043000
94.49999457	0.00000000	56.92052000	28.24188000
94.69999455	0.00000000	58.45841000	28.98007000
94.89999454	0.00000000	59.52879000	27.40526000
95.09999453	0.00000000	59.15354000	23.64050000
95.29999452	0.00000000	57.25270000	19.40822000
95.49999451	0.00000000	54.92125000	15.92027000
95.69999449	0.00000000	52.17765000	13.64419000
95.89999448	0.00000000	49.52633000	13.64419000
96.09999447	0.00000000	47.98843000	15.87721000
96.29999446	0.00000000	47.98843000	18.94685000
96.49999445	0.00000000	49.52633000	22.05955000
96.69999444	0.00000000	52.26993000	24.79700000
96.89999442	0.00000000	55.71481000	26.66092000
97.09999441	0.00000000	59.19660000	27.03002000
97.29999440	0.00000000	61.52805000	25.12918000
97.49999439	0.00000000	62.69069000	22.15182000
97.69999438	0.00000000	62.27239000	19.40822000
97.89999436	0.00000000	59.94709000	17.45817000
98.09999435	0.00000000	56.45300000	16.29552000
98.29999434	0.00000000	52.22071000	16.29552000
98.49999433	0.00000000	48.36368000	17.40895000
98.69999432	0.00000000	46.03223000	18.94685000
98.89999430	0.00000000	45.24483000	20.47859000
99.09999429	0.00000000	46.40748000	21.64124000
99.29999428	0.00000000	49.10802000	22.05955000
99.49999427	0.00000000	52.59596000	22.10261000
99.69999426	0.00000000	56.45300000	22.10261000
99.89999425	0.00000000	59.52879000	22.05955000
100.09999423	0.00000000	61.10974000	21.72736000
100.29999422	0.00000000	61.15280000	21.36442000
100.49999421	0.00000000	59.99015000	21.72736000
100.69999420	0.00000000	58.03395000	22.05955000
100.89999419	0.00000000	55.29650000	22.01033000
101.09999417	0.00000000	52.22071000	21.22293000
101.29999416	0.00000000	49.52633000	19.32210000
101.49999415	0.00000000	47.94537000	17.45817000
101.69999414	0.00000000	47.57013000	16.29552000
101.89999413	0.00000000	48.32062000	16.29552000
102.09999411	0.00000000	50.26451000	17.40895000
102.29999410	0.00000000	52.55290000	18.98991000
102.49999409	0.00000000	54.92125000	20.94611000
102.69999408	0.00000000	56.82825000	23.26525000
102.89999407	0.00000000	58.03395000	25.17224000
103.09999406	0.00000000	58.40920000	26.32874000
103.29999404	0.00000000	58.03395000	26.28568000
103.49999403	0.00000000	56.82825000	24.71087000
103.69999402	0.00000000	54.92125000	21.68430000
103.89999401	0.00000000	52.64517000	18.25172000
104.09999400	0.00000000	51.10728000	15.92027000
104.29999398	0.00000000	50.68897000	14.72072000
104.49999397	0.00000000	51.01501000	14.76378000
104.69999396	0.00000000	51.80241000	16.29552000
104.89999395	0.00000000	52.59596000	18.98991000
105.09999394	0.00000000	53.75861000	22.01649000
105.29999392	0.00000000	54.92125000	24.37869000
105.49999391	0.00000000	55.67175000	25.54749000
105.69999390	0.00000000	56.03469000	25.91043000
105.89999389	0.00000000	55.29650000	24.75394000
106.09999388	0.00000000	54.22613000	22.52091000
106.29999387	0.00000000	53.75861000	20.57087000
106.49999385	0.00000000	53.34030000	18.98991000
106.69999384	0.00000000	52.64517000	17.87647000
106.89999383	0.00000000	52.64517000	17.87647000
107.09999382	0.00000000	53.38336000	18.98991000
107.29999381	0.00000000	54.13385000	20.52780000
107.49999379	0.00000000	54.92125000	22.05955000
107.69999378	0.00000000	55.29650000	23.17298000
107.89999377	0.00000000	55.29650000	23.21604000
108.09999376	0.00000000	54.92125000	22.47785000
108.29999375	0.00000000	54.13385000	21.64124000
108.49999374	0.00000000	53.34030000	20.10950000
108.69999372	0.00000000	52.22071000	18.25172000
108.89999371	0.00000000	51.48252000	17.50123000
109.09999370	0.00000000	51.84547000	17.83341000
109.29999369	0.00000000	52.59596000	18.98991000
109.49999368	0.00000000	53.80167000	20.52780000
109.69999366	0.00000000	55.29650000	22.05955000
109.89999365	0.00000000	56.45300000	23.21604000
110.09999364	0.00000000	56.82825000	23.59129000
110.29999363	0.00000000	56.45300000	23.21604000
110.49999362	0.00000000	55.29650000	22.05955000
110.69999360	0.00000000	53.75861000	20.52780000
110.89999359	0.00000000	52.22071000	18.98991000
111.09999358	0.00000000	51.06422000	17.83341000
111.29999357	0.00000000	50.68897000	17.45817000
111.49999356	0.00000000	51.01501000	17.78420000
111.69999355	0.00000000	51.80241000	18.57160000
111.89999353	0.00000000	52.59596000	19.32210000
112.09999352	0.00000000	53.75861000	20.15256000
112.29999351	0.00000000	54.87204000	20.90305000
112.49999350	0.00000000	55.29650000	21.68430000
112.69999349	0.00000000	55.29650000	22.01033000
112.89999347	0.00000000	54.92125000	21.72736000
113.09999346	0.00000000	54.17691000	21.32136000
113.29999345	0.00000000	53.80167000	21.30905000
113.49999344	0.00000000	53.71555000	20.90305000
113.69999343	0.00000000	53.34030000	20.52780000
113.89999341	0.00000000	52.59596000	20.15256000
114.09999340	0.00000000	52.26993000	19.78346000
114.29999339	0.00000000	52.59596000	20.10950000
114.49999338	0.00000000	53.34030000	20.06029000
114.69999337	0.00000000	53.71555000	19.36516000
114.89999336	0.00000000	53.75861000	18.98991000
115.09999334	0.00000000	53.75861000	18.94685000
115.29999333	0.00000000	53.75861000	18.98991000
115.49999332	0.00000000	53.75861000	19.36516000
115.69999331	0.00000000	53.75861000	20.15256000
115.89999330	0.00000000	53.75861000	20.90305000
116.09999328	0.00000000	53.71555000	21.68430000
116.29999327	0.00000000	53.34030000	22.05955000
116.49999326	0.00000000	52.59596000	22.10261000
116.69999325	0.00000000	52.26993000	22.05955000
116.89999324	0.00000000	52.59596000	21.68430000
117.09999322	0.00000000	53.34030000	20.90305000
117.29999321	0.00000000	53.75861000	20.15256000
117.49999320	0.00000000	54.17691000	19.36516000
117.69999319	0.00000000	54.92125000	18.98991000
117.89999318	0.00000000	55.29650000	18.94685000
118.09999317	0.00000000	55.33957000	18.94685000
118.29999315	0.00000000	55.29650000	18.98991000
118.49999314	0.00000000	54.87204000	19.36516000
118.69999313	0.00000000	53.71555000	20.15256000
118.89999312	0.00000000	52.22071000	20.90305000
119.09999311	0.00000000	51.06422000	21.68430000
119.29999309	0.00000000	50.63976000	22.05955000
119.49999308	0.00000000	50.68897000	22.10261000
119.69999307	0.00000000	51.43332000	22.05955000
119.89999306	0.00000000	52.96506000	21.68430000
120.09999305	0.00000000	54.09079000	20.94611000
120.29999303	0.00000000	54.96432000	20.57087000
120.49999302	0.00000000	55.71481000	20.48474000
120.69999301	0.00000000	56.45300000	20.10950000
120.89999300	0.00000000	56.40993000	19.36516000
121.09999299	0.00000000	55.33957000	18.98991000
121.29999298	0.00000000	54.17691000	18.98991000
121.49999296	0.00000000	53.38336000	19.32210000
121.69999295	0.00000000	52.59596000	19.73425000
121.89999294	0.00000000	52.17765000	19.74040000
122.09999293	0.00000000	51.75935000	20.15256000
122.29999292	0.00000000	51.06422000	20.48474000
122.49999290	0.00000000	51.10728000	20.57087000
122.69999289	0.00000000	52.17765000	20.94611000
122.89999288	0.00000000	53.34030000	21.68430000
123.09999287	0.00000000	54.13385000	22.05955000
123.29999286	0.00000000	54.92125000	22.05955000
123.49999284	0.00000000	55.29650000	21.68430000
123.69999283	0.00000000	55.29650000	20.90305000
123.89999282	0.00000000	54.92125000	20.15256000
124.09999281	0.00000000	54.17691000	19.36516000
124.29999280	0.00000000	53.75861000	18.98991000
124.49999279	0.00000000	53.34030000	18.94685000
124.69999277	0.00000000	52.59596000	18.98991000
124.89999276	0.00000000	52.17765000	19.36516000
125.09999275	0.00000000	51.75935000	20.10950000
125.29999274	0.00000000	51.06422000	20.52780000
125.49999273	0.00000000	51.10728000	20.94611000
125.69999271	0.00000000	52.17765000	21.68430000
125.89999270	0.00000000	53.34030000	22.05955000
126.09999269	0.00000000	54.13385000	22.10261000
126.29999268	0.00000000	54.92125000	22.05955000
126.49999267	0.00000000	55.29650000	21.68430000
126.69999265	0.00000000	55.29650000	20.90305000
126.89999264	0.00000000	54.92125000	20.15256000
127.09999263	0.00000000	54.13385000	19.41437000
127.29999262	0.00000000	53.38336000	19.36516000
127.49999261	0.00000000	52.55290000	19.73425000
127.69999260	0.00000000	51.80241000	19.74040000
127.89999258	0.00000000	51.01501000	20.15256000
128.09999257	0.00000000	50.73204000	20.48474000
128.29999256	0.00000000	51.43332000	20.57087000
128.49999255	0.00000000	52.96506000	20.90305000
128.69999254	0.00000000	54.09079000	21.26599000
128.89999252	0.00000000	54.92125000	20.90305000
129.09999251	0.00000000	55.29650000	20.57087000
129.29999250	0.00000000	55.29650000	20.52780000
129.49999249	0.00000000	54.87204000	20.48474000
129.69999248	0.00000000	53.71555000	20.10950000
129.89999246	0.00000000	52.22071000	19.36516000
130.09999245	0.00000000	51.06422000	19.03912000
130.29999244	0.00000000	50.68897000	19.36516000
130.49999243	0.00000000	51.01501000	20.10950000
130.69999242	0.00000000	51.80241000	20.48474000
130.89999241	0.00000000	52.59596000	20.52780000
131.09999239	0.00000000	53.71555000	20.52780000
131.29999238	0.00000000	54.50295000	20.52780000
131.49999237	0.00000000	54.55216000	20.48474000
131.69999236	0.00000000	54.92125000	20.10950000
131.89999235	0.00000000	54.82898000	19.36516000
132.09999233	0.00000000	53.75861000	18.98991000
132.29999232	0.00000000	52.64517000	18.94685000
132.49999231	0.00000000	52.22071000	18.98991000
132.69999230	0.00000000	52.17765000	19.36516000
132.89999229	0.00000000	52.17765000	20.10950000
133.09999227	0.00000000	52.22071000	20.52780000
133.29999226	0.00000000	52.59596000	20.94611000
133.49999225	0.00000000	53.34030000	21.68430000
133.69999224	0.00000000	53.71555000	22.05955000
133.89999223	0.00000000	53.75861000	22.05955000
134.09999222	0.00000000	53.75861000	21.64124000
134.29999220	0.00000000	53.71555000	20.52780000
134.49999219	0.00000000	53.34030000	19.41437000
134.69999218	0.00000000	52.64517000	18.98991000
134.89999217	0.00000000	52.64517000	18.94685000
135.09999216	0.00000000	53.34030000	18.94685000
135.29999214	0.00000000	53.71555000	18.98991000
135.49999213	0.00000000	53.75861000	19.36516000
135.69999212	0.00000000	53.75861000	20.15256000
135.89999211	0.00000000	53.71555000	20.90305000
136.09999210	0.00000000	53.34030000	21.64124000
136.29999208	0.00000000	52.59596000	21.64124000
136.49999207	0.00000000	52.22071000	20.94611000
136.69999206	0.00000000	52.17765000	20.57087000
136.89999205	0.00000000	52.17765000	20.48474000
137.09999204	0.00000000	52.17765000	20.10950000
137.29999203	0.00000000	52.22071000	19.36516000
137.49999201	0.00000000	52.59596000	18.98991000
137.69999200	0.00000000	53.38336000	18.94685000
137.89999199	0.00000000	54.09079000	18.94685000
138.09999198	0.00000000	54.50295000	18.94685000
138.29999197	0.00000000	54.13385000	18.94685000
138.49999195	0.00000000	53.75861000	18.98991000
138.69999194	0.00000000	53.34030000	19.36516000
138.89999193	0.00000000	52.55290000	20.10950000
139.09999192	0.00000000	51.84547000	20.52780000
139.29999191	0.00000000	51.43332000	20.94611000
139.49999189	0.00000000	51.84547000	21.68430000
139.69999188	0.00000000	52.55290000	22.05955000
139.89999187	0.00000000	53.34030000	22.05955000
140.09999186	0.00000000	53.71555000	21.68430000
140.29999185	0.00000000	53.75861000	20.94611000
140.49999184	0.00000000	53.75861000	20.52780000
140.69999182	0.00000000	53.75861000	20.10950000
140.89999181	0.00000000	53.71555000	19.36516000
141.09999180	0.00000000	53.34030000	18.98991000
141.29999179	0.00000000	52.59596000	18.98991000
141.49999178	0.00000000	52.22071000	19.36516000
141.69999176	0.00000000	52.17765000	20.15256000
141.89999175	0.00000000	52.22071000	20.90305000
142.09999174	0.00000000	52.59596000	21.72736000
142.29999173	0.00000000	53.34030000	22.43479000
142.49999172	0.00000000	53.71555000	22.84695000
142.69999170	0.00000000	53.75861000	22.43479000
142.89999169	0.00000000	53.75861000	21.72736000
143.09999168	0.00000000	53.75861000	20.90305000
143.29999167	0.00000000	53.71555000	20.15256000
143.49999166	0.00000000	53.34030000	19.36516000
143.69999165	0.00000000	52.59596000	18.98991000
143.89999163	0.00000000	52.22071000	18.94685000
144.09999162	0.00000000	52.22071000	18.98991000
144.29999161	0.00000000	52.59596000	19.36516000
144.49999160	0.00000000	53.34030000	20.15256000
144.69999159	0.00000000	53.71555000	20.90305000
144.89999157	0.00000000	53.71555000	21.68430000
145.09999156	0.00000000	53.38336000	22.01033000
145.29999155	0.00000000	52.97121000	21.68430000
145.49999154	0.00000000	52.96506000	20.94611000
145.69999153	0.00000000	52.55290000	20.52780000
145.89999151	0.00000000	52.22071000	20.10950000
146.09999150	0.00000000	52.17765000	19.36516000
146.29999149	0.00000000	52.17765000	18.94685000
146.49999148	0.00000000	52.22071000	18.61466000
146.69999147	0.00000000	52.59596000	18.57775000
146.89999146	0.00000000	53.34030000	19.35900000
147.09999144	0.00000000	53.71555000	19.69734000
147.29999143	0.00000000	53.75861000	20.15256000
147.49999142	0.00000000	53.71555000	20.48474000
147.69999141	0.00000000	53.34030000	20.52780000
147.89999140	0.00000000	52.59596000	20.52780000
148.09999138	0.00000000	52.22071000	20.52780000
148.29999137	0.00000000	52.17765000	20.52780000
148.49999136	0.00000000	52.17765000	20.52780000
148.69999135	0.00000000	52.17765000	20.48474000
148.89999134	0.00000000	52.17765000	20.10950000
149.09999132	0.00000000	52.17765000	19.36516000
149.29999131	0.00000000	52.22071000	18.98991000
149.49999130	0.00000000	52.59596000	18.94685000
149.69999129	0.00000000	53.34030000	18.94685000
149.89999128	0.00000000	53.71555000	18.98991000
150.09999127	0.00000000	53.71555000	19.36516000
150.29999125	0.00000000	53.34030000	20.10950000
150.49999124	0.00000000	52.59596000	20.48474000
150.69999123	0.00000000	52.22071000	20.52780000
150.89999122	0.00000000	52.17765000	20.52780000
151.09999121	0.00000000	52.17765000	20.52780000
151.29999119	0.00000000	52.17765000	20.52780000
151.49999118	0.00000000	52.17765000	20.52780000
151.69999117	0.00000000	52.22071000	20.52780000
151.89999116	0.00000000	52.59596000	20.52780000
152.09999115	0.00000000	53.34030000	20.52780000
152.29999113	0.00000000	53.71555000	20.48474000
152.49999112	0.00000000	53.75861000	20.15256000
152.69999111	0.00000000	53.75861000	19.78346000
152.89999110	0.00000000	53.75861000	20.15256000
153.09999109	0.00000000	53.75861000	20.48474000
153.29999108	0.00000000	53.71555000	20.52780000
153.49999106	0.00000000	53.34030000	20.52780000
153.69999105	0.00000000	52.55290000	20.52780000
153.89999104	0.00000000	51.84547000	20.52780000
154.09999103	0.00000000	51.43332000	20.52780000
154.29999102	0.00000000	51.80241000	20.52780000
154.49999100	0.00000000	52.13459000	20.52780000
154.69999099	0.00000000	52.17765000	20.52780000
154.89999098	0.00000000	52.22071000	20.52780000
155.09999097	0.00000000	52.59596000	20.52780000
155.29999096	0.00000000	53.34030000	20.48474000
155.49999094	0.00000000	53.71555000	20.10950000
155.69999093	0.00000000	53.75861000	19.36516000
155.89999092	0.00000000	53.75861000	19.03912000
156.09999091	0.00000000	53.71555000	19.36516000
156.29999090	0.00000000	53.34030000	20.10950000
156.49999089	0.00000000	52.59596000	20.48474000
156.69999087	0.00000000	52.17765000	20.52780000
156.89999086	0.00000000	51.80241000	20.52780000
157.09999085	0.00000000	51.43332000	20.52780000
157.29999084	0.00000000	51.80241000	20.52780000
157.49999083	0.00000000	52.13459000	20.52780000
157.69999081	0.00000000	52.17765000	20.52780000
157.89999080	0.00000000	52.22071000	20.48474000
158.09999079	0.00000000	52.59596000	20.10950000
158.29999078	0.00000000	53.34030000	19.36516000
158.49999077	0.00000000	53.71555000	18.98991000
158.69999075	0.00000000	53.75861000	18.94685000
158.89999074	0.00000000	53.71555000	18.94685000
159.09999073	0.00000000	53.34030000	18.98991000
159.29999072	0.00000000	52.59596000	19.36516000
159.49999071	0.00000000	52.22071000	20.10950000
159.69999070	0.00000000	52.17765000	20.48474000
159.89999068	0.00000000	52.17765000	20.52780000
160.09999067	0.00000000	52.17765000	20.52780000
160.29999066	0.00000000	52.17765000	20.52780000
160.49999065	0.00000000	52.17765000	20.52780000
160.69999064	0.00000000	52.17765000	20.48474000
160.89999062	0.00000000	52.17765000	20.10950000
161.09999061	0.00000000	52.17765000	19.36516000
161.29999060	0.00000000	52.17765000	18.94685000
161.49999059	0.00000000	52.22071000	18.57160000
161.69999058	0.00000000	52.55290000	18.20251000
161.89999056	0.00000000	52.92200000	18.61466000
162.09999055	0.00000000	52.55290000	19.32210000
162.29999054	0.00000000	52.22071000	20.10950000
162.49999053	0.00000000	52.17765000	20.48474000
162.69999052	0.00000000	52.17765000	20.52780000
162.89999051	0.00000000	52.17765000	20.52780000
163.09999049	0.00000000	52.17765000	20.52780000
163.29999048	0.00000000	52.17765000	20.52780000
163.49999047	0.00000000	52.17765000	20.52780000
163.69999046	0.00000000	52.17765000	20.48474000
163.89999045	0.00000000	52.17765000	20.10950000
164.09999043	0.00000000	52.17765000	19.41437000
164.29999042	0.00000000	52.17765000	19.41437000
164.49999041	0.00000000	52.22071000	20.06029000
164.69999040	0.00000000	52.55290000	20.06029000
164.89999039	0.00000000	52.96506000	19.41437000
165.09999037	0.00000000	52.97121000	19.41437000
165.29999036	0.00000000	53.38336000	20.10950000
165.49999035	0.00000000	53.66634000	20.48474000
165.69999034	0.00000000	53.34030000	20.52780000
165.89999033	0.00000000	52.59596000	20.52780000
166.09999032	0.00000000	52.22071000	20.52780000
166.29999030	0.00000000	52.17765000	20.52780000
166.49999029	0.00000000	52.17765000	20.52780000
166.69999028	0.00000000	52.17765000	20.52780000
166.89999027	0.00000000	52.17765000	20.48474000
167.09999026	0.00000000	52.17765000	20.15256000
167.29999024	0.00000000	52.17765000	19.78346000
167.49999023	0.00000000	52.17765000	20.10950000
167.69999022	0.00000000	52.17765000	20.10950000
167.89999021	0.00000000	52.17765000	19.74040000
168.09999020	0.00000000	52.17765000	19.73425000
168.29999018	0.00000000	52.17765000	19.36516000
168.49999017	0.00000000	52.17765000	19.41437000
168.69999016	0.00000000	52.17765000	20.10950000
168.89999015	0.00000000	52.17765000	20.48474000
169.09999014	0.00000000	52.17765000	20.52780000
169.29999013	0.00000000	52.17765000	20.52780000
169.49999011	0.00000000	52.17765000	20.52780000
169.69999010	0.00000000	52.13459000	20.48474000
169.89999009	0.00000000	51.80241000	20.15256000
170.09999008	0.00000000	51.43332000	19.78346000
170.29999007	0.00000000	51.80241000	20.10950000
170.49999005	0.00000000	52.13459000	20.10950000
170.69999004	0.00000000	52.17765000	19.74040000
170.89999003	0.00000000	52.17765000	19.73425000
171.09999002	0.00000000	52.17765000	19.32210000
171.29999001	0.00000000	52.17765000	18.98991000
171.49998999	0.00000000	52.17765000	18.94685000
171.69998998	0.00000000	52.17765000	18.94685000
171.89998997	0.00000000	52.17765000	18.94685000
172.09998996	0.00000000	52.17765000	18.98991000
172.29998995	0.00000000	52.17765000	19.36516000
172.49998994	0.00000000	52.17765000	20.10950000
172.69998992	0.00000000	52.17765000	20.48474000
172.89998991	0.00000000	52.17765000	20.48474000
173.09998990	0.00000000	52.17765000	20.15256000
173.29998989	0.00000000	52.17765000	19.78346000
173.49998988	0.00000000	52.17765000	20.15256000
173.69998986	0.00000000	52.17765000	20.43553000
173.89998985	0.00000000	52.17765000	20.15256000
174.09998984	0.00000000	52.17765000	19.74040000
174.29998983	0.00000000	52.17765000	19.73425000
174.49998982	0.00000000	52.17765000	19.32210000
174.69998980	0.00000000	52.17765000	19.03912000
174.89998979	0.00000000	52.17765000	19.36516000
175.09998978	0.00000000	52.17765000	20.06029000
175.29998977	0.00000000	52.17765000	20.06029000
175.49998976	0.00000000	52.13459000	19.41437000
175.69998975	0.00000000	51.80241000	19.41437000
175.89998973	0.00000000	51.43332000	20.10950000
176.09998972	0.00000000	51.80241000	20.48474000
176.29998971	0.00000000	52.13459000	20.52780000
176.49998970	0.00000000	52.17765000	20.52780000
176.69998969	0.00000000	52.17765000	20.48474000
176.89998967	0.00000000	52.13459000	20.15256000
177.09998966	0.00000000	51.80241000	19.74040000
177.29998965	0.00000000	51.43332000	19.73425000
177.49998964	0.00000000	51.80241000	19.36516000
177.69998963	0.00000000	52.13459000	19.41437000
177.89998961	0.00000000	52.17765000	20.10950000
178.09998960	0.00000000	52.17765000	20.48474000
178.29998959	0.00000000	52.17765000	20.52780000
178.49998958	0.00000000	52.17765000	20.52780000
178.69998957	0.00000000	52.17765000	20.52780000
178.89998956	0.00000000	52.17765000	20.52780000
179.09998954	0.00000000	52.17765000	20.52780000
179.29998953	0.00000000	52.17765000	20.52780000
179.49998952	0.00000000	52.17765000	20.52780000
179.69998951	0.00000000	52.17765000	20.48474000
179.89998950	0.00000000	52.17765000	20.10950000
180.09998948	0.00000000	52.17765000	19.36516000
180.29998947	0.00000000	52.17765000	18.98991000
180.49998946	0.00000000	52.17765000	18.94685000
180.69998945	0.00000000	52.17765000	18.94685000
180.89998944	0.00000000	52.17765000	18.94685000
181.09998942	0.00000000	52.17765000	18.98991000
181.29998941	0.00000000	52.17765000	19.36516000
181.49998940	0.00000000	52.13459000	20.10950000
181.69998939	0.00000000	51.80241000	20.48474000
181.89998938	0.00000000	51.43332000	20.52780000
182.09998937	0.00000000	51.80241000	20.52780000
182.29998935	0.00000000	52.13459000	20.48474000
182.49998934	0.00000000	52.17765000	20.15256000
182.69998933	0.00000000	52.17765000	19.78346000
182.89998932	0.00000000	52.17765000	20.10950000
183.09998931	0.00000000	52.17765000	20.06029000
183.29998929	0.00000000	52.17765000	19.36516000
183.49998928	0.00000000	52.17765000	18.98991000
183.69998927	0.00000000	52.17765000	18.94685000
183.89998926	0.00000000	52.17765000	18.98991000
184.09998925	0.00000000	52.17765000	19.32210000
184.29998923	0.00000000	52.13459000	19.69119000
184.49998922	0.00000000	51.80241000	19.36516000
184.69998921	0.00000000	51.43332000	19.41437000
184.89998920	0.00000000	51.80241000	20.10950000
185.09998919	0.00000000	52.13459000	20.48474000
185.29998918	0.00000000	52.17765000	20.48474000
185.49998916	0.00000000	52.17765000	20.10950000
185.69998915	0.00000000	52.13459000	19.36516000
185.89998914	0.00000000	51.80241000	18.98991000
186.09998913	0.00000000	51.43332000	18.94685000
186.29998912	0.00000000	51.75935000	18.94685000
186.49998910	0.00000000	51.75935000	18.94685000
186.69998909	0.00000000	51.43332000	18.94685000
186.89998908	0.00000000	51.80241000	18.94685000
187.09998907	0.00000000	52.13459000	18.98991000
187.29998906	0.00000000	52.17765000	19.36516000
187.49998904	0.00000000	52.17765000	20.10950000
187.69998903	0.00000000	52.17765000	20.48474000
187.89998902	0.00000000	52.17765000	20.52780000
188.09998901	0.00000000	52.17765000	20.52780000
188.29998900	0.00000000	52.17765000	20.52780000
188.49998899	0.00000000	52.17765000	20.48474000
188.69998897	0.00000000	52.17765000	20.10950000
188.89998896	0.00000000	52.17765000	19.36516000
189.09998895	0.00000000	52.17765000	18.98991000
189.29998894	0.00000000	52.17765000	18.94685000
189.49998893	0.00000000	52.13459000	18.94685000
189.69998891	0.00000000	51.80241000	18.98991000
189.89998890	0.00000000	51.43332000	19.36516000
190.09998889	0.00000000	51.80241000	20.10950000
190.29998888	0.00000000	52.08538000	20.48474000
190.49998887	0.00000000	51.80241000	20.52780000
190.69998885	0.00000000	51.43332000	20.52780000
190.89998884	0.00000000	51.80241000	20.52780000
191.09998883	0.00000000	52.13459000	20.52780000
191.29998882	0.00000000	52.17765000	20.52780000
191.49998881	0.00000000	52.17765000	20.52780000
191.69998880	0.00000000	52.17765000	20.48474000
191.89998878	0.00000000	52.17765000	20.10950000
192.09998877	0.00000000	52.17765000	19.41437000
192.29998876	0.00000000	52.17765000	19.36516000
192.49998875	0.00000000	52.17765000	19.69119000
192.69998874	0.00000000	52.17765000	19.32210000
192.89998872	0.00000000	52.13459000	18.98991000
193.09998871	0.00000000	51.75935000	18.94685000
193.29998870	0.00000000	51.01501000	18.98991000
193.49998869	0.00000000	50.63976000	19.36516000
193.69998868	0.00000000	50.59670000	20.10950000
193.89998866	0.00000000	50.63976000	20.43553000
194.09998865	0.00000000	51.01501000	20.15256000
194.29998864	0.00000000	51.75935000	19.74040000
194.49998863	0.00000000	52.13459000	19.73425000
194.69998862	0.00000000	52.17765000	19.32210000
194.89998861	0.00000000	52.17765000	18.98991000
195.09998859	0.00000000	52.17765000	18.94685000
195.29998858	0.00000000	52.13459000	18.94685000
195.49998857	0.00000000	51.75935000	18.94685000
195.69998856	0.00000000	51.01501000	18.94685000
195.89998855	0.00000000	50.68897000	18.94685000
196.09998853	0.00000000	50.97194000	18.94685000
