Time	Channel A	Channel B	Channel C
(us)	(V)	(mV)	(mV)

-4.53333289	0.00000000	-15.80955000	-9.51648500
-4.33333290	0.00000000	-15.80955000	-9.84867000
-4.13333291	0.00000000	-15.80955000	-10.25467000
-3.93333293	0.00000000	-15.80955000	-10.26698000
-3.73333294	0.00000000	-15.80955000	-10.62992000
-3.53333295	0.00000000	-15.80955000	-10.62992000
-3.33333296	0.00000000	-15.80955000	-10.31004000
-3.13333297	0.00000000	-15.80955000	-10.62992000
-2.93333299	0.00000000	-15.80955000	-10.58686000
-2.73333300	0.00000000	-15.80955000	-9.89173200
-2.53333301	0.00000000	-15.80955000	-9.51648500
-2.33333302	0.00000000	-15.80955000	-9.47342500
-2.13333303	0.00000000	-15.80955000	-9.47342500
-1.93333304	0.00000000	-15.80955000	-9.47342500
-1.73333306	0.00000000	-15.80955000	-9.47342500
-1.53333307	0.00000000	-15.80955000	-9.47342500
-1.33333308	0.00000000	-15.80955000	-9.47342500
-1.13333309	0.00000000	-15.80955000	-9.47342500
-0.93333310	0.00000000	-15.80955000	-9.47342500
-0.73333312	0.00000000	-15.80955000	-9.47342500
-0.53333313	0.00000000	-15.80955000	-9.47342500
-0.33333314	0.15871060	-15.80955000	-9.51648500
-0.13333315	0.47736220	-15.80955000	-9.84867000
0.06666684	0.95533960	-15.80955000	-10.25467000
0.26666682	1.11466500	-15.85261000	-10.26698000
0.46666681	0.95533960	-16.18479000	-10.67298000
0.66666680	0.47736220	-16.55389000	-11.00517000
0.86666679	-0.31803640	-16.18479000	-11.04823000
1.06666678	-1.27399100	-15.85261000	-11.00517000
1.26666677	-2.22994600	-15.80955000	-10.67298000
1.46666675	-2.70792300	-15.80955000	-10.31004000
1.66666674	-2.70792300	-15.80955000	-10.62992000
1.86666673	-1.59264300	-15.80955000	-10.58686000
2.06666672	0.00000000	-15.80955000	-9.89173200
2.26666671	2.07062000	-15.80955000	-9.56569900
2.46666669	4.14124000	-15.80955000	-9.89173200
2.66666668	5.25652100	-15.80955000	-10.62992000
2.86666667	5.09719500	-15.85261000	-11.00517000
3.06666666	3.50393700	-16.22785000	-11.04823000
3.26666665	0.79601380	-16.92298000	-11.04823000
3.46666663	-2.70792300	-16.92298000	-11.04823000
3.66666662	-5.73449800	-16.22785000	-11.00517000
3.86666661	-7.64579200	-15.85261000	-10.62992000
4.06666660	-7.80511800	-15.80955000	-9.89173200
4.26666659	-5.73449800	-15.80955000	-9.51648500
4.46666658	-2.22994600	-15.80955000	-9.47342500
4.66666656	2.22994600	-15.80955000	-9.51648500
4.86666655	6.21247500	-15.80955000	-9.89173200
5.06666654	8.92039900	-15.80955000	-10.62992000
5.26666653	9.39837600	-15.85261000	-11.00517000
5.46666652	7.48646600	-16.22785000	-11.04823000
5.66666650	3.66326300	-16.92298000	-11.04823000
5.86666649	-1.11466500	-16.97219000	-11.04823000
6.06666648	-5.73449800	-16.60310000	-11.04823000
6.26666647	-8.60174700	-16.59695000	-11.00517000
6.46666646	-9.39837600	-16.18479000	-10.62992000
6.66666644	-7.96444400	-15.85261000	-9.89173200
6.86666643	-4.61921700	-15.80955000	-9.51648500
7.06666642	-0.15871060	-15.80955000	-9.47342500
7.26666641	3.98191400	-15.85261000	-9.51648500
7.46666640	6.84916400	-16.22785000	-9.89173200
7.66666639	7.80511800	-16.97219000	-10.62992000
7.86666637	6.84916400	-17.34744000	-11.00517000
8.06666636	4.30056600	-17.39050000	-11.04823000
8.26666635	0.95533960	-17.34744000	-11.04823000
8.46666634	-2.22994600	-16.97219000	-11.04823000
8.66666633	-4.30056600	-16.22785000	-11.04823000
8.86666631	-5.25652100	-15.85261000	-11.04823000
9.06666630	-4.61921700	-15.80955000	-11.00517000
9.26666629	-3.18590100	-15.85261000	-10.67298000
9.46666628	-1.11466500	-16.22785000	-10.31004000
9.66666627	0.63668800	-16.92298000	-10.67298000
9.86666625	1.91129400	-16.97219000	-11.00517000
10.06666624	2.54859700	-16.64616000	-11.04823000
10.26666623	2.38927200	-17.01525000	-11.04823000
10.46666622	1.59264300	-17.34744000	-11.04823000
10.66666621	0.79601380	-17.39050000	-11.04823000
10.86666620	0.00000000	-17.34744000	-11.04823000
11.06666618	-0.63668800	-17.01525000	-11.04823000
11.26666617	-0.95533960	-16.64616000	-11.04823000
11.46666616	-0.95533960	-17.01525000	-11.04823000
11.66666615	-0.79601380	-17.34744000	-11.04823000
11.86666614	-0.47736220	-17.39050000	-11.04823000
12.06666612	-0.15871060	-17.39050000	-11.04823000
12.26666611	-0.15871060	-17.39050000	-11.04823000
12.46666610	-0.15871060	-17.39050000	-11.04823000
12.66666609	0.00000000	-17.39050000	-11.04823000
12.86666608	0.00000000	-17.39050000	-11.04823000
13.06666606	0.00000000	-17.39050000	-11.04823000
13.26666605	0.00000000	-17.39050000	-11.04823000
13.46666604	0.00000000	-17.39050000	-11.04823000
13.66666603	0.00000000	-17.39050000	-11.04823000
13.86666602	0.00000000	-17.39050000	-11.04823000
14.06666601	-0.15871060	-17.39050000	-11.04823000
14.26666599	-0.15871060	-17.34744000	-11.04823000
14.46666598	-0.15871060	-17.01525000	-11.04823000
14.66666597	-0.15871060	-16.64616000	-11.04823000
14.86666596	0.00000000	-17.01525000	-11.04823000
15.06666595	0.00000000	-17.34744000	-11.04823000
15.26666593	0.00000000	-17.39050000	-11.04823000
15.46666592	0.00000000	-17.39050000	-11.09129000
15.66666591	0.00000000	-17.39050000	-11.38041000
15.86666590	0.00000000	-17.39050000	-11.41732000
16.06666589	0.00000000	-17.39050000	-10.68528000
16.26666587	0.00000000	-17.39050000	-10.72219000
16.46666586	-0.15871060	-17.34744000	-11.00517000
16.66666585	-0.15871060	-17.01525000	-11.04823000
16.86666584	-0.15871060	-16.60310000	-11.04823000
17.06666583	0.00000000	-16.59695000	-11.04823000
17.26666582	0.00000000	-16.14173000	-11.04823000
17.46666580	0.00000000	-15.47736000	-11.04823000
17.66666579	0.00000000	-15.06521000	-11.04823000
17.86666578	0.00000000	-15.47736000	-11.04823000
18.06666577	0.00000000	-16.22785000	-11.04823000
18.26666576	0.00000000	-17.43356000	-11.04823000
18.46666574	0.00000000	-18.97145000	-11.04823000
18.66666573	0.00000000	-20.55241000	-11.04823000
18.86666572	-0.15871060	-22.04109000	-11.04823000
19.06666571	0.00000000	-22.78543000	-11.04823000
19.26666570	0.00000000	-21.99803000	-11.04823000
19.46666568	0.00000000	-20.04183000	-11.04823000
19.66666567	0.00000000	-16.87992000	-11.04823000
19.86666566	0.00000000	-12.64764000	-11.04823000
20.06666565	0.00000000	-8.45841400	-11.04823000
20.26666564	0.00000000	-5.80708600	-11.04823000
20.46666563	0.00000000	-5.80708600	-11.04823000
20.66666561	0.00000000	-8.55068800	-11.04823000
20.86666560	0.00000000	-13.61959000	-11.04823000
21.06666559	0.00000000	-20.64468000	-11.04823000
21.26666558	0.00000000	-28.32185000	-11.04823000
21.46666557	0.00000000	-34.83636000	-11.04823000
21.66666555	0.00000000	-37.86909000	-11.04823000
21.86666554	0.00000000	-36.28199000	-11.04823000
22.06666553	0.00000000	-30.04429000	-11.04823000
22.26666552	0.00000000	-19.95571000	-11.04823000
22.46666551	0.00000000	-7.94783400	-11.04823000
22.66666549	0.00000000	3.63558100	-11.04823000
22.86666548	0.00000000	12.05709000	-11.04823000
23.06666547	0.00000000	14.66535000	-11.00517000
23.26666546	0.00000000	9.92249000	-10.62992000
23.46666545	0.00000000	-2.12844500	-9.89173200
23.66666544	0.00000000	-19.48204000	-9.51648500
23.86666542	0.00000000	-37.95522000	-9.47342500
24.06666541	0.00000000	-52.61442000	-9.47342500
24.26666540	0.00000000	-59.91634000	-9.51648500
24.46666539	0.00000000	-57.91707000	-9.93479300
24.66666538	0.00000000	-46.28445000	-11.09744000
24.86666536	0.00000000	-27.34990000	-12.62918000
25.06666535	0.00000000	-5.29650500	-14.21014000
25.26666534	0.00000000	15.12672000	-15.74188000
25.46666533	0.00000000	28.99237000	-16.81225000
25.66666532	0.00000000	32.43725000	-16.39395000
25.86666530	0.00000000	24.66781000	-14.11786000
26.06666529	0.00000000	6.84670200	-11.00517000
26.26666528	0.00000000	-17.43971000	-7.47416300
26.46666527	0.00000000	-42.14444000	-3.62327700
26.66666526	0.00000000	-61.45423000	-0.59670270
26.86666525	0.00000000	-71.08759000	0.51673230
27.06666523	0.00000000	-68.38705000	-1.10728300
27.26666522	0.00000000	-54.14616000	-5.80093500
27.46666521	0.00000000	-32.13582000	-13.09670000
27.66666520	0.00000000	-7.38804100	-21.17372000
27.86666519	0.00000000	14.66535000	-27.73130000
28.06666517	0.00000000	29.31840000	-31.58218000
28.26666516	0.00000000	33.22466000	-31.49606000
28.46666515	0.00000000	25.50443000	-26.84547000
28.66666514	0.00000000	8.60605200	-18.25787000
28.86666513	0.00000000	-13.43504000	-7.05585600
29.06666511	0.00000000	-35.07628000	4.92125900
29.26666510	0.00000000	-52.18996000	14.45620000
29.46666509	0.00000000	-61.45423000	19.05143000
29.66666508	0.00000000	-61.12204000	16.68307000
29.86666507	0.00000000	-51.49483000	7.81250000
30.06666506	0.00000000	-35.30389000	-5.80093500
30.26666504	0.00000000	-16.32013000	-22.01649000
30.46666503	0.00000000	1.45177200	-37.34621000
30.66666502	0.00000000	14.24089000	-47.33637000
30.86666501	0.00000000	19.35900000	-49.33562000
31.06666500	0.00000000	16.70768000	-43.52854000
31.26666498	0.00000000	7.40034400	-31.07775000
31.46666497	0.00000000	-6.87746000	-13.69956000
31.66666496	0.00000000	-22.69931000	4.78592500
31.86666495	0.00000000	-36.23893000	19.88804000
32.06666494	0.00000000	-44.79576000	28.76476000
32.26666492	0.00000000	-46.79502000	29.50295000
32.46666491	0.00000000	-42.61196000	21.37672000
32.66666490	0.00000000	-33.67372000	6.36687900
32.86666489	0.00000000	-21.71506000	-12.21087000
33.06666488	0.00000000	-9.38730200	-30.37647000
33.26666487	0.00000000	-0.12918310	-44.64198000
33.46666485	0.00000000	4.23843500	-51.61171000
33.66666484	0.00000000	3.45103300	-49.71087000
33.86666483	0.00000000	-1.90083600	-40.08366000
34.06666482	0.00000000	-10.78371000	-24.61860000
34.26666481	0.00000000	-20.37401000	-6.87130900
34.46666479	0.00000000	-28.55561000	9.34424200
34.66666478	0.00000000	-33.53838000	20.58317000
34.86666477	0.00000000	-34.32578000	24.48942000
35.06666476	0.00000000	-30.51181000	21.05069000
35.26666475	0.00000000	-23.67126000	10.96826000
35.46666473	0.00000000	-16.32013000	-3.66633800
35.66666472	0.00000000	-10.13164000	-19.46358000
35.86666471	0.00000000	-6.31766700	-32.56643000
36.06666470	0.00000000	-6.31766700	-39.90526000
36.26666469	0.00000000	-10.08243000	-39.95448000
36.46666468	0.00000000	-15.80955000	-33.07701000
36.66666466	0.00000000	-21.57972000	-21.54897000
36.86666465	0.00000000	-25.85507000	-8.48917200
37.06666464	0.00000000	-27.81127000	2.70054100
37.26666463	0.00000000	-27.43602000	9.25196800
37.46666462	0.00000000	-24.69857000	10.08243000
37.66666460	0.00000000	-20.08489000	5.06889700
37.86666459	0.00000000	-14.73917000	-4.08464600
38.06666458	0.00000000	-10.50689000	-14.85605000
38.26666457	0.00000000	-8.55068800	-24.02190000
38.46666456	0.00000000	-8.87672100	-29.03543000
38.66666454	0.00000000	-11.20202000	-28.24803000
38.86666453	0.00000000	-14.69611000	-22.20103000
39.06666452	0.00000000	-18.97145000	-13.00443000
39.26666451	0.00000000	-23.20374000	-3.84473400
39.46666450	0.00000000	-26.27953000	2.70054100
39.66666449	0.00000000	-27.48524000	4.60752900
39.86666447	0.00000000	-26.74089000	1.49483300
40.06666446	0.00000000	-24.82775000	-6.17618100
40.26666445	0.00000000	-22.09030000	-16.48622000
40.46666444	0.00000000	-18.97145000	-25.63976000
40.66666443	0.00000000	-15.85261000	-31.07775000
40.86666441	0.00000000	-13.15822000	-31.40379000
41.06666440	0.00000000	-11.57726000	-26.42716000
41.26666439	0.00000000	-11.15896000	-17.18750000
41.46666438	0.00000000	-11.62032000	-6.48991100
41.66666437	0.00000000	-13.53346000	2.74975400
41.86666435	0.00000000	-16.59695000	7.76943800
42.06666434	0.00000000	-19.30364000	7.81250000
42.26666433	0.00000000	-21.71506000	3.21112200
42.46666432	0.00000000	-23.62205000	-4.91510800
42.66666431	0.00000000	-24.78469000	-14.49311000
42.86666430	0.00000000	-24.78469000	-23.32062000
43.06666428	0.00000000	-23.67126000	-28.34030000
43.26666427	0.00000000	-22.13336000	-28.84473000
43.46666426	0.00000000	-20.50935000	-25.73203000
43.66666425	0.00000000	-18.59621000	-19.59892000
43.86666424	0.00000000	-16.64616000	-11.93405000
44.06666422	0.00000000	-15.47736000	-5.37647600
44.26666421	0.00000000	-14.64690000	-1.06422200
44.46666420	0.00000000	-14.27165000	0.51673230
44.66666419	0.00000000	-14.22859000	-0.59670270
44.86666418	0.00000000	-14.22859000	-3.66633800
45.06666416	0.00000000	-14.32087000	-7.98474400
45.26666415	0.00000000	-15.11442000	-12.96137000
45.46666414	0.00000000	-17.05832000	-17.55659000
45.66666413	0.00000000	-19.43897000	-19.88189000
45.86666412	0.00000000	-22.55167000	-19.97416000
46.06666411	0.00000000	-25.99040000	-18.39321000
46.26666409	0.00000000	-28.27879000	-15.36663000
46.46666408	0.00000000	-29.06619000	-11.88484000
46.66666407	0.00000000	-27.86048000	-9.18430000
46.86666406	0.00000000	-24.74163000	-7.14812900
47.06666405	0.00000000	-20.04183000	-6.07160400
47.26666403	0.00000000	-14.22859000	-6.03469500
47.46666402	0.00000000	-8.41535400	-7.60949800
47.66666401	0.00000000	-3.85088600	-9.89173200
47.86666400	0.00000000	-2.03617100	-12.62918000
48.06666399	0.00000000	-4.73671200	-15.32357000
48.26666397	0.00000000	-11.24508000	-17.23056000
48.46666396	0.00000000	-19.38976000	-18.01796000
48.66666395	0.00000000	-27.90354000	-17.23056000
48.86666394	0.00000000	-34.83636000	-15.27436000
49.06666393	0.00000000	-38.28740000	-12.21087000
49.26666392	0.00000000	-37.48769000	-8.72908400
49.46666390	0.00000000	-32.04970000	-6.07160400
49.66666389	0.00000000	-23.24680000	-4.50295200
49.86666388	0.00000000	-13.57652000	-4.95816900
50.06666387	0.00000000	-5.47490100	-7.19734200
50.26666386	0.00000000	-0.45521650	-10.72219000
50.46666384	0.00000000	-0.12918310	-14.53617000
50.66666383	0.00000000	-4.69365100	-18.01796000
50.86666382	-0.15871060	-12.73991000	-19.93110000
51.06666381	0.00000000	-21.62278000	-19.97416000
51.26666380	0.00000000	-29.39837000	-18.39321000
51.46666379	0.00000000	-34.75024000	-15.27436000
51.66666377	0.00000000	-35.86368000	-11.04823000
51.86666376	0.00000000	-32.04970000	-6.82209600
52.06666375	0.00000000	-24.78469000	-3.79552100
52.26666374	0.00000000	-16.36319000	-3.01427100
52.46666373	0.00000000	-9.43651600	-4.87204700
52.66666371	0.00000000	-5.89936000	-7.93553100
52.86666370	0.00000000	-5.89936000	-11.46653000
53.06666369	0.00000000	-9.34424200	-15.27436000
53.26666368	0.00000000	-15.47736000	-17.92569000
53.46666367	0.00000000	-21.99803000	-18.39321000
53.66666365	0.00000000	-27.39296000	-17.27362000
53.86666364	0.00000000	-30.04429000	-15.32357000
54.06666363	0.00000000	-28.93085000	-12.62918000
54.26666362	0.00000000	-24.74163000	-9.98400600
54.46666361	0.00000000	-19.01451000	-8.44611200
54.66666360	0.00000000	-13.61959000	-8.44611200
54.86666358	0.00000000	-10.13164000	-9.93479300
55.06666357	0.00000000	-8.96899500	-12.21087000
55.26666356	0.00000000	-10.54995000	-14.11786000
55.46666355	0.00000000	-14.78223000	-15.23130000
55.66666354	0.00000000	-20.46014000	-14.81299000
55.86666352	0.00000000	-25.47982000	-12.58612000
56.06666351	0.00000000	-28.18651000	-9.93479300
56.26666350	0.00000000	-28.59867000	-7.98474400
56.46666349	0.00000000	-26.27953000	-6.86515700
56.66666348	0.00000000	-22.09030000	-7.28346400
56.86666346	0.00000000	-17.48277000	-9.60875900
57.06666345	0.00000000	-13.57652000	-13.09670000
57.26666344	0.00000000	-11.29429000	-17.32283000
57.46666343	0.00000000	-10.88213000	-21.08760000
57.66666342	0.00000000	-12.82603000	-22.61934000
57.86666341	0.00000000	-16.22785000	-21.46284000
58.06666339	0.00000000	-20.08489000	-17.97490000
58.26666338	0.00000000	-23.16068000	-12.53691000
58.46666337	0.00000000	-24.78469000	-6.44685000
58.66666336	0.00000000	-25.15994000	-1.43946800
58.86666335	0.00000000	-24.36639000	0.84276570
59.06666333	0.00000000	-22.09030000	0.04921259
59.26666332	0.00000000	-19.43897000	-4.21998000
59.46666331	0.00000000	-17.48277000	-11.09744000
59.66666330	0.00000000	-16.27707000	-18.39321000
59.86666329	0.00000000	-15.94488000	-24.20029000
60.06666327	0.00000000	-16.69537000	-27.26993000
60.26666326	0.00000000	-18.59621000	-26.84547000
60.46666325	0.00000000	-20.46014000	-22.57628000
60.66666324	0.00000000	-21.62278000	-15.27436000
60.86666323	0.00000000	-21.62278000	-6.86515700
61.06666322	0.00000000	-20.50935000	0.04921259
61.26666320	0.00000000	-19.01451000	3.53715500
61.46666319	0.00000000	-17.85802000	3.16190900
61.66666318	0.00000000	-17.43356000	-1.06422200
61.86666317	0.00000000	-17.43356000	-7.98474400
62.06666316	0.00000000	-17.85802000	-15.69882000
62.26666314	0.00000000	-19.06373000	-22.66240000
62.46666313	0.00000000	-20.92766000	-27.26993000
62.66666312	0.00000000	-22.82849000	-28.42643000
62.86666311	0.00000000	-23.57899000	-25.68897000
63.06666310	0.00000000	-23.24680000	-19.59892000
63.26666308	0.00000000	-22.04109000	-11.89099000
63.46666307	0.00000000	-20.13410000	-4.91510800
63.66666306	0.00000000	-17.80881000	0.46751960
63.86666305	0.00000000	-15.90182000	2.74360200
64.06666304	0.00000000	-14.73917000	0.88582670
64.26666303	0.00000000	-14.73917000	-3.66633800
64.46666301	0.00000000	-15.94488000	-9.47342500
64.66666300	0.00000000	-18.18405000	-15.28051000
64.86666299	0.00000000	-20.87229000	-19.97416000
65.06666298	0.00000000	-22.41634000	-23.04380000
65.26666297	0.00000000	-23.24680000	-23.82505000
65.46666295	0.00000000	-23.20374000	-21.92421000
65.66666294	0.00000000	-22.09030000	-18.52854000
65.86666293	0.00000000	-20.50935000	-14.58538000
66.06666292	0.00000000	-18.59621000	-10.72219000
66.26666291	0.00000000	-16.73843000	-7.24040300
66.46666289	0.00000000	-16.36319000	-5.29035400
66.66666288	0.00000000	-17.43356000	-4.77977300
66.86666287	0.00000000	-19.01451000	-4.77977300
67.06666286	0.00000000	-20.92766000	-5.24729300
67.26666285	0.00000000	-22.78543000	-6.82209600
67.46666284	0.00000000	-23.16068000	-9.51648500
67.66666282	0.00000000	-22.04109000	-12.62918000
67.86666281	0.00000000	-20.08489000	-15.74188000
68.06666280	0.00000000	-17.39050000	-18.47933000
68.26666279	0.00000000	-14.73917000	-20.43553000
68.46666278	0.00000000	-13.24434000	-21.54897000
68.66666276	0.00000000	-13.61959000	-21.13066000
68.86666275	0.00000000	-15.94488000	-18.81152000
69.06666274	0.00000000	-19.43897000	-15.27436000
69.26666273	0.00000000	-23.71432000	-10.62992000
69.46666272	0.00000000	-27.86048000	-5.66560000
69.66666270	0.00000000	-30.17962000	-2.17765700
69.86666269	0.00000000	-29.76747000	-0.63976370
70.06666268	0.00000000	-27.06078000	-1.43946800
70.26666267	0.00000000	-22.04109000	-4.91510800
70.46666266	0.00000000	-16.27707000	-9.93479300
70.66666265	0.00000000	-11.24508000	-15.74188000
70.86666263	0.00000000	-7.76328700	-21.08760000
71.06666262	0.00000000	-7.05585600	-24.20029000
71.26666261	0.00000000	-9.34424200	-24.61860000
71.46666260	0.00000000	-14.40699000	-22.66855000
71.66666259	0.00000000	-20.92766000	-18.43627000
71.86666257	0.00000000	-27.52830000	-13.09670000
72.06666256	0.00000000	-32.51107000	-8.44611200
72.26666255	0.00000000	-34.83636000	-5.33341500
72.46666254	0.00000000	-33.67372000	-4.17691900
72.66666253	0.00000000	-29.44143000	-5.29035400
72.86666251	0.00000000	-23.29601000	-7.93553100
73.06666250	0.00000000	-16.69537000	-11.04823000
73.26666249	0.00000000	-11.24508000	-14.07480000
73.46666248	0.00000000	-7.43110200	-16.01870000
73.66666247	0.00000000	-6.69291300	-16.06791000
73.86666246	0.00000000	-9.71333600	-15.36663000
74.06666244	0.00000000	-14.69611000	-14.16092000
74.26666243	0.00000000	-20.50935000	-12.67224000
74.46666242	0.00000000	-25.90428000	-11.60187000
74.66666241	0.00000000	-29.44143000	-11.97711000
74.86666240	0.00000000	-30.97318000	-13.83489000
75.06666238	0.00000000	-30.17962000	-15.74188000
75.26666237	0.00000000	-26.74089000	-17.27362000
75.46666236	0.00000000	-22.17643000	-17.97490000
75.66666235	0.00000000	-17.90108000	-16.81225000
75.86666234	0.00000000	-14.82529000	-14.07480000
76.06666232	0.00000000	-13.57652000	-10.25467000
76.26666231	0.00000000	-13.94562000	-6.03469500
76.46666230	0.00000000	-15.06521000	-3.42642700
76.66666229	0.00000000	-17.05832000	-3.01427100
76.86666228	0.00000000	-19.30364000	-5.33341500
77.06666227	0.00000000	-21.24754000	-9.56569900
77.26666225	0.00000000	-22.04109000	-14.62844000
77.46666224	0.00000000	-22.09030000	-20.01722000
77.66666223	0.00000000	-21.71506000	-24.20029000
77.86666222	0.00000000	-20.97072000	-25.73203000
78.06666221	0.00000000	-20.64468000	-24.20029000
78.26666219	0.00000000	-20.97072000	-19.93110000
78.46666218	0.00000000	-21.71506000	-13.79183000
78.66666217	0.00000000	-22.09030000	-7.24040300
78.86666216	0.00000000	-22.09030000	-2.22071800
79.06666215	0.00000000	-21.66585000	0.51673230
79.26666213	0.00000000	-20.46014000	0.51673230
79.46666212	0.00000000	-18.59621000	-2.17765700
79.66666211	0.00000000	-16.64616000	-6.82209600
79.86666210	0.00000000	-15.52657000	-12.62918000
80.06666209	0.00000000	-15.15748000	-18.39321000
80.26666208	0.00000000	-16.32013000	-22.61934000
80.46666206	0.00000000	-18.59621000	-24.20029000
80.66666205	0.00000000	-20.97072000	-23.12992000
80.86666204	0.00000000	-23.67126000	-20.43553000
81.06666203	0.00000000	-25.90428000	-16.90453000
81.26666202	0.00000000	-26.32259000	-12.62918000
81.46666200	0.00000000	-25.20300000	-8.40305000
81.66666199	0.00000000	-23.24680000	-5.29035400
81.86666198	0.00000000	-20.50935000	-3.70939900
82.06666197	0.00000000	-17.48277000	-3.70939900
82.26666196	0.00000000	-15.15748000	-5.15501900
82.46666194	0.00000000	-14.40699000	-7.14197800
82.66666193	0.00000000	-15.15748000	-9.14739100
82.86666192	0.00000000	-17.43356000	-12.29700000
83.06666191	0.00000000	-20.08489000	-15.69882000
83.26666190	0.00000000	-22.04109000	-18.47933000
83.46666189	0.00000000	-23.24680000	-20.43553000
83.66666187	0.00000000	-23.67126000	-21.54897000
83.86666186	0.00000000	-23.67126000	-21.13066000
84.06666185	0.00000000	-23.24680000	-18.81152000
84.26666184	0.00000000	-22.09030000	-15.32357000
84.46666183	0.00000000	-20.64468000	-11.04823000
84.66666181	0.00000000	-19.80807000	-6.82209600
84.86666180	0.00000000	-19.80192000	-3.70939900
85.06666179	0.00000000	-19.76501000	-2.17150600
85.26666178	0.00000000	-20.17716000	-2.63902500
85.46666177	0.00000000	-20.50935000	-5.75172200
85.66666175	0.00000000	-20.50935000	-11.09744000
85.86666174	0.00000000	-20.13410000	-16.85531000
86.06666173	0.00000000	-19.38976000	-21.50590000
86.26666172	0.00000000	-19.06373000	-24.24335000
86.46666171	0.00000000	-19.43897000	-24.61860000
86.66666170	0.00000000	-20.59547000	-22.66855000
86.86666168	0.00000000	-22.09030000	-18.43627000
87.06666167	0.00000000	-23.24680000	-13.09670000
87.26666166	0.00000000	-23.67126000	-8.44611200
87.46666165	0.00000000	-23.67126000	-5.29035400
87.66666164	0.00000000	-23.24680000	-3.80167300
87.86666162	0.00000000	-22.09030000	-4.59522600
88.06666161	0.00000000	-20.55241000	-8.02780400
88.26666160	0.00000000	-19.01451000	-12.58612000
88.46666159	0.00000000	-17.85802000	-16.90453000
88.66666158	0.00000000	-17.48277000	-20.34941000
88.86666156	0.00000000	-17.85802000	-22.24409000
89.06666155	0.00000000	-19.01451000	-21.46284000
89.26666154	0.00000000	-20.55241000	-18.43627000
89.46666153	0.00000000	-22.09030000	-14.21014000
89.66666152	0.00000000	-23.24680000	-9.93479300
89.86666151	0.00000000	-23.67126000	-6.48991100
90.06666149	0.00000000	-23.67126000	-4.59522600
90.26666148	0.00000000	-23.24680000	-5.37647600
90.46666147	0.00000000	-22.09030000	-8.40305000
90.66666146	0.00000000	-20.59547000	-12.58612000
90.86666145	0.00000000	-19.43897000	-16.48622000
91.06666143	0.00000000	-19.01451000	-19.18676000
91.26666142	0.00000000	-18.97145000	-20.66929000
91.46666141	0.00000000	-19.01451000	-19.50664000
91.66666140	0.00000000	-19.38976000	-16.07406000
91.86666139	0.00000000	-20.13410000	-11.83563000
92.06666137	0.00000000	-20.50935000	-7.24040300
92.26666136	0.00000000	-20.55241000	-4.21998000
92.46666135	0.00000000	-20.59547000	-3.80167300
92.66666134	0.00000000	-20.97072000	-5.70866100
92.86666133	0.00000000	-21.71506000	-9.56569900
93.06666132	0.00000000	-22.13336000	-14.16708000
93.26666130	0.00000000	-22.50861000	-18.39321000
93.46666129	0.00000000	-22.87770000	-21.03838000
93.66666128	0.00000000	-22.50861000	-21.03838000
93.86666127	0.00000000	-22.13336000	-18.39321000
94.06666126	0.00000000	-21.62278000	-14.21014000
94.26666124	0.00000000	-20.13410000	-9.98400600
94.46666123	0.00000000	-18.22711000	-6.86515700
94.66666122	0.00000000	-17.05832000	-5.33341500
94.86666121	0.00000000	-16.27707000	-5.75172200
95.06666120	0.00000000	-16.32013000	-8.44611200
95.26666118	0.00000000	-17.48277000	-12.62918000
95.46666117	0.00000000	-19.43897000	-16.85531000
95.66666116	0.00000000	-22.17643000	-19.92495000
95.86666115	0.00000000	-25.20300000	-21.08760000
96.06666114	0.00000000	-27.52830000	-19.97416000
96.26666113	0.00000000	-28.27879000	-17.27977000
96.46666111	0.00000000	-27.57136000	-13.83489000
96.66666110	0.00000000	-25.53518000	-10.35310000
96.86666109	0.00000000	-22.45325000	-8.07086500
97.06666108	0.00000000	-18.22711000	-7.24040300
97.26666107	0.00000000	-14.78223000	-8.02780400
97.46666105	0.00000000	-12.82603000	-9.93479300
97.66666104	0.00000000	-12.46309000	-12.62918000
97.86666103	0.00000000	-14.40699000	-15.27436000
98.06666102	0.00000000	-17.80881000	-16.85531000
98.26666101	0.00000000	-21.71506000	-17.27362000
98.46666099	0.00000000	-25.20300000	-16.85531000
98.66666098	0.00000000	-27.94660000	-15.36663000
98.86666097	0.00000000	-29.48450000	-13.46580000
99.06666096	0.00000000	-29.44143000	-12.29700000
99.26666095	0.00000000	-27.52830000	-11.46653000
99.46666094	0.00000000	-24.08957000	-11.14050000
99.66666092	0.00000000	-20.59547000	-11.42347000
99.86666091	0.00000000	-17.43356000	-11.83563000
100.06666090	0.00000000	-14.78223000	-11.79872000
100.26666089	0.00000000	-13.61959000	-11.83563000
100.46666088	0.00000000	-14.36393000	-11.42347000
100.66666086	0.00000000	-16.27707000	-11.14050000
100.86666085	0.00000000	-19.01451000	-11.51575000
101.06666084	0.00000000	-22.09030000	-12.67224000
101.26666083	0.00000000	-24.82775000	-14.21014000
101.46666082	0.00000000	-26.74089000	-15.74188000
101.66666080	0.00000000	-27.52830000	-16.89837000
101.86666079	0.00000000	-26.78395000	-17.32283000
102.06666078	0.00000000	-25.29527000	-17.27362000
102.26666077	0.00000000	-23.67126000	-16.43701000
102.46666076	0.00000000	-21.71506000	-14.11786000
102.66666075	0.00000000	-19.38976000	-11.09744000
102.86666073	0.00000000	-17.48277000	-8.40305000
103.06666072	0.00000000	-16.32013000	-6.86515700
103.26666071	0.00000000	-16.36319000	-6.86515700
103.46666070	0.00000000	-17.85802000	-8.40305000
103.66666069	0.00000000	-20.13410000	-11.09744000
103.86666067	0.00000000	-22.09030000	-14.21014000
104.06666066	0.00000000	-23.67126000	-17.27977000
104.26666065	0.00000000	-24.82775000	-19.55585000
104.46666064	0.00000000	-25.20300000	-19.97416000
104.66666063	0.00000000	-24.87697000	-18.85458000
104.86666061	0.00000000	-24.04650000	-16.90453000
105.06666060	0.00000000	-22.92076000	-14.16092000
105.26666059	0.00000000	-21.34596000	-11.14050000
105.46666058	0.00000000	-20.22022000	-8.86441900
105.66666057	0.00000000	-19.43897000	-8.48917200
105.86666056	0.00000000	-19.43897000	-9.89173200
106.06666054	0.00000000	-20.17716000	-11.83563000
106.26666053	0.00000000	-20.97072000	-13.42274000
106.46666052	0.00000000	-22.13336000	-15.36663000
106.66666051	0.00000000	-23.24680000	-16.85531000
106.86666050	0.00000000	-23.62205000	-17.23056000
107.06666048	0.00000000	-23.24680000	-16.48622000
107.26666047	0.00000000	-22.13336000	-14.58538000
107.46666046	0.00000000	-21.01993000	-12.72146000
107.66666045	0.00000000	-20.59547000	-11.51575000
107.86666044	0.00000000	-20.55241000	-11.14050000
108.06666042	0.00000000	-20.64468000	-11.51575000
108.26666041	0.00000000	-21.38902000	-12.67224000
108.46666040	0.00000000	-22.87770000	-14.16092000
108.66666039	0.00000000	-23.62205000	-15.32357000
108.86666038	0.00000000	-23.71432000	-15.74188000
109.06666037	0.00000000	-23.67126000	-15.74188000
109.26666035	0.00000000	-23.29601000	-15.32357000
109.46666034	0.00000000	-22.50861000	-14.16092000
109.66666033	0.00000000	-21.71506000	-12.62918000
109.86666032	0.00000000	-20.55241000	-11.09744000
110.06666031	0.00000000	-19.43897000	-9.98400600
110.26666029	0.00000000	-19.06373000	-9.98400600
110.46666028	0.00000000	-19.43897000	-11.09744000
110.66666027	0.00000000	-20.59547000	-12.62918000
110.86666026	0.00000000	-22.09030000	-14.16092000
111.06666025	0.00000000	-23.24680000	-15.32357000
111.26666023	0.00000000	-23.67126000	-15.74188000
111.46666022	0.00000000	-23.67126000	-15.74188000
111.66666021	0.00000000	-23.29601000	-15.36663000
111.86666020	0.00000000	-22.50861000	-14.58538000
112.06666019	0.00000000	-21.75812000	-13.83489000
112.26666018	0.00000000	-20.97072000	-13.04749000
112.46666016	0.00000000	-20.59547000	-12.67224000
112.66666015	0.00000000	-20.55241000	-12.62918000
112.86666014	0.00000000	-20.55241000	-12.62918000
113.06666013	0.00000000	-20.59547000	-12.62918000
113.26666012	0.00000000	-20.97072000	-12.62918000
113.46666010	0.00000000	-21.75812000	-12.62918000
113.66666009	0.00000000	-22.50861000	-12.67224000
113.86666008	0.00000000	-23.24680000	-13.04749000
114.06666007	0.00000000	-23.29601000	-13.79183000
114.26666006	0.00000000	-22.88386000	-14.16708000
114.46666004	0.00000000	-22.54552000	-14.21014000
114.66666003	0.00000000	-21.72121000	-14.25320000
114.86666002	0.00000000	-21.38287000	-14.62844000
115.06666001	0.00000000	-20.92766000	-15.36663000
115.26666000	0.00000000	-20.59547000	-15.69267000
115.46665999	0.00000000	-20.59547000	-15.36663000
115.66665997	0.00000000	-20.97072000	-14.58538000
115.86665996	0.00000000	-21.71506000	-13.83489000
116.06665995	0.00000000	-22.13336000	-13.04749000
116.26665994	0.00000000	-22.55167000	-12.62918000
116.46665993	0.00000000	-23.29601000	-12.21087000
116.66665991	0.00000000	-23.67126000	-11.51575000
116.86665990	0.00000000	-23.71432000	-11.55881000
117.06665989	0.00000000	-23.67126000	-12.62918000
117.26665988	0.00000000	-23.24680000	-13.79183000
117.46665987	0.00000000	-22.13336000	-14.58538000
117.66665985	0.00000000	-21.01993000	-15.36663000
117.86665984	0.00000000	-20.59547000	-15.74188000
118.06665983	0.00000000	-20.55241000	-15.78494000
118.26665982	0.00000000	-20.59547000	-15.74188000
118.46665981	0.00000000	-21.01993000	-15.36663000
118.66665980	0.00000000	-22.13336000	-14.58538000
118.86665978	0.00000000	-23.29601000	-13.83489000
119.06665977	0.00000000	-24.08957000	-13.04749000
119.26665976	0.00000000	-24.87697000	-12.67224000
119.46665975	0.00000000	-25.20300000	-12.62918000
119.66665974	0.00000000	-24.87697000	-12.62918000
119.86665972	0.00000000	-24.08957000	-12.62918000
120.06665971	0.00000000	-23.29601000	-12.67224000
120.26665970	0.00000000	-22.09030000	-13.04749000
120.46665969	0.00000000	-20.59547000	-13.79183000
120.66665968	0.00000000	-19.48204000	-14.16708000
120.86665966	0.00000000	-19.43897000	-14.25320000
121.06665965	0.00000000	-20.17716000	-14.58538000
121.26665964	0.00000000	-20.97072000	-14.94833000
121.46665963	0.00000000	-22.17643000	-14.62844000
121.66665962	0.00000000	-23.67126000	-14.62844000
121.86665961	0.00000000	-24.82775000	-14.94833000
122.06665959	0.00000000	-25.25221000	-14.58538000
122.26665958	0.00000000	-25.25221000	-14.21014000
122.46665957	0.00000000	-24.87697000	-13.79183000
122.66665956	0.00000000	-24.08957000	-13.04749000
122.86665955	0.00000000	-23.33907000	-12.67224000
123.06665953	0.00000000	-22.46555000	-12.62918000
123.26665952	0.00000000	-21.38287000	-12.62918000
123.46665951	0.00000000	-20.23253000	-12.67224000
123.66665950	0.00000000	-20.22022000	-13.04749000
123.86665949	0.00000000	-20.55241000	-13.79183000
124.06665947	0.00000000	-20.97072000	-14.21014000
124.26665946	0.00000000	-21.75812000	-14.62844000
124.46665945	0.00000000	-22.50861000	-15.32357000
124.66665944	0.00000000	-23.29601000	-15.32357000
124.86665943	0.00000000	-23.71432000	-14.62844000
125.06665942	0.00000000	-24.13263000	-14.21014000
125.26665940	0.00000000	-24.82775000	-13.79183000
125.46665939	0.00000000	-24.82775000	-13.04749000
125.66665938	0.00000000	-24.08957000	-12.67224000
125.86665937	0.00000000	-23.33907000	-12.62918000
126.06665936	0.00000000	-22.50861000	-12.58612000
126.26665934	0.00000000	-21.75812000	-12.25394000
126.46665933	0.00000000	-20.97072000	-11.88484000
126.66665932	0.00000000	-20.59547000	-12.29700000
126.86665931	0.00000000	-20.59547000	-13.00443000
127.06665930	0.00000000	-21.01993000	-13.79183000
127.26665928	0.00000000	-22.13336000	-14.16708000
127.46665927	0.00000000	-23.24680000	-14.21014000
127.66665926	0.00000000	-23.71432000	-14.21014000
127.86665925	0.00000000	-24.08957000	-14.16708000
128.06665924	0.00000000	-24.45866000	-13.79183000
128.26665923	0.00000000	-24.04650000	-13.04749000
128.46665921	0.00000000	-23.33907000	-12.67224000
128.66665920	0.00000000	-22.50861000	-12.62918000
128.86665919	0.00000000	-21.71506000	-12.62918000
129.06665918	0.00000000	-20.64468000	-12.67224000
129.26665917	0.00000000	-20.27559000	-13.04749000
129.46665915	0.00000000	-21.38287000	-13.79183000
129.66665914	0.00000000	-22.46555000	-14.16708000
129.86665913	0.00000000	-23.29601000	-14.25320000
130.06665912	0.00000000	-23.71432000	-14.58538000
130.26665911	0.00000000	-24.13263000	-14.94833000
130.46665909	0.00000000	-24.82775000	-14.58538000
130.66665908	0.00000000	-24.82775000	-14.21014000
130.86665907	0.00000000	-24.08957000	-13.79183000
131.06665906	0.00000000	-23.29601000	-13.09670000
131.26665905	0.00000000	-22.13336000	-13.09670000
131.46665904	0.00000000	-21.01993000	-13.79183000
131.66665902	0.00000000	-20.64468000	-14.21014000
131.86665901	0.00000000	-20.97072000	-14.62844000
132.06665900	0.00000000	-21.75812000	-15.36663000
132.26665899	0.00000000	-22.55167000	-15.74188000
132.46665898	0.00000000	-23.67126000	-15.74188000
132.66665896	0.00000000	-24.40945000	-15.36663000
132.86665895	0.00000000	-24.08957000	-14.58538000
133.06665894	0.00000000	-23.75738000	-13.83489000
133.26665893	0.00000000	-23.71432000	-13.04749000
133.46665892	0.00000000	-23.67126000	-12.67224000
133.66665890	0.00000000	-23.29601000	-12.62918000
133.86665889	0.00000000	-22.55167000	-12.62918000
134.06665888	0.00000000	-22.22564000	-12.67224000
134.26665887	0.00000000	-22.55167000	-13.04749000
134.46665886	0.00000000	-23.29601000	-13.83489000
134.66665885	0.00000000	-23.67126000	-14.58538000
134.86665883	0.00000000	-23.71432000	-15.36663000
135.06665882	0.00000000	-23.67126000	-15.74188000
135.26665881	0.00000000	-23.29601000	-15.74188000
135.46665880	0.00000000	-22.55167000	-15.36663000
135.66665879	0.00000000	-22.17643000	-14.58538000
135.86665877	0.00000000	-22.17643000	-13.83489000
136.06665876	0.00000000	-22.55167000	-13.04749000
136.26665875	0.00000000	-23.29601000	-12.67224000
136.46665874	0.00000000	-23.67126000	-12.62918000
136.66665873	0.00000000	-23.75738000	-12.62918000
136.86665871	0.00000000	-24.08957000	-12.67224000
137.06665870	0.00000000	-24.45866000	-13.04749000
137.26665869	0.00000000	-24.08957000	-13.83489000
137.46665868	0.00000000	-23.67126000	-14.53617000
137.66665867	0.00000000	-22.92076000	-14.99139000
137.86665866	0.00000000	-21.81348000	-15.00369000
138.06665864	0.00000000	-21.80118000	-15.40969000
138.26665863	0.00000000	-22.13336000	-15.74188000
138.46665862	0.00000000	-22.55167000	-15.74188000
138.66665861	0.00000000	-23.29601000	-15.36663000
138.86665860	0.00000000	-23.71432000	-14.62844000
139.06665858	0.00000000	-24.13263000	-14.21014000
139.26665857	0.00000000	-24.82775000	-13.79183000
139.46665856	0.00000000	-24.82775000	-13.04749000
139.66665855	0.00000000	-24.13263000	-12.67224000
139.86665854	0.00000000	-23.71432000	-12.62918000
140.06665852	0.00000000	-23.29601000	-12.67224000
140.26665851	0.00000000	-22.55167000	-13.04749000
140.46665850	0.00000000	-22.17643000	-13.83489000
140.66665849	0.00000000	-22.13336000	-14.58538000
140.86665848	0.00000000	-22.17643000	-15.36663000
141.06665847	0.00000000	-22.55167000	-15.74188000
141.26665845	0.00000000	-23.29601000	-15.78494000
141.46665844	0.00000000	-23.67126000	-15.74188000
141.66665843	0.00000000	-23.71432000	-15.32357000
141.86665842	0.00000000	-23.71432000	-14.21014000
142.06665841	0.00000000	-23.71432000	-13.04749000
142.26665839	0.00000000	-23.67126000	-12.29700000
142.46665838	0.00000000	-23.29601000	-11.88484000
142.66665837	0.00000000	-22.55167000	-12.25394000
142.86665836	0.00000000	-22.17643000	-12.62918000
143.06665835	0.00000000	-22.17643000	-13.09670000
143.26665834	0.00000000	-22.55167000	-14.21014000
143.46665832	0.00000000	-23.29601000	-15.32357000
143.66665831	0.00000000	-23.67126000	-15.74188000
143.86665830	0.00000000	-23.71432000	-15.78494000
144.06665829	0.00000000	-23.71432000	-15.74188000
144.26665828	0.00000000	-23.71432000	-15.36663000
144.46665826	0.00000000	-23.71432000	-14.58538000
144.66665825	0.00000000	-23.67126000	-13.83489000
144.86665824	0.00000000	-23.29601000	-13.04749000
145.06665823	0.00000000	-22.60088000	-12.67224000
145.26665822	0.00000000	-22.60088000	-12.62918000
145.46665820	0.00000000	-23.29601000	-12.67224000
145.66665819	0.00000000	-23.67126000	-13.09670000
145.86665818	0.00000000	-23.71432000	-14.21014000
146.06665817	0.00000000	-23.71432000	-15.32357000
146.26665816	0.00000000	-23.71432000	-15.74188000
146.46665815	0.00000000	-23.67126000	-15.74188000
146.66665813	0.00000000	-23.33907000	-15.40969000
146.86665812	0.00000000	-22.92692000	-15.00369000
147.06665811	0.00000000	-22.92076000	-14.99139000
147.26665810	0.00000000	-22.50861000	-14.58538000
147.46665809	0.00000000	-22.22564000	-14.25320000
147.66665807	0.00000000	-22.55167000	-14.21014000
147.86665806	0.00000000	-23.29601000	-14.21014000
148.06665805	0.00000000	-23.71432000	-14.21014000
148.26665804	0.00000000	-24.13263000	-14.21014000
148.46665803	0.00000000	-24.87697000	-14.21014000
148.66665801	0.00000000	-25.20300000	-14.21014000
148.86665800	0.00000000	-24.87697000	-14.21014000
149.06665799	0.00000000	-24.13263000	-14.25320000
149.26665798	0.00000000	-23.75738000	-14.62844000
149.46665797	0.00000000	-23.71432000	-15.36663000
149.66665796	0.00000000	-23.71432000	-15.69267000
149.86665794	0.00000000	-23.71432000	-15.40969000
150.06665793	0.00000000	-23.71432000	-15.00369000
150.26665792	0.00000000	-23.71432000	-14.99139000
150.46665791	0.00000000	-23.71432000	-14.58538000
150.66665790	0.00000000	-23.75738000	-14.25320000
150.86665788	0.00000000	-24.13263000	-14.21014000
151.06665787	0.00000000	-24.87697000	-14.21014000
151.26665786	0.00000000	-25.25221000	-14.21014000
151.46665785	0.00000000	-25.29527000	-14.21014000
151.66665784	0.00000000	-25.25221000	-14.25320000
151.86665782	0.00000000	-24.87697000	-14.62844000
152.06665781	0.00000000	-24.13263000	-15.36663000
152.26665780	0.00000000	-23.75738000	-15.74188000
152.46665779	0.00000000	-23.71432000	-15.74188000
152.66665778	0.00000000	-23.71432000	-15.36663000
152.86665777	0.00000000	-23.71432000	-14.62844000
153.06665775	0.00000000	-23.71432000	-14.25320000
153.26665774	0.00000000	-23.71432000	-14.21014000
153.46665773	0.00000000	-23.71432000	-14.21014000
153.66665772	0.00000000	-23.75738000	-14.21014000
153.86665771	0.00000000	-24.13263000	-14.21014000
154.06665769	0.00000000	-24.87697000	-14.21014000
154.26665768	0.00000000	-25.25221000	-14.21014000
154.46665767	0.00000000	-25.29527000	-14.21014000
154.66665766	0.00000000	-25.25221000	-14.21014000
154.86665765	0.00000000	-24.87697000	-14.21014000
155.06665763	0.00000000	-24.13263000	-14.21014000
155.26665762	0.00000000	-23.75738000	-14.21014000
155.46665761	0.00000000	-23.71432000	-14.21014000
155.66665760	0.00000000	-23.71432000	-14.21014000
155.86665759	0.00000000	-23.71432000	-14.21014000
156.06665758	0.00000000	-23.71432000	-14.21014000
156.26665756	0.00000000	-23.71432000	-14.21014000
156.46665755	0.00000000	-23.75738000	-14.21014000
156.66665754	0.00000000	-24.13263000	-14.16708000
156.86665753	0.00000000	-24.87697000	-13.79183000
157.06665752	0.00000000	-25.25221000	-13.04749000
157.26665750	0.00000000	-25.29527000	-12.67224000
157.46665749	0.00000000	-25.29527000	-12.67224000
157.66665748	0.00000000	-25.25221000	-13.04749000
157.86665747	0.00000000	-24.87697000	-13.79183000
158.06665746	0.00000000	-24.13263000	-14.16708000
158.26665744	0.00000000	-23.75738000	-14.25320000
158.46665743	0.00000000	-23.71432000	-14.62844000
158.66665742	0.00000000	-23.71432000	-15.32357000
158.86665741	0.00000000	-23.71432000	-15.32357000
159.06665740	0.00000000	-23.71432000	-14.62844000
159.26665739	0.00000000	-23.75738000	-14.25320000
159.46665737	0.00000000	-24.13263000	-14.21014000
159.66665736	0.00000000	-24.87697000	-14.21014000
159.86665735	0.00000000	-25.25221000	-14.21014000
160.06665734	0.00000000	-25.29527000	-14.21014000
160.26665733	0.00000000	-25.29527000	-14.21014000
160.46665731	0.00000000	-25.25221000	-14.21014000
160.66665730	0.00000000	-24.92003000	-14.21014000
160.86665729	0.00000000	-24.50787000	-14.25320000
161.06665728	0.00000000	-24.50172000	-14.58538000
161.26665727	0.00000000	-24.13263000	-14.94833000
161.46665725	0.00000000	-24.13263000	-14.62844000
161.66665724	0.00000000	-24.50172000	-14.67150000
161.86665723	0.00000000	-24.46481000	-15.32357000
162.06665722	0.00000000	-24.50172000	-15.32357000
162.26665721	0.00000000	-24.08957000	-14.62844000
162.46665720	0.00000000	-23.75738000	-14.25320000
162.66665718	0.00000000	-23.75738000	-14.21014000
162.86665717	0.00000000	-24.13263000	-14.21014000
163.06665716	0.00000000	-24.87697000	-14.21014000
163.26665715	0.00000000	-25.25221000	-14.21014000
163.46665714	0.00000000	-25.29527000	-14.25320000
163.66665712	0.00000000	-25.29527000	-14.62844000
163.86665711	0.00000000	-25.29527000	-15.36663000
164.06665710	0.00000000	-25.29527000	-15.74188000
164.26665709	0.00000000	-25.29527000	-15.78494000
164.46665708	0.00000000	-25.25221000	-15.78494000
164.66665706	0.00000000	-24.87697000	-15.78494000
164.86665705	0.00000000	-24.13263000	-15.78494000
165.06665704	0.00000000	-23.75738000	-15.78494000
165.26665703	0.00000000	-23.71432000	-15.74188000
165.46665702	0.00000000	-23.75738000	-15.40969000
165.66665701	0.00000000	-24.13263000	-15.04675000
165.86665699	0.00000000	-24.87697000	-15.40969000
166.06665698	0.00000000	-25.25221000	-15.74188000
166.26665697	0.00000000	-25.29527000	-15.78494000
166.46665696	0.00000000	-25.29527000	-15.74188000
166.66665695	0.00000000	-25.29527000	-15.36663000
166.86665693	0.00000000	-25.29527000	-14.67150000
167.06665692	0.00000000	-25.29527000	-14.62844000
167.26665691	0.00000000	-25.29527000	-14.99139000
167.46665690	0.00000000	-25.29527000	-15.00369000
167.66665689	0.00000000	-25.29527000	-15.36663000
167.86665687	0.00000000	-25.25221000	-15.36663000
168.06665686	0.00000000	-24.92003000	-15.04675000
168.26665685	0.00000000	-24.55093000	-15.40969000
168.46665684	0.00000000	-24.92003000	-15.69267000
168.66665683	0.00000000	-25.25221000	-15.36663000
168.86665682	0.00000000	-25.29527000	-14.62844000
169.06665680	0.00000000	-25.29527000	-14.30241000
169.26665679	0.00000000	-25.29527000	-14.58538000
169.46665678	0.00000000	-25.25221000	-14.94833000
169.66665677	0.00000000	-24.92003000	-14.58538000
169.86665676	0.00000000	-24.55093000	-14.25320000
170.06665674	0.00000000	-24.92003000	-14.21014000
170.26665673	0.00000000	-25.25221000	-14.21014000
170.46665672	0.00000000	-25.25221000	-14.21014000
170.66665671	0.00000000	-24.92003000	-14.21014000
170.86665670	0.00000000	-24.55093000	-14.21014000
171.06665668	0.00000000	-24.87697000	-14.21014000
171.26665667	0.00000000	-24.87697000	-14.21014000
171.46665666	0.00000000	-24.55093000	-14.21014000
171.66665665	0.00000000	-24.87697000	-14.21014000
171.86665664	0.00000000	-24.87697000	-14.21014000
172.06665663	0.00000000	-24.55093000	-14.21014000
172.26665661	0.00000000	-24.87697000	-14.21014000
172.46665660	0.00000000	-24.87697000	-14.21014000
172.66665659	0.00000000	-24.55093000	-14.21014000
172.86665658	0.00000000	-24.92003000	-14.21014000
173.06665657	0.00000000	-25.25221000	-14.21014000
173.26665655	0.00000000	-25.29527000	-14.21014000
173.46665654	0.00000000	-25.29527000	-14.21014000
173.66665653	0.00000000	-25.29527000	-14.21014000
173.86665652	0.00000000	-25.29527000	-14.21014000
174.06665651	0.00000000	-25.29527000	-14.21014000
174.26665649	0.00000000	-25.29527000	-14.21014000
174.46665648	0.00000000	-25.29527000	-14.25320000
174.66665647	0.00000000	-25.29527000	-14.62844000
174.86665646	0.00000000	-25.29527000	-15.32357000
175.06665645	0.00000000	-25.29527000	-15.36663000
175.26665644	0.00000000	-25.29527000	-15.00369000
175.46665642	0.00000000	-25.29527000	-14.99139000
175.66665641	0.00000000	-25.29527000	-14.58538000
175.86665640	0.00000000	-25.29527000	-14.25320000
176.06665639	0.00000000	-25.29527000	-14.21014000
176.26665638	0.00000000	-25.29527000	-14.25320000
176.46665636	0.00000000	-25.29527000	-14.58538000
176.66665635	0.00000000	-25.29527000	-14.99139000
176.86665634	0.00000000	-25.29527000	-15.00369000
177.06665633	0.00000000	-25.29527000	-15.40969000
177.26665632	0.00000000	-25.29527000	-15.74188000
177.46665630	0.00000000	-25.29527000	-15.78494000
177.66665629	0.00000000	-25.29527000	-15.78494000
177.86665628	0.00000000	-25.29527000	-15.78494000
178.06665627	0.00000000	-25.29527000	-15.78494000
178.26665626	0.00000000	-25.29527000	-15.78494000
178.46665625	0.00000000	-25.29527000	-15.74188000
178.66665623	0.00000000	-25.29527000	-15.40969000
178.86665622	0.00000000	-25.29527000	-15.04675000
179.06665621	0.00000000	-25.29527000	-15.40969000
179.26665620	0.00000000	-25.29527000	-15.74188000
179.46665619	0.00000000	-25.29527000	-15.78494000
179.66665617	0.00000000	-25.29527000	-15.78494000
179.86665616	0.00000000	-25.29527000	-15.78494000
180.06665615	0.00000000	-25.29527000	-15.78494000
180.26665614	0.00000000	-25.29527000	-15.78494000
180.46665613	0.00000000	-25.29527000	-15.78494000
180.66665611	0.00000000	-25.29527000	-15.78494000
180.86665610	0.00000000	-25.29527000	-15.78494000
181.06665609	0.00000000	-25.29527000	-15.78494000
181.26665608	0.00000000	-25.29527000	-15.78494000
181.46665607	0.00000000	-25.29527000	-15.74188000
181.66665606	0.00000000	-25.29527000	-15.36663000
181.86665604	0.00000000	-25.29527000	-14.62844000
182.06665603	0.00000000	-25.29527000	-14.25320000
182.26665602	0.00000000	-25.29527000	-14.25320000
182.46665601	0.00000000	-25.29527000	-14.62844000
182.66665600	0.00000000	-25.29527000	-15.36663000
182.86665598	0.00000000	-25.29527000	-15.74188000
183.06665597	0.00000000	-25.29527000	-15.78494000
183.26665596	0.00000000	-25.29527000	-15.78494000
183.46665595	0.00000000	-25.29527000	-15.78494000
183.66665594	0.00000000	-25.29527000	-15.78494000
183.86665592	0.00000000	-25.33834000	-15.74188000
184.06665591	0.00000000	-25.67052000	-15.36663000
184.26665590	0.00000000	-26.03961000	-14.62844000
184.46665589	0.00000000	-25.67052000	-14.25320000
184.66665588	0.00000000	-25.33834000	-14.21014000
184.86665587	0.00000000	-25.29527000	-14.21014000
185.06665585	0.00000000	-25.29527000	-14.21014000
185.26665584	0.00000000	-25.29527000	-14.21014000
185.46665583	0.00000000	-25.29527000	-14.25320000
185.66665582	0.00000000	-25.29527000	-14.62844000
185.86665581	0.00000000	-25.29527000	-15.36663000
186.06665579	0.00000000	-25.29527000	-15.74188000
186.26665578	0.00000000	-25.29527000	-15.78494000
186.46665577	0.00000000	-25.29527000	-15.78494000
186.66665576	0.00000000	-25.29527000	-15.78494000
186.86665575	0.00000000	-25.33834000	-15.74188000
187.06665573	0.00000000	-25.71358000	-15.36663000
187.26665572	0.00000000	-26.40871000	-14.62844000
187.46665571	0.00000000	-26.45792000	-14.25320000
187.66665570	0.00000000	-26.13189000	-14.21014000
187.86665569	0.00000000	-26.45792000	-14.21014000
188.06665568	0.00000000	-26.40871000	-14.21014000
188.26665566	0.00000000	-25.71358000	-14.25320000
188.46665565	0.00000000	-25.33834000	-14.58538000
188.66665564	0.00000000	-25.29527000	-14.99139000
188.86665563	0.00000000	-25.29527000	-15.00369000
189.06665562	0.00000000	-25.29527000	-15.40969000
189.26665560	0.00000000	-25.29527000	-15.74188000
189.46665559	0.00000000	-25.29527000	-15.78494000
189.66665558	0.00000000	-25.29527000	-15.78494000
189.86665557	0.00000000	-25.29527000	-15.74188000
190.06665556	0.00000000	-25.29527000	-15.36663000
190.26665554	0.00000000	-25.29527000	-14.62844000
190.46665553	0.00000000	-25.29527000	-14.25320000
190.66665552	0.00000000	-25.29527000	-14.21014000
190.86665551	0.00000000	-25.29527000	-14.21014000
191.06665550	0.00000000	-25.29527000	-14.25320000
191.26665549	0.00000000	-25.33834000	-14.62844000
191.46665547	0.00000000	-25.71358000	-15.36663000
191.66665546	0.00000000	-26.40871000	-15.74188000
191.86665545	0.00000000	-26.40871000	-15.78494000
192.06665544	0.00000000	-25.71358000	-15.78494000
192.26665543	0.00000000	-25.33834000	-15.82800000
192.46665541	0.00000000	-25.33834000	-16.16018000
192.66665540	0.00000000	-25.67052000	-16.52928000
192.86665539	0.00000000	-26.12574000	-16.20325000
193.06665538	0.00000000	-26.50713000	-16.20325000
193.26665537	0.00000000	-27.62057000	-16.57234000
193.46665535	0.00000000	-27.94660000	-16.53543000
193.66665534	0.00000000	-27.29453000	-16.57234000
193.86665533	0.00000000	-26.87623000	-16.16018000
194.06665532	0.00000000	-26.45792000	-15.82800000
194.26665531	0.00000000	-25.76279000	-15.78494000
194.46665530	0.00000000	-25.71358000	-15.78494000
194.66665528	0.00000000	-26.08268000	-15.78494000
194.86665527	0.00000000	-26.04577000	-15.78494000
195.06665526	0.00000000	-26.12574000	-15.78494000
195.26665525	0.00000000	-26.08883000	-15.78494000
195.46665524	0.00000000	-26.50098000	-15.78494000
195.66665522	0.00000000	-26.83317000	-15.78494000
195.86665521	0.00000000	-26.87623000	-15.78494000
196.06665520	0.00000000	-26.87623000	-15.78494000
