Time	Channel A	Channel B	Channel C
(us)	(V)	(mV)	(mV)

-4.59999956	0.00000000	-14.18553000	-9.09817800
-4.39999957	0.00000000	-13.81028000	-9.43036400
-4.19999958	0.00000000	-13.11516000	-9.47342500
-3.99999959	0.00000000	-13.11516000	-9.47342500
-3.79999960	0.00000000	-13.81028000	-9.47342500
-3.59999962	0.00000000	-14.18553000	-9.47342500
-3.39999963	0.00000000	-14.22859000	-9.47342500
-3.19999964	0.00000000	-14.22859000	-9.47342500
-2.99999965	0.00000000	-14.22859000	-9.47342500
-2.79999966	0.00000000	-14.22859000	-9.47342500
-2.59999968	0.00000000	-14.22859000	-9.47342500
-2.39999969	0.00000000	-14.22859000	-9.47342500
-2.19999970	0.00000000	-14.22859000	-9.47342500
-1.99999971	0.00000000	-14.22859000	-9.47342500
-1.79999972	0.00000000	-14.22859000	-9.47342500
-1.59999973	0.00000000	-14.18553000	-9.43036400
-1.39999975	0.00000000	-13.85334000	-9.09817800
-1.19999976	0.00000000	-13.48425000	-8.72908400
-0.99999977	0.00000000	-13.85334000	-9.09817800
-0.79999978	0.00000000	-14.13632000	-9.43036400
-0.59999979	0.00000000	-13.85334000	-9.47342500
-0.39999981	0.15871060	-13.48425000	-9.47342500
-0.19999982	0.47736220	-13.85334000	-9.47342500
0.00000017	0.79601380	-14.18553000	-9.47342500
0.20000016	0.95533960	-14.22859000	-9.47342500
0.40000015	0.95533960	-14.22859000	-9.47342500
0.60000013	0.47736220	-14.22859000	-9.47342500
0.80000012	-0.31803640	-14.22859000	-9.47342500
1.00000011	-1.27399100	-14.22859000	-9.47342500
1.20000010	-2.22994600	-14.22859000	-9.43036400
1.40000009	-2.70792300	-14.22859000	-9.05511800
1.60000008	-2.54859700	-14.22859000	-8.35998900
1.80000006	-1.59264300	-14.18553000	-8.31077700
2.00000005	0.00000000	-13.85334000	-8.63681000
2.20000004	2.22994600	-13.48425000	-8.31077700
2.40000003	3.98191400	-13.85334000	-8.35998900
2.60000002	5.25652100	-14.18553000	-9.05511800
2.80000000	5.09719500	-14.22859000	-9.43036400
2.99999999	3.50393700	-14.22859000	-9.47342500
3.19999998	0.79601380	-14.22859000	-9.47342500
3.39999997	-2.70792300	-14.22859000	-9.47342500
3.59999996	-5.73449800	-14.22859000	-9.43036400
3.79999994	-7.64579200	-14.22859000	-9.05511800
3.99999993	-7.80511800	-14.22859000	-8.31077700
4.19999992	-5.73449800	-14.22859000	-7.93553100
4.39999991	-2.22994600	-14.18553000	-7.89247000
4.59999990	2.22994600	-13.85334000	-7.89247000
4.79999989	6.37180100	-13.48425000	-7.93553100
4.99999987	8.92039900	-13.85334000	-8.31077700
5.19999986	9.39837600	-14.18553000	-9.05511800
5.39999985	7.48646600	-14.22859000	-9.43036400
5.59999984	3.66326300	-14.22859000	-9.47342500
5.79999983	-1.11466500	-14.22859000	-9.47342500
5.99999981	-5.73449800	-14.22859000	-9.47342500
6.19999980	-8.60174700	-14.22859000	-9.43036400
6.39999979	-9.39837600	-14.22859000	-9.05511800
6.59999978	-7.96444400	-14.18553000	-8.31077700
6.79999977	-4.45989200	-13.85334000	-7.93553100
6.99999975	0.00000000	-13.48425000	-7.93553100
7.19999974	3.98191400	-13.85334000	-8.31077700
7.39999973	6.84916400	-14.13632000	-9.05511800
7.59999972	7.80511800	-13.85334000	-9.43036400
7.79999971	6.84916400	-13.48425000	-9.47342500
7.99999970	4.14124000	-13.81028000	-9.47342500
8.19999968	0.95533960	-13.81028000	-9.47342500
8.39999967	-2.07062000	-13.48425000	-9.47342500
8.59999966	-4.30056600	-13.85334000	-9.47342500
8.79999965	-5.25652100	-14.18553000	-9.47342500
8.99999964	-4.61921700	-14.22859000	-9.47342500
9.19999962	-3.18590100	-14.22859000	-9.43036400
9.39999961	-1.11466500	-14.22859000	-9.09817800
9.59999960	0.63668800	-14.22859000	-8.72908400
9.79999959	1.91129400	-14.22859000	-9.09817800
9.99999958	2.54859700	-14.22859000	-9.43036400
10.19999956	2.38927200	-14.22859000	-9.43036400
10.39999955	1.59264300	-14.22859000	-9.09817800
10.59999954	0.79601380	-14.22859000	-8.72908400
10.79999953	0.00000000	-14.22859000	-9.09817800
10.99999952	-0.63668800	-14.22859000	-9.43036400
11.19999951	-0.95533960	-14.22859000	-9.47342500
11.39999949	-0.95533960	-14.22859000	-9.47342500
11.59999948	-0.79601380	-14.22859000	-9.47342500
11.79999947	-0.47736220	-14.22859000	-9.47342500
11.99999946	-0.15871060	-14.22859000	-9.47342500
12.19999945	-0.15871060	-14.22859000	-9.47342500
12.39999943	-0.15871060	-14.22859000	-9.47342500
12.59999942	0.00000000	-14.22859000	-9.47342500
12.79999941	0.00000000	-14.18553000	-9.47342500
12.99999940	0.00000000	-13.85334000	-9.47342500
13.19999939	0.00000000	-13.48425000	-9.47342500
13.39999937	0.00000000	-13.85334000	-9.47342500
13.59999936	0.00000000	-14.18553000	-9.47342500
13.79999935	0.00000000	-14.22859000	-9.47342500
13.99999934	-0.15871060	-14.22859000	-9.47342500
14.19999933	-0.15871060	-14.22859000	-9.43036400
14.39999932	-0.15871060	-14.22859000	-9.09817800
14.59999930	0.00000000	-14.22859000	-8.72908400
14.79999929	0.00000000	-14.22859000	-9.09817800
14.99999928	0.00000000	-14.22859000	-9.43036400
15.19999927	0.00000000	-14.22859000	-9.47342500
15.39999926	0.00000000	-14.22859000	-9.47342500
15.59999924	0.00000000	-14.22859000	-9.47342500
15.79999923	0.00000000	-14.22859000	-9.47342500
15.99999922	0.00000000	-14.22859000	-9.47342500
16.19999921	0.00000000	-14.22859000	-9.47342500
16.39999920	0.00000000	-14.18553000	-9.47342500
16.59999919	-0.15871060	-13.81028000	-9.47342500
16.79999917	-0.15871060	-13.06594000	-9.47342500
16.99999916	0.00000000	-12.69070000	-9.47342500
17.19999915	0.00000000	-12.60458000	-9.43036400
17.39999914	0.00000000	-12.27239000	-9.09817800
17.59999913	0.00000000	-11.90330000	-8.72908400
17.79999911	0.00000000	-12.31545000	-9.09817800
17.99999910	0.00000000	-13.06594000	-9.43036400
18.19999909	0.00000000	-14.27165000	-9.47342500
18.39999908	0.00000000	-15.80955000	-9.47342500
18.59999907	0.00000000	-17.34744000	-9.47342500
18.79999905	0.00000000	-18.50394000	-9.47342500
18.99999904	0.00000000	-18.83612000	-9.47342500
19.19999903	0.00000000	-18.04257000	-9.47342500
19.39999902	0.00000000	-15.71727000	-9.47342500
19.59999901	0.00000000	-12.60458000	-9.47342500
19.79999900	0.00000000	-9.06742000	-9.47342500
19.99999898	0.00000000	-5.25344500	-9.47342500
20.19999897	0.00000000	-2.60211600	-9.47342500
20.39999896	0.00000000	-2.26993100	-9.47342500
20.59999895	0.00000000	-4.64443900	-9.47342500
20.79999894	0.00000000	-10.08243000	-9.47342500
20.99999892	0.00000000	-17.39050000	-9.47342500
21.19999891	0.00000000	-24.78469000	-9.47342500
21.39999890	0.00000000	-30.93012000	-9.47342500
21.59999889	0.00000000	-34.32578000	-9.47342500
21.79999888	0.00000000	-33.07701000	-9.47342500
21.99999886	0.00000000	-26.88238000	-9.51648500
22.19999885	0.00000000	-16.74459000	-9.84867000
22.39999884	0.00000000	-4.41067900	-10.21161000
22.59999883	0.00000000	7.53567900	-9.79945900
22.79999882	0.00000000	15.54503000	-9.14124000
22.99999881	0.00000000	17.45202000	-8.68602300
23.19999879	0.00000000	11.96481000	-8.67987200
23.39999878	0.00000000	-0.03690945	-8.26771600
23.59999877	0.00000000	-16.32013000	-7.89247000
23.79999876	0.00000000	-33.72293000	-7.47416300
23.99999875	0.00000000	-48.33292000	-6.77903500
24.19999873	0.00000000	-56.33612000	-6.82209600
24.39999872	0.00000000	-54.71210000	-7.93553100
24.59999871	0.00000000	-43.07948000	-9.47342500
24.79999870	0.00000000	-23.76968000	-11.04823000
24.99999869	0.00000000	-1.02116100	-12.58612000
25.19999867	0.00000000	19.45128000	-13.74262000
25.39999866	0.00000000	32.94783000	-14.11786000
25.59999865	0.00000000	36.38656000	-13.69956000
25.79999864	0.00000000	28.24803000	-12.07554000
25.99999863	0.00000000	10.47613000	-8.96284400
26.19999862	0.00000000	-13.15822000	-4.73671200
26.39999860	0.00000000	-37.81988000	-0.51058070
26.59999859	0.00000000	-57.45570000	2.51599400
26.79999858	0.00000000	-66.76304000	3.25418300
26.99999857	0.00000000	-64.06249000	0.89197830
27.19999856	0.00000000	-50.14764000	-4.12770700
27.39999854	0.00000000	-27.76821000	-11.14050000
27.59999853	0.00000000	-2.68823800	-18.85458000
27.79999852	0.00000000	19.36516000	-25.77510000
27.99999851	0.00000000	33.69217000	-29.95817000
28.19999850	0.00000000	37.18011000	-29.91511000
28.39999848	0.00000000	29.49680000	-25.22145000
28.59999847	0.00000000	12.47539000	-16.30167000
28.79999846	0.00000000	-9.86097400	-4.69365100
28.99999845	0.00000000	-32.28346000	7.25270600
29.19999844	0.00000000	-49.31717000	16.86762000
29.39999843	0.00000000	-57.96013000	21.41978000
29.59999841	0.00000000	-57.17273000	19.42667000
29.79999840	0.00000000	-47.53936000	10.54995000
29.99999839	0.00000000	-30.93012000	-3.38336600
30.19999838	0.00000000	-11.66339000	-19.22982000
30.39999837	0.00000000	5.81938900	-34.23351000
30.59999835	0.00000000	18.24557000	-44.22367000
30.79999834	0.00000000	23.68356000	-46.55511000
30.99999833	0.00000000	20.98917000	-41.11097000
31.19999832	0.00000000	11.02977000	-28.29109000
31.39999831	0.00000000	-3.29724400	-10.58686000
31.59999829	0.00000000	-18.75000000	7.94783400
31.79999828	0.00000000	-32.32653000	23.00689000
31.99999827	0.00000000	-40.84645000	31.50221000
32.19999826	0.00000000	-43.25787000	31.50221000
32.39999825	0.00000000	-39.35777000	23.00689000
32.59999824	0.00000000	-30.13656000	7.94783400
32.79999822	0.00000000	-17.80881000	-10.58686000
32.99999821	0.00000000	-5.85014700	-28.38337000
33.19999820	0.00000000	3.12500000	-41.94759000
33.39999819	0.00000000	7.77559000	-48.91732000
33.59999818	0.00000000	7.40034400	-47.71161000
33.79999816	0.00000000	2.00541300	-38.46580000
33.99999815	0.00000000	-6.83439900	-23.04380000
34.19999814	0.00000000	-16.83686000	-5.29035400
34.39999813	0.00000000	-25.30143000	10.96826000
34.59999812	0.00000000	-29.95817000	22.53937000
34.79999810	0.00000000	-30.04429000	26.81471000
34.99999809	0.00000000	-26.18725000	23.00689000
35.19999808	0.00000000	-19.66658000	12.59227000
35.39999807	0.00000000	-11.99557000	-2.08538400
35.59999806	0.00000000	-5.85014700	-17.83957000
35.79999805	0.00000000	-2.68823800	-30.56717000
35.99999803	0.00000000	-2.68823800	-37.21087000
36.19999802	0.00000000	-5.76402500	-37.26009000
36.39999801	0.00000000	-11.15896000	-31.07775000
36.59999800	0.00000000	-17.25517000	-19.92495000
36.79999799	0.00000000	-22.27485000	-6.87130900
36.99999797	0.00000000	-24.60630000	4.65059000
37.19999796	0.00000000	-24.23105000	11.62032000
37.39999795	0.00000000	-21.11220000	12.41388000
37.59999794	0.00000000	-15.76649000	7.48646600
37.79999793	0.00000000	-10.03937000	-1.75319900
37.99999791	0.00000000	-5.76402500	-12.45079000
38.19999790	0.00000000	-3.80782500	-21.64739000
38.39999789	0.00000000	-4.13385800	-26.20571000
38.59999788	0.00000000	-6.50221400	-24.76009000
38.79999787	0.00000000	-10.32234000	-18.30093000
38.99999786	0.00000000	-14.97293000	-9.47342500
39.19999784	0.00000000	-18.83612000	-0.59670270
39.39999783	0.00000000	-21.62278000	6.23154500
39.59999782	0.00000000	-23.11762000	8.45841400
39.79999781	0.00000000	-22.74237000	4.65059000
39.99999780	0.00000000	-20.46014000	-3.70939900
40.19999778	0.00000000	-17.39050000	-13.69956000
40.39999777	0.00000000	-14.22859000	-22.53322000
40.59999776	0.00000000	-11.10974000	-27.92200000
40.79999775	0.00000000	-8.41535400	-28.24803000
40.99999774	0.00000000	-6.83439900	-23.27141000
41.19999772	0.00000000	-6.41609200	-14.07480000
41.39999771	0.00000000	-6.83439900	-3.70939900
41.59999770	0.00000000	-8.41535400	5.16117100
41.79999769	0.00000000	-11.10974000	10.54995000
41.99999768	0.00000000	-14.18553000	10.92520000
42.19999767	0.00000000	-16.92298000	6.32381900
42.39999765	0.00000000	-18.87918000	-2.12844500
42.59999764	0.00000000	-20.08489000	-12.07554000
42.79999763	0.00000000	-20.46014000	-20.57702000
42.99999762	0.00000000	-20.04183000	-25.59670000
43.19999761	0.00000000	-18.50394000	-26.42716000
43.39999759	0.00000000	-16.18479000	-22.99459000
43.59999758	0.00000000	-13.85334000	-16.85531000
43.79999757	0.00000000	-11.53420000	-9.51648500
43.99999756	0.00000000	-9.99630800	-2.59596400
44.19999755	0.00000000	-9.52879000	2.04847400
44.39999753	0.00000000	-9.48572700	3.62942900
44.59999752	0.00000000	-9.48572700	2.14074800
44.79999751	0.00000000	-9.52879000	-1.66707700
44.99999750	0.00000000	-9.95324800	-6.31151500
45.19999749	0.00000000	-11.10974000	-10.95595000
45.39999748	0.00000000	-12.69070000	-14.81299000
45.59999746	0.00000000	-14.69611000	-16.76919000
45.79999745	0.00000000	-17.43356000	-16.81225000
45.99999744	0.00000000	-20.50935000	-15.27436000
46.19999743	0.00000000	-23.20374000	-12.58612000
46.39999742	0.00000000	-24.69857000	-9.47342500
46.59999740	0.00000000	-24.23105000	-6.40378900
46.79999739	0.00000000	-21.11220000	-4.08464600
46.99999738	0.00000000	-15.71727000	-3.29109200
47.19999737	0.00000000	-9.52879000	-3.62327700
47.39999736	0.00000000	-3.71555100	-4.82283400
47.59999734	0.00000000	0.51673230	-6.77903500
47.79999733	0.00000000	2.00541300	-9.51648500
47.99999732	0.00000000	0.00615157	-12.53691000
48.19999731	0.00000000	-5.80708600	-14.81299000
48.39999730	0.00000000	-14.27165000	-15.23130000
48.59999729	0.00000000	-23.11762000	-14.11786000
48.79999727	0.00000000	-30.04429000	-12.16781000
48.99999726	0.00000000	-33.16314000	-9.42421200
49.19999725	0.00000000	-32.00049000	-6.31151500
49.39999724	0.00000000	-26.93159000	-3.29109200
49.59999723	0.00000000	-18.41781000	-1.39025600
49.79999721	0.00000000	-8.45841400	-1.75319900
49.99999720	0.00000000	0.00615157	-3.66633800
50.19999719	0.00000000	4.66289300	-6.82209600
50.39999718	0.00000000	4.70595500	-11.04823000
50.59999717	0.00000000	0.42445860	-15.23130000
50.79999715	0.00000000	-7.29576700	-17.92569000
50.99999714	0.00000000	-16.87992000	-18.30093000
51.19999713	0.00000000	-25.30143000	-16.39395000
51.39999712	0.00000000	-30.00123000	-12.53691000
51.59999711	0.00000000	-30.41954000	-7.93553100
51.79999710	0.00000000	-26.92544000	-3.70939900
51.99999708	0.00000000	-19.99877000	-1.01501000
52.19999707	0.00000000	-11.62032000	-0.59670270
52.39999706	0.00000000	-4.64443900	-2.12844500
52.59999705	0.00000000	-0.78124990	-5.19808000
52.79999704	0.00000000	-0.36909450	-9.05511800
52.99999702	0.00000000	-3.89394600	-12.53691000
53.19999701	0.00000000	-10.32234000	-15.18824000
53.39999700	0.00000000	-17.62426000	-15.97564000
53.59999699	0.00000000	-22.98228000	-14.45005000
53.79999698	0.00000000	-25.34449000	-11.83563000
53.99999696	0.00000000	-24.18799000	-8.72908400
54.19999695	0.00000000	-19.99877000	-6.44685000
54.39999694	0.00000000	-14.22859000	-5.24729300
54.59999693	0.00000000	-8.50147600	-5.29035400
54.79999692	0.00000000	-4.64443900	-6.77903500
54.99999691	0.00000000	-3.85088600	-9.05511800
55.19999689	0.00000000	-5.76402500	-10.96211000
55.39999688	0.00000000	-9.99630800	-12.07554000
55.59999687	0.00000000	-15.34203000	-11.65723000
55.79999686	0.00000000	-19.99877000	-9.42421200
55.99999685	0.00000000	-23.06841000	-6.72982200
56.19999683	0.00000000	-23.81275000	-4.40452700
56.39999682	0.00000000	-21.53666000	-2.54675200
56.59999681	0.00000000	-17.34744000	-2.63902500
56.79999680	0.00000000	-12.69070000	-5.29035400
56.99999679	0.00000000	-8.45841400	-9.51648500
57.19999677	0.00000000	-5.76402500	-14.11786000
57.39999676	0.00000000	-5.38877900	-17.93184000
57.59999675	0.00000000	-7.25270600	-19.42052000
57.79999674	0.00000000	-10.73450000	-17.93184000
57.99999673	0.00000000	-14.56078000	-14.03174000
58.19999672	0.00000000	-18.04257000	-8.63681000
58.39999670	0.00000000	-19.95571000	-2.46063000
58.59999669	0.00000000	-19.99877000	2.46678100
58.79999668	0.00000000	-18.50394000	4.78592500
58.99999667	0.00000000	-16.18479000	3.58021600
59.19999666	0.00000000	-13.85334000	-1.01501000
59.39999664	0.00000000	-11.53420000	-7.93553100
59.59999663	0.00000000	-10.03937000	-15.23130000
59.79999662	0.00000000	-9.99630800	-21.03838000
59.99999661	0.00000000	-11.10974000	-24.10802000
60.19999660	0.00000000	-12.64764000	-23.68971000
60.39999658	0.00000000	-14.18553000	-19.42052000
60.59999657	0.00000000	-15.34203000	-12.11860000
60.79999656	0.00000000	-15.71727000	-3.70939900
60.99999655	0.00000000	-15.34203000	3.21112200
61.19999654	0.00000000	-14.18553000	6.69291300
61.39999653	0.00000000	-12.69070000	6.36687900
61.59999651	0.00000000	-11.53420000	2.46678100
61.79999650	0.00000000	-11.20202000	-4.08464600
61.99999649	0.00000000	-11.95251000	-12.16781000
62.19999648	0.00000000	-13.85334000	-19.46358000
62.39999647	0.00000000	-15.76649000	-24.10802000
62.59999645	0.00000000	-17.34744000	-25.22145000
62.79999644	0.00000000	-18.46087000	-22.15797000
62.99999643	0.00000000	-18.41781000	-15.69882000
63.19999642	0.00000000	-16.92298000	-8.35383800
63.39999641	0.00000000	-14.60384000	-1.75319900
63.59999639	0.00000000	-12.31545000	3.25418300
63.79999638	0.00000000	-10.37155000	5.16117100
63.99999637	0.00000000	-9.57800100	3.67249000
64.19999636	0.00000000	-9.57800100	-0.55364170
64.39999635	0.00000000	-10.41462000	-6.31151500
64.59999634	0.00000000	-12.69070000	-12.11860000
64.79999632	0.00000000	-15.34203000	-16.81225000
64.99999631	0.00000000	-17.29823000	-19.88189000
65.19999630	0.00000000	-18.46087000	-20.71235000
65.39999629	0.00000000	-18.41781000	-19.13755000
65.59999628	0.00000000	-16.92298000	-16.06176000
65.79999626	0.00000000	-14.64690000	-11.46653000
65.99999625	0.00000000	-12.69070000	-7.24040300
66.19999624	0.00000000	-11.15896000	-4.44758800
66.39999623	0.00000000	-10.45768000	-2.41141700
66.59999622	0.00000000	-11.57726000	-1.29183100
66.79999620	0.00000000	-13.81028000	-0.92888770
66.99999619	0.00000000	-15.76649000	-2.08538400
67.19999618	0.00000000	-17.29823000	-4.36146600
67.39999617	0.00000000	-18.04257000	-6.72982200
67.59999616	0.00000000	-17.25517000	-9.51648500
67.79999615	0.00000000	-15.34203000	-12.62918000
67.99999613	0.00000000	-12.64764000	-15.69882000
68.19999612	0.00000000	-9.99630800	-18.01796000
68.39999611	0.00000000	-8.45841400	-18.81152000
68.59999610	0.00000000	-8.50147600	-18.39321000
68.79999609	0.00000000	-10.45768000	-16.39395000
68.99999607	0.00000000	-14.27165000	-12.49385000
69.19999606	0.00000000	-18.50394000	-7.51722400
69.39999605	0.00000000	-21.99803000	-2.46063000
69.59999604	0.00000000	-24.27411000	1.35334600
69.79999603	0.00000000	-24.18799000	3.29724400
69.99999601	0.00000000	-21.16142000	2.46678100
70.19999600	0.00000000	-16.14173000	-0.97194880
70.39999599	0.00000000	-10.69144000	-6.36072800
70.59999598	0.00000000	-5.29650500	-12.16166000
70.79999597	0.00000000	-1.53174200	-17.18750000
70.99999596	0.00000000	-1.10728300	-20.62008000
71.19999594	0.00000000	-3.80782500	-21.03838000
71.39999593	0.00000000	-8.83366100	-18.76845000
71.59999592	0.00000000	-15.39124000	-14.90526000
71.79999591	0.00000000	-21.57972000	-9.89173200
71.99999590	0.00000000	-26.23031000	-5.29035400
72.19999588	0.00000000	-28.50640000	-2.17765700
72.39999587	0.00000000	-27.34990000	-0.97194880
72.59999586	0.00000000	-23.11762000	-1.75319900
72.79999585	0.00000000	-16.92298000	-4.03543200
72.99999584	0.00000000	-9.99630800	-7.47416300
73.19999582	0.00000000	-4.22613100	-10.53765000
73.39999581	0.00000000	-1.10728300	-12.49385000
73.59999580	0.00000000	-1.06422200	-13.23819000
73.79999579	0.00000000	-3.75861200	-12.11860000
73.99999578	0.00000000	-8.41535400	-9.93479300
74.19999577	0.00000000	-14.22859000	-8.40305000
74.39999575	0.00000000	-19.95571000	-7.98474400
74.59999574	0.00000000	-23.85581000	-8.40305000
74.79999573	0.00000000	-25.02460000	-9.89173200
74.99999572	0.00000000	-23.89887000	-11.79257000
75.19999571	0.00000000	-20.46014000	-12.91215000
75.39999569	0.00000000	-16.22785000	-13.32431000
75.59999568	0.00000000	-12.31545000	-12.45079000
75.79999567	0.00000000	-8.83366100	-10.11934000
75.99999566	0.00000000	-6.92052100	-6.31151500
76.19999565	0.00000000	-6.87746000	-2.50369100
76.39999563	0.00000000	-8.41535400	-0.22145670
76.59999562	0.00000000	-11.06668000	0.14148620
76.79999561	0.00000000	-13.76107000	-2.17765700
76.99999560	0.00000000	-15.67421000	-6.40378900
77.19999559	0.00000000	-16.50467000	-11.46653000
77.39999558	0.00000000	-16.18479000	-16.85531000
77.59999556	0.00000000	-15.80955000	-21.03838000
77.79999555	0.00000000	-15.43430000	-22.57628000
77.99999554	0.00000000	-15.06521000	-20.99532000
78.19999553	0.00000000	-15.43430000	-16.39395000
78.39999552	0.00000000	-15.76649000	-9.84867000
78.59999550	0.00000000	-15.80955000	-3.33415300
78.79999549	0.00000000	-15.76649000	1.72244100
78.99999548	0.00000000	-15.34203000	4.04773600
79.19999547	0.00000000	-14.13632000	3.67249000
79.39999546	0.00000000	-12.27239000	0.60285430
79.59999544	0.00000000	-10.37155000	-4.41067900
79.79999543	0.00000000	-9.57800100	-9.84867000
79.99999542	0.00000000	-9.57800100	-15.23130000
80.19999541	0.00000000	-10.41462000	-19.08834000
80.39999540	0.00000000	-12.73991000	-20.30020000
80.59999539	0.00000000	-15.76649000	-19.59892000
80.79999537	0.00000000	-18.46087000	-17.23056000
80.99999536	0.00000000	-19.99877000	-13.74262000
81.19999535	0.00000000	-20.04183000	-9.47342500
81.39999534	0.00000000	-18.87918000	-5.24729300
81.59999533	0.00000000	-16.92298000	-2.12844500
81.79999531	0.00000000	-14.18553000	-0.55364170
81.99999530	0.00000000	-11.15896000	-0.51058070
82.19999529	0.00000000	-8.87672100	-1.66707700
82.39999528	0.00000000	-8.45841400	-3.61712600
82.59999527	0.00000000	-9.52879000	-6.36072800
82.79999525	0.00000000	-11.10974000	-9.47342500
82.99999524	0.00000000	-13.06594000	-12.58612000
83.19999523	0.00000000	-15.39124000	-15.32357000
83.39999522	0.00000000	-17.25517000	-17.23056000
83.59999521	0.00000000	-18.08563000	-18.01796000
83.79999520	0.00000000	-17.72268000	-17.18750000
83.99999518	0.00000000	-16.97219000	-14.90526000
84.19999517	0.00000000	-15.80955000	-11.38041000
84.39999516	0.00000000	-14.64690000	-7.51722400
84.59999515	0.00000000	-13.85334000	-3.62327700
84.79999514	0.00000000	-13.11516000	-0.55364170
84.99999512	0.00000000	-13.11516000	0.93503930
85.19999511	0.00000000	-13.81028000	0.18454720
85.39999510	0.00000000	-14.13632000	-2.91584600
85.59999509	0.00000000	-13.81028000	-7.14812900
85.79999508	0.00000000	-13.06594000	-12.21087000
85.99999506	0.00000000	-12.69070000	-16.76919000
86.19999505	0.00000000	-12.69070000	-19.50664000
86.39999504	0.00000000	-13.06594000	-19.88189000
86.59999503	0.00000000	-13.85334000	-17.97490000
86.79999502	0.00000000	-14.64690000	-14.07480000
86.99999501	0.00000000	-15.80955000	-9.09817800
87.19999499	0.00000000	-16.92298000	-4.08464600
87.39999498	0.00000000	-17.29823000	-0.64591530
87.59999497	0.00000000	-16.92298000	0.55979330
87.79999496	0.00000000	-15.76649000	-0.59670270
87.99999495	0.00000000	-14.18553000	-3.66633800
88.19999493	0.00000000	-12.27239000	-7.93553100
88.39999492	0.00000000	-10.37155000	-12.53691000
88.59999491	0.00000000	-9.62106200	-16.39395000
88.79999490	0.00000000	-9.99630800	-18.25787000
88.99999489	0.00000000	-11.53420000	-17.50738000
89.19999487	0.00000000	-13.81028000	-14.07480000
89.39999486	0.00000000	-15.76649000	-9.51648500
89.59999485	0.00000000	-17.29823000	-5.24729300
89.79999484	0.00000000	-18.08563000	-2.17765700
89.99999483	0.00000000	-17.72268000	-1.01501000
90.19999482	0.00000000	-16.97219000	-2.17765700
90.39999480	0.00000000	-15.76649000	-5.24729300
90.59999479	0.00000000	-14.22859000	-9.47342500
90.79999478	0.00000000	-12.69070000	-13.65650000
90.99999477	0.00000000	-11.57726000	-16.35089000
91.19999476	0.00000000	-11.53420000	-16.76919000
91.39999474	0.00000000	-12.27239000	-15.23130000
91.59999473	0.00000000	-13.02288000	-12.11860000
91.79999472	0.00000000	-13.81028000	-7.89247000
91.99999471	0.00000000	-14.18553000	-3.70939900
92.19999470	0.00000000	-14.22859000	-1.01501000
92.39999468	0.00000000	-14.22859000	-0.63976370
92.59999467	0.00000000	-14.27165000	-2.54675200
92.79999466	0.00000000	-14.64690000	-6.40378900
92.99999465	0.00000000	-15.39124000	-10.95595000
93.19999464	0.00000000	-15.80955000	-14.81299000
93.39999463	0.00000000	-16.18479000	-16.76919000
93.59999461	0.00000000	-16.55389000	-16.76919000
93.79999460	0.00000000	-16.14173000	-14.81299000
93.99999459	0.00000000	-15.39124000	-11.00517000
94.19999458	0.00000000	-14.13632000	-6.77903500
94.39999457	0.00000000	-12.27239000	-3.33415300
94.59999455	0.00000000	-10.32234000	-1.39025600
94.79999454	0.00000000	-9.20275500	-1.80241100
94.99999453	0.00000000	-8.83366100	-4.12770700
95.19999452	0.00000000	-10.03937000	-8.31077700
95.39999451	0.00000000	-12.69070000	-12.86294000
95.59999449	0.00000000	-15.76649000	-15.56348000
95.79999448	0.00000000	-18.50394000	-16.43701000
95.99999447	0.00000000	-20.41708000	-15.60654000
96.19999446	0.00000000	-21.20448000	-13.32431000
96.39999445	0.00000000	-20.41708000	-9.84867000
96.59999444	0.00000000	-18.46087000	-6.44685000
96.79999442	0.00000000	-15.34203000	-4.08464600
96.99999441	0.00000000	-11.48499000	-3.33415300
97.19999440	0.00000000	-8.04010800	-4.08464600
97.39999439	0.00000000	-5.71481200	-6.40378900
97.59999438	0.00000000	-5.33956700	-9.38115100
97.79999436	0.00000000	-6.87746000	-11.74951000
97.99999435	0.00000000	-9.95324800	-12.91215000
98.19999434	0.00000000	-13.81028000	-13.32431000
98.39999433	0.00000000	-17.34744000	-12.53691000
98.59999432	0.00000000	-20.46014000	-11.04823000
98.79999430	0.00000000	-22.69316000	-9.47342500
98.99999429	0.00000000	-22.69316000	-7.98474400
99.19999428	0.00000000	-20.41708000	-7.19734200
99.39999427	0.00000000	-16.97219000	-7.51722400
99.59999426	0.00000000	-13.11516000	-7.84940900
99.79999425	0.00000000	-9.99630800	-7.89247000
99.99999423	0.00000000	-7.99704600	-7.89247000
100.19999422	0.00000000	-6.87746000	-7.84940900
100.39999421	0.00000000	-7.25270600	-7.51722400
100.59999420	0.00000000	-9.15354300	-7.14812900
100.79999419	0.00000000	-11.48499000	-7.56028500
100.99999417	0.00000000	-14.27165000	-8.31077700
101.19999416	0.00000000	-17.29823000	-9.51648500
101.39999415	0.00000000	-19.62352000	-11.04823000
101.59999414	0.00000000	-20.41708000	-12.58612000
101.79999413	0.00000000	-20.08489000	-13.69956000
101.99999411	0.00000000	-18.87918000	-13.65650000
102.19999410	0.00000000	-16.92298000	-12.11860000
102.39999409	0.00000000	-14.22859000	-9.47342500
102.59999408	0.00000000	-11.57726000	-6.77903500
102.79999407	0.00000000	-9.99630800	-4.82283400
102.99999406	0.00000000	-9.57800100	-3.62327700
103.19999404	0.00000000	-9.95324800	-3.29109200
103.39999403	0.00000000	-11.10974000	-4.08464600
103.59999402	0.00000000	-12.64764000	-6.40378900
103.79999401	0.00000000	-14.22859000	-9.47342500
103.99999400	0.00000000	-15.80955000	-12.53691000
104.19999398	0.00000000	-17.29823000	-14.81299000
104.39999397	0.00000000	-18.08563000	-15.23130000
104.59999396	0.00000000	-17.72268000	-14.11786000
104.79999395	0.00000000	-16.97219000	-12.16781000
104.99999394	0.00000000	-15.76649000	-9.47342500
105.19999392	0.00000000	-14.22859000	-6.77903500
105.39999391	0.00000000	-12.69070000	-4.87204700
105.59999390	0.00000000	-11.57726000	-4.08464600
105.79999389	0.00000000	-11.57726000	-4.87204700
105.99999388	0.00000000	-12.69070000	-6.72982200
106.19999387	0.00000000	-14.18553000	-9.05511800
106.39999385	0.00000000	-15.34203000	-10.96211000
106.59999384	0.00000000	-15.76649000	-12.16166000
106.79999383	0.00000000	-15.76649000	-12.53691000
106.99999382	0.00000000	-15.34203000	-12.16166000
107.19999381	0.00000000	-14.22859000	-10.96211000
107.39999379	0.00000000	-13.11516000	-9.09817800
107.59999378	0.00000000	-12.69070000	-7.19734200
107.79999377	0.00000000	-12.69070000	-6.44685000
107.99999376	0.00000000	-13.06594000	-6.77903500
108.19999375	0.00000000	-13.85334000	-7.93553100
108.39999374	0.00000000	-14.64690000	-9.47342500
108.59999372	0.00000000	-15.80955000	-11.00517000
108.79999371	0.00000000	-16.87992000	-12.16166000
108.99999370	0.00000000	-16.92298000	-12.53691000
109.19999369	0.00000000	-16.18479000	-12.11860000
109.39999368	0.00000000	-15.39124000	-10.58686000
109.59999366	0.00000000	-14.18553000	-8.35383800
109.79999365	0.00000000	-12.69070000	-6.82209600
109.99999364	0.00000000	-11.53420000	-6.35457700
110.19999363	0.00000000	-11.15896000	-6.35457700
110.39999362	0.00000000	-11.53420000	-6.77903500
110.59999360	0.00000000	-12.69070000	-7.93553100
110.79999359	0.00000000	-14.18553000	-9.42421200
110.99999358	0.00000000	-15.39124000	-10.62992000
111.19999357	0.00000000	-16.14173000	-11.42347000
111.39999356	0.00000000	-16.55389000	-12.16166000
111.59999355	0.00000000	-16.14173000	-12.11860000
111.79999353	0.00000000	-15.43430000	-11.04823000
111.99999352	0.00000000	-14.60384000	-9.93479300
112.19999351	0.00000000	-13.85334000	-9.47342500
112.39999350	0.00000000	-13.06594000	-9.05511800
112.59999349	0.00000000	-12.69070000	-8.31077700
112.79999347	0.00000000	-12.69070000	-7.93553100
112.99999346	0.00000000	-13.06594000	-7.93553100
113.19999345	0.00000000	-13.81028000	-8.31077700
113.39999344	0.00000000	-14.22859000	-9.05511800
113.59999343	0.00000000	-14.64690000	-9.43036400
113.79999341	0.00000000	-15.39124000	-9.47342500
113.99999340	0.00000000	-15.76649000	-9.51648500
114.19999339	0.00000000	-15.76649000	-9.84867000
114.39999338	0.00000000	-15.39124000	-10.25467000
114.59999337	0.00000000	-14.64690000	-10.26698000
114.79999336	0.00000000	-14.22859000	-10.67298000
114.99999334	0.00000000	-13.81028000	-11.00517000
115.19999333	0.00000000	-13.11516000	-11.04823000
115.39999332	0.00000000	-13.11516000	-11.00517000
115.59999331	0.00000000	-13.81028000	-10.62992000
115.79999330	0.00000000	-14.18553000	-9.84867000
115.99999328	0.00000000	-14.22859000	-9.05511800
116.19999327	0.00000000	-14.27165000	-7.89247000
116.39999326	0.00000000	-14.64690000	-6.82209600
116.59999325	0.00000000	-15.39124000	-6.77903500
116.79999324	0.00000000	-15.71727000	-7.51722400
116.99999322	0.00000000	-15.39124000	-8.26771600
117.19999321	0.00000000	-14.64690000	-9.09817800
117.39999320	0.00000000	-14.22859000	-9.84867000
117.59999319	0.00000000	-13.76107000	-10.62992000
117.79999318	0.00000000	-12.69070000	-11.00517000
117.99999317	0.00000000	-11.95251000	-11.04823000
118.19999315	0.00000000	-12.31545000	-11.00517000
118.39999314	0.00000000	-13.02288000	-10.62992000
118.59999313	0.00000000	-13.85334000	-9.84867000
118.79999312	0.00000000	-14.64690000	-9.09817800
118.99999311	0.00000000	-15.80955000	-8.31077700
119.19999309	0.00000000	-16.92298000	-7.93553100
119.39999308	0.00000000	-17.29823000	-7.89247000
119.59999307	0.00000000	-16.92298000	-7.89247000
119.79999306	0.00000000	-15.76649000	-7.89247000
119.99999305	0.00000000	-14.27165000	-7.93553100
120.19999303	0.00000000	-13.06594000	-8.31077700
120.39999302	0.00000000	-12.27239000	-9.05511800
120.59999301	0.00000000	-11.53420000	-9.43036400
120.79999300	0.00000000	-11.53420000	-9.47342500
120.99999299	0.00000000	-12.27239000	-9.51648500
121.19999298	0.00000000	-13.06594000	-9.89173200
121.39999296	0.00000000	-14.22859000	-10.58686000
121.59999295	0.00000000	-15.39124000	-10.58686000
121.79999294	0.00000000	-16.18479000	-9.89173200
121.99999293	0.00000000	-16.92298000	-9.51648500
122.19999292	0.00000000	-16.92298000	-9.43036400
122.39999290	0.00000000	-16.18479000	-9.05511800
122.59999289	0.00000000	-15.43430000	-8.31077700
122.79999288	0.00000000	-14.60384000	-7.93553100
122.99999287	0.00000000	-13.85334000	-7.89247000
123.19999286	0.00000000	-13.06594000	-7.93553100
123.39999284	0.00000000	-12.69070000	-8.31077700
123.59999283	0.00000000	-12.64764000	-9.05511800
123.79999282	0.00000000	-12.64764000	-9.43036400
123.99999281	0.00000000	-12.69070000	-9.51648500
124.19999280	0.00000000	-13.06594000	-9.89173200
124.39999279	0.00000000	-13.85334000	-10.58686000
124.59999277	0.00000000	-14.60384000	-10.58686000
124.79999276	0.00000000	-15.39124000	-9.89173200
124.99999275	0.00000000	-15.76649000	-9.51648500
125.19999274	0.00000000	-15.80955000	-9.43036400
125.39999273	0.00000000	-15.80955000	-9.05511800
125.59999271	0.00000000	-15.76649000	-8.31077700
125.79999270	0.00000000	-15.34203000	-7.93553100
125.99999269	0.00000000	-14.22859000	-7.89247000
126.19999268	0.00000000	-13.11516000	-7.89247000
126.39999267	0.00000000	-12.69070000	-7.93553100
126.59999265	0.00000000	-12.64764000	-8.31077700
126.79999264	0.00000000	-12.69070000	-9.05511800
126.99999263	0.00000000	-13.06594000	-9.43036400
127.19999262	0.00000000	-13.85334000	-9.51648500
127.39999261	0.00000000	-14.64690000	-9.89173200
127.59999260	0.00000000	-15.80955000	-10.58686000
127.79999258	0.00000000	-16.87992000	-10.58686000
127.99999257	0.00000000	-16.92298000	-9.89173200
128.19999256	0.00000000	-16.18479000	-9.47342500
128.39999255	0.00000000	-15.39124000	-9.09817800
128.59999254	0.00000000	-14.22859000	-8.72908400
128.79999252	0.00000000	-13.06594000	-9.09817800
128.99999251	0.00000000	-12.27239000	-9.43036400
129.19999250	0.00000000	-11.53420000	-9.47342500
129.39999249	0.00000000	-11.57726000	-9.51648500
129.59999248	0.00000000	-12.69070000	-9.89173200
129.79999246	0.00000000	-14.22859000	-10.58686000
129.99999245	0.00000000	-15.76649000	-10.58686000
130.19999244	0.00000000	-16.87992000	-9.89173200
130.39999243	0.00000000	-16.92298000	-9.51648500
130.59999242	0.00000000	-16.18479000	-9.43036400
130.79999241	0.00000000	-15.39124000	-9.05511800
130.99999239	0.00000000	-14.22859000	-8.35998900
131.19999238	0.00000000	-13.11516000	-8.35998900
131.39999237	0.00000000	-12.69070000	-9.05511800
131.59999236	0.00000000	-12.64764000	-9.47342500
131.79999235	0.00000000	-12.69070000	-9.89173200
131.99999233	0.00000000	-13.11516000	-10.62992000
132.19999232	0.00000000	-14.22859000	-11.00517000
132.39999231	0.00000000	-15.34203000	-11.04823000
132.59999230	0.00000000	-15.76649000	-11.00517000
132.79999229	0.00000000	-15.80955000	-10.58686000
132.99999227	0.00000000	-15.76649000	-9.47342500
133.19999226	0.00000000	-15.39124000	-8.35998900
133.39999225	0.00000000	-14.64690000	-7.93553100
133.59999224	0.00000000	-14.27165000	-7.89247000
133.79999223	0.00000000	-14.22859000	-7.93553100
133.99999222	0.00000000	-14.22859000	-8.31077700
134.19999220	0.00000000	-14.22859000	-9.09817800
134.39999219	0.00000000	-14.22859000	-9.84867000
134.59999218	0.00000000	-14.22859000	-10.62992000
134.79999217	0.00000000	-14.22859000	-11.00517000
134.99999216	0.00000000	-14.22859000	-11.04823000
135.19999214	0.00000000	-14.22859000	-11.00517000
135.39999213	0.00000000	-14.22859000	-10.62992000
135.59999212	0.00000000	-14.22859000	-9.84867000
135.79999211	0.00000000	-14.22859000	-9.09817800
135.99999210	0.00000000	-14.27165000	-8.31077700
136.19999208	0.00000000	-14.64690000	-7.93553100
136.39999207	0.00000000	-15.39124000	-7.89247000
136.59999206	0.00000000	-15.76649000	-7.93553100
136.79999205	0.00000000	-15.76649000	-8.31077700
136.99999204	0.00000000	-15.39124000	-9.05511800
137.19999203	0.00000000	-14.60384000	-9.43036400
137.39999201	0.00000000	-13.89641000	-9.51648500
137.59999200	0.00000000	-13.44119000	-9.89173200
137.79999199	0.00000000	-13.47810000	-10.62992000
137.99999198	0.00000000	-13.39813000	-11.00517000
138.19999197	0.00000000	-13.47810000	-11.00517000
138.39999195	0.00000000	-13.44119000	-10.62992000
138.59999194	0.00000000	-13.89641000	-9.89173200
138.79999193	0.00000000	-14.60384000	-9.51648500
138.99999192	0.00000000	-15.43430000	-9.47342500
139.19999191	0.00000000	-16.14173000	-9.43036400
139.39999189	0.00000000	-16.50467000	-9.05511800
139.59999188	0.00000000	-15.76649000	-8.31077700
139.79999187	0.00000000	-14.69611000	-7.93553100
139.99999186	0.00000000	-14.22859000	-7.93553100
140.19999185	0.00000000	-13.85334000	-8.31077700
140.39999184	0.00000000	-13.48425000	-9.09817800
140.59999182	0.00000000	-13.85334000	-9.84867000
140.79999181	0.00000000	-14.18553000	-10.62992000
140.99999180	0.00000000	-14.27165000	-11.00517000
141.19999179	0.00000000	-14.60384000	-11.04823000
141.39999178	0.00000000	-15.01599000	-11.00517000
141.59999176	0.00000000	-15.02214000	-10.58686000
141.79999175	0.00000000	-15.39124000	-9.47342500
141.99999174	0.00000000	-15.34203000	-8.31077700
142.19999173	0.00000000	-14.64690000	-7.51722400
142.39999172	0.00000000	-14.22859000	-6.77903500
142.59999170	0.00000000	-13.85334000	-6.77903500
142.79999169	0.00000000	-13.48425000	-7.51722400
142.99999168	0.00000000	-13.85334000	-8.31077700
143.19999167	0.00000000	-14.18553000	-9.47342500
143.39999166	0.00000000	-14.27165000	-10.58686000
143.59999165	0.00000000	-14.60384000	-11.00517000
143.79999163	0.00000000	-15.01599000	-11.04823000
143.99999162	0.00000000	-14.97908000	-11.00517000
144.19999161	0.00000000	-15.01599000	-10.62992000
144.39999160	0.00000000	-14.60384000	-9.84867000
144.59999159	0.00000000	-14.27165000	-9.09817800
144.79999157	0.00000000	-14.18553000	-8.31077700
144.99999156	0.00000000	-13.85334000	-7.93553100
145.19999155	0.00000000	-13.48425000	-7.89247000
145.39999154	0.00000000	-13.85334000	-7.93553100
145.59999153	0.00000000	-14.22859000	-8.31077700
145.79999151	0.00000000	-14.60384000	-9.05511800
145.99999150	0.00000000	-15.01599000	-9.47342500
146.19999149	0.00000000	-14.97908000	-9.89173200
146.39999148	0.00000000	-15.01599000	-10.58686000
146.59999147	0.00000000	-14.60384000	-10.58686000
146.79999146	0.00000000	-14.22859000	-9.89173200
146.99999144	0.00000000	-13.85334000	-9.51648500
147.19999143	0.00000000	-13.48425000	-9.47342500
147.39999142	0.00000000	-13.85334000	-9.47342500
147.59999141	0.00000000	-14.18553000	-9.43036400
147.79999140	0.00000000	-14.22859000	-9.05511800
147.99999138	0.00000000	-14.27165000	-8.31077700
148.19999137	0.00000000	-14.64690000	-7.98474400
148.39999136	0.00000000	-15.39124000	-8.31077700
148.59999135	0.00000000	-15.71727000	-9.05511800
148.79999134	0.00000000	-15.39124000	-9.43036400
148.99999132	0.00000000	-14.64690000	-9.47342500
149.19999131	0.00000000	-14.27165000	-9.47342500
149.39999130	0.00000000	-14.22859000	-9.47342500
149.59999129	0.00000000	-14.22859000	-9.47342500
149.79999128	0.00000000	-14.18553000	-9.47342500
149.99999127	0.00000000	-13.85334000	-9.47342500
150.19999125	0.00000000	-13.48425000	-9.43036400
150.39999124	0.00000000	-13.85334000	-9.05511800
150.59999123	0.00000000	-14.22859000	-8.31077700
150.79999122	0.00000000	-14.60384000	-7.93553100
150.99999121	0.00000000	-15.01599000	-7.89247000
151.19999119	0.00000000	-14.97908000	-7.89247000
151.39999118	0.00000000	-15.01599000	-7.93553100
151.59999117	0.00000000	-14.60384000	-8.31077700
151.79999116	0.00000000	-14.27165000	-9.05511800
151.99999115	0.00000000	-14.22859000	-9.43036400
152.19999113	0.00000000	-14.18553000	-9.47342500
152.39999112	0.00000000	-13.85334000	-9.47342500
152.59999111	0.00000000	-13.48425000	-9.51648500
152.79999110	0.00000000	-13.85334000	-9.84867000
152.99999109	0.00000000	-14.18553000	-10.21161000
153.19999108	0.00000000	-14.22859000	-9.84867000
153.39999106	0.00000000	-14.22859000	-9.51648500
153.59999105	0.00000000	-14.27165000	-9.47342500
153.79999104	0.00000000	-14.64690000	-9.47342500
153.99999103	0.00000000	-15.39124000	-9.47342500
154.19999102	0.00000000	-15.76649000	-9.47342500
154.39999100	0.00000000	-15.76649000	-9.47342500
154.59999099	0.00000000	-15.39124000	-9.47342500
154.79999098	0.00000000	-14.64690000	-9.47342500
154.99999097	0.00000000	-14.27165000	-9.47342500
155.19999096	0.00000000	-14.22859000	-9.47342500
155.39999094	0.00000000	-14.18553000	-9.47342500
155.59999093	0.00000000	-13.85334000	-9.47342500
155.79999092	0.00000000	-13.48425000	-9.47342500
155.99999091	0.00000000	-13.85334000	-9.47342500
156.19999090	0.00000000	-14.18553000	-9.47342500
156.39999089	0.00000000	-14.22859000	-9.43036400
156.59999087	0.00000000	-14.27165000	-9.05511800
156.79999086	0.00000000	-14.64690000	-8.31077700
156.99999085	0.00000000	-15.39124000	-7.93553100
157.19999084	0.00000000	-15.76649000	-7.89247000
157.39999083	0.00000000	-15.80955000	-7.93553100
157.59999081	0.00000000	-15.76649000	-8.31077700
157.79999080	0.00000000	-15.39124000	-9.05511800
157.99999079	0.00000000	-14.64690000	-9.43036400
158.19999078	0.00000000	-14.27165000	-9.51648500
158.39999077	0.00000000	-14.22859000	-9.89173200
158.59999075	0.00000000	-14.22859000	-10.58686000
158.79999074	0.00000000	-14.22859000	-10.58686000
158.99999073	0.00000000	-14.22859000	-9.89173200
159.19999072	0.00000000	-14.22859000	-9.51648500
159.39999071	0.00000000	-14.22859000	-9.47342500
159.59999070	0.00000000	-14.22859000	-9.43036400
159.79999068	0.00000000	-14.27165000	-9.05511800
159.99999067	0.00000000	-14.60384000	-8.31077700
160.19999066	0.00000000	-14.97293000	-7.98474400
160.39999065	0.00000000	-14.64690000	-8.31077700
160.59999064	0.00000000	-14.64690000	-9.05511800
160.79999062	0.00000000	-14.97293000	-9.47342500
160.99999061	0.00000000	-14.60384000	-9.84867000
161.19999060	0.00000000	-14.27165000	-10.21161000
161.39999059	0.00000000	-14.22859000	-9.84867000
161.59999058	0.00000000	-14.22859000	-9.51648500
161.79999056	0.00000000	-14.22859000	-9.47342500
161.99999055	0.00000000	-14.22859000	-9.47342500
162.19999054	0.00000000	-14.22859000	-9.47342500
162.39999053	0.00000000	-14.22859000	-9.47342500
162.59999052	0.00000000	-14.22859000	-9.47342500
162.79999051	0.00000000	-14.27165000	-9.43036400
162.99999049	0.00000000	-14.60384000	-9.09817800
163.19999048	0.00000000	-15.01599000	-8.72908400
163.39999047	0.00000000	-15.02214000	-9.09817800
163.59999046	0.00000000	-15.43430000	-9.43036400
163.79999045	0.00000000	-15.76649000	-9.47342500
163.99999043	0.00000000	-15.76649000	-9.47342500
164.19999042	0.00000000	-15.39124000	-9.47342500
164.39999041	0.00000000	-14.64690000	-9.47342500
164.59999040	0.00000000	-14.27165000	-9.47342500
164.79999039	0.00000000	-14.22859000	-9.47342500
164.99999037	0.00000000	-14.22859000	-9.47342500
165.19999036	0.00000000	-14.18553000	-9.47342500
165.39999035	0.00000000	-13.85334000	-9.47342500
165.59999034	0.00000000	-13.48425000	-9.47342500
165.79999033	0.00000000	-13.85334000	-9.47342500
165.99999032	0.00000000	-14.18553000	-9.47342500
166.19999030	0.00000000	-14.22859000	-9.47342500
166.39999029	0.00000000	-14.27165000	-9.47342500
166.59999028	0.00000000	-14.64690000	-9.47342500
166.79999027	0.00000000	-15.34203000	-9.47342500
166.99999026	0.00000000	-15.34203000	-9.51648500
167.19999024	0.00000000	-14.64690000	-9.84867000
167.39999023	0.00000000	-14.27165000	-10.21161000
167.59999022	0.00000000	-14.22859000	-9.84867000
167.79999021	0.00000000	-14.22859000	-9.51648500
167.99999020	0.00000000	-14.22859000	-9.47342500
168.19999018	0.00000000	-14.22859000	-9.47342500
168.39999017	0.00000000	-14.22859000	-9.47342500
168.59999016	0.00000000	-14.22859000	-9.47342500
168.79999015	0.00000000	-14.22859000	-9.47342500
168.99999014	0.00000000	-14.22859000	-9.47342500
169.19999013	0.00000000	-14.22859000	-9.47342500
169.39999011	0.00000000	-14.22859000	-9.47342500
169.59999010	0.00000000	-14.22859000	-9.47342500
169.79999009	0.00000000	-14.22859000	-9.47342500
169.99999008	0.00000000	-14.22859000	-9.47342500
170.19999007	0.00000000	-14.27165000	-9.47342500
170.39999005	0.00000000	-14.60384000	-9.47342500
170.59999004	0.00000000	-14.97293000	-9.47342500
170.79999003	0.00000000	-14.60384000	-9.47342500
170.99999002	0.00000000	-14.32087000	-9.47342500
171.19999001	0.00000000	-14.60384000	-9.47342500
171.39998999	0.00000000	-14.97293000	-9.47342500
171.59998998	0.00000000	-14.60384000	-9.47342500
171.79998997	0.00000000	-14.27165000	-9.47342500
171.99998996	0.00000000	-14.22859000	-9.47342500
172.19998995	0.00000000	-14.22859000	-9.47342500
172.39998994	0.00000000	-14.22859000	-9.47342500
172.59998992	0.00000000	-14.22859000	-9.47342500
172.79998991	0.00000000	-14.22859000	-9.47342500
172.99998990	0.00000000	-14.22859000	-9.47342500
173.19998989	0.00000000	-14.22859000	-9.47342500
173.39998988	0.00000000	-14.22859000	-9.47342500
173.59998986	0.00000000	-14.22859000	-9.47342500
173.79998985	0.00000000	-14.22859000	-9.47342500
173.99998984	0.00000000	-14.22859000	-9.47342500
174.19998983	0.00000000	-14.22859000	-9.47342500
174.39998982	0.00000000	-14.22859000	-9.47342500
174.59998980	0.00000000	-14.22859000	-9.47342500
174.79998979	0.00000000	-14.22859000	-9.47342500
174.99998978	0.00000000	-14.22859000	-9.47342500
175.19998977	0.00000000	-14.22859000	-9.47342500
175.39998976	0.00000000	-14.22859000	-9.47342500
175.59998975	0.00000000	-14.22859000	-9.47342500
175.79998973	0.00000000	-14.22859000	-9.43036400
175.99998972	0.00000000	-14.22859000	-9.09817800
176.19998971	0.00000000	-14.22859000	-8.72908400
176.39998970	0.00000000	-14.22859000	-9.09817800
176.59998969	0.00000000	-14.22859000	-9.43036400
176.79998967	0.00000000	-14.22859000	-9.47342500
176.99998966	0.00000000	-14.22859000	-9.47342500
177.19998965	0.00000000	-14.22859000	-9.47342500
177.39998964	0.00000000	-14.22859000	-9.47342500
177.59998963	0.00000000	-14.22859000	-9.47342500
177.79998961	0.00000000	-14.22859000	-9.47342500
177.99998960	0.00000000	-14.27165000	-9.47342500
178.19998959	0.00000000	-14.60384000	-9.47342500
178.39998958	0.00000000	-14.97293000	-9.47342500
178.59998957	0.00000000	-14.60384000	-9.47342500
178.79998956	0.00000000	-14.27165000	-9.47342500
178.99998954	0.00000000	-14.22859000	-9.47342500
179.19998953	0.00000000	-14.22859000	-9.47342500
179.39998952	0.00000000	-14.22859000	-9.47342500
179.59998951	0.00000000	-14.22859000	-9.47342500
179.79998950	0.00000000	-14.22859000	-9.47342500
179.99998948	0.00000000	-14.22859000	-9.47342500
180.19998947	0.00000000	-14.22859000	-9.47342500
180.39998946	0.00000000	-14.22859000	-9.47342500
180.59998945	0.00000000	-14.22859000	-9.47342500
180.79998944	0.00000000	-14.22859000	-9.47342500
180.99998942	0.00000000	-14.22859000	-9.47342500
181.19998941	0.00000000	-14.22859000	-9.47342500
181.39998940	0.00000000	-14.22859000	-9.47342500
181.59998939	0.00000000	-14.22859000	-9.43036400
181.79998938	0.00000000	-14.22859000	-9.05511800
181.99998937	0.00000000	-14.22859000	-8.35998900
182.19998935	0.00000000	-14.22859000	-8.35998900
182.39998934	0.00000000	-14.22859000	-9.05511800
182.59998933	0.00000000	-14.22859000	-9.43036400
182.79998932	0.00000000	-14.22859000	-9.47342500
182.99998931	0.00000000	-14.22859000	-9.47342500
183.19998929	0.00000000	-14.22859000	-9.47342500
183.39998928	0.00000000	-14.22859000	-9.47342500
183.59998927	0.00000000	-14.22859000	-9.47342500
183.79998926	0.00000000	-14.22859000	-9.47342500
183.99998925	0.00000000	-14.22859000	-9.47342500
184.19998923	0.00000000	-14.22859000	-9.43036400
184.39998922	0.00000000	-14.22859000	-9.05511800
184.59998921	0.00000000	-14.22859000	-8.35998900
184.79998920	0.00000000	-14.22859000	-8.31077700
184.99998919	0.00000000	-14.22859000	-8.63681000
185.19998918	0.00000000	-14.22859000	-8.31077700
185.39998916	0.00000000	-14.22859000	-8.35998900
185.59998915	0.00000000	-14.22859000	-9.05511800
185.79998914	0.00000000	-14.22859000	-9.43036400
185.99998913	0.00000000	-14.22859000	-9.47342500
186.19998912	0.00000000	-14.22859000	-9.51648500
186.39998910	0.00000000	-14.22859000	-9.84867000
186.59998909	0.00000000	-14.27165000	-10.21161000
186.79998908	0.00000000	-14.64690000	-9.84867000
186.99998907	0.00000000	-15.34203000	-9.51648500
187.19998906	0.00000000	-15.34203000	-9.47342500
187.39998904	0.00000000	-14.64690000	-9.43036400
187.59998903	0.00000000	-14.27165000	-9.05511800
187.79998902	0.00000000	-14.22859000	-8.35998900
187.99998901	0.00000000	-14.22859000	-8.35998900
188.19998900	0.00000000	-14.22859000	-9.05511800
188.39998899	0.00000000	-14.22859000	-9.43036400
188.59998897	0.00000000	-14.22859000	-9.47342500
188.79998896	0.00000000	-14.22859000	-9.47342500
188.99998895	0.00000000	-14.22859000	-9.47342500
189.19998894	0.00000000	-14.22859000	-9.47342500
189.39998893	0.00000000	-14.22859000	-9.47342500
189.59998891	0.00000000	-14.22859000	-9.47342500
189.79998890	0.00000000	-14.22859000	-9.47342500
189.99998889	0.00000000	-14.22859000	-9.47342500
190.19998888	0.00000000	-14.22859000	-9.47342500
190.39998887	0.00000000	-14.27165000	-9.47342500
190.59998885	0.00000000	-14.60384000	-9.47342500
190.79998884	0.00000000	-14.97293000	-9.43036400
190.99998883	0.00000000	-14.60384000	-9.05511800
191.19998882	0.00000000	-14.27165000	-8.31077700
191.39998881	0.00000000	-14.22859000	-7.98474400
191.59998880	0.00000000	-14.22859000	-8.31077700
191.79998878	0.00000000	-14.22859000	-9.05511800
191.99998877	0.00000000	-14.22859000	-9.43036400
192.19998876	0.00000000	-14.22859000	-9.47342500
192.39998875	0.00000000	-14.22859000	-9.51648500
192.59998874	0.00000000	-14.22859000	-9.84867000
192.79998872	0.00000000	-14.27165000	-10.21161000
192.99998871	0.00000000	-14.64690000	-9.84867000
193.19998870	0.00000000	-15.34203000	-9.51648500
193.39998869	0.00000000	-15.39124000	-9.47342500
193.59998868	0.00000000	-15.02214000	-9.47342500
193.79998866	0.00000000	-15.01599000	-9.47342500
193.99998865	0.00000000	-14.60384000	-9.47342500
194.19998864	0.00000000	-14.27165000	-9.47342500
194.39998863	0.00000000	-14.22859000	-9.47342500
194.59998862	0.00000000	-14.22859000	-9.47342500
194.79998861	0.00000000	-14.22859000	-9.47342500
194.99998859	0.00000000	-14.22859000	-9.47342500
195.19998858	0.00000000	-14.22859000	-9.47342500
195.39998857	0.00000000	-14.27165000	-9.47342500
195.59998856	0.00000000	-14.64690000	-9.47342500
195.79998855	0.00000000	-15.39124000	-9.47342500
195.99998853	0.00000000	-15.76649000	-9.47342500
