Time	Channel A	Channel B	Channel C
(us)	(V)	(mV)	(mV)

-4.49999956	0.00000000	20.50935000	4.73671200
-4.29999957	0.00000000	20.50935000	4.73671200
-4.09999958	0.00000000	20.17716000	4.73671200
-3.89999959	0.00000000	19.80807000	4.73671200
-3.69999960	0.00000000	20.17716000	4.73671200
-3.49999962	0.00000000	20.50935000	4.73671200
-3.29999963	0.00000000	20.55241000	4.73671200
-3.09999964	0.00000000	20.55241000	4.73671200
-2.89999965	0.00000000	20.55241000	4.73671200
-2.69999966	0.00000000	20.55241000	4.73671200
-2.49999968	0.00000000	20.50935000	4.73671200
-2.29999969	0.00000000	20.13410000	4.77977300
-2.09999970	0.00000000	19.43897000	5.11195900
-1.89999971	0.00000000	19.43897000	5.47490100
-1.69999972	0.00000000	20.13410000	5.15501900
-1.49999973	0.00000000	20.50935000	5.15501900
-1.29999975	0.00000000	20.55241000	5.47490100
-1.09999976	0.00000000	20.55241000	5.11195900
-0.89999977	0.00000000	20.55241000	4.82898600
-0.69999978	0.00000000	20.55241000	5.11195900
-0.49999979	0.00000000	20.55241000	5.47490100
-0.29999981	0.31803640	20.55241000	5.11195900
-0.09999982	0.63668800	20.55241000	4.77977300
0.10000017	0.95533960	20.50935000	4.73671200
0.30000016	0.95533960	20.17716000	4.73671200
0.50000015	0.79601380	19.76501000	4.73671200
0.70000013	0.15871060	19.75886000	4.73671200
0.90000012	-0.63668800	19.38976000	4.73671200
1.10000011	-1.75196900	19.43897000	4.73671200
1.30000010	-2.54859700	20.13410000	4.77977300
1.50000009	-2.86724900	20.50935000	5.15501900
1.70000008	-2.22994600	20.55241000	5.89320800
1.90000006	-0.95533960	20.55241000	6.26845500
2.10000005	0.95533960	20.50935000	6.26845500
2.30000004	3.02657500	20.17716000	5.89320800
2.50000003	4.77854300	19.80807000	5.15501900
2.70000002	5.41584600	20.13410000	4.77977300
2.90000000	4.61921700	20.13410000	4.73671200
3.09999999	2.38927200	19.80807000	4.73671200
3.29999998	-0.63668800	20.13410000	4.73671200
3.49999997	-4.14124000	20.08489000	4.73671200
3.69999996	-6.84916400	19.43897000	4.77977300
3.89999994	-7.96444400	19.43897000	5.15501900
4.09999993	-7.16781500	20.13410000	5.89320800
4.29999992	-4.45989200	20.50935000	6.26845500
4.49999991	-0.31803640	20.55241000	6.31151500
4.69999990	4.14124000	20.50935000	6.26845500
4.89999989	7.64579200	20.13410000	5.89320800
5.09999987	9.39837600	19.43897000	5.15501900
5.29999986	8.76107300	19.38976000	4.77977300
5.49999985	5.89382400	19.71580000	4.73671200
5.69999984	1.59264300	19.34670000	4.73671200
5.89999983	-3.18590100	19.06373000	4.73671200
6.09999981	-7.16781500	19.38976000	4.77977300
6.29999980	-9.23905000	20.13410000	5.15501900
6.49999979	-9.07972400	20.50935000	5.89320800
6.69999978	-6.53112700	20.55241000	6.26845500
6.89999977	-2.70792300	20.55241000	6.26845500
7.09999975	1.75196900	20.55241000	5.89320800
7.29999974	5.41584600	20.55241000	5.15501900
7.49999973	7.48646600	20.50935000	4.77977300
7.69999972	7.48646600	20.13410000	4.73671200
7.89999971	5.89382400	19.38976000	4.73671200
8.09999970	2.86724900	19.06373000	4.73671200
8.29999968	-0.47736220	19.38976000	4.73671200
8.49999967	-3.34522600	20.13410000	4.73671200
8.69999966	-4.93786900	20.50935000	4.73671200
8.89999965	-5.09719500	20.50935000	4.73671200
9.09999964	-4.14124000	20.13410000	4.73671200
9.29999962	-2.38927200	19.43897000	4.73671200
9.49999961	-0.31803640	19.43897000	4.73671200
9.69999960	1.43331700	20.08489000	4.73671200
9.89999959	2.38927200	20.13410000	4.73671200
10.09999958	2.54859700	19.80807000	4.73671200
10.29999956	2.07062000	20.13410000	4.73671200
10.49999955	1.27399100	20.13410000	4.73671200
10.69999954	0.31803640	19.80807000	4.73671200
10.89999953	-0.31803640	20.17716000	4.77977300
11.09999952	-0.79601380	20.46014000	5.11195900
11.29999951	-0.95533960	20.17716000	5.47490100
11.49999949	-0.95533960	19.76501000	5.11195900
11.69999948	-0.63668800	19.75886000	4.77977300
11.89999947	-0.31803640	19.38976000	4.77977300
12.09999946	-0.15871060	19.43897000	5.11195900
12.29999945	-0.15871060	20.08489000	5.47490100
12.49999943	0.00000000	20.13410000	5.11195900
12.69999942	0.00000000	19.76501000	4.77977300
12.89999941	0.00000000	19.80192000	4.73671200
13.09999940	0.00000000	19.72195000	4.73671200
13.29999939	0.00000000	19.75886000	4.73671200
13.49999937	0.00000000	19.38976000	4.73671200
13.69999936	0.00000000	19.38976000	4.73671200
13.89999935	-0.15871060	19.75886000	4.73671200
14.09999934	-0.15871060	19.72195000	4.73671200
14.29999933	-0.15871060	19.75886000	4.73671200
14.49999932	-0.15871060	19.34670000	4.73671200
14.69999930	-0.15871060	19.06373000	4.73671200
14.89999929	0.00000000	19.34670000	4.73671200
15.09999928	0.00000000	19.71580000	4.73671200
15.29999927	0.00000000	19.34670000	4.73671200
15.49999926	0.00000000	19.01451000	4.73671200
15.69999924	0.00000000	18.97145000	4.73671200
15.89999923	0.00000000	18.97145000	4.73671200
16.09999922	0.00000000	18.97145000	4.73671200
16.29999921	-0.15871060	19.01451000	4.73671200
16.49999920	-0.15871060	19.38976000	4.73671200
16.69999919	-0.15871060	20.13410000	4.73671200
16.89999917	0.00000000	20.50935000	4.73671200
17.09999916	0.00000000	20.59547000	4.73671200
17.29999915	0.00000000	20.97072000	4.73671200
17.49999914	0.00000000	21.71506000	4.73671200
17.69999913	0.00000000	22.04109000	4.73671200
17.89999911	0.00000000	21.66585000	4.73671200
18.09999910	0.00000000	20.50935000	4.73671200
18.29999909	0.00000000	18.97145000	4.73671200
18.49999908	0.00000000	17.39050000	4.73671200
18.69999907	0.00000000	15.85261000	4.73671200
18.89999905	0.00000000	14.73917000	4.73671200
19.09999904	0.00000000	14.78223000	4.73671200
19.29999903	0.00000000	16.32013000	4.73671200
19.49999902	0.00000000	19.06373000	4.73671200
19.69999901	0.00000000	22.55167000	4.73671200
19.89999900	0.00000000	26.40871000	4.73671200
20.09999898	0.00000000	29.48450000	4.73671200
20.29999897	0.00000000	30.97318000	4.73671200
20.49999896	0.00000000	30.13656000	4.73671200
20.69999895	0.00000000	26.23031000	4.73671200
20.89999894	0.00000000	20.04183000	4.73671200
21.09999892	0.00000000	12.64764000	4.73671200
21.29999891	0.00000000	5.33956700	4.73671200
21.49999890	0.00000000	-0.00615157	4.73671200
21.69999889	0.00000000	-1.45177200	4.73671200
21.89999888	0.00000000	2.03617100	4.73671200
22.09999886	0.00000000	10.21776000	4.73671200
22.29999885	0.00000000	21.48130000	4.73671200
22.49999884	0.00000000	34.23351000	4.73671200
22.69999883	0.00000000	45.34940000	4.73671200
22.89999882	0.00000000	51.45177000	4.77977300
23.09999881	0.00000000	50.60900000	5.15501900
23.29999879	0.00000000	42.05216000	5.89320800
23.49999878	0.00000000	27.34990000	6.31151500
23.69999877	0.00000000	9.62106200	6.72982200
23.89999876	0.00000000	-7.02509800	7.42495000
24.09999875	0.00000000	-18.57160000	7.42495000
24.29999873	0.00000000	-22.75467000	6.68676100
24.49999872	0.00000000	-17.18135000	5.89320800
24.69999871	0.00000000	-2.14689900	4.64443900
24.89999870	0.00000000	19.10679000	2.78051200
25.09999869	0.00000000	41.49237000	0.87967510
25.29999867	0.00000000	59.96555000	0.09227362
25.49999866	0.00000000	69.54970000	0.09227362
25.69999865	0.00000000	67.27362000	0.92888770
25.89999864	0.00000000	54.15231000	3.29109200
26.09999863	0.00000000	33.21235000	6.77903500
26.29999862	0.00000000	8.45841400	11.00517000
26.49999860	0.00000000	-14.62229000	14.81299000
26.69999859	0.00000000	-30.01968000	16.71998000
26.89999858	0.00000000	-33.55684000	16.30167000
27.09999857	0.00000000	-25.12918000	13.14591000
27.29999856	0.00000000	-7.31422200	7.33882900
27.49999854	0.00000000	16.27707000	0.00000000
27.69999853	0.00000000	40.60654000	-7.33882900
27.89999852	0.00000000	59.91634000	-13.10285000
28.09999851	0.00000000	69.96801000	-15.70497000
28.29999850	0.00000000	68.47932000	-13.70571000
28.49999848	0.00000000	56.19463000	-6.74212600
28.69999847	0.00000000	36.83563000	3.70939900
28.89999846	0.00000000	14.40699000	15.69882000
29.09999845	0.00000000	-6.42839500	26.84547000
29.29999844	0.00000000	-20.38632000	34.14124000
29.49999843	0.00000000	-25.12918000	35.63607000
29.69999841	0.00000000	-20.52165000	30.52411000
29.89999840	0.00000000	-7.77559000	18.90994000
30.09999839	0.00000000	9.99630800	3.15575800
30.29999838	0.00000000	28.93085000	-12.68455000
30.49999837	0.00000000	44.79576000	-25.09227000
30.69999835	0.00000000	54.14616000	-32.01279000
30.89999834	0.00000000	55.77633000	-31.55143000
31.09999833	0.00000000	49.95694000	-23.00689000
31.29999832	0.00000000	37.99828000	-7.94783400
31.49999831	0.00000000	22.55167000	10.58686000
31.69999829	0.00000000	7.48031400	28.34030000
31.89999828	0.00000000	-4.15231300	41.44316000
32.09999827	0.00000000	-10.00861000	46.83194000
32.29999826	0.00000000	-9.27042300	43.02411000
32.49999825	0.00000000	-2.70669300	31.45300000
32.69999824	0.00000000	8.45841400	14.76993000
32.89999822	0.00000000	21.16142000	-4.14000900
33.09999821	0.00000000	32.04970000	-21.09375000
33.29999820	0.00000000	39.44390000	-31.96973000
33.49999819	0.00000000	42.10138000	-35.08243000
33.69999818	0.00000000	39.06865000	-30.05659000
33.89999816	0.00000000	31.39763000	-17.70423000
34.09999815	0.00000000	21.75812000	-1.11343500
34.29999814	0.00000000	12.13091000	16.30783000
34.49999813	0.00000000	5.19808000	30.94242000
34.69999812	0.00000000	2.82357300	39.48696000
34.89999810	0.00000000	4.69365100	40.28051000
35.09999809	0.00000000	10.08243000	33.72293000
35.29999808	0.00000000	17.34744000	20.99532000
35.49999807	0.00000000	24.32333000	5.24729300
35.69999806	0.00000000	29.34916000	-9.43036400
35.89999805	0.00000000	31.62524000	-19.88804000
36.09999803	0.00000000	30.08735000	-24.16338000
36.29999802	0.00000000	25.15994000	-21.46899000
36.49999801	0.00000000	19.01451000	-12.68455000
36.69999800	0.00000000	13.24434000	-0.37524600
36.89999799	0.00000000	9.43651600	11.94021000
37.09999797	0.00000000	8.96899500	21.60433000
37.29999796	0.00000000	11.24508000	26.20571000
37.49999795	0.00000000	15.11442000	24.71703000
37.69999794	0.00000000	20.13410000	17.83957000
37.89999793	0.00000000	24.74163000	7.89247000
38.09999791	0.00000000	27.86048000	-2.09153500
38.29999790	0.00000000	29.01698000	-9.38730200
38.49999789	0.00000000	27.86048000	-12.03863000
38.69999788	0.00000000	24.78469000	-8.96899500
38.89999787	0.00000000	20.55241000	-0.97810030
39.09999786	0.00000000	16.32013000	8.91978400
39.29999784	0.00000000	13.15822000	17.37820000
39.49999783	0.00000000	11.20202000	21.97957000
39.69999782	0.00000000	10.45768000	21.55512000
39.89999781	0.00000000	11.62032000	15.79724000
40.09999780	0.00000000	14.27165000	6.26845500
40.29999778	0.00000000	17.39050000	-3.72170300
40.49999777	0.00000000	20.55241000	-11.38656000
40.69999776	0.00000000	23.62205000	-14.81914000
40.89999775	0.00000000	25.94734000	-12.54921000
41.09999774	0.00000000	26.74089000	-5.62869100
41.29999772	0.00000000	26.40871000	4.04158400
41.49999771	0.00000000	25.20300000	14.72687000
41.69999770	0.00000000	23.24680000	22.76083000
41.89999769	0.00000000	20.50935000	25.55364000
42.09999768	0.00000000	17.43356000	23.64665000
42.29999767	0.00000000	14.73917000	17.46432000
42.49999765	0.00000000	13.15822000	8.22465500
42.69999764	0.00000000	12.73991000	-1.35334600
42.89999763	0.00000000	13.11516000	-9.06126900
43.09999762	0.00000000	14.32087000	-12.54921000
43.29999761	0.00000000	16.22785000	-11.47884000
43.49999759	0.00000000	18.55315000	-6.87746000
43.69999758	0.00000000	20.50935000	0.04306102
43.89999757	0.00000000	22.09030000	7.33882900
44.09999756	0.00000000	23.24680000	13.18898000
44.29999755	0.00000000	23.67126000	16.63386000
44.49999753	0.00000000	23.71432000	17.08907000
44.69999752	0.00000000	23.71432000	14.40084000
44.89999751	0.00000000	23.67126000	10.21161000
45.09999750	0.00000000	23.24680000	5.15501900
45.29999749	0.00000000	22.04109000	0.59670270
45.49999748	0.00000000	20.08489000	-2.18380900
45.69999746	0.00000000	17.34744000	-2.97736200
45.89999745	0.00000000	14.27165000	-2.22687000
46.09999744	0.00000000	11.53420000	0.09227362
46.29999743	0.00000000	9.62106200	3.11269700
46.49999742	0.00000000	8.92593500	5.89320800
46.69999740	0.00000000	10.54995000	8.21850300
46.89999739	0.00000000	14.78223000	10.16855000
47.09999738	0.00000000	20.59547000	10.86983000
47.29999737	0.00000000	26.78395000	10.16855000
47.49999736	0.00000000	32.18504000	8.21850300
47.69999734	0.00000000	35.21161000	5.89320800
47.89999733	0.00000000	34.79330000	3.15575800
48.09999732	0.00000000	30.55487000	0.51058070
48.29999731	0.00000000	23.57899000	-1.02116100
48.49999730	0.00000000	15.43430000	-1.06422200
48.69999729	0.00000000	7.34498000	0.13533460
48.89999727	0.00000000	1.61786400	2.46063000
49.09999726	0.00000000	0.03690945	5.93626900
49.29999725	0.00000000	2.78051200	9.33809000
49.49999724	0.00000000	9.34424200	11.70029000
49.69999723	0.00000000	18.63927000	12.45079000
49.89999721	0.00000000	28.23573000	11.65723000
50.09999720	0.00000000	35.90674000	8.91978400
50.29999719	0.00000000	38.98253000	4.73671200
50.49999718	0.00000000	36.74950000	0.51058070
50.69999717	0.00000000	30.55487000	-2.55905500
50.89999715	0.00000000	21.66585000	-3.76476400
51.09999714	0.00000000	12.08784000	-2.97736200
51.29999713	0.00000000	4.77977300	-0.64591530
51.49999712	0.00000000	1.66092500	3.24803100
51.69999711	0.00000000	3.19881900	7.80019600
51.89999710	0.00000000	8.92593500	11.65723000
52.09999708	0.00000000	16.97219000	13.56422000
52.29999707	0.00000000	24.69857000	13.23819000
52.49999706	0.00000000	30.46875000	10.91289000
52.69999705	0.00000000	32.78789000	7.47416300
52.89999704	0.00000000	30.88705000	3.62327700
53.09999702	0.00000000	25.94734000	0.55364170
53.29999701	0.00000000	19.38976000	-1.02116100
53.49999700	0.00000000	13.24434000	-1.02116100
53.69999699	0.00000000	8.96899500	0.51058070
53.89999698	0.00000000	7.48031400	3.15575800
54.09999696	0.00000000	9.43651600	5.85014700
54.29999695	0.00000000	14.73917000	7.75713500
54.49999694	0.00000000	21.20448000	8.54453700
54.69999693	0.00000000	26.23031000	7.75713500
54.89999692	0.00000000	28.97392000	5.89320800
55.09999691	0.00000000	28.93085000	3.57406500
55.29999689	0.00000000	25.85507000	1.71013800
55.49999688	0.00000000	20.50935000	0.97194880
55.69999687	0.00000000	14.78223000	2.12844500
55.89999686	0.00000000	10.54995000	4.77977300
56.09999685	0.00000000	8.96899500	7.80019600
56.29999683	0.00000000	10.08243000	10.11934000
56.49999682	0.00000000	13.15822000	10.82677000
56.69999681	0.00000000	17.39050000	9.65797200
56.89999680	0.00000000	21.66585000	6.17618100
57.09999679	0.00000000	25.11688000	1.62401600
57.29999677	0.00000000	27.01772000	-2.60211600
57.49999676	0.00000000	26.23031000	-5.24729300
57.69999675	0.00000000	23.24680000	-5.24729300
57.89999674	0.00000000	19.43897000	-2.55905500
58.09999673	0.00000000	16.32013000	2.08538400
58.29999672	0.00000000	14.32087000	7.89247000
58.49999670	0.00000000	13.20128000	13.61343000
58.69999669	0.00000000	13.57652000	17.46432000
58.89999668	0.00000000	15.47736000	18.21481000
59.09999667	0.00000000	17.76575000	15.88336000
59.29999666	0.00000000	20.08489000	10.45152000
59.49999664	0.00000000	21.62278000	3.15575800
59.69999663	0.00000000	22.04109000	-4.09079700
59.89999662	0.00000000	21.66585000	-9.10433000
60.09999661	0.00000000	20.50935000	-10.27313000
60.29999660	0.00000000	19.01451000	-7.99089500
60.49999658	0.00000000	17.85802000	-2.51599400
60.69999657	0.00000000	17.43356000	5.15501900
60.89999656	0.00000000	17.43356000	13.19513000
61.09999655	0.00000000	17.85802000	18.95300000
61.29999654	0.00000000	19.01451000	20.90920000
61.49999653	0.00000000	20.50935000	19.00221000
61.69999651	0.00000000	21.62278000	13.56422000
61.89999650	0.00000000	21.62278000	5.89320800
62.09999649	0.00000000	20.50935000	-2.18380900
62.29999648	0.00000000	18.92839000	-8.31692900
62.49999647	0.00000000	17.01525000	-11.05438000
62.69999645	0.00000000	15.15748000	-9.94094400
62.89999644	0.00000000	14.78223000	-5.67175200
63.09999643	0.00000000	15.85261000	0.88582670
63.29999642	0.00000000	17.39050000	8.58759800
63.49999641	0.00000000	19.01451000	15.10212000
63.69999639	0.00000000	20.92766000	19.00221000
63.89999638	0.00000000	22.82849000	19.42052000
64.09999637	0.00000000	23.57899000	16.72613000
64.29999636	0.00000000	23.20374000	11.70029000
64.49999635	0.00000000	21.62278000	5.20423200
64.69999634	0.00000000	18.97145000	-0.60285430
64.89999632	0.00000000	16.32013000	-4.55831700
65.09999631	0.00000000	14.73917000	-6.87746000
65.29999630	0.00000000	14.32087000	-6.82824800
65.49999629	0.00000000	14.73917000	-4.18307100
65.69999628	0.00000000	16.27707000	0.00000000
65.89999626	0.00000000	18.55315000	4.26919300
66.09999625	0.00000000	20.46014000	7.80019600
66.29999624	0.00000000	21.62278000	10.53765000
66.49999623	0.00000000	21.62278000	12.11860000
66.69999622	0.00000000	20.46014000	12.53691000
66.89999620	0.00000000	18.55315000	12.16166000
67.09999619	0.00000000	16.27707000	10.96211000
67.29999618	0.00000000	14.82529000	9.00590400
67.49999617	0.00000000	15.15748000	6.26845500
67.69999616	0.00000000	17.05832000	3.15575800
67.89999615	0.00000000	19.38976000	0.04306102
68.09999613	0.00000000	22.09030000	-2.69439000
68.29999612	0.00000000	24.36639000	-4.60137700
68.49999611	0.00000000	25.06767000	-5.29650500
68.69999610	0.00000000	23.94808000	-3.76476400
68.89999609	0.00000000	20.83538000	-0.28297240
69.09999607	0.00000000	17.01525000	3.99237200
69.29999606	0.00000000	13.11516000	9.05511800
69.49999605	0.00000000	10.08243000	13.61343000
69.69999604	0.00000000	8.92593500	16.35089000
69.89999603	0.00000000	10.13164000	16.71998000
70.09999601	0.00000000	13.61959000	14.76993000
70.29999600	0.00000000	19.01451000	10.49459000
70.49999599	0.00000000	24.78469000	4.73671200
70.69999598	0.00000000	29.39222000	-1.02116100
70.89999597	0.00000000	31.71752000	-5.29650500
71.09999596	0.00000000	30.93012000	-7.20349400
71.29999594	0.00000000	27.43602000	-6.45300100
71.49999593	0.00000000	21.62278000	-2.97736200
71.69999592	0.00000000	14.69611000	1.95004900
71.89999591	0.00000000	8.55068800	7.00664300
72.09999590	0.00000000	4.69365100	10.86983000
72.29999588	0.00000000	4.26919300	13.23819000
72.49999587	0.00000000	6.96973400	13.56422000
72.69999586	0.00000000	11.99557000	11.70029000
72.89999585	0.00000000	18.59621000	8.26771600
73.09999584	0.00000000	25.11688000	4.82283400
73.29999582	0.00000000	30.17962000	2.12844500
73.49999581	0.00000000	32.46801000	0.97194880
73.69999580	0.00000000	31.71752000	1.66707700
73.89999579	0.00000000	27.86048000	3.15575800
74.09999578	0.00000000	22.13336000	4.68750000
74.29999577	0.00000000	16.32013000	5.80093500
74.49999575	0.00000000	11.66339000	5.80093500
74.69999574	0.00000000	8.92593500	4.68750000
74.89999573	0.00000000	8.50147600	3.11269700
75.09999572	0.00000000	10.03937000	1.24877000
75.29999571	0.00000000	13.15822000	-0.23375980
75.49999569	0.00000000	17.39050000	0.17839570
75.69999568	0.00000000	21.57972000	2.08538400
75.89999567	0.00000000	24.32333000	5.19808000
76.09999566	0.00000000	25.15994000	9.05511800
76.29999565	0.00000000	24.78469000	12.45079000
76.49999563	0.00000000	23.20374000	14.35162000
76.69999562	0.00000000	20.59547000	13.56422000
76.89999561	0.00000000	18.27633000	10.49459000
77.09999560	0.00000000	17.05832000	5.80093500
77.29999559	0.00000000	16.27707000	0.04306102
77.49999558	0.00000000	16.27707000	-5.29650500
77.69999556	0.00000000	16.97219000	-8.36614100
77.89999555	0.00000000	17.34744000	-8.36614100
78.09999554	0.00000000	17.39050000	-5.29650500
78.29999553	0.00000000	17.34744000	0.09227362
78.49999552	0.00000000	17.01525000	6.26845500
78.69999550	0.00000000	16.64616000	12.07554000
78.89999549	0.00000000	17.05832000	16.30167000
79.09999548	0.00000000	17.85802000	17.83957000
79.29999547	0.00000000	19.38976000	16.35089000
79.49999546	0.00000000	21.29675000	12.49385000
79.69999544	0.00000000	22.46555000	7.42495000
79.89999543	0.00000000	23.24680000	1.66707700
80.09999542	0.00000000	23.16068000	-3.34645700
80.29999541	0.00000000	21.62278000	-6.04699800
80.49999540	0.00000000	18.97145000	-6.50221400
80.69999539	0.00000000	16.22785000	-4.60137700
80.89999537	0.00000000	13.94562000	-1.53174200
81.09999536	0.00000000	12.41388000	2.04232300
81.29999535	0.00000000	12.82603000	6.26845500
81.49999534	0.00000000	14.69611000	10.11934000
81.69999533	0.00000000	17.39050000	12.45079000
81.89999531	0.00000000	20.08489000	13.32431000
82.09999530	0.00000000	22.09030000	12.91215000
82.29999529	0.00000000	23.62205000	11.74951000
82.49999528	0.00000000	24.32333000	9.38115100
82.69999527	0.00000000	23.16068000	6.31151500
82.89999525	0.00000000	20.55241000	3.15575800
83.09999524	0.00000000	17.85802000	0.04306102
83.29999523	0.00000000	15.94488000	-2.64517700
83.49999522	0.00000000	15.11442000	-4.18307100
83.69999521	0.00000000	15.47736000	-4.18307100
83.89999520	0.00000000	16.18479000	-2.60211600
84.09999518	0.00000000	17.01525000	0.46751960
84.29999517	0.00000000	17.76575000	4.36146600
84.49999516	0.00000000	18.59621000	8.26771600
84.69999515	0.00000000	19.30364000	12.11860000
84.89999514	0.00000000	19.71580000	14.76993000
85.09999512	0.00000000	19.34670000	15.14518000
85.29999511	0.00000000	19.01451000	13.23819000
85.49999510	0.00000000	18.97145000	9.38115100
85.69999509	0.00000000	19.01451000	4.73671200
85.89999508	0.00000000	19.34670000	0.09227362
86.09999506	0.00000000	19.71580000	-3.76476400
86.29999505	0.00000000	19.30364000	-5.67175200
86.49999504	0.00000000	18.59621000	-5.29650500
86.69999503	0.00000000	17.76575000	-2.60211600
86.89999502	0.00000000	16.97219000	1.66707700
87.09999501	0.00000000	15.80955000	6.68676100
87.29999499	0.00000000	14.73917000	11.65723000
87.49999498	0.00000000	14.73917000	14.67766000
87.69999497	0.00000000	15.85261000	14.72072000
87.89999496	0.00000000	17.39050000	12.07554000
88.09999495	0.00000000	18.97145000	7.84940900
88.29999493	0.00000000	20.50935000	3.20497000
88.49999492	0.00000000	21.66585000	-1.02116100
88.69999491	0.00000000	22.04109000	-3.71555100
88.89999490	0.00000000	21.66585000	-4.09079700
89.09999489	0.00000000	20.46014000	-2.18380900
89.29999487	0.00000000	18.55315000	1.62401600
89.49999486	0.00000000	16.27707000	5.85014700
89.69999485	0.00000000	14.73917000	9.38115100
89.89999484	0.00000000	14.32087000	12.03248000
90.09999483	0.00000000	14.69611000	12.77067000
90.29999482	0.00000000	15.85261000	10.86983000
90.49999480	0.00000000	17.39050000	7.43110200
90.69999479	0.00000000	18.92839000	3.20497000
90.89999478	0.00000000	20.08489000	-0.60285430
91.09999477	0.00000000	20.50935000	-2.55905500
91.29999476	0.00000000	20.50935000	-2.55905500
91.49999474	0.00000000	20.13410000	-0.55979330
91.69999473	0.00000000	19.38976000	3.62327700
91.89999472	0.00000000	19.01451000	8.58759800
92.09999471	0.00000000	18.97145000	12.40773000
92.29999470	0.00000000	18.92839000	14.30241000
92.49999468	0.00000000	18.55315000	13.14591000
92.69999467	0.00000000	17.80881000	9.38115100
92.89999466	0.00000000	17.39050000	4.77977300
93.09999465	0.00000000	16.97219000	0.51058070
93.29999464	0.00000000	16.22785000	-2.55905500
93.49999463	0.00000000	15.85261000	-3.71555100
93.69999461	0.00000000	15.85261000	-2.55905500
93.89999460	0.00000000	16.27707000	0.51058070
94.09999459	0.00000000	17.48277000	4.73671200
94.29999458	0.00000000	19.38976000	8.91978400
94.49999457	0.00000000	21.66585000	11.61417000
94.69999455	0.00000000	23.20374000	12.03248000
94.89999454	0.00000000	23.62205000	10.49459000
95.09999453	0.00000000	23.20374000	7.38188900
95.29999452	0.00000000	21.62278000	3.20497000
95.49999451	0.00000000	18.92839000	-0.60285430
95.69999449	0.00000000	15.85261000	-2.55905500
95.89999448	0.00000000	13.15822000	-2.60211600
96.09999447	0.00000000	11.57726000	-1.02116100
96.29999446	0.00000000	11.20202000	2.04232300
96.49999445	0.00000000	12.03863000	5.85014700
96.69999444	0.00000000	14.78223000	8.91978400
96.89999442	0.00000000	18.97145000	10.49459000
97.09999441	0.00000000	23.16068000	10.49459000
97.29999440	0.00000000	25.90428000	8.96284400
97.49999439	0.00000000	26.69783000	6.26845500
97.69999438	0.00000000	25.99040000	3.24803100
97.89999436	0.00000000	23.99729000	0.92888770
98.09999435	0.00000000	21.20448000	0.13533460
98.29999434	0.00000000	16.97219000	0.46136810
98.49999433	0.00000000	12.46309000	1.62401600
98.69999432	0.00000000	10.08243000	3.11269700
98.89999430	0.00000000	9.62106200	4.31840500
99.09999429	0.00000000	10.45768000	5.11195900
99.29999428	0.00000000	13.15822000	5.89320800
99.49999427	0.00000000	16.97219000	6.26845500
99.69999426	0.00000000	20.50935000	6.31151500
99.89999425	0.00000000	23.62205000	6.31151500
100.09999423	0.00000000	25.90428000	6.31151500
100.29999422	0.00000000	26.27953000	6.35457700
100.49999421	0.00000000	24.78469000	6.68676100
100.69999420	0.00000000	22.09030000	7.00664300
100.89999419	0.00000000	18.92839000	6.22539300
101.09999417	0.00000000	15.47736000	4.73671200
101.29999416	0.00000000	12.41388000	3.15575800
101.49999415	0.00000000	11.24508000	1.62401600
101.69999414	0.00000000	11.53420000	0.46136810
101.89999413	0.00000000	12.73991000	0.09227362
102.09999411	0.00000000	14.64690000	0.51058070
102.29999410	0.00000000	16.97219000	2.08538400
102.49999409	0.00000000	18.92839000	4.73671200
102.69999408	0.00000000	20.55241000	7.43110200
102.89999407	0.00000000	22.04109000	9.38115100
103.09999406	0.00000000	22.78543000	10.53765000
103.29999404	0.00000000	22.04109000	10.45152000
103.49999403	0.00000000	20.55241000	8.54453700
103.69999402	0.00000000	18.97145000	5.15501900
103.89999401	0.00000000	17.39050000	2.08538400
104.09999400	0.00000000	15.85261000	0.09227362
104.29999398	0.00000000	14.69611000	-1.06422200
104.49999397	0.00000000	14.32087000	-1.06422200
104.69999396	0.00000000	14.69611000	0.13533460
104.89999395	0.00000000	15.85261000	2.41141700
105.09999394	0.00000000	17.39050000	5.47490100
105.29999392	0.00000000	18.92839000	7.75713500
105.49999391	0.00000000	20.08489000	8.96284400
105.69999390	0.00000000	20.46014000	8.96284400
105.89999389	0.00000000	20.08489000	7.80019600
106.09999388	0.00000000	18.97145000	5.89320800
106.29999387	0.00000000	17.80881000	3.61712600
106.49999385	0.00000000	17.05832000	2.08538400
106.69999384	0.00000000	16.64616000	1.66707700
106.89999383	0.00000000	17.01525000	1.99311000
107.09999382	0.00000000	17.39050000	2.78051200
107.29999381	0.00000000	17.80881000	3.57406500
107.49999379	0.00000000	18.55315000	4.77977300
107.69999378	0.00000000	18.92839000	6.22539300
107.89999377	0.00000000	18.92839000	6.96358300
108.09999376	0.00000000	18.55315000	6.22539300
108.29999375	0.00000000	17.76575000	4.73671200
108.49999374	0.00000000	17.01525000	3.19881900
108.69999372	0.00000000	16.22785000	2.04232300
108.89999371	0.00000000	15.85261000	1.66707700
109.09999370	0.00000000	15.85261000	2.04232300
109.29999369	0.00000000	16.27707000	3.19881900
109.49999368	0.00000000	17.43356000	4.73671200
109.69999366	0.00000000	18.92839000	6.26845500
109.89999365	0.00000000	20.08489000	7.42495000
110.09999364	0.00000000	20.46014000	7.80019600
110.29999363	0.00000000	20.13410000	7.42495000
110.49999362	0.00000000	19.34670000	6.26845500
110.69999360	0.00000000	18.55315000	4.73671200
110.89999359	0.00000000	17.39050000	3.19881900
111.09999358	0.00000000	16.22785000	2.04232300
111.29999357	0.00000000	15.47736000	1.61786400
111.49999356	0.00000000	15.11442000	1.61786400
111.69999355	0.00000000	15.85261000	1.99311000
111.89999353	0.00000000	16.97219000	2.78051200
112.09999352	0.00000000	17.76575000	3.57406500
112.29999351	0.00000000	18.59621000	4.68750000
112.49999350	0.00000000	19.30364000	5.47490100
112.69999349	0.00000000	19.71580000	5.53026500
112.89999347	0.00000000	19.30364000	5.89320800
113.09999346	0.00000000	18.59621000	5.85014700
113.29999345	0.00000000	17.80881000	5.15501900
113.49999344	0.00000000	17.39050000	4.77977300
113.69999343	0.00000000	17.01525000	4.73671200
113.89999341	0.00000000	16.64616000	4.73671200
114.09999340	0.00000000	17.01525000	4.69365100
114.29999339	0.00000000	17.34744000	4.31840500
114.49999338	0.00000000	17.43356000	3.57406500
114.69999337	0.00000000	17.80881000	3.19881900
114.89999336	0.00000000	18.55315000	3.15575800
115.09999334	0.00000000	18.92839000	3.15575800
115.29999333	0.00000000	18.97145000	3.15575800
115.49999332	0.00000000	18.97145000	3.19881900
115.69999331	0.00000000	18.92839000	3.57406500
115.89999330	0.00000000	18.55315000	4.36146600
116.09999328	0.00000000	17.80881000	5.11195900
116.29999327	0.00000000	17.39050000	5.89320800
116.49999326	0.00000000	16.97219000	6.26845500
116.69999325	0.00000000	16.27707000	6.26845500
116.89999324	0.00000000	16.27707000	5.89320800
117.09999322	0.00000000	17.01525000	5.11195900
117.29999321	0.00000000	17.76575000	4.36146600
117.49999320	0.00000000	18.55315000	3.53100400
117.69999319	0.00000000	18.97145000	2.78051200
117.89999318	0.00000000	19.34670000	2.04232300
118.09999317	0.00000000	19.71580000	2.04232300
118.29999315	0.00000000	19.34670000	2.73745100
118.49999314	0.00000000	18.97145000	3.15575800
118.69999313	0.00000000	18.50394000	3.57406500
118.89999312	0.00000000	17.34744000	4.36146600
119.09999311	0.00000000	15.85261000	5.11195900
119.29999309	0.00000000	14.73917000	5.89320800
119.49999308	0.00000000	14.69611000	6.26845500
119.69999307	0.00000000	15.43430000	6.26845500
119.89999306	0.00000000	16.22785000	5.89320800
120.09999305	0.00000000	17.43356000	5.15501900
120.29999303	0.00000000	18.92839000	4.73671200
120.49999302	0.00000000	20.08489000	4.31840500
120.69999301	0.00000000	20.50935000	3.57406500
120.89999300	0.00000000	20.50935000	3.19881900
121.09999299	0.00000000	20.08489000	3.15575800
121.29999298	0.00000000	18.92839000	3.15575800
121.49999296	0.00000000	17.43356000	3.15575800
121.69999295	0.00000000	16.22785000	3.19881900
121.89999294	0.00000000	15.47736000	3.57406500
122.09999293	0.00000000	15.06521000	4.31840500
122.29999292	0.00000000	15.47736000	4.69365100
122.49999290	0.00000000	16.18479000	4.77977300
122.69999289	0.00000000	17.01525000	5.15501900
122.89999288	0.00000000	17.76575000	5.89320800
123.09999287	0.00000000	18.55315000	6.21924200
123.29999286	0.00000000	18.92839000	5.89320800
123.49999284	0.00000000	18.97145000	5.15501900
123.69999283	0.00000000	18.97145000	4.73671200
123.89999282	0.00000000	18.97145000	4.31840500
124.09999281	0.00000000	18.97145000	3.57406500
124.29999280	0.00000000	18.87918000	3.19881900
124.49999279	0.00000000	18.13484000	3.15575800
124.69999277	0.00000000	16.64616000	3.15575800
124.89999276	0.00000000	15.90182000	3.19881900
125.09999275	0.00000000	15.80955000	3.57406500
125.29999274	0.00000000	15.80955000	4.31840500
125.49999273	0.00000000	15.85261000	4.69365100
125.69999271	0.00000000	16.22785000	4.77977300
125.89999270	0.00000000	17.01525000	5.15501900
126.09999269	0.00000000	17.76575000	5.85014700
126.29999268	0.00000000	18.59621000	5.85014700
126.49999267	0.00000000	19.30364000	5.15501900
126.69999265	0.00000000	19.71580000	4.73671200
126.89999264	0.00000000	19.30364000	4.31840500
127.09999263	0.00000000	18.55315000	3.57406500
127.29999262	0.00000000	17.39050000	3.19881900
127.49999261	0.00000000	16.22785000	3.15575800
127.69999260	0.00000000	15.47736000	3.15575800
127.89999258	0.00000000	15.06521000	3.19881900
128.09999257	0.00000000	15.47736000	3.57406500
128.29999256	0.00000000	16.22785000	4.31840500
128.49999255	0.00000000	17.39050000	4.69365100
128.69999254	0.00000000	18.50394000	4.73671200
128.89999252	0.00000000	18.97145000	4.73671200
129.09999251	0.00000000	19.34670000	4.73671200
129.29999250	0.00000000	19.66658000	4.69365100
129.49999249	0.00000000	18.87918000	4.31840500
129.69999248	0.00000000	17.43356000	3.57406500
129.89999246	0.00000000	16.27707000	3.24803100
130.09999245	0.00000000	15.80955000	3.57406500
130.29999244	0.00000000	15.43430000	4.31840500
130.49999243	0.00000000	15.06521000	4.69365100
130.69999242	0.00000000	15.52657000	4.73671200
130.89999241	0.00000000	16.60310000	4.73671200
131.09999239	0.00000000	18.17790000	4.73671200
131.29999238	0.00000000	19.25443000	4.69365100
131.49999237	0.00000000	19.71580000	4.31840500
131.69999236	0.00000000	19.34670000	3.57406500
131.89999235	0.00000000	18.97145000	3.19881900
132.09999233	0.00000000	18.50394000	3.15575800
132.29999232	0.00000000	17.39050000	3.15575800
132.49999231	0.00000000	16.27707000	3.15575800
132.69999230	0.00000000	15.90182000	3.19881900
132.89999229	0.00000000	16.22785000	3.57406500
133.09999227	0.00000000	16.97219000	4.36146600
133.29999226	0.00000000	17.34744000	5.11195900
133.49999225	0.00000000	17.39050000	5.89320800
133.69999224	0.00000000	17.39050000	6.21924200
133.89999223	0.00000000	17.39050000	5.89320800
134.09999222	0.00000000	17.39050000	5.11195900
134.29999220	0.00000000	17.39050000	4.36146600
134.49999219	0.00000000	17.39050000	3.53100400
134.69999218	0.00000000	17.39050000	2.78051200
134.89999217	0.00000000	17.39050000	2.04232300
135.09999216	0.00000000	17.39050000	2.04232300
135.29999214	0.00000000	17.43356000	2.73745100
135.49999213	0.00000000	17.76575000	3.15575800
135.69999212	0.00000000	18.13484000	3.57406500
135.89999211	0.00000000	17.72268000	4.36146600
136.09999210	0.00000000	17.05832000	5.11195900
136.29999208	0.00000000	16.60310000	5.85014700
136.49999207	0.00000000	16.59695000	5.85014700
136.69999206	0.00000000	16.18479000	5.15501900
136.89999205	0.00000000	15.85261000	4.73671200
137.09999204	0.00000000	15.85261000	4.31840500
137.29999203	0.00000000	16.27707000	3.57406500
137.49999201	0.00000000	17.39050000	3.19881900
137.69999200	0.00000000	18.50394000	3.15575800
137.89999199	0.00000000	18.92839000	3.15575800
138.09999198	0.00000000	18.92839000	3.15575800
138.29999197	0.00000000	18.55315000	3.15575800
138.49999195	0.00000000	17.76575000	3.15575800
138.69999194	0.00000000	17.01525000	3.19881900
138.89999193	0.00000000	16.22785000	3.57406500
139.09999192	0.00000000	15.85261000	4.31840500
139.29999191	0.00000000	15.85261000	4.69365100
139.49999189	0.00000000	16.22785000	4.77977300
139.69999188	0.00000000	16.97219000	5.11195900
139.89999187	0.00000000	17.39050000	5.47490100
140.09999186	0.00000000	17.80881000	5.11195900
140.29999185	0.00000000	18.55315000	4.73671200
140.49999184	0.00000000	18.87918000	4.31840500
140.69999182	0.00000000	18.55315000	3.53100400
140.89999181	0.00000000	17.80881000	2.78051200
141.09999180	0.00000000	17.43356000	2.04232300
141.29999179	0.00000000	17.39050000	2.04232300
141.49999178	0.00000000	17.39050000	2.78051200
141.69999176	0.00000000	17.39050000	3.53100400
141.89999175	0.00000000	17.39050000	4.36146600
142.09999174	0.00000000	17.39050000	5.11195900
142.29999173	0.00000000	17.39050000	5.89320800
142.49999172	0.00000000	17.39050000	6.21924200
142.69999170	0.00000000	17.39050000	5.89320800
142.89999169	0.00000000	17.39050000	5.11195900
143.09999168	0.00000000	17.39050000	4.36146600
143.29999167	0.00000000	17.39050000	3.57406500
143.49999166	0.00000000	17.39050000	3.15575800
143.69999165	0.00000000	17.39050000	2.78051200
143.89999163	0.00000000	17.39050000	2.41141700
144.09999162	0.00000000	17.39050000	2.82357300
144.29999161	0.00000000	17.39050000	3.53100400
144.49999160	0.00000000	17.39050000	4.31840500
144.69999159	0.00000000	17.43356000	4.73671200
144.89999157	0.00000000	17.76575000	5.15501900
145.09999156	0.00000000	18.13484000	5.85014700
145.29999155	0.00000000	17.72268000	5.85014700
145.49999154	0.00000000	17.05832000	5.15501900
145.69999153	0.00000000	16.64616000	4.73671200
145.89999151	0.00000000	16.97219000	4.31840500
146.09999150	0.00000000	16.97219000	3.57406500
146.29999149	0.00000000	16.64616000	3.19881900
146.49999148	0.00000000	17.01525000	3.15575800
146.69999147	0.00000000	17.34744000	3.15575800
146.89999146	0.00000000	17.39050000	3.15575800
147.09999144	0.00000000	17.39050000	3.15575800
147.29999143	0.00000000	17.39050000	3.19881900
147.49999142	0.00000000	17.39050000	3.57406500
147.69999141	0.00000000	17.39050000	4.31840500
147.89999140	0.00000000	17.39050000	4.69365100
148.09999138	0.00000000	17.34744000	4.73671200
148.29999137	0.00000000	16.97219000	4.73671200
148.49999136	0.00000000	16.27707000	4.73671200
148.69999135	0.00000000	16.27707000	4.69365100
148.89999134	0.00000000	16.97219000	4.31840500
149.09999132	0.00000000	17.34744000	3.57406500
149.29999131	0.00000000	17.39050000	3.19881900
149.49999130	0.00000000	17.43356000	3.15575800
149.69999129	0.00000000	17.76575000	3.15575800
149.89999128	0.00000000	18.13484000	3.15575800
150.09999127	0.00000000	17.76575000	3.19881900
150.29999125	0.00000000	17.43356000	3.57406500
150.49999124	0.00000000	17.34744000	4.31840500
150.69999123	0.00000000	17.01525000	4.69365100
150.89999122	0.00000000	16.60310000	4.73671200
151.09999121	0.00000000	16.59695000	4.73671200
151.29999119	0.00000000	16.22785000	4.73671200
151.49999118	0.00000000	16.27707000	4.73671200
151.69999117	0.00000000	16.97219000	4.69365100
151.89999116	0.00000000	17.34744000	4.31840500
152.09999115	0.00000000	17.39050000	3.57406500
152.29999113	0.00000000	17.39050000	3.19881900
152.49999112	0.00000000	17.39050000	3.15575800
152.69999111	0.00000000	17.43356000	3.19881900
152.89999110	0.00000000	17.76575000	3.57406500
153.09999109	0.00000000	18.13484000	4.31840500
153.29999108	0.00000000	17.72268000	4.69365100
153.49999106	0.00000000	17.05832000	4.73671200
153.69999105	0.00000000	16.60310000	4.73671200
153.89999104	0.00000000	16.59695000	4.73671200
154.09999103	0.00000000	16.22785000	4.73671200
154.29999102	0.00000000	16.27707000	4.73671200
154.49999100	0.00000000	16.97219000	4.73671200
154.69999099	0.00000000	17.34744000	4.73671200
154.89999098	0.00000000	17.39050000	4.69365100
155.09999097	0.00000000	17.39050000	4.31840500
155.29999096	0.00000000	17.39050000	3.57406500
155.49999094	0.00000000	17.43356000	3.19881900
155.69999093	0.00000000	17.76575000	3.15575800
155.89999092	0.00000000	18.13484000	3.19881900
156.09999091	0.00000000	17.72268000	3.53100400
156.29999090	0.00000000	17.05832000	3.94315900
156.49999089	0.00000000	16.60310000	3.94931100
156.69999087	0.00000000	16.59695000	4.36146600
156.89999086	0.00000000	16.18479000	4.69365100
157.09999085	0.00000000	15.85261000	4.73671200
157.29999084	0.00000000	15.80955000	4.73671200
157.49999083	0.00000000	15.85261000	4.73671200
157.69999081	0.00000000	16.22785000	4.69365100
157.89999080	0.00000000	16.97219000	4.31840500
158.09999079	0.00000000	17.34744000	3.57406500
158.29999078	0.00000000	17.39050000	3.19881900
158.49999077	0.00000000	17.39050000	3.15575800
158.69999075	0.00000000	17.39050000	3.15575800
158.89999074	0.00000000	17.39050000	3.15575800
159.09999073	0.00000000	17.39050000	3.19881900
159.29999072	0.00000000	17.39050000	3.57406500
159.49999071	0.00000000	17.34744000	4.31840500
159.69999070	0.00000000	16.97219000	4.69365100
159.89999068	0.00000000	16.22785000	4.73671200
160.09999067	0.00000000	15.85261000	4.73671200
160.29999066	0.00000000	15.85261000	4.73671200
160.49999065	0.00000000	16.22785000	4.69365100
160.69999064	0.00000000	16.97219000	4.31840500
160.89999062	0.00000000	17.34744000	3.57406500
161.09999061	0.00000000	17.39050000	3.19881900
161.29999060	0.00000000	17.39050000	3.15575800
161.49999059	0.00000000	17.39050000	3.15575800
161.69999058	0.00000000	17.39050000	3.15575800
161.89999056	0.00000000	17.39050000	3.19881900
162.09999055	0.00000000	17.39050000	3.57406500
162.29999054	0.00000000	17.39050000	4.31840500
162.49999053	0.00000000	17.39050000	4.69365100
162.69999052	0.00000000	17.39050000	4.73671200
162.89999051	0.00000000	17.39050000	4.73671200
163.09999049	0.00000000	17.34744000	4.73671200
163.29999048	0.00000000	16.97219000	4.69365100
163.49999047	0.00000000	16.22785000	4.31840500
163.69999046	0.00000000	15.85261000	3.57406500
163.89999045	0.00000000	15.85261000	3.19881900
164.09999043	0.00000000	16.22785000	3.15575800
164.29999042	0.00000000	16.97219000	3.19881900
164.49999041	0.00000000	17.34744000	3.53100400
164.69999040	0.00000000	17.39050000	3.90009800
164.89999039	0.00000000	17.39050000	3.53100400
165.09999037	0.00000000	17.39050000	3.19881900
165.29999036	0.00000000	17.39050000	3.15575800
165.49999035	0.00000000	17.39050000	3.19881900
165.69999034	0.00000000	17.39050000	3.57406500
165.89999033	0.00000000	17.39050000	4.31840500
166.09999032	0.00000000	17.39050000	4.69365100
166.29999030	0.00000000	17.34744000	4.73671200
166.49999029	0.00000000	16.97219000	4.73671200
166.69999028	0.00000000	16.22785000	4.73671200
166.89999027	0.00000000	15.90182000	4.69365100
167.09999026	0.00000000	16.22785000	4.31840500
167.29999024	0.00000000	16.97219000	3.62327700
167.49999023	0.00000000	17.34744000	3.57406500
167.69999022	0.00000000	17.39050000	3.90009800
167.89999021	0.00000000	17.39050000	3.53100400
168.09999020	0.00000000	17.39050000	3.19881900
168.29999018	0.00000000	17.39050000	3.15575800
168.49999017	0.00000000	17.39050000	3.19881900
168.69999016	0.00000000	17.34744000	3.57406500
168.89999015	0.00000000	17.01525000	4.31840500
169.09999014	0.00000000	16.64616000	4.64443900
169.29999013	0.00000000	16.97219000	4.31840500
169.49999011	0.00000000	16.92298000	3.62327700
169.69999010	0.00000000	16.22785000	3.57406500
169.89999009	0.00000000	15.85261000	3.94315900
170.09999008	0.00000000	15.80955000	3.94931100
170.29999007	0.00000000	15.85261000	4.36146600
170.49999005	0.00000000	16.22785000	4.69365100
170.69999004	0.00000000	16.97219000	4.73671200
170.89999003	0.00000000	17.34744000	4.69365100
171.09999002	0.00000000	17.39050000	4.31840500
171.29999001	0.00000000	17.39050000	3.57406500
171.49998999	0.00000000	17.39050000	3.19881900
171.69998998	0.00000000	17.39050000	3.15575800
171.89998997	0.00000000	17.39050000	3.15575800
172.09998996	0.00000000	17.39050000	3.15575800
172.29998995	0.00000000	17.34744000	3.15575800
172.49998994	0.00000000	16.97219000	3.15575800
172.69998992	0.00000000	16.22785000	3.19881900
172.89998991	0.00000000	15.85261000	3.57406500
173.09998990	0.00000000	15.80955000	4.31840500
173.29998989	0.00000000	15.80955000	4.64443900
173.49998988	0.00000000	15.85261000	4.36146600
173.69998986	0.00000000	16.22785000	3.94931100
173.89998985	0.00000000	16.97219000	3.94315900
174.09998984	0.00000000	17.34744000	3.53100400
174.29998983	0.00000000	17.39050000	3.19881900
174.49998982	0.00000000	17.39050000	3.15575800
174.69998980	0.00000000	17.34744000	3.15575800
174.89998979	0.00000000	17.01525000	3.15575800
175.09998978	0.00000000	16.60310000	3.15575800
175.29998977	0.00000000	16.59695000	3.19881900
175.49998976	0.00000000	16.18479000	3.57406500
175.69998975	0.00000000	15.90182000	4.31840500
175.89998973	0.00000000	16.22785000	4.64443900
176.09998972	0.00000000	16.97219000	4.36146600
176.29998971	0.00000000	17.34744000	3.99237200
176.49998970	0.00000000	17.39050000	4.31840500
176.69998969	0.00000000	17.39050000	4.26919300
176.89998967	0.00000000	17.39050000	3.62327700
177.09998966	0.00000000	17.39050000	3.57406500
177.29998965	0.00000000	17.39050000	3.90009800
177.49998964	0.00000000	17.34744000	3.57406500
177.69998963	0.00000000	17.01525000	3.57406500
177.89998961	0.00000000	16.64616000	3.90009800
178.09998960	0.00000000	17.01525000	3.53100400
178.29998959	0.00000000	17.29823000	3.24803100
178.49998958	0.00000000	17.01525000	3.53100400
178.69998957	0.00000000	16.64616000	3.94315900
178.89998956	0.00000000	17.01525000	3.94931100
179.09998954	0.00000000	17.34744000	4.36146600
179.29998953	0.00000000	17.39050000	4.69365100
179.49998952	0.00000000	17.39050000	4.69365100
179.69998951	0.00000000	17.39050000	4.31840500
179.89998950	0.00000000	17.39050000	3.57406500
180.09998948	0.00000000	17.39050000	3.19881900
180.29998947	0.00000000	17.34744000	3.15575800
180.49998946	0.00000000	17.01525000	3.15575800
180.69998945	0.00000000	16.60310000	3.15575800
180.89998944	0.00000000	16.59695000	3.15575800
181.09998942	0.00000000	16.18479000	3.19881900
181.29998941	0.00000000	15.85261000	3.57406500
181.49998940	0.00000000	15.80955000	4.31840500
181.69998939	0.00000000	15.80955000	4.69365100
181.89998938	0.00000000	15.85261000	4.73671200
182.09998937	0.00000000	16.22785000	4.73671200
182.29998935	0.00000000	16.97219000	4.73671200
182.49998934	0.00000000	17.34744000	4.69365100
182.69998933	0.00000000	17.39050000	4.31840500
182.89998932	0.00000000	17.34744000	3.57406500
183.09998931	0.00000000	16.97219000	3.19881900
183.29998929	0.00000000	16.27707000	3.15575800
183.49998928	0.00000000	16.22785000	3.15575800
183.69998927	0.00000000	16.55389000	3.15575800
183.89998926	0.00000000	16.18479000	3.15575800
184.09998925	0.00000000	15.85261000	3.19881900
184.29998923	0.00000000	15.80955000	3.57406500
184.49998922	0.00000000	15.80955000	4.31840500
184.69998921	0.00000000	15.85261000	4.69365100
184.89998920	0.00000000	16.22785000	4.73671200
185.09998919	0.00000000	16.97219000	4.73671200
185.29998918	0.00000000	17.34744000	4.69365100
185.49998916	0.00000000	17.39050000	4.31840500
185.69998915	0.00000000	17.34744000	3.57406500
185.89998914	0.00000000	17.01525000	3.19881900
186.09998913	0.00000000	16.64616000	3.15575800
186.29998912	0.00000000	17.01525000	3.15575800
186.49998910	0.00000000	17.29823000	3.15575800
186.69998909	0.00000000	16.97219000	3.15575800
186.89998908	0.00000000	16.22785000	3.15575800
187.09998907	0.00000000	15.85261000	3.19881900
187.29998906	0.00000000	15.80955000	3.57406500
187.49998904	0.00000000	15.80955000	4.31840500
187.69998903	0.00000000	15.80955000	4.69365100
187.89998902	0.00000000	15.85261000	4.73671200
188.09998901	0.00000000	16.27707000	4.73671200
188.29998900	0.00000000	17.34744000	4.69365100
188.49998899	0.00000000	18.04257000	4.31840500
188.69998897	0.00000000	17.39050000	3.57406500
188.89998896	0.00000000	16.69537000	3.19881900
189.09998895	0.00000000	17.01525000	3.15575800
189.29998894	0.00000000	17.34744000	3.15575800
189.49998893	0.00000000	17.34744000	3.15575800
189.69998891	0.00000000	16.97219000	3.15575800
189.89998890	0.00000000	16.22785000	3.15575800
190.09998889	0.00000000	15.85261000	3.19881900
190.29998888	0.00000000	15.80955000	3.57406500
190.49998887	0.00000000	15.80955000	4.31840500
190.69998885	0.00000000	15.80955000	4.69365100
190.89998884	0.00000000	15.80955000	4.73671200
191.09998883	0.00000000	15.80955000	4.73671200
191.29998882	0.00000000	15.80955000	4.73671200
191.49998881	0.00000000	15.85261000	4.69365100
191.69998880	0.00000000	16.22785000	4.31840500
191.89998878	0.00000000	16.97219000	3.57406500
192.09998877	0.00000000	17.29823000	3.19881900
192.29998876	0.00000000	16.97219000	3.15575800
192.49998875	0.00000000	16.22785000	3.15575800
192.69998874	0.00000000	15.85261000	3.15575800
192.89998872	0.00000000	15.80955000	3.15575800
193.09998871	0.00000000	15.80955000	3.15575800
193.29998870	0.00000000	15.80955000	3.15575800
193.49998869	0.00000000	15.80955000	3.15575800
193.69998868	0.00000000	15.80955000	3.19881900
193.89998866	0.00000000	15.80955000	3.57406500
194.09998865	0.00000000	15.85261000	4.31840500
194.29998864	0.00000000	16.22785000	4.69365100
194.49998863	0.00000000	16.97219000	4.73671200
194.69998862	0.00000000	17.34744000	4.69365100
194.89998861	0.00000000	17.34744000	4.31840500
195.09998859	0.00000000	17.01525000	3.57406500
195.29998858	0.00000000	16.60310000	3.19881900
195.49998857	0.00000000	16.59695000	3.15575800
195.69998856	0.00000000	16.18479000	3.15575800
195.89998855	0.00000000	15.85261000	3.15575800
196.09998853	0.00000000	15.80955000	3.15575800
