Time	Channel A	Channel B	Channel C
(us)	(V)	(mV)	(mV)

-4.59999956	0.00000000	-11.06668000	4.31840500
-4.39999957	0.00000000	-11.06668000	4.69365100
-4.19999958	0.00000000	-11.06668000	4.73671200
-3.99999959	0.00000000	-11.06668000	4.73671200
-3.79999960	0.00000000	-11.06668000	4.69365100
-3.59999962	0.00000000	-11.06668000	4.36146600
-3.39999963	0.00000000	-11.06668000	3.99237200
-3.19999964	0.00000000	-11.06668000	4.36146600
-2.99999965	0.00000000	-11.06668000	4.64443900
-2.79999966	0.00000000	-11.06668000	4.36146600
-2.59999968	0.00000000	-11.06668000	3.94931100
-2.39999969	0.00000000	-11.06668000	3.94315900
-2.19999970	0.00000000	-11.06668000	3.57406500
-1.99999971	0.00000000	-11.06668000	3.62327700
-1.79999972	0.00000000	-11.06668000	4.31840500
-1.59999973	0.00000000	-11.06668000	4.69365100
-1.39999975	0.00000000	-11.06668000	4.73671200
-1.19999976	0.00000000	-11.06668000	4.73671200
-0.99999977	0.00000000	-11.06668000	4.73671200
-0.79999978	0.00000000	-11.06668000	4.73671200
-0.59999979	0.00000000	-11.06668000	4.73671200
-0.39999981	0.00000000	-11.06668000	4.73671200
-0.19999982	0.31803640	-11.06668000	4.73671200
0.00000017	0.79601380	-11.06668000	4.73671200
0.20000016	0.95533960	-11.06668000	4.69365100
0.40000015	0.95533960	-11.06668000	4.31840500
0.60000013	0.79601380	-11.06668000	3.57406500
0.80000012	0.15871060	-11.06668000	3.19881900
1.00000011	-0.79601380	-11.06668000	3.15575800
1.20000010	-1.75196900	-11.06668000	3.19881900
1.40000009	-2.54859700	-11.06668000	3.57406500
1.60000008	-2.70792300	-11.06668000	4.31840500
1.80000006	-2.22994600	-11.06668000	4.69365100
2.00000005	-0.79601380	-11.06668000	4.73671200
2.20000004	1.11466500	-11.06668000	4.73671200
2.40000003	3.18590100	-11.06668000	4.69365100
2.60000002	4.77854300	-11.06668000	4.31840500
2.80000000	5.41584600	-11.10974000	3.57406500
2.99999999	4.45989200	-11.48499000	3.15575800
3.19999998	2.07062000	-12.18012000	2.78051200
3.39999997	-1.11466500	-12.18012000	2.41141700
3.59999996	-4.45989200	-11.48499000	2.82357300
3.79999994	-7.00848900	-11.10974000	3.53100400
3.99999993	-7.96444400	-11.06668000	4.31840500
4.19999992	-7.00848900	-11.06668000	4.69365100
4.39999991	-3.98191400	-11.06668000	4.73671200
4.59999990	0.15871060	-11.06668000	4.73671200
4.79999989	4.61921700	-11.06668000	4.69365100
4.99999987	7.96444400	-11.06668000	4.31840500
5.19999986	9.39837600	-11.06668000	3.57406500
5.39999985	8.60174700	-11.06668000	3.19881900
5.59999984	5.57517200	-11.06668000	3.15575800
5.79999983	0.95533960	-11.10974000	3.15575800
5.99999981	-3.82258900	-11.44193000	3.15575800
6.19999980	-7.48646600	-11.81102000	3.19881900
6.39999979	-9.39837600	-11.44193000	3.57406500
6.59999978	-8.92039900	-11.10974000	4.31840500
6.79999977	-6.21247500	-11.06668000	4.69365100
6.99999975	-2.07062000	-11.06668000	4.73671200
7.19999974	2.22994600	-11.06668000	4.73671200
7.39999973	5.73449800	-11.06668000	4.69365100
7.59999972	7.48646600	-11.06668000	4.31840500
7.79999971	7.48646600	-11.06668000	3.57406500
7.99999970	5.57517200	-11.06668000	3.19881900
8.19999968	2.38927200	-11.06668000	3.15575800
8.39999967	-0.79601380	-11.06668000	3.15575800
8.59999966	-3.50393700	-11.06668000	3.19881900
8.79999965	-4.93786900	-11.06668000	3.57406500
8.99999964	-5.09719500	-11.06668000	4.31840500
9.19999962	-3.98191400	-11.06668000	4.69365100
9.39999961	-2.07062000	-11.06668000	4.73671200
9.59999960	-0.15871060	-11.06668000	4.73671200
9.79999959	1.43331700	-11.06668000	4.73671200
9.99999958	2.38927200	-11.06668000	4.73671200
10.19999956	2.54859700	-11.06668000	4.73671200
10.39999955	2.07062000	-11.06668000	4.73671200
10.59999954	1.11466500	-11.06668000	4.73671200
10.79999953	0.31803640	-11.06668000	4.73671200
10.99999952	-0.47736220	-11.06668000	4.73671200
11.19999951	-0.79601380	-11.06668000	4.69365100
11.39999949	-0.95533960	-11.06668000	4.36146600
11.59999948	-0.95533960	-11.06668000	3.94931100
11.79999947	-0.63668800	-11.06668000	3.98622000
11.99999946	-0.31803640	-11.06668000	3.94931100
12.19999945	-0.15871060	-11.06668000	4.36146600
12.39999943	-0.15871060	-11.06668000	4.69365100
12.59999942	-0.15871060	-11.06668000	4.69365100
12.79999941	0.00000000	-11.06668000	4.31840500
12.99999940	0.00000000	-11.06668000	3.62327700
13.19999939	0.00000000	-11.06668000	3.62327700
13.39999937	0.00000000	-11.06668000	4.31840500
13.59999936	0.00000000	-11.06668000	4.69365100
13.79999935	0.00000000	-11.06668000	4.73671200
13.99999934	-0.15871060	-11.06668000	4.73671200
14.19999933	-0.15871060	-11.06668000	4.69365100
14.39999932	-0.15871060	-11.06668000	4.36146600
14.59999930	-0.15871060	-11.06668000	3.99237200
14.79999929	0.00000000	-11.06668000	4.36146600
14.99999928	0.00000000	-11.06668000	4.69365100
15.19999927	0.00000000	-11.06668000	4.73671200
15.39999926	0.00000000	-11.06668000	4.73671200
15.59999924	0.00000000	-11.06668000	4.73671200
15.79999923	0.00000000	-11.06668000	4.73671200
15.99999922	0.00000000	-11.06668000	4.73671200
16.19999921	0.00000000	-11.06668000	4.73671200
16.39999920	0.00000000	-11.06668000	4.69365100
16.59999919	-0.15871060	-11.06668000	4.31840500
16.79999917	0.00000000	-11.02362000	3.62327700
16.99999916	0.00000000	-10.64838000	3.62327700
17.19999915	0.00000000	-9.90403500	4.26919300
17.39999914	0.00000000	-9.52879000	4.31840500
17.59999913	0.00000000	-9.48572700	3.99237200
17.79999911	0.00000000	-9.52879000	4.36146600
17.99999910	0.00000000	-9.95324800	4.69365100
18.19999909	0.00000000	-11.10974000	4.73671200
18.39999908	0.00000000	-12.64764000	4.73671200
18.59999907	0.00000000	-14.18553000	4.73671200
18.79999905	0.00000000	-15.34203000	4.69365100
18.99999904	0.00000000	-15.71727000	4.36146600
19.19999903	0.00000000	-15.29897000	3.99237200
19.39999902	0.00000000	-13.71801000	4.36146600
19.59999901	0.00000000	-10.97441000	4.69365100
19.79999900	0.00000000	-7.48646600	4.73671200
19.99999898	0.00000000	-3.62942900	4.73671200
20.19999897	0.00000000	-0.59670270	4.73671200
20.39999896	0.00000000	0.51673230	4.73671200
20.59999895	0.00000000	-1.10728300	4.73671200
20.79999894	0.00000000	-5.76402500	4.69365100
20.99999892	0.00000000	-12.73991000	4.36146600
21.19999891	0.00000000	-20.46014000	3.99237200
21.39999890	0.00000000	-27.39296000	4.31840500
21.59999889	0.00000000	-31.58218000	4.26919300
21.79999888	0.00000000	-31.53912000	3.57406500
21.99999886	0.00000000	-26.79626000	3.24803100
22.19999885	0.00000000	-17.43971000	3.57406500
22.39999884	0.00000000	-4.74286400	4.26919300
22.59999883	0.00000000	7.95398600	4.31840500
22.79999882	0.00000000	17.21826000	3.99237200
22.99999881	0.00000000	21.03223000	4.36146600
23.19999879	0.00000000	17.82726000	4.69365100
23.39999878	0.00000000	7.31422200	4.77977300
23.59999877	0.00000000	-8.92593500	5.15501900
23.79999876	0.00000000	-27.39296000	5.89320800
23.99999875	0.00000000	-43.21481000	6.21924200
24.19999873	0.00000000	-52.42987000	5.89320800
24.39999872	0.00000000	-52.75591000	5.11195900
24.59999871	0.00000000	-43.03642000	4.31840500
24.79999870	0.00000000	-25.25836000	3.11269700
24.99999869	0.00000000	-3.20497000	1.57480300
25.19999867	0.00000000	18.38090000	0.04306102
25.39999866	0.00000000	34.15354000	-1.06422200
25.59999865	0.00000000	39.92372000	-1.02116100
25.79999864	0.00000000	34.11048000	0.55364170
25.99999863	0.00000000	17.87033000	3.66633800
26.19999862	0.00000000	-5.33956700	7.89247000
26.39999860	0.00000000	-30.37647000	12.11860000
26.59999859	0.00000000	-51.21801000	15.18824000
26.79999858	0.00000000	-62.43233000	16.30167000
26.99999857	0.00000000	-62.10630000	14.67766000
27.19999856	0.00000000	-50.47367000	10.07628000
27.39999854	0.00000000	-30.00123000	3.43873000
27.59999853	0.00000000	-5.29650500	-3.86318900
27.79999852	0.00000000	17.87033000	-10.82062000
27.99999851	0.00000000	34.06742000	-15.00984000
28.19999850	0.00000000	39.54847000	-15.74803000
28.39999848	0.00000000	33.45841000	-12.13091000
28.59999847	0.00000000	18.42397000	-3.67249000
28.79999846	0.00000000	-2.09153500	7.51722400
28.99999845	0.00000000	-23.72047000	18.72539000
29.19999844	0.00000000	-41.54158000	28.00812000
29.39999843	0.00000000	-52.01156000	32.94168000
29.59999841	0.00000000	-53.21727000	32.10507000
29.79999840	0.00000000	-45.17101000	24.71703000
29.99999839	0.00000000	-30.51181000	11.98942000
30.19999838	0.00000000	-12.73991000	-3.11269700
30.39999837	0.00000000	4.28764700	-17.74729000
30.59999835	0.00000000	16.70768000	-28.48179000
30.79999834	0.00000000	22.61319000	-31.96973000
30.99999833	0.00000000	21.49360000	-27.73745000
31.19999832	0.00000000	14.14862000	-16.86762000
31.39999831	0.00000000	2.14074800	-1.02116100
31.59999829	0.00000000	-12.13706000	16.35089000
31.79999828	0.00000000	-25.25836000	31.40379000
31.99999827	0.00000000	-34.23966000	41.06791000
32.19999826	0.00000000	-37.77682000	42.97490000
32.39999825	0.00000000	-35.86368000	36.79257000
32.59999824	0.00000000	-28.88779000	23.64665000
32.79999822	0.00000000	-18.50394000	6.31766700
32.99999821	0.00000000	-7.29576700	-11.06053000
33.19999820	0.00000000	2.00541300	-24.66781000
33.39999819	0.00000000	7.82480200	-32.43110000
33.59999818	0.00000000	9.03051100	-33.12623000
33.79999816	0.00000000	5.59178100	-25.78740000
33.99999815	0.00000000	-0.92888770	-11.94021000
34.19999814	0.00000000	-9.06742000	4.64443900
34.39999813	0.00000000	-16.79380000	20.53395000
34.59999812	0.00000000	-22.55782000	32.52337000
34.79999810	0.00000000	-24.92618000	38.33046000
34.99999809	0.00000000	-23.40059000	36.74950000
35.19999808	0.00000000	-19.20522000	27.92200000
35.39999807	0.00000000	-13.02288000	14.07480000
35.59999806	0.00000000	-6.92052100	-0.93503930
35.79999805	0.00000000	-2.60211600	-13.74877000
35.99999803	0.00000000	-0.68897630	-21.83809000
36.19999802	0.00000000	-1.48253000	-23.78814000
36.39999801	0.00000000	-5.29650500	-18.81767000
36.59999800	0.00000000	-10.59916000	-8.83366100
36.79999799	0.00000000	-15.25591000	3.48794300
36.99999797	0.00000000	-18.37475000	15.42200000
37.19999796	0.00000000	-19.53125000	23.46826000
37.39999795	0.00000000	-18.37475000	25.83046000
37.59999794	0.00000000	-15.29897000	22.02264000
37.79999793	0.00000000	-11.02362000	13.61343000
37.99999791	0.00000000	-6.41609200	3.29109200
38.19999790	0.00000000	-2.60211600	-5.94857300
38.39999789	0.00000000	-1.06422200	-11.34350000
38.59999788	0.00000000	-2.13459600	-12.08169000
38.79999787	0.00000000	-4.87819900	-7.48646600
38.99999786	0.00000000	-8.74138700	1.24877000
39.19999784	0.00000000	-13.39198000	10.45152000
39.39999783	0.00000000	-17.21210000	17.74729000
39.59999782	0.00000000	-19.62352000	21.18602000
39.79999781	0.00000000	-20.37401000	19.24212000
39.99999780	0.00000000	-19.58046000	12.77067000
40.19999778	0.00000000	-16.83686000	3.53100400
40.39999777	0.00000000	-12.64764000	-5.67175200
40.59999776	0.00000000	-8.32308000	-12.59227000
40.79999775	0.00000000	-4.45989200	-15.19439000
40.99999774	0.00000000	-1.34719500	-12.13091000
41.19999772	0.00000000	-0.27066930	-4.14000900
41.39999771	0.00000000	-1.34719500	5.80093500
41.59999770	0.00000000	-4.45989200	14.72072000
41.79999769	0.00000000	-8.28001900	20.85999000
41.99999768	0.00000000	-12.22933000	22.81004000
42.19999767	0.00000000	-15.71727000	19.74655000
42.39999765	0.00000000	-18.41781000	13.23819000
42.59999764	0.00000000	-19.53125000	4.77977300
42.79999763	0.00000000	-18.46087000	-3.29724400
42.99999762	0.00000000	-16.18479000	-8.69217500
43.19999761	0.00000000	-13.81028000	-10.68528000
43.39999759	0.00000000	-11.06668000	-8.74138700
43.59999758	0.00000000	-8.37229300	-3.85703700
43.79999757	0.00000000	-6.45915300	2.31914400
43.99999756	0.00000000	-5.62869100	7.75713500
44.19999755	0.00000000	-5.99163300	12.03248000
44.39999753	0.00000000	-6.69906400	14.30241000
44.59999752	0.00000000	-7.48646600	13.60728000
44.79999751	0.00000000	-7.90477300	10.96211000
44.99999750	0.00000000	-8.32308000	7.47416300
45.19999749	0.00000000	-9.11048200	3.62327700
45.39999748	0.00000000	-9.90403500	0.55364170
45.59999746	0.00000000	-11.15896000	-1.02116100
45.79999745	0.00000000	-13.11516000	-1.06422200
45.99999744	0.00000000	-15.80955000	0.09227362
46.19999743	0.00000000	-18.46087000	1.99311000
46.39999742	0.00000000	-19.95571000	4.31840500
46.59999740	0.00000000	-19.58046000	6.22539300
46.79999739	0.00000000	-17.21210000	7.42495000
46.99999738	0.00000000	-13.29970000	7.84940900
47.19999737	0.00000000	-7.81250000	7.80019600
47.39999736	0.00000000	-1.71628900	7.01279500
47.59999734	0.00000000	3.21112200	5.06274600
47.79999733	0.00000000	4.74901600	2.82972400
47.99999732	0.00000000	2.47293300	0.83661410
48.19999731	0.00000000	-2.60211600	-0.28297240
48.39999730	0.00000000	-9.99630800	-0.69512790
48.59999729	0.00000000	-18.41781000	0.13533460
48.79999727	0.00000000	-25.34449000	2.04232300
48.99999726	0.00000000	-28.83858000	4.77977300
49.19999725	0.00000000	-28.42027000	7.80019600
49.39999724	0.00000000	-23.72047000	10.11934000
49.59999723	0.00000000	-15.25591000	10.91289000
49.79999721	0.00000000	-5.29650500	10.49459000
49.99999720	0.00000000	3.16806100	8.54453700
50.19999719	0.00000000	7.82480200	5.11195900
50.39999718	0.00000000	7.86786400	1.62401600
50.59999717	0.00000000	3.58636800	-1.48868100
50.79999715	0.00000000	-4.13385800	-3.76476400
50.99999714	0.00000000	-13.76107000	-4.14000900
51.19999713	0.00000000	-22.51476000	-2.60211600
51.39999712	0.00000000	-27.57751000	0.51058070
51.59999711	0.00000000	-27.63287000	4.73671200
51.79999710	0.00000000	-23.81275000	8.96284400
51.99999708	0.00000000	-16.83686000	12.03248000
52.19999707	0.00000000	-8.41535400	13.18898000
52.39999706	0.00000000	-1.10728300	12.07554000
52.59999705	0.00000000	3.12500000	9.38115100
52.79999704	0.00000000	3.16806100	5.89320800
52.99999702	0.00000000	-0.64591530	2.04232300
53.19999701	0.00000000	-6.79133800	-1.02116100
53.39999700	0.00000000	-13.71801000	-2.55905500
53.59999699	0.00000000	-19.48819000	-2.22687000
53.79999698	0.00000000	-22.55782000	-0.33218500
53.99999696	0.00000000	-22.18258000	1.99311000
54.19999695	0.00000000	-18.32554000	4.73671200
54.39999694	0.00000000	-12.22933000	7.33882900
54.59999693	0.00000000	-5.71481200	8.50147600
54.79999692	0.00000000	-1.10728300	7.80019600
54.99999691	0.00000000	0.47367120	6.26845500
55.19999689	0.00000000	-1.06422200	4.36146600
55.39999688	0.00000000	-5.25344500	2.46063000
55.59999687	0.00000000	-10.64838000	1.75319900
55.79999686	0.00000000	-15.67421000	2.46063000
55.99999685	0.00000000	-19.48819000	4.36146600
56.19999683	0.00000000	-20.65084000	6.22539300
56.39999682	0.00000000	-18.79306000	7.42495000
56.59999681	0.00000000	-15.34203000	7.75713500
56.79999680	0.00000000	-11.06668000	6.92052100
56.99999679	0.00000000	-6.83439900	4.26919300
57.19999677	0.00000000	-3.75861200	0.83661410
57.39999676	0.00000000	-2.60211600	-1.81471400
57.59999675	0.00000000	-3.71555100	-3.34030500
57.79999674	0.00000000	-6.41609200	-2.51599400
57.99999673	0.00000000	-9.86097400	0.51058070
58.19999672	0.00000000	-13.29970000	4.77977300
58.39999670	0.00000000	-15.25591000	9.43036400
58.59999669	0.00000000	-15.71727000	13.61343000
58.79999668	0.00000000	-15.29897000	15.88336000
58.99999667	0.00000000	-13.76107000	15.09596000
59.19999666	0.00000000	-11.48499000	11.60802000
59.39999664	0.00000000	-9.57800100	5.80708600
59.59999663	0.00000000	-8.37229300	-1.07037400
59.79999662	0.00000000	-7.99704600	-6.82824800
59.99999661	0.00000000	-8.32308000	-9.89788300
60.19999660	0.00000000	-9.11048200	-9.52263600
60.39999658	0.00000000	-9.86097400	-5.67175200
60.59999657	0.00000000	-10.64838000	0.51058070
60.79999656	0.00000000	-11.02362000	7.84940900
60.99999655	0.00000000	-11.02362000	14.72687000
61.19999654	0.00000000	-10.64838000	18.95300000
61.39999653	0.00000000	-9.90403500	19.37131000
61.59999651	0.00000000	-9.52879000	16.25861000
61.79999650	0.00000000	-9.48572700	10.07628000
61.99999649	0.00000000	-9.52879000	2.04232300
62.19999648	0.00000000	-9.95324800	-5.29650500
62.39999647	0.00000000	-11.06668000	-10.31619000
62.59999645	0.00000000	-12.18012000	-12.21703000
62.79999644	0.00000000	-12.60458000	-9.89788300
62.99999643	0.00000000	-12.60458000	-4.18307100
63.19999642	0.00000000	-12.18012000	3.15575800
63.39999641	0.00000000	-11.02362000	10.49459000
63.59999639	0.00000000	-9.48572700	16.30167000
63.79999638	0.00000000	-7.94783400	19.37131000
63.99999637	0.00000000	-6.83439900	19.00221000
64.19999636	0.00000000	-6.83439900	15.18824000
64.39999635	0.00000000	-7.94783400	9.38115100
64.59999634	0.00000000	-9.48572700	2.82972400
64.79999632	0.00000000	-11.02362000	-3.34645700
64.99999631	0.00000000	-12.22933000	-7.20349400
65.19999630	0.00000000	-12.93061000	-8.45226300
65.39999629	0.00000000	-12.96752000	-7.29576700
65.59999628	0.00000000	-11.81717000	-4.18307100
65.79999626	0.00000000	-10.69144000	0.46136810
65.99999625	0.00000000	-9.48572700	5.85014700
66.19999624	0.00000000	-8.41535400	10.45152000
66.39999623	0.00000000	-8.41535400	13.23819000
66.59999622	0.00000000	-9.52879000	14.03174000
66.79999620	0.00000000	-11.06668000	13.32431000
66.99999619	0.00000000	-12.60458000	11.38041000
67.19999618	0.00000000	-13.71801000	9.05511800
67.39999617	0.00000000	-13.67495000	6.26845500
67.59999616	0.00000000	-12.18012000	3.15575800
67.79999615	0.00000000	-9.86097400	0.04306102
67.99999613	0.00000000	-7.57258800	-2.64517700
68.19999612	0.00000000	-5.62869100	-4.18307100
68.39999611	0.00000000	-4.92125900	-4.22613100
68.59999610	0.00000000	-5.67175200	-3.06348400
68.79999609	0.00000000	-8.04010800	-1.07037400
68.99999607	0.00000000	-11.48499000	2.08538400
69.19999606	0.00000000	-15.34203000	6.31151500
69.39999605	0.00000000	-18.41781000	10.53765000
69.59999604	0.00000000	-19.95571000	13.65650000
69.79999603	0.00000000	-19.53125000	15.18824000
69.99999601	0.00000000	-16.79380000	14.76993000
70.19999600	0.00000000	-12.18012000	12.03248000
70.39999599	0.00000000	-6.79133800	7.42495000
70.59999598	-0.15871060	-2.17765700	2.04232300
70.79999597	0.00000000	0.55979330	-2.60211600
70.99999596	0.00000000	0.93503930	-5.71481200
71.19999594	0.00000000	-1.02116100	-6.87130900
71.39999593	0.00000000	-5.29650500	-5.67175200
71.59999592	0.00000000	-11.06668000	-2.22687000
71.79999591	0.00000000	-16.83686000	2.73745100
71.99999590	0.00000000	-21.11220000	7.38188900
72.19999588	0.00000000	-23.02534000	10.91289000
72.39999587	0.00000000	-22.27485000	13.18898000
72.59999586	0.00000000	-18.79306000	13.18898000
72.79999585	0.00000000	-13.76107000	10.91289000
72.99999584	0.00000000	-7.94783400	7.51722400
73.19999582	0.00000000	-2.60211600	4.03543200
73.39999581	0.00000000	0.51673230	1.71013800
73.59999580	0.00000000	0.93503930	0.46136810
73.79999579	0.00000000	-0.97194880	0.13533460
73.99999578	0.00000000	-4.87819900	0.87967510
74.19999577	0.00000000	-9.86097400	2.73745100
74.39999575	0.00000000	-14.88066000	4.22613100
74.59999574	0.00000000	-18.32554000	4.64443900
74.79999573	0.00000000	-19.58046000	4.26919300
74.99999572	0.00000000	-18.79306000	3.15575800
75.19999571	0.00000000	-16.50467000	2.04232300
75.39999569	0.00000000	-13.02288000	1.66707700
75.59999568	0.00000000	-9.57800100	2.08538400
75.79999567	0.00000000	-6.83439900	3.66633800
75.99999566	0.00000000	-5.29650500	6.31151500
76.19999565	0.00000000	-5.25344500	9.00590400
76.39999563	0.00000000	-6.36687900	10.91289000
76.59999562	0.00000000	-7.90477300	11.65723000
76.79999561	0.00000000	-9.44266700	10.45152000
76.99999560	0.00000000	-10.59916000	7.38188900
77.19999559	0.00000000	-11.02362000	3.15575800
77.39999558	0.00000000	-11.06668000	-1.11343500
77.59999556	0.00000000	-11.06668000	-4.55831700
77.79999555	0.00000000	-11.06668000	-6.45300100
77.99999554	0.00000000	-11.10974000	-5.62253900
78.19999553	0.00000000	-11.48499000	-2.22687000
78.39999552	0.00000000	-12.22933000	2.78051200
78.59999550	0.00000000	-12.60458000	7.80019600
78.79999549	0.00000000	-12.60458000	12.11860000
78.99999548	0.00000000	-12.18012000	15.14518000
79.19999547	0.00000000	-10.97441000	15.88336000
79.39999546	0.00000000	-9.06742000	13.61343000
79.59999544	0.00000000	-6.79133800	9.38115100
79.79999543	0.00000000	-5.29650500	4.36146600
79.99999542	0.00000000	-5.25344500	-0.64591530
80.19999541	0.00000000	-6.41609200	-4.13385800
80.39999540	0.00000000	-8.37229300	-5.71481200
80.59999539	0.00000000	-11.06668000	-5.33956700
80.79999537	0.00000000	-13.71801000	-3.02042300
80.99999536	0.00000000	-15.29897000	0.41830710
81.19999535	0.00000000	-15.71727000	4.31840500
81.39999534	0.00000000	-15.29897000	7.80019600
81.59999533	0.00000000	-13.71801000	10.53765000
81.79999531	0.00000000	-11.02362000	12.07554000
81.99999530	0.00000000	-7.99704600	12.11860000
82.19999529	0.00000000	-5.67175200	10.96211000
82.39999528	0.00000000	-4.87819900	9.00590400
82.59999527	0.00000000	-5.25344500	6.26845500
82.79999525	0.00000000	-6.79133800	3.19881900
82.99999524	0.00000000	-9.06742000	0.46751960
83.19999523	0.00000000	-11.02362000	-1.48868100
83.39999522	0.00000000	-12.60458000	-2.68823800
83.59999521	0.00000000	-13.71801000	-3.06348400
83.79999520	0.00000000	-13.71801000	-2.64517700
83.99999518	0.00000000	-12.64764000	-1.02116100
84.19999517	0.00000000	-11.48499000	2.04232300
84.39999516	0.00000000	-10.69144000	5.89320800
84.59999515	0.00000000	-9.90403500	9.38115100
84.79999514	0.00000000	-9.52879000	12.07554000
84.99999512	0.00000000	-9.48572700	13.23819000
85.19999511	0.00000000	-9.48572700	12.45079000
85.39999510	0.00000000	-9.48572700	10.11934000
85.59999509	0.00000000	-9.48572700	6.21924200
85.79999508	0.00000000	-9.44266700	1.62401600
85.99999506	0.00000000	-9.11048200	-2.60211600
86.19999505	0.00000000	-8.74138700	-5.29650500
86.39999504	0.00000000	-9.15354300	-5.67175200
86.59999503	0.00000000	-9.90403500	-3.76476400
86.79999502	0.00000000	-11.10974000	0.09227362
86.99999501	0.00000000	-12.60458000	4.69365100
87.19999499	0.00000000	-13.71801000	8.96284400
87.39999498	0.00000000	-13.71801000	12.07554000
87.59999497	0.00000000	-12.60458000	13.56422000
87.79999496	0.00000000	-11.06668000	12.81988000
87.99999495	0.00000000	-9.48572700	9.71333600
88.19999493	0.00000000	-7.94783400	5.47490100
88.39999492	0.00000000	-6.83439900	0.46136810
88.59999491	0.00000000	-6.79133800	-3.67249000
88.79999490	0.00000000	-7.52952700	-5.25344500
88.99999489	0.00000000	-8.37229300	-4.13385800
89.19999487	0.00000000	-9.90403500	-1.07037400
89.39999486	0.00000000	-11.81102000	3.20497000
89.59999485	0.00000000	-12.93061000	7.84940900
89.79999484	0.00000000	-13.34276000	12.03248000
89.99999483	0.00000000	-12.60458000	14.30241000
90.19999482	0.00000000	-11.48499000	13.56422000
90.39999480	0.00000000	-10.69144000	10.49459000
90.59999479	0.00000000	-9.86097400	5.85014700
90.79999478	0.00000000	-9.15354300	0.51058070
90.99999477	0.00000000	-8.74138700	-3.67249000
91.19999476	0.00000000	-9.11048200	-5.25344500
91.39999474	0.00000000	-9.44266700	-4.13385800
91.59999473	0.00000000	-9.48572700	-1.02116100
91.79999472	0.00000000	-9.48572700	3.57406500
91.99999471	0.00000000	-9.48572700	8.58759800
92.19999470	0.00000000	-9.52879000	12.35851000
92.39999468	0.00000000	-9.86097400	13.92717000
92.59999467	0.00000000	-10.23007000	12.40773000
92.79999466	0.00000000	-9.90403500	8.96284400
92.99999465	0.00000000	-9.99630800	4.31840500
93.19999464	0.00000000	-11.06668000	-0.60285430
93.39999463	0.00000000	-12.18012000	-3.67249000
93.59999461	0.00000000	-12.60458000	-4.14000900
93.79999460	0.00000000	-12.60458000	-2.60211600
93.99999459	0.00000000	-12.13706000	0.51058070
94.19999458	0.00000000	-10.59916000	4.73671200
94.39999457	0.00000000	-8.32308000	8.91978400
94.59999455	0.00000000	-6.41609200	11.61417000
94.79999454	0.00000000	-5.21038300	12.03248000
94.99999453	0.00000000	-4.87819900	10.45152000
95.19999452	0.00000000	-5.67175200	7.00664300
95.39999451	0.00000000	-7.99704600	2.46063000
95.59999449	0.00000000	-11.02362000	-0.97810030
95.79999448	0.00000000	-13.76107000	-2.55905500
95.99999447	0.00000000	-15.71727000	-2.18380900
96.19999446	0.00000000	-16.87992000	0.09227362
96.39999445	0.00000000	-16.79380000	3.15575800
96.59999444	0.00000000	-14.88066000	6.22539300
96.79999442	0.00000000	-11.39887000	8.54453700
96.99999441	0.00000000	-7.57258800	9.33809000
97.19999440	0.00000000	-4.04773600	8.96284400
97.39999439	0.00000000	-1.75935000	7.43110200
97.59999438	0.00000000	-0.97194880	5.15501900
97.79999436	0.00000000	-2.17765700	3.24803100
97.99999435	0.00000000	-5.25344500	2.04232300
98.19999434	0.00000000	-9.48572700	1.61786400
98.39999433	0.00000000	-13.71801000	1.61786400
98.59999432	0.00000000	-16.83686000	2.04232300
98.79999430	0.00000000	-18.41781000	3.15575800
98.99999429	0.00000000	-18.41781000	4.26919300
99.19999428	0.00000000	-16.83686000	4.69365100
99.39999427	0.00000000	-13.76107000	4.73671200
99.59999426	0.00000000	-9.90403500	4.77977300
99.79999425	0.00000000	-6.41609200	5.15501900
99.99999423	0.00000000	-3.67249000	5.89320800
100.19999422	0.00000000	-2.17765700	6.31151500
100.39999421	0.00000000	-2.55290300	6.68676100
100.59999420	0.00000000	-4.78592500	7.05585600
100.79999419	0.00000000	-7.52952700	6.64370100
100.99999417	0.00000000	-10.27928000	5.89320800
101.19999416	0.00000000	-13.39198000	4.64443900
101.39999415	0.00000000	-15.63115000	2.78051200
101.59999414	0.00000000	-16.50467000	0.87967510
101.79999413	0.00000000	-16.09252000	0.09227362
101.99999411	0.00000000	-14.92372000	0.09227362
102.19999410	0.00000000	-12.60458000	0.92888770
102.39999409	0.00000000	-9.95324800	3.24803100
102.59999408	0.00000000	-7.94783400	6.26845500
102.79999407	0.00000000	-6.36687900	8.96284400
102.99999406	0.00000000	-5.25344500	10.53765000
103.19999404	0.00000000	-5.25344500	10.86983000
103.39999403	0.00000000	-6.41609200	9.70103300
103.59999402	0.00000000	-8.32308000	6.64370100
103.79999401	0.00000000	-10.64838000	3.24803100
103.99999400	0.00000000	-12.55536000	0.46751960
104.19999398	0.00000000	-13.76107000	-1.43946800
104.39999397	0.00000000	-14.13632000	-2.22687000
104.59999396	0.00000000	-13.76107000	-1.43946800
104.79999395	0.00000000	-12.60458000	0.51058070
104.99999394	0.00000000	-11.06668000	3.57406500
105.19999392	0.00000000	-9.52879000	6.96358300
105.39999391	0.00000000	-8.32308000	8.91978400
105.59999390	0.00000000	-7.57258800	9.38115100
105.79999389	0.00000000	-7.20964500	8.96284400
105.99999388	0.00000000	-7.99704600	7.38188900
106.19999387	0.00000000	-9.48572700	4.73671200
106.39999385	0.00000000	-11.02362000	2.08538400
106.59999384	0.00000000	-12.13706000	0.51058070
106.79999383	0.00000000	-12.18012000	0.13533460
106.99999382	0.00000000	-11.44193000	0.87967510
107.19999381	0.00000000	-10.64838000	2.78051200
107.39999379	0.00000000	-9.48572700	4.68750000
107.59999378	0.00000000	-8.37229300	6.26845500
107.79999377	0.00000000	-7.99704600	7.38188900
107.99999376	0.00000000	-8.32308000	7.38188900
108.19999375	0.00000000	-9.11048200	6.26845500
108.39999374	0.00000000	-9.90403500	4.73671200
108.59999372	0.00000000	-11.06668000	3.19881900
108.79999371	0.00000000	-12.18012000	2.04232300
108.99999370	0.00000000	-12.55536000	1.66707700
109.19999369	0.00000000	-12.18012000	2.04232300
109.39999368	0.00000000	-11.06668000	3.19881900
109.59999366	0.00000000	-9.90403500	4.73671200
109.79999365	0.00000000	-9.11048200	6.26845500
109.99999364	0.00000000	-8.28001900	7.42495000
110.19999363	0.00000000	-7.57258800	7.80019600
110.39999362	0.00000000	-7.20964500	7.42495000
110.59999360	0.00000000	-7.99704600	6.26845500
110.79999359	0.00000000	-9.44266700	4.73671200
110.99999358	0.00000000	-10.64838000	3.19881900
111.19999357	0.00000000	-11.44193000	2.04232300
111.39999356	0.00000000	-12.18012000	1.61786400
111.59999355	0.00000000	-12.18012000	1.61786400
111.79999353	0.00000000	-11.44193000	2.04232300
111.99999352	0.00000000	-10.69144000	3.15575800
112.19999351	0.00000000	-9.90403500	4.31840500
112.39999350	0.00000000	-9.52879000	5.11195900
112.59999349	0.00000000	-9.48572700	5.89320800
112.79999347	0.00000000	-9.48572700	6.26845500
112.99999346	0.00000000	-9.48572700	6.26845500
113.19999345	0.00000000	-9.48572700	5.89320800
113.39999344	0.00000000	-9.48572700	5.15501900
113.59999343	0.00000000	-9.48572700	4.77977300
113.79999341	0.00000000	-9.48572700	4.69365100
113.99999340	0.00000000	-9.48572700	4.31840500
114.19999339	0.00000000	-9.52879000	3.57406500
114.39999338	0.00000000	-9.86097400	3.19881900
114.59999337	0.00000000	-10.23007000	3.15575800
114.79999336	0.00000000	-9.86097400	3.15575800
114.99999334	0.00000000	-9.52879000	3.15575800
115.19999333	0.00000000	-9.48572700	3.15575800
115.39999332	0.00000000	-9.48572700	3.19881900
115.59999331	0.00000000	-9.48572700	3.62327700
115.79999330	0.00000000	-9.48572700	4.73671200
115.99999328	0.00000000	-9.48572700	5.85014700
116.19999327	0.00000000	-9.48572700	6.31151500
116.39999326	0.00000000	-9.48572700	6.68676100
116.59999325	0.00000000	-9.52879000	7.05585600
116.79999324	0.00000000	-9.90403500	6.64370100
116.99999322	0.00000000	-10.59916000	5.89320800
117.19999321	0.00000000	-10.59916000	4.73671200
117.39999320	0.00000000	-9.90403500	3.57406500
117.59999319	0.00000000	-9.48572700	2.78051200
117.79999318	0.00000000	-9.06742000	1.99311000
117.99999317	0.00000000	-8.32308000	1.66707700
118.19999315	0.00000000	-7.99704600	1.99311000
118.39999314	0.00000000	-8.32308000	2.78051200
118.59999313	0.00000000	-9.11048200	3.53100400
118.79999312	0.00000000	-9.86097400	4.36146600
118.99999311	0.00000000	-10.69144000	5.11195900
119.19999309	0.00000000	-11.44193000	5.89320800
119.39999308	0.00000000	-12.22933000	6.26845500
119.59999307	0.00000000	-12.55536000	6.26845500
119.79999306	0.00000000	-12.18012000	5.89320800
119.99999305	0.00000000	-11.02362000	5.15501900
120.19999303	0.00000000	-9.52879000	4.73671200
120.39999302	0.00000000	-8.32308000	4.31840500
120.59999301	0.00000000	-7.52952700	3.57406500
120.79999300	0.00000000	-6.79133800	3.19881900
120.99999299	0.00000000	-6.83439900	3.15575800
121.19999298	0.00000000	-7.94783400	3.15575800
121.39999296	0.00000000	-9.44266700	3.15575800
121.59999295	0.00000000	-10.64838000	3.19881900
121.79999294	0.00000000	-11.44193000	3.57406500
121.99999293	0.00000000	-12.22933000	4.31840500
122.19999292	0.00000000	-12.60458000	4.73671200
122.39999290	0.00000000	-12.60458000	5.11195900
122.59999289	0.00000000	-12.18012000	5.47490100
122.79999288	0.00000000	-11.02362000	5.15501900
122.99999287	0.00000000	-9.52879000	5.15501900
123.19999286	0.00000000	-8.37229300	5.47490100
123.39999284	0.00000000	-7.94783400	5.11195900
123.59999283	0.00000000	-7.90477300	4.77977300
123.79999282	0.00000000	-7.90477300	4.69365100
123.99999281	0.00000000	-7.94783400	4.31840500
124.19999280	0.00000000	-8.37229300	3.57406500
124.39999279	0.00000000	-9.48572700	3.19881900
124.59999277	0.00000000	-10.59916000	3.15575800
124.79999276	0.00000000	-11.06668000	3.19881900
124.99999275	0.00000000	-11.48499000	3.57406500
125.19999274	0.00000000	-12.18012000	4.36146600
125.39999273	0.00000000	-12.18012000	5.06274600
125.59999271	0.00000000	-11.44193000	5.51796200
125.79999270	0.00000000	-10.64838000	5.53026500
125.99999269	0.00000000	-9.48572700	5.89320800
126.19999268	0.00000000	-8.37229300	5.85014700
126.39999267	0.00000000	-7.94783400	5.15501900
126.59999265	0.00000000	-7.90477300	4.77977300
126.79999264	0.00000000	-7.94783400	4.69365100
126.99999263	0.00000000	-8.32308000	4.31840500
127.19999262	0.00000000	-9.11048200	3.57406500
127.39999261	0.00000000	-9.90403500	3.19881900
127.59999260	0.00000000	-11.06668000	3.15575800
127.79999258	0.00000000	-12.18012000	3.19881900
127.99999257	0.00000000	-12.55536000	3.57406500
128.19999256	0.00000000	-12.18012000	4.31840500
128.39999255	0.00000000	-11.06668000	4.69365100
128.59999254	0.00000000	-9.90403500	4.73671200
128.79999252	0.00000000	-9.11048200	4.73671200
128.99999251	0.00000000	-8.32308000	4.73671200
129.19999250	0.00000000	-7.94783400	4.73671200
129.39999249	0.00000000	-7.94783400	4.73671200
129.59999248	0.00000000	-8.37229300	4.69365100
129.79999246	0.00000000	-9.48572700	4.31840500
129.99999245	0.00000000	-10.59916000	3.62327700
130.19999244	0.00000000	-11.06668000	3.62327700
130.39999243	0.00000000	-11.44193000	4.31840500
130.59999242	0.00000000	-11.81102000	4.69365100
130.79999241	0.00000000	-11.39887000	4.73671200
130.99999239	0.00000000	-10.64838000	4.73671200
131.19999238	0.00000000	-9.48572700	4.73671200
131.39999237	0.00000000	-8.37229300	4.73671200
131.59999236	0.00000000	-7.99704600	4.69365100
131.79999235	0.00000000	-8.32308000	4.31840500
131.99999233	0.00000000	-9.06742000	3.57406500
132.19999232	0.00000000	-9.44266700	3.19881900
132.39999231	0.00000000	-9.52879000	3.15575800
132.59999230	0.00000000	-9.90403500	3.15575800
132.79999229	0.00000000	-10.59916000	3.19881900
132.99999227	0.00000000	-10.64838000	3.57406500
133.19999226	0.00000000	-10.27928000	4.36146600
133.39999225	0.00000000	-10.27313000	5.11195900
133.59999224	0.00000000	-9.86097400	5.89320800
133.79999223	0.00000000	-9.52879000	6.21924200
133.99999222	0.00000000	-9.48572700	5.89320800
134.19999220	0.00000000	-9.48572700	5.11195900
134.39999219	0.00000000	-9.48572700	4.36146600
134.59999218	0.00000000	-9.48572700	3.53100400
134.79999217	0.00000000	-9.48572700	2.82357300
134.99999216	0.00000000	-9.48572700	2.41141700
135.19999214	0.00000000	-9.48572700	2.78051200
135.39999213	0.00000000	-9.48572700	3.11269700
135.59999212	0.00000000	-9.48572700	3.19881900
135.79999211	0.00000000	-9.48572700	3.57406500
135.99999210	0.00000000	-9.52879000	4.36146600
136.19999208	0.00000000	-9.90403500	5.11195900
136.39999207	0.00000000	-10.64838000	5.85014700
136.59999206	0.00000000	-11.02362000	5.89320800
136.79999205	0.00000000	-11.06668000	5.53026500
136.99999204	0.00000000	-11.02362000	5.51796200
137.19999203	0.00000000	-10.64838000	5.06274600
137.39999201	0.00000000	-9.86097400	4.36146600
137.59999200	0.00000000	-9.11048200	3.57406500
137.79999199	0.00000000	-8.32308000	3.19881900
137.99999198	0.00000000	-7.99704600	3.15575800
138.19999197	0.00000000	-8.32308000	3.15575800
138.39999195	0.00000000	-9.11048200	3.15575800
138.59999194	0.00000000	-9.86097400	3.19881900
138.79999193	0.00000000	-10.64838000	3.57406500
138.99999192	0.00000000	-10.97441000	4.36146600
139.19999191	0.00000000	-10.69144000	5.11195900
139.39999189	0.00000000	-10.27928000	5.89320800
139.59999188	0.00000000	-10.27313000	6.26845500
139.79999187	0.00000000	-9.86097400	6.26845500
139.99999186	0.00000000	-9.52879000	5.89320800
140.19999185	0.00000000	-9.48572700	5.11195900
140.39999184	0.00000000	-9.48572700	4.36146600
140.59999182	0.00000000	-9.48572700	3.57406500
140.79999181	0.00000000	-9.48572700	3.19881900
140.99999180	0.00000000	-9.52879000	3.15575800
141.19999179	0.00000000	-9.90403500	3.15575800
141.39999178	0.00000000	-10.64838000	3.19881900
141.59999176	0.00000000	-10.97441000	3.57406500
141.79999175	0.00000000	-10.64838000	4.36146600
141.99999174	0.00000000	-9.90403500	5.11195900
142.19999173	0.00000000	-9.52879000	5.89320800
142.39999172	0.00000000	-9.48572700	6.26845500
142.59999170	0.00000000	-9.48572700	6.26845500
142.79999169	0.00000000	-9.48572700	5.89320800
142.99999168	0.00000000	-9.48572700	5.11195900
143.19999167	0.00000000	-9.48572700	4.36146600
143.39999166	0.00000000	-9.48572700	3.57406500
143.59999165	0.00000000	-9.48572700	3.19881900
143.79999163	0.00000000	-9.48572700	3.15575800
143.99999162	0.00000000	-9.48572700	3.19881900
144.19999161	0.00000000	-9.48572700	3.57406500
144.39999160	0.00000000	-9.48572700	4.31840500
144.59999159	0.00000000	-9.48572700	4.73671200
144.79999157	0.00000000	-9.48572700	5.15501900
144.99999156	0.00000000	-9.48572700	5.89320800
145.19999155	0.00000000	-9.48572700	6.21924200
145.39999154	0.00000000	-9.48572700	5.89320800
145.59999153	0.00000000	-9.52879000	5.15501900
145.79999151	0.00000000	-9.90403500	4.73671200
145.99999150	0.00000000	-10.59916000	4.31840500
146.19999149	0.00000000	-10.64838000	3.57406500
146.39999148	0.00000000	-10.27928000	3.19881900
146.59999147	0.00000000	-10.27313000	3.15575800
146.79999146	0.00000000	-9.86097400	3.19881900
146.99999144	0.00000000	-9.52879000	3.57406500
147.19999143	0.00000000	-9.48572700	4.31840500
147.39999142	0.00000000	-9.48572700	4.73671200
147.59999141	0.00000000	-9.48572700	5.11195900
147.79999140	0.00000000	-9.48572700	5.47490100
147.99999138	0.00000000	-9.48572700	5.11195900
148.19999137	0.00000000	-9.52879000	4.77977300
148.39999136	0.00000000	-9.86097400	4.73671200
148.59999135	0.00000000	-10.23007000	4.69365100
148.79999134	0.00000000	-9.86097400	4.31840500
148.99999132	0.00000000	-9.52879000	3.57406500
149.19999131	0.00000000	-9.48572700	3.19881900
149.39999130	0.00000000	-9.48572700	3.15575800
149.59999129	0.00000000	-9.48572700	3.19881900
149.79999128	0.00000000	-9.48572700	3.57406500
149.99999127	0.00000000	-9.48572700	4.31840500
150.19999125	0.00000000	-9.48572700	4.69365100
150.39999124	0.00000000	-9.48572700	4.73671200
150.59999123	0.00000000	-9.48572700	4.73671200
150.79999122	0.00000000	-9.48572700	4.73671200
150.99999121	0.00000000	-9.48572700	4.73671200
151.19999119	0.00000000	-9.48572700	4.73671200
151.39999118	-0.15871060	-9.48572700	4.73671200
151.59999117	0.00000000	-9.48572700	4.73671200
151.79999116	0.00000000	-9.48572700	4.73671200
151.99999115	0.00000000	-9.48572700	4.73671200
152.19999113	0.00000000	-9.48572700	4.69365100
152.39999112	0.00000000	-9.44266700	4.31840500
152.59999111	0.00000000	-9.06742000	3.62327700
152.79999110	0.00000000	-8.37229300	3.62327700
152.99999109	0.00000000	-8.37229300	4.31840500
153.19999108	0.00000000	-9.06742000	4.69365100
153.39999106	0.00000000	-9.44266700	4.73671200
153.59999105	0.00000000	-9.52879000	4.73671200
153.79999104	0.00000000	-9.86097400	4.73671200
153.99999103	0.00000000	-10.27313000	4.73671200
154.19999102	0.00000000	-10.27928000	4.73671200
154.39999100	0.00000000	-10.69144000	4.73671200
154.59999099	0.00000000	-10.97441000	4.73671200
154.79999098	0.00000000	-10.64838000	4.69365100
154.99999097	0.00000000	-9.90403500	4.36146600
155.19999096	0.00000000	-9.48572700	3.94931100
155.39999094	0.00000000	-9.06742000	3.94315900
155.59999093	0.00000000	-8.32308000	3.57406500
155.79999092	0.00000000	-7.94783400	3.62327700
155.99999091	0.00000000	-7.90477300	4.31840500
156.19999090	0.00000000	-7.99704600	4.69365100
156.39999089	0.00000000	-8.69832600	4.73671200
156.59999087	0.00000000	-9.85482200	4.77977300
156.79999086	0.00000000	-10.23622000	5.11195900
156.99999085	0.00000000	-10.69144000	5.47490100
157.19999084	0.00000000	-11.02362000	5.11195900
157.39999083	0.00000000	-11.02362000	4.77977300
157.59999081	0.00000000	-10.64838000	4.73671200
157.79999080	0.00000000	-9.90403500	4.73671200
157.99999079	0.00000000	-9.52879000	4.69365100
158.19999078	0.00000000	-9.44266700	4.31840500
158.39999077	0.00000000	-9.11048200	3.57406500
158.59999075	0.00000000	-8.69832600	3.24803100
158.79999074	0.00000000	-8.73523500	3.57406500
158.99999073	0.00000000	-8.69832600	4.31840500
159.19999072	0.00000000	-9.11048200	4.69365100
159.39999071	0.00000000	-9.44266700	4.73671200
159.59999070	0.00000000	-9.48572700	4.73671200
159.79999068	0.00000000	-9.48572700	4.73671200
159.99999067	0.00000000	-9.52879000	4.73671200
160.19999066	0.00000000	-9.86097400	4.73671200
160.39999065	0.00000000	-10.23007000	4.73671200
160.59999064	0.00000000	-9.86097400	4.73671200
160.79999062	0.00000000	-9.52879000	4.73671200
160.99999061	0.00000000	-9.48572700	4.73671200
161.19999060	0.00000000	-9.48572700	4.73671200
161.39999059	0.00000000	-9.48572700	4.73671200
161.59999058	0.00000000	-9.44266700	4.73671200
161.79999056	0.00000000	-9.06742000	4.73671200
161.99999055	0.00000000	-8.37229300	4.73671200
162.19999054	0.00000000	-8.37229300	4.73671200
162.39999053	0.00000000	-9.06742000	4.73671200
162.59999052	0.00000000	-9.44266700	4.73671200
162.79999051	0.00000000	-9.48572700	4.73671200
162.99999049	0.00000000	-9.52879000	4.73671200
163.19999048	0.00000000	-9.90403500	4.73671200
163.39999047	0.00000000	-10.64838000	4.73671200
163.59999046	0.00000000	-10.97441000	4.73671200
163.79999045	0.00000000	-10.64838000	4.73671200
163.99999043	0.00000000	-9.90403500	4.73671200
164.19999042	0.00000000	-9.52879000	4.69365100
164.39999041	0.00000000	-9.48572700	4.36146600
164.59999040	0.00000000	-9.44266700	3.99237200
164.79999039	0.00000000	-9.11048200	4.36146600
164.99999037	0.00000000	-8.69832600	4.69365100
165.19999036	0.00000000	-8.73523500	4.73671200
165.39999035	0.00000000	-8.69832600	4.73671200
165.59999034	0.00000000	-9.11048200	4.73671200
165.79999033	0.00000000	-9.44266700	4.73671200
165.99999032	0.00000000	-9.48572700	4.73671200
166.19999030	0.00000000	-9.48572700	4.73671200
166.39999029	0.00000000	-9.52879000	4.73671200
166.59999028	0.00000000	-9.86097400	4.73671200
166.79999027	0.00000000	-10.23007000	4.73671200
166.99999026	0.00000000	-9.86097400	4.73671200
167.19999024	0.00000000	-9.52879000	4.73671200
167.39999023	0.00000000	-9.48572700	4.69365100
167.59999022	0.00000000	-9.48572700	4.36146600
167.79999021	0.00000000	-9.48572700	3.99237200
167.99999020	0.00000000	-9.44266700	4.36146600
168.19999018	0.00000000	-9.11048200	4.64443900
168.39999017	0.00000000	-8.74138700	4.36146600
168.59999016	0.00000000	-9.11048200	3.99237200
168.79999015	0.00000000	-9.44266700	4.36146600
168.99999014	0.00000000	-9.48572700	4.69365100
169.19999013	0.00000000	-9.48572700	4.73671200
169.39999011	0.00000000	-9.48572700	4.73671200
169.59999010	0.00000000	-9.48572700	4.73671200
169.79999009	0.00000000	-9.48572700	4.73671200
169.99999008	0.00000000	-9.48572700	4.73671200
170.19999007	0.00000000	-9.48572700	4.73671200
170.39999005	0.00000000	-9.48572700	4.73671200
170.59999004	0.00000000	-9.48572700	4.73671200
170.79999003	0.00000000	-9.44266700	4.73671200
170.99999002	0.00000000	-9.11048200	4.73671200
171.19999001	0.00000000	-8.74138700	4.73671200
171.39998999	0.00000000	-9.11048200	4.73671200
171.59998998	0.00000000	-9.44266700	4.73671200
171.79998997	0.00000000	-9.48572700	4.73671200
171.99998996	0.00000000	-9.48572700	4.73671200
172.19998995	0.00000000	-9.48572700	4.73671200
172.39998994	0.00000000	-9.48572700	4.73671200
172.59998992	0.00000000	-9.48572700	4.73671200
172.79998991	0.00000000	-9.48572700	4.73671200
172.99998990	0.00000000	-9.48572700	4.73671200
173.19998989	0.00000000	-9.48572700	4.73671200
173.39998988	0.00000000	-9.48572700	4.73671200
173.59998986	0.00000000	-9.48572700	4.73671200
173.79998985	0.00000000	-9.48572700	4.73671200
173.99998984	0.00000000	-9.48572700	4.73671200
174.19998983	0.00000000	-9.48572700	4.73671200
174.39998982	0.00000000	-9.48572700	4.73671200
174.59998980	0.00000000	-9.48572700	4.73671200
174.79998979	0.00000000	-9.48572700	4.73671200
174.99998978	0.00000000	-9.48572700	4.73671200
175.19998977	0.00000000	-9.48572700	4.73671200
175.39998976	0.00000000	-9.48572700	4.73671200
175.59998975	0.00000000	-9.48572700	4.73671200
175.79998973	0.00000000	-9.48572700	4.73671200
175.99998972	0.00000000	-9.48572700	4.73671200
176.19998971	0.00000000	-9.48572700	4.73671200
176.39998970	0.00000000	-9.48572700	4.73671200
176.59998969	0.00000000	-9.48572700	4.73671200
176.79998967	0.00000000	-9.48572700	4.73671200
176.99998966	0.00000000	-9.48572700	4.73671200
177.19998965	0.00000000	-9.48572700	4.73671200
177.39998964	0.00000000	-9.48572700	4.73671200
177.59998963	0.00000000	-9.48572700	4.73671200
177.79998961	0.00000000	-9.48572700	4.73671200
177.99998960	0.00000000	-9.48572700	4.73671200
178.19998959	0.00000000	-9.48572700	4.73671200
178.39998958	0.00000000	-9.48572700	4.73671200
178.59998957	0.00000000	-9.48572700	4.73671200
178.79998956	0.00000000	-9.48572700	4.73671200
178.99998954	0.00000000	-9.48572700	4.73671200
179.19998953	0.00000000	-9.44266700	4.73671200
179.39998952	0.00000000	-9.06742000	4.73671200
179.59998951	0.00000000	-8.37229300	4.73671200
179.79998950	0.00000000	-8.37229300	4.73671200
179.99998948	0.00000000	-9.06742000	4.73671200
180.19998947	0.00000000	-9.44266700	4.73671200
180.39998946	0.00000000	-9.48572700	4.73671200
180.59998945	0.00000000	-9.48572700	4.73671200
180.79998944	0.00000000	-9.48572700	4.73671200
180.99998942	0.00000000	-9.48572700	4.73671200
181.19998941	0.00000000	-9.48572700	4.73671200
181.39998940	0.00000000	-9.48572700	4.73671200
181.59998939	0.00000000	-9.48572700	4.73671200
181.79998938	0.00000000	-9.48572700	4.73671200
181.99998937	0.00000000	-9.48572700	4.73671200
182.19998935	0.00000000	-9.44266700	4.73671200
182.39998934	0.00000000	-9.06742000	4.73671200
182.59998933	0.00000000	-8.37229300	4.73671200
182.79998932	0.00000000	-8.37229300	4.69365100
182.99998931	0.00000000	-9.06742000	4.31840500
183.19998929	0.00000000	-9.44266700	3.57406500
183.39998928	0.00000000	-9.48572700	3.24803100
183.59998927	0.00000000	-9.48572700	3.57406500
183.79998926	0.00000000	-9.48572700	4.31840500
183.99998925	0.00000000	-9.48572700	4.69365100
184.19998923	0.00000000	-9.48572700	4.73671200
184.39998922	0.00000000	-9.48572700	4.73671200
184.59998921	0.00000000	-9.48572700	4.73671200
184.79998920	0.00000000	-9.48572700	4.73671200
184.99998919	0.00000000	-9.44266700	4.73671200
185.19998918	0.00000000	-9.11048200	4.77977300
185.39998916	0.00000000	-8.74138700	5.11195900
185.59998915	0.00000000	-9.11048200	5.47490100
185.79998914	0.00000000	-9.44266700	5.06274600
185.99998913	0.00000000	-9.48572700	4.36146600
186.19998912	0.00000000	-9.48572700	3.57406500
186.39998910	0.00000000	-9.48572700	3.24803100
186.59998909	0.00000000	-9.48572700	3.57406500
186.79998908	0.00000000	-9.48572700	4.31840500
186.99998907	0.00000000	-9.48572700	4.69365100
187.19998906	0.00000000	-9.48572700	4.73671200
187.39998904	0.00000000	-9.48572700	4.73671200
187.59998903	0.00000000	-9.48572700	4.73671200
187.79998902	0.00000000	-9.48572700	4.77977300
187.99998901	0.00000000	-9.48572700	5.11195900
188.19998900	0.00000000	-9.48572700	5.47490100
188.39998899	0.00000000	-9.44266700	5.11195900
188.59998897	0.00000000	-9.11048200	4.73671200
188.79998896	0.00000000	-8.69832600	4.31840500
188.99998895	0.00000000	-8.73523500	3.62327700
189.19998894	0.00000000	-8.69832600	3.62327700
189.39998893	0.00000000	-9.11048200	4.31840500
189.59998891	0.00000000	-9.44266700	4.69365100
189.79998890	0.00000000	-9.48572700	4.73671200
189.99998889	0.00000000	-9.48572700	4.73671200
190.19998888	0.00000000	-9.48572700	4.73671200
190.39998887	0.00000000	-9.48572700	4.73671200
190.59998885	0.00000000	-9.48572700	4.73671200
190.79998884	0.00000000	-9.48572700	4.73671200
190.99998883	0.00000000	-9.48572700	4.73671200
191.19998882	0.00000000	-9.48572700	4.73671200
191.39998881	0.00000000	-9.48572700	4.73671200
191.59998880	0.00000000	-9.48572700	4.73671200
191.79998878	0.00000000	-9.48572700	4.73671200
191.99998877	0.00000000	-9.48572700	4.73671200
192.19998876	0.00000000	-9.44266700	4.73671200
192.39998875	0.00000000	-9.11048200	4.73671200
192.59998874	0.00000000	-8.74138700	4.73671200
192.79998872	0.00000000	-9.11048200	4.73671200
192.99998871	0.00000000	-9.44266700	4.73671200
193.19998870	0.00000000	-9.48572700	4.73671200
193.39998869	0.00000000	-9.48572700	4.73671200
193.59998868	0.00000000	-9.48572700	4.73671200
193.79998866	0.00000000	-9.48572700	4.73671200
193.99998865	0.00000000	-9.48572700	4.73671200
194.19998864	0.00000000	-9.48572700	4.73671200
194.39998863	0.00000000	-9.48572700	4.73671200
194.59998862	0.00000000	-9.48572700	4.73671200
194.79998861	0.00000000	-9.48572700	4.73671200
194.99998859	0.00000000	-9.48572700	4.73671200
195.19998858	0.00000000	-9.48572700	4.73671200
195.39998857	0.00000000	-9.48572700	4.73671200
195.59998856	0.00000000	-9.48572700	4.73671200
195.79998855	0.00000000	-9.48572700	4.73671200
195.99998853	0.00000000	-9.48572700	4.73671200
