Time	Channel A	Channel B	Channel C
(us)	(V)	(mV)	(mV)

-4.53333289	0.00000000	-75.89813000	-19.74040000
-4.33333290	0.00000000	-75.89813000	-20.10950000
-4.13333291	0.00000000	-75.89813000	-20.10950000
-3.93333293	0.00000000	-75.89813000	-19.74040000
-3.73333294	0.00000000	-75.89813000	-19.73425000
-3.53333295	0.00000000	-75.89813000	-19.36516000
-3.33333296	0.00000000	-75.89813000	-19.41437000
-3.13333297	0.00000000	-75.89813000	-20.10950000
-2.93333299	0.00000000	-75.89813000	-20.43553000
-2.73333300	0.00000000	-75.89813000	-20.10950000
-2.53333301	0.00000000	-75.89813000	-19.41437000
-2.33333302	0.00000000	-75.89813000	-19.36516000
-2.13333303	0.00000000	-75.89813000	-19.73425000
-1.93333304	0.00000000	-75.89813000	-19.74040000
-1.73333306	0.00000000	-75.89813000	-20.15256000
-1.53333307	0.00000000	-75.89813000	-20.48474000
-1.33333308	0.00000000	-75.89813000	-20.52780000
-1.13333309	0.00000000	-75.89813000	-20.48474000
-0.93333310	0.00000000	-75.89813000	-20.15256000
-0.73333312	0.00000000	-75.85506000	-19.78346000
-0.53333313	0.00000000	-75.52288000	-20.15256000
-0.33333314	0.15871060	-75.11072000	-20.48474000
-0.13333315	0.47736220	-75.14763000	-20.52780000
0.06666684	0.95533960	-75.11072000	-20.52780000
0.26666682	0.95533960	-75.52288000	-20.52780000
0.46666681	0.95533960	-75.85506000	-20.52780000
0.66666680	0.47736220	-75.85506000	-20.52780000
0.86666679	-0.31803640	-75.52288000	-20.48474000
1.06666678	-1.27399100	-75.11072000	-20.10950000
1.26666677	-2.22994600	-75.10458000	-19.41437000
1.46666675	-2.70792300	-74.73548000	-19.36516000
1.66666674	-2.70792300	-74.78469000	-19.69119000
1.86666673	-1.75196900	-75.43060000	-19.32210000
2.06666672	0.00000000	-75.47981000	-18.98991000
2.26666671	2.07062000	-75.15379000	-18.94685000
2.46666669	4.14124000	-75.52288000	-18.98991000
2.66666668	5.25652100	-75.85506000	-19.36516000
2.86666667	5.09719500	-75.89813000	-20.10950000
3.06666666	3.50393700	-75.89813000	-20.48474000
3.26666665	0.79601380	-75.89813000	-20.52780000
3.46666663	-2.54859700	-75.89813000	-20.52780000
3.66666662	-5.73449800	-75.89813000	-20.48474000
3.86666661	-7.64579200	-75.85506000	-20.10950000
4.06666660	-7.80511800	-75.47981000	-19.36516000
4.26666659	-5.73449800	-74.73548000	-18.98991000
4.46666658	-2.22994600	-74.36023000	-18.94685000
4.66666656	2.07062000	-74.31717000	-18.94685000
4.86666655	6.21247500	-74.36023000	-18.98991000
5.06666654	8.92039900	-74.73548000	-19.36516000
5.26666653	9.39837600	-75.47981000	-20.10950000
5.46666652	7.48646600	-75.85506000	-20.48474000
5.66666650	3.66326300	-75.89813000	-20.52780000
5.86666649	-1.11466500	-75.89813000	-20.52780000
6.06666648	-5.57517200	-75.89813000	-20.48474000
6.26666647	-8.60174700	-75.85506000	-20.10950000
6.46666646	-9.39837600	-75.52288000	-19.36516000
6.66666644	-7.96444400	-75.11072000	-18.98991000
6.86666643	-4.45989200	-75.14763000	-18.94685000
7.06666642	-0.15871060	-75.06767000	-18.94685000
7.26666641	3.98191400	-75.14763000	-18.98991000
7.46666640	6.84916400	-75.11072000	-19.36516000
7.66666639	7.80511800	-75.52288000	-20.10950000
7.86666637	6.84916400	-75.85506000	-20.48474000
8.06666636	4.30056600	-75.89813000	-20.52780000
8.26666635	0.95533960	-75.89813000	-20.48474000
8.46666634	-2.07062000	-75.89813000	-20.15256000
8.66666633	-4.30056600	-75.85506000	-19.74040000
8.86666631	-5.25652100	-75.52288000	-19.77731000
9.06666630	-4.61921700	-75.15379000	-19.69734000
9.26666629	-3.18590100	-75.47981000	-19.73425000
9.46666628	-1.27399100	-75.43060000	-19.32210000
9.66666627	0.63668800	-74.73548000	-18.98991000
9.86666625	1.91129400	-74.40945000	-18.98991000
10.06666624	2.54859700	-74.73548000	-19.36516000
10.26666623	2.38927200	-75.43060000	-20.06029000
10.46666622	1.75196900	-75.47981000	-20.10950000
10.66666621	0.79601380	-75.11072000	-19.74040000
10.86666620	0.00000000	-75.14763000	-19.77731000
11.06666618	-0.63668800	-75.06767000	-19.74040000
11.26666617	-0.95533960	-75.14763000	-20.10950000
11.46666616	-0.95533960	-75.11072000	-20.06029000
11.66666615	-0.79601380	-75.47981000	-19.36516000
11.86666614	-0.47736220	-75.47981000	-18.98991000
12.06666612	-0.15871060	-75.11072000	-18.94685000
12.26666611	-0.15871060	-75.14763000	-18.98991000
12.46666610	0.00000000	-75.06767000	-19.32210000
12.66666609	0.00000000	-75.14763000	-19.69119000
12.86666608	0.00000000	-75.06767000	-19.32210000
13.06666606	0.00000000	-75.10458000	-18.98991000
13.26666605	0.15871060	-74.69241000	-18.94685000
13.46666604	0.00000000	-74.40945000	-18.98991000
13.66666603	0.00000000	-74.73548000	-19.32210000
13.86666602	0.00000000	-75.43060000	-19.69119000
14.06666601	-0.15871060	-75.43060000	-19.32210000
14.26666599	-0.15871060	-74.78469000	-18.98991000
14.46666598	-0.15871060	-74.78469000	-18.94685000
14.66666597	-0.15871060	-75.43060000	-18.94685000
14.86666596	0.00000000	-75.43060000	-18.94685000
15.06666595	0.00000000	-74.78469000	-18.94685000
15.26666593	0.00000000	-74.73548000	-18.94685000
15.46666592	0.00000000	-75.06151000	-18.94685000
15.66666591	0.00000000	-74.73548000	-18.94685000
15.86666590	0.00000000	-74.78469000	-18.94685000
16.06666589	0.00000000	-75.43060000	-18.94685000
16.26666587	-0.15871060	-75.43060000	-18.94685000
16.46666586	-0.15871060	-74.73548000	-18.98991000
16.66666585	-0.15871060	-74.36023000	-19.36516000
16.86666584	0.00000000	-74.31717000	-20.06029000
17.06666583	0.00000000	-74.27411000	-20.06029000
17.26666582	0.00000000	-73.89886000	-19.36516000
17.46666580	0.00000000	-73.15452000	-18.98991000
17.66666579	0.00000000	-72.82849000	-18.94685000
17.86666578	0.00000000	-73.20374000	-18.94685000
18.06666577	0.00000000	-74.36023000	-18.94685000
18.26666576	0.00000000	-75.89813000	-18.94685000
18.46666574	0.00000000	-77.47908000	-18.94685000
18.66666573	0.00000000	-79.01697000	-18.94685000
18.86666572	0.00000000	-80.13041000	-18.94685000
19.06666571	0.00000000	-80.13041000	-18.94685000
19.26666570	0.00000000	-78.92471000	-18.94685000
19.46666568	0.00000000	-76.59325000	-18.94685000
19.66666567	0.00000000	-73.06840000	-18.94685000
19.86666566	0.00000000	-69.19906000	-18.98991000
20.06666565	0.00000000	-65.37893000	-19.32210000
20.26666564	0.00000000	-63.10285000	-19.69119000
20.46666563	0.00000000	-63.51500000	-19.32210000
20.66666561	0.00000000	-66.26476000	-19.03912000
20.86666560	0.00000000	-71.79503000	-19.32210000
21.06666559	0.00000000	-79.47834000	-19.73425000
21.26666558	0.00000000	-87.52460000	-19.74040000
21.46666557	0.00000000	-93.29478000	-20.15256000
21.66666555	0.00000000	-95.20792000	-20.48474000
21.86666554	0.00000000	-92.83341000	-20.52780000
22.06666553	0.00000000	-85.76525000	-20.52780000
22.26666552	0.00000000	-74.96924000	-20.52780000
22.46666551	0.00000000	-62.54921000	-20.48474000
22.66666549	0.00000000	-51.37795000	-20.10950000
22.86666548	0.00000000	-43.75000000	-19.36516000
23.06666547	0.00000000	-42.72268000	-18.98991000
23.26666546	0.00000000	-49.74163000	-18.94685000
23.46666545	0.00000000	-63.65649000	-18.90379000
23.66666544	0.00000000	-81.80363000	-18.52854000
23.86666542	0.00000000	-99.53247000	-17.78420000
24.06666541	0.00000000	-112.65380000	-17.45817000
24.26666540	0.00000000	-117.96260000	-17.83341000
24.46666539	0.00000000	-113.30590000	-18.98991000
24.66666538	0.00000000	-99.35407000	-20.52780000
24.86666536	0.00000000	-79.24458000	-22.10261000
25.06666535	0.00000000	-56.82209000	-23.64050000
25.26666534	0.00000000	-37.55536000	-24.75394000
25.46666533	0.00000000	-26.01501000	-24.75394000
25.66666532	0.00000000	-25.27682000	-23.54823000
25.86666530	-0.15871060	-36.10975000	-21.22293000
26.06666529	0.00000000	-55.84399000	-17.69808000
26.26666528	0.00000000	-80.54871000	-13.87795000
26.46666527	0.00000000	-104.46600000	-10.40231000
26.66666526	0.00000000	-121.45050000	-8.48917200
26.86666525	0.00000000	-128.00810000	-8.53838500
27.06666523	0.00000000	-122.23790000	-10.95595000
27.26666522	0.00000000	-105.67790000	-16.38779000
27.46666521	0.00000000	-82.87401000	-23.68356000
27.66666520	0.00000000	-58.49532000	-31.02239000
27.86666519	0.00000000	-38.06594000	-36.78642000
28.06666517	0.00000000	-26.43947000	-39.43774000
28.26666516	0.00000000	-25.97195000	-37.85679000
28.46666515	0.00000000	-35.97441000	-31.95743000
28.66666514	0.00000000	-53.79552000	-22.29331000
28.86666513	0.00000000	-75.80585000	-10.35925000
29.06666511	0.00000000	-97.02263000	0.42445860
29.26666510	0.00000000	-112.10010000	7.76328700
29.46666509	0.00000000	-118.00560000	9.99630800
29.66666508	0.00000000	-114.23470000	5.67790300
29.86666507	0.00000000	-102.69440000	-4.73056000
30.06666506	0.00000000	-86.41116000	-19.03912000
30.26666504	0.00000000	-68.63927000	-34.09203000
30.46666503	0.00000000	-53.14345000	-46.82579000
30.66666502	0.00000000	-43.41781000	-54.16461000
30.86666501	0.00000000	-40.63115000	-54.49680000
31.06666500	0.00000000	-44.86343000	-47.52091000
31.26666498	0.00000000	-54.91510000	-33.95669000
31.46666497	0.00000000	-68.41166000	-16.99680000
31.66666496	0.00000000	-82.32037000	0.00615157
31.86666495	0.00000000	-93.20866000	13.10900000
32.06666494	0.00000000	-99.48942000	19.29134000
32.26666492	0.00000000	-100.65210000	17.38435000
32.46666491	0.00000000	-96.41363000	7.72637700
32.66666490	0.00000000	-87.89984000	-7.33267600
32.86666489	0.00000000	-77.06077000	-24.75394000
33.06666488	0.00000000	-65.93873000	-40.96949000
33.26666487	0.00000000	-57.80019000	-52.58366000
33.46666485	0.00000000	-54.62598000	-57.23425000
33.66666484	0.00000000	-55.70866000	-54.12155000
33.86666483	0.00000000	-60.77140000	-43.71309000
34.06666482	0.00000000	-68.45472000	-28.28494000
34.26666481	0.00000000	-76.96850000	-11.69414000
34.46666479	0.00000000	-84.27657000	2.65748000
34.66666478	0.00000000	-88.55191000	11.95251000
34.86666477	0.00000000	-88.97022000	14.64075000
35.06666476	0.00000000	-85.90058000	9.99630800
35.26666475	0.00000000	-80.17347000	-1.15034400
35.46666473	0.00000000	-73.62204000	-15.78494000
35.66666472	0.00000000	-68.21481000	-30.46875000
35.86666471	0.00000000	-64.72686000	-42.03986000
36.06666470	0.00000000	-64.35162000	-47.80388000
36.26666469	0.00000000	-66.95989000	-46.31520000
36.46666468	0.00000000	-71.19833000	-38.31816000
36.66666466	0.00000000	-75.85506000	-26.75320000
36.86666465	0.00000000	-80.08734000	-14.43159000
37.06666464	0.00000000	-82.78174000	-4.02928100
37.26666463	0.00000000	-83.15698000	1.35949800
37.46666462	-0.15871060	-81.20078000	1.03346500
37.66666460	0.00000000	-77.01156000	-4.77362200
37.86666459	0.00000000	-72.04109000	-14.67150000
38.06666458	0.00000000	-68.17175000	-25.35679000
38.26666457	0.00000000	-65.80339000	-33.07701000
38.46666456	0.00000000	-65.42815000	-36.18971000
38.66666454	0.00000000	-67.00910000	-34.27657000
38.86666453	0.00000000	-70.45398000	-27.73130000
39.06666452	0.00000000	-75.06151000	-18.57160000
39.26666451	0.00000000	-78.92471000	-9.37500000
39.46666450	0.00000000	-81.75443000	-3.28494100
39.66666449	0.00000000	-83.62450000	-2.12229300
39.86666447	0.00000000	-83.98745000	-6.35457700
40.06666446	0.00000000	-82.04355000	-14.76378000
40.26666445	0.00000000	-78.59251000	-24.71087000
40.46666444	0.00000000	-74.31717000	-33.16314000
40.66666443	0.00000000	-70.03568000	-37.77067000
40.86666441	0.00000000	-66.58464000	-37.39542000
41.06666440	0.00000000	-64.64074000	-32.00664000
41.26666439	0.00000000	-65.00369000	-23.21604000
41.46666438	0.00000000	-66.91682000	-13.60113000
41.66666437	0.00000000	-70.03568000	-5.88705700
41.86666435	0.00000000	-73.89886000	-1.61786400
42.06666434	0.00000000	-77.43602000	-1.66092500
42.26666433	0.00000000	-80.54871000	-6.26230300
42.46666432	0.00000000	-82.83096000	-14.30241000
42.66666431	0.00000000	-83.20619000	-23.08686000
42.86666430	0.00000000	-81.71136000	-30.05044000
43.06666428	0.00000000	-79.01697000	-33.58144000
43.26666427	0.00000000	-75.94118000	-33.63066000
43.46666426	0.00000000	-73.20374000	-30.56102000
43.66666425	0.00000000	-71.24754000	-25.17224000
43.86666424	0.00000000	-70.04182000	-19.03912000
44.06666422	0.00000000	-69.66658000	-13.65034000
44.26666421	0.00000000	-70.04182000	-10.53765000
44.46666420	0.00000000	-71.15526000	-10.07013000
44.66666419	0.00000000	-72.26870000	-11.55881000
44.86666418	0.00000000	-72.69316000	-14.29626000
45.06666416	0.00000000	-72.73621000	-17.74114000
45.26666415	0.00000000	-72.77928000	-21.22293000
45.46666414	0.00000000	-73.24680000	-23.54823000
45.66666413	0.00000000	-74.82775000	-24.75394000
45.86666412	0.00000000	-77.47908000	-24.75394000
46.06666411	0.00000000	-80.17347000	-23.59129000
46.26666409	0.00000000	-82.12967000	-21.64124000
46.46666408	0.00000000	-83.20619000	-18.94685000
46.66666407	0.00000000	-82.36343000	-16.29552000
46.86666406	0.00000000	-78.88164000	-14.76378000
47.06666405	0.00000000	-73.84965000	-14.72072000
47.26666403	0.00000000	-68.03641000	-15.83415000
47.46666402	0.00000000	-62.64148000	-17.40895000
47.66666401	0.00000000	-59.23351000	-19.36516000
47.86666400	0.00000000	-58.87056000	-21.68430000
48.06666399	0.00000000	-62.40157000	-23.54823000
48.26666397	0.00000000	-68.96530000	-24.33563000
48.46666396	0.00000000	-77.47908000	-23.59129000
48.66666395	0.00000000	-85.90058000	-22.05955000
48.86666394	0.00000000	-91.67076000	-20.06029000
49.06666393	0.00000000	-93.25172000	-17.36589000
49.26666392	0.00000000	-90.50811000	-14.72072000
49.46666390	0.00000000	-83.90133000	-13.13976000
49.66666389	0.00000000	-74.31717000	-12.76452000
49.86666388	0.00000000	-64.72686000	-13.60113000
50.06666387	0.00000000	-58.12008000	-16.29552000
50.26666386	0.00000000	-55.37647000	-20.10950000
50.46666384	0.00000000	-56.95743000	-23.59129000
50.66666383	0.00000000	-62.77681000	-26.28568000
50.86666382	0.00000000	-71.61663000	-27.44832000
51.06666381	0.00000000	-81.20078000	-26.66092000
51.26666380	0.00000000	-88.50885000	-24.33563000
51.46666379	0.00000000	-91.62770000	-20.47859000
51.66666377	0.00000000	-90.08981000	-16.25246000
51.86666376	0.00000000	-84.31963000	-12.76452000
52.06666375	0.00000000	-75.89813000	-10.44537000
52.26666374	0.00000000	-67.47047000	-10.11319000
52.46666373	0.00000000	-61.65723000	-12.02018000
52.66666371	0.00000000	-59.70103000	-15.83415000
52.86666370	0.00000000	-61.61417000	-20.06029000
53.06666369	0.00000000	-66.95989000	-23.54823000
53.26666368	0.00000000	-73.84965000	-25.86737000
53.46666367	0.00000000	-80.04429000	-26.24262000
53.66666365	0.00000000	-84.31963000	-24.79700000
53.86666364	0.00000000	-85.80831000	-22.43479000
54.06666363	0.00000000	-83.90133000	-19.77731000
54.26666362	0.00000000	-78.92471000	-17.08907000
54.46666361	0.00000000	-72.77928000	-15.92027000
54.66666360	0.00000000	-67.00910000	-15.82800000
54.86666358	0.00000000	-63.19512000	-16.29552000
55.06666357	0.00000000	-62.81988000	-17.83341000
55.26666356	0.00000000	-65.84645000	-20.06029000
55.46666355	0.00000000	-71.19833000	-21.54897000
55.66666354	0.00000000	-76.96850000	-21.59203000
55.86666352	0.00000000	-81.57603000	-20.43553000
56.06666351	0.00000000	-83.90133000	-18.52854000
56.26666350	0.00000000	-83.15698000	-16.29552000
56.46666349	0.00000000	-80.13041000	-15.18209000
56.66666348	0.00000000	-75.85506000	-15.92027000
56.86666346	0.00000000	-71.24138000	-17.83341000
57.06666345	0.00000000	-67.38435000	-20.57087000
57.26666344	0.00000000	-65.42200000	-23.64050000
57.46666343	0.00000000	-65.42200000	-26.24262000
57.66666342	0.00000000	-67.33513000	-26.98080000
57.86666341	0.00000000	-70.82307000	-25.03691000
58.06666339	0.00000000	-74.64935000	-21.22293000
58.26666338	0.00000000	-78.13115000	-16.20325000
58.46666337	0.00000000	-80.04429000	-11.60187000
58.66666336	0.00000000	-80.08734000	-8.53223400
58.86666335	0.00000000	-78.54945000	-7.79404500
59.06666333	0.00000000	-75.89813000	-10.11319000
59.26666332	0.00000000	-73.20374000	-14.72072000
59.46666331	0.00000000	-71.29060000	-20.57087000
59.66666330	0.00000000	-70.46014000	-26.70398000
59.86666329	0.00000000	-70.82307000	-31.63140000
60.06666327	0.00000000	-71.57356000	-33.16314000
60.26666326	0.00000000	-72.77928000	-30.88705000
60.46666325	0.00000000	-74.22490000	-25.86737000
60.66666324	0.00000000	-75.01230000	-18.89764000
60.86666323	0.00000000	-74.69241000	-11.60187000
61.06666322	0.00000000	-74.36023000	-5.84399600
61.26666320	0.00000000	-74.27411000	-3.14960600
61.46666319	0.00000000	-73.89886000	-4.30610200
61.66666318	0.00000000	-73.15452000	-8.95669300
61.86666317	0.00000000	-72.82849000	-16.25246000
62.06666316	0.00000000	-73.20374000	-24.33563000
62.26666314	0.00000000	-74.31717000	-30.88705000
62.46666313	0.00000000	-75.43060000	-34.74409000
62.66666312	0.00000000	-75.85506000	-34.74409000
62.86666311	0.00000000	-75.85506000	-30.88705000
63.06666310	0.00000000	-75.43060000	-24.33563000
63.26666308	0.00000000	-74.27411000	-16.25246000
63.46666307	0.00000000	-72.77928000	-8.95669300
63.66666306	0.00000000	-71.57356000	-4.30610200
63.86666305	0.00000000	-70.82307000	-3.10039400
64.06666304	0.00000000	-70.46014000	-5.42568800
64.26666303	0.00000000	-71.24754000	-10.40231000
64.46666301	0.00000000	-72.73621000	-16.99065000
64.66666300	0.00000000	-74.27411000	-23.50517000
64.86666299	0.00000000	-75.47981000	-28.56176000
65.06666298	0.00000000	-76.23032000	-30.88705000
65.26666297	0.00000000	-76.59325000	-30.60408000
65.46666295	0.00000000	-75.80585000	-28.24188000
65.66666294	0.00000000	-74.31717000	-24.42790000
65.86666293	0.00000000	-72.77928000	-19.74040000
66.06666292	0.00000000	-71.66584000	-15.50197000
66.26666291	0.00000000	-71.62278000	-11.97711000
66.46666289	0.00000000	-72.36097000	-10.02707000
66.66666288	0.00000000	-73.15452000	-9.60875900
66.86666287	0.00000000	-74.36023000	-10.40231000
67.06666286	0.00000000	-75.80585000	-12.72146000
67.26666285	0.00000000	-76.55019000	-15.78494000
67.46666284	0.00000000	-75.76279000	-18.94685000
67.66666282	0.00000000	-73.89886000	-22.05955000
67.86666281	0.00000000	-71.57356000	-24.79700000
68.06666280	0.00000000	-69.61736000	-26.75320000
68.26666279	0.00000000	-68.12868000	-27.90969000
68.46666278	0.00000000	-67.80266000	-27.86663000
68.66666276	0.00000000	-69.70964000	-26.28568000
68.86666275	0.00000000	-72.77928000	-23.21604000
69.06666274	0.00000000	-76.27337000	-19.32210000
69.26666273	0.00000000	-79.75516000	-15.40969000
69.46666272	0.00000000	-82.04355000	-11.51575000
69.66666270	0.00000000	-82.83096000	-8.53223400
69.86666269	0.00000000	-81.57603000	-7.75098400
70.06666268	0.00000000	-78.08808000	-9.65182000
70.26666267	0.00000000	-72.73621000	-13.13976000
70.46666266	0.00000000	-67.38435000	-17.83341000
70.66666265	0.00000000	-63.84104000	-23.21604000
70.86666263	0.00000000	-62.26008000	-27.82357000
71.06666262	0.00000000	-62.72760000	-30.51181000
71.26666261	0.00000000	-65.84645000	-30.51181000
71.46666260	0.00000000	-71.24138000	-27.86663000
71.66666259	0.00000000	-77.38681000	-23.64050000
71.86666257	0.00000000	-82.78174000	-18.94685000
72.06666256	0.00000000	-85.90058000	-14.34547000
72.26666255	0.00000000	-86.31889000	-10.91289000
72.46666254	0.00000000	-84.36269000	-10.07013000
72.66666253	0.00000000	-80.08734000	-11.18356000
72.86666251	0.00000000	-74.31717000	-13.51501000
73.06666250	0.00000000	-68.54699000	-16.94759000
73.26666249	0.00000000	-64.26550000	-20.01722000
73.46666248	0.00000000	-62.30930000	-22.01649000
73.66666247	0.00000000	-62.68454000	-23.17298000
73.86666246	0.00000000	-65.42815000	-23.17298000
74.06666244	0.00000000	-70.03568000	-22.01649000
74.26666243	0.00000000	-75.38755000	-20.19562000
74.46666242	0.00000000	-79.61983000	-18.67003000
74.66666241	0.00000000	-81.62524000	-18.66388000
74.86666240	0.00000000	-81.66830000	-19.32210000
75.06666238	0.00000000	-80.13041000	-20.15256000
75.26666237	0.00000000	-77.43602000	-20.85384000
75.46666236	0.00000000	-74.31717000	-21.22293000
75.66666235	0.00000000	-71.24754000	-20.39247000
75.86666234	0.00000000	-68.92224000	-18.47933000
76.06666232	0.00000000	-68.12868000	-15.78494000
76.26666231	0.00000000	-68.46087000	-13.13976000
76.46666230	0.00000000	-69.61736000	-11.64493000
76.66666229	0.00000000	-71.15526000	-12.02018000
76.86666228	0.00000000	-72.69316000	-14.34547000
77.06666227	0.00000000	-73.84965000	-17.83341000
77.26666225	0.00000000	-74.27411000	-22.10261000
77.46666224	0.00000000	-74.31717000	-26.28568000
77.66666223	0.00000000	-74.27411000	-28.98007000
77.86666222	0.00000000	-73.94193000	-29.35531000
78.06666221	0.00000000	-73.62204000	-27.44832000
78.26666219	0.00000000	-74.36023000	-23.54823000
78.46666218	0.00000000	-75.43060000	-18.52854000
78.66666217	0.00000000	-75.85506000	-13.13976000
78.86666216	0.00000000	-75.80585000	-8.95669300
79.06666215	0.00000000	-75.01230000	-7.37573800
79.26666213	0.00000000	-73.11147000	-8.48917200
79.46666212	0.00000000	-71.19833000	-11.55881000
79.66666211	0.00000000	-69.61736000	-15.83415000
79.86666210	0.00000000	-68.50394000	-20.47859000
80.06666209	0.00000000	-68.54699000	-24.75394000
80.26666208	0.00000000	-70.08488000	-27.82357000
80.46666206	0.00000000	-72.73621000	-28.98007000
80.66666205	0.00000000	-75.43060000	-27.86663000
80.86666204	0.00000000	-77.38681000	-25.17224000
81.06666203	0.00000000	-78.59251000	-21.68430000
81.26666202	0.00000000	-78.92471000	-17.83341000
81.46666200	0.00000000	-78.08808000	-14.72072000
81.66666199	0.00000000	-75.43060000	-12.72146000
81.86666198	0.00000000	-72.04109000	-11.55881000
82.06666197	0.00000000	-69.70964000	-11.55881000
82.26666196	0.00000000	-68.50394000	-12.72146000
82.46666194	0.00000000	-68.50394000	-14.67150000
82.66666193	0.00000000	-69.61736000	-17.41511000
82.86666192	0.00000000	-71.19833000	-20.47859000
83.06666191	0.00000000	-73.11147000	-23.22219000
83.26666190	0.00000000	-75.06151000	-25.17224000
83.46666189	0.00000000	-76.18109000	-26.32874000
83.66666187	0.00000000	-76.64246000	-26.32874000
83.86666186	0.00000000	-76.23032000	-25.12918000
84.06666185	0.00000000	-75.47981000	-22.79773000
84.26666184	0.00000000	-74.31717000	-19.27288000
84.46666183	0.00000000	-73.20374000	-15.45891000
84.66666181	0.00000000	-72.77928000	-11.97711000
84.86666180	0.00000000	-72.73621000	-10.07013000
85.06666179	0.00000000	-72.73621000	-10.02707000
85.26666178	0.00000000	-72.73621000	-11.60187000
85.46666177	0.00000000	-72.69316000	-14.72072000
85.66666175	0.00000000	-72.31791000	-18.94685000
85.86666174	0.00000000	-71.57356000	-23.21604000
86.06666173	0.00000000	-71.24754000	-26.66092000
86.26666172	0.00000000	-71.62278000	-28.60482000
86.46666171	0.00000000	-72.77928000	-28.19267000
86.66666170	0.00000000	-74.27411000	-25.91043000
86.86666168	0.00000000	-75.47981000	-22.01033000
87.06666167	0.00000000	-76.23032000	-17.36589000
87.26666166	0.00000000	-76.64246000	-12.76452000
87.46666165	0.00000000	-76.23032000	-9.37500000
87.66666164	0.00000000	-75.43060000	-8.95669300
87.86666162	0.00000000	-73.89886000	-11.22662000
88.06666161	0.00000000	-71.99188000	-15.08981000
88.26666160	0.00000000	-70.82307000	-20.10950000
88.46666159	0.00000000	-70.04182000	-24.71087000
88.66666158	0.00000000	-70.08488000	-27.78051000
88.86666156	0.00000000	-71.19833000	-28.56176000
89.06666155	0.00000000	-72.73621000	-26.61786000
89.26666154	0.00000000	-74.27411000	-22.79773000
89.46666153	0.00000000	-75.43060000	-17.78420000
89.66666152	0.00000000	-75.85506000	-13.18282000
89.86666151	0.00000000	-75.89813000	-10.11319000
90.06666149	0.00000000	-75.80585000	-9.33193800
90.26666148	0.00000000	-75.06151000	-11.27584000
90.46666147	0.00000000	-73.57283000	-15.13902000
90.66666146	0.00000000	-72.77928000	-20.47859000
90.86666145	0.00000000	-72.31791000	-25.40600000
91.06666143	0.00000000	-71.62278000	-27.77436000
91.26666142	0.00000000	-71.62278000	-27.82357000
91.46666141	0.00000000	-72.31791000	-25.86737000
91.66666140	0.00000000	-72.69316000	-21.96727000
91.86666139	0.00000000	-72.73621000	-17.03371000
92.06666137	0.00000000	-72.73621000	-12.44464000
92.26666136	0.00000000	-72.73621000	-10.11319000
92.46666135	0.00000000	-72.73621000	-10.07013000
92.66666134	0.00000000	-72.77928000	-12.06939000
92.86666133	0.00000000	-73.15452000	-16.25246000
93.06666132	0.00000000	-73.94193000	-21.22293000
93.26666130	0.00000000	-74.69241000	-25.08612000
93.46666129	0.00000000	-75.47981000	-27.40526000
93.66666128	0.00000000	-75.80585000	-27.35605000
93.86666127	0.00000000	-75.43060000	-24.71087000
94.06666126	0.00000000	-74.22490000	-20.52780000
94.26666124	0.00000000	-72.31791000	-16.25246000
94.46666123	0.00000000	-69.99261000	-12.80758000
94.66666122	0.00000000	-68.12868000	-10.90674000
94.86666121	0.00000000	-67.34129000	-11.69414000
95.06666120	0.00000000	-68.07948000	-14.67150000
95.26666118	0.00000000	-69.66658000	-18.52854000
95.46666117	0.00000000	-71.99188000	-22.01649000
95.66666116	0.00000000	-75.10458000	-24.71087000
95.86666115	0.00000000	-77.76205000	-25.82431000
96.06666114	0.00000000	-79.71210000	-24.71087000
96.26666113	0.00000000	-80.08734000	-22.05955000
96.46666111	0.00000000	-78.92471000	-18.98991000
96.66666110	0.00000000	-76.59325000	-16.25246000
96.86666109	0.00000000	-73.06840000	-14.34547000
97.06666108	0.00000000	-69.24213000	-13.55807000
97.26666107	0.00000000	-65.75418000	-14.34547000
97.46666105	0.00000000	-63.89025000	-16.20325000
97.66666104	0.00000000	-64.21629000	-18.52854000
97.86666103	0.00000000	-66.54158000	-20.43553000
98.06666102	0.00000000	-69.99261000	-21.64124000
98.26666101	0.00000000	-73.89886000	-22.01033000
98.46666099	0.00000000	-77.38681000	-21.64124000
98.66666098	0.00000000	-80.08734000	-20.52780000
98.86666097	0.00000000	-81.24999000	-19.36516000
99.06666096	0.00000000	-80.46259000	-18.57160000
99.26666095	0.00000000	-78.17421000	-17.78420000
99.46666094	0.00000000	-74.69241000	-17.40895000
99.66666092	0.00000000	-71.19833000	-17.36589000
99.86666091	0.00000000	-68.07948000	-17.32283000
100.06666090	0.00000000	-65.80339000	-16.94759000
100.26666089	0.00000000	-65.37893000	-16.20325000
100.46666088	0.00000000	-66.49852000	-15.82800000
100.66666086	0.00000000	-68.45472000	-15.82800000
100.86666085	0.00000000	-71.19833000	-16.25246000
101.06666084	0.00000000	-74.27411000	-17.45817000
101.26666083	0.00000000	-76.96850000	-19.36516000
101.46666082	0.00000000	-78.54945000	-21.64124000
101.66666080	0.00000000	-78.96776000	-23.17298000
101.86666079	0.00000000	-78.54945000	-23.59129000
102.06666078	0.00000000	-76.96850000	-23.17298000
102.26666077	0.00000000	-74.31717000	-21.59203000
102.46666076	0.00000000	-71.62278000	-18.89764000
102.66666075	0.00000000	-69.66658000	-15.83415000
102.86666073	0.00000000	-68.46087000	-13.18282000
103.06666072	0.00000000	-68.08563000	-12.02018000
103.26666071	0.00000000	-68.46087000	-12.76452000
103.46666070	0.00000000	-69.66658000	-14.67150000
103.66666069	0.00000000	-71.57356000	-17.41511000
103.86666067	0.00000000	-73.89886000	-20.47859000
104.06666066	0.00000000	-75.80585000	-23.17298000
104.26666065	0.00000000	-76.96850000	-24.71087000
104.46666064	0.00000000	-76.96850000	-24.71087000
104.66666063	0.00000000	-75.85506000	-23.17298000
104.86666061	0.00000000	-74.31717000	-20.52780000
105.06666060	0.00000000	-72.77928000	-17.78420000
105.26666059	0.00000000	-71.57356000	-15.45891000
105.46666058	0.00000000	-70.78001000	-13.55807000
105.66666057	0.00000000	-70.04182000	-13.22589000
105.86666056	0.00000000	-70.08488000	-14.72072000
106.06666054	0.00000000	-71.19833000	-17.36589000
106.26666053	0.00000000	-72.69316000	-20.01722000
106.46666052	0.00000000	-73.84965000	-21.59203000
106.66666051	0.00000000	-74.27411000	-22.01033000
106.86666050	0.00000000	-74.31717000	-21.64124000
107.06666048	0.00000000	-74.27411000	-20.47859000
107.26666047	0.00000000	-73.84965000	-18.94685000
107.46666046	0.00000000	-72.73621000	-17.36589000
107.66666045	0.00000000	-71.62278000	-15.87721000
107.86666044	0.00000000	-71.24754000	-15.13902000
108.06666042	0.00000000	-71.57356000	-15.87721000
108.26666041	0.00000000	-72.36097000	-17.36589000
108.46666040	0.00000000	-73.15452000	-18.94685000
108.66666039	0.00000000	-74.31717000	-20.47859000
108.86666038	0.00000000	-75.38755000	-21.64124000
109.06666037	0.00000000	-75.43060000	-22.01033000
109.26666035	0.00000000	-74.69241000	-21.64124000
109.46666034	0.00000000	-73.89886000	-20.43553000
109.66666033	0.00000000	-72.73621000	-18.52854000
109.86666032	0.00000000	-71.57356000	-16.29552000
110.06666031	0.00000000	-70.82307000	-15.13902000
110.26666029	0.00000000	-70.41092000	-15.45891000
110.46666028	0.00000000	-70.82307000	-16.20325000
110.66666027	0.00000000	-71.57356000	-17.40895000
110.86666026	0.00000000	-72.73621000	-18.94685000
111.06666025	0.00000000	-73.84965000	-20.47859000
111.26666023	0.00000000	-74.27411000	-21.64124000
111.46666022	0.00000000	-74.31717000	-22.01033000
111.66666021	0.00000000	-74.27411000	-21.64124000
111.86666020	0.00000000	-73.89886000	-20.47859000
112.06666019	0.00000000	-73.11147000	-18.98991000
112.26666018	0.00000000	-72.36097000	-17.83341000
112.46666016	0.00000000	-71.57356000	-17.36589000
112.66666015	0.00000000	-71.19833000	-16.99065000
112.86666014	0.00000000	-71.19833000	-16.62155000
113.06666013	0.00000000	-71.57356000	-16.99065000
113.26666012	0.00000000	-72.31791000	-17.32283000
113.46666010	0.00000000	-72.69316000	-17.40895000
113.66666009	0.00000000	-72.73621000	-17.78420000
113.86666008	0.00000000	-72.73621000	-18.52854000
114.06666007	0.00000000	-72.73621000	-18.90379000
114.26666006	0.00000000	-72.73621000	-18.94685000
114.46666004	0.00000000	-72.73621000	-18.98991000
114.66666003	0.00000000	-72.73621000	-19.36516000
114.86666002	0.00000000	-72.73621000	-20.10950000
115.06666001	0.00000000	-72.73621000	-20.43553000
115.26666000	0.00000000	-72.73621000	-20.10950000
115.46665999	0.00000000	-72.73621000	-19.36516000
115.66665997	0.00000000	-72.73621000	-18.94685000
115.86665996	0.00000000	-72.73621000	-18.52854000
116.06665995	0.00000000	-72.73621000	-17.74114000
116.26665994	0.00000000	-72.73621000	-16.99065000
116.46665993	0.00000000	-72.73621000	-16.20325000
116.66665991	0.00000000	-72.73621000	-15.87721000
116.86665990	0.00000000	-72.73621000	-16.25246000
117.06665989	0.00000000	-72.73621000	-17.36589000
117.26665988	0.00000000	-72.69316000	-18.52854000
117.46665987	0.00000000	-72.31791000	-19.32210000
117.66665985	0.00000000	-71.57356000	-20.15256000
117.86665984	0.00000000	-71.19833000	-20.85384000
118.06665983	0.00000000	-71.15526000	-21.26599000
118.26665982	0.00000000	-71.19833000	-20.85384000
118.46665981	0.00000000	-71.57356000	-20.10950000
118.66665980	0.00000000	-72.36097000	-18.94685000
118.86665978	0.00000000	-73.11147000	-17.78420000
119.06665977	0.00000000	-73.89886000	-17.03371000
119.26665976	0.00000000	-74.31717000	-16.62155000
119.46665975	0.00000000	-74.69241000	-16.99065000
119.66665974	0.00000000	-75.01230000	-17.36589000
119.86665972	0.00000000	-74.22490000	-17.78420000
120.06665971	0.00000000	-72.73621000	-18.52854000
120.26665970	0.00000000	-71.19833000	-18.90379000
120.46665969	0.00000000	-70.04182000	-18.98991000
120.66665968	0.00000000	-69.61736000	-19.36516000
120.86665966	0.00000000	-69.61736000	-20.10950000
121.06665965	0.00000000	-70.04182000	-20.43553000
121.26665964	0.00000000	-71.15526000	-20.15256000
121.46665963	0.00000000	-72.31791000	-19.74040000
121.66665962	0.00000000	-73.15452000	-19.73425000
121.86665961	0.00000000	-74.31717000	-19.32210000
122.06665959	0.00000000	-75.43060000	-18.94685000
122.26665958	0.00000000	-75.80585000	-18.52854000
122.46665957	0.00000000	-75.43060000	-17.78420000
122.66665956	0.00000000	-74.27411000	-17.40895000
122.86665955	0.00000000	-72.77928000	-17.36589000
123.06665953	0.00000000	-71.57356000	-17.36589000
123.26665952	0.00000000	-70.78001000	-17.40895000
123.46665951	0.00000000	-69.99261000	-17.74114000
123.66665950	0.00000000	-69.66658000	-18.19636000
123.86665949	0.00000000	-69.99261000	-18.53469000
124.06665947	0.00000000	-70.78001000	-19.31594000
124.26665946	0.00000000	-71.53051000	-19.27903000
124.46665945	0.00000000	-72.36097000	-18.98991000
124.66665944	0.00000000	-73.11147000	-18.94685000
124.86665943	0.00000000	-73.89886000	-18.94685000
125.06665942	0.00000000	-74.27411000	-18.90379000
125.26665940	0.00000000	-74.31717000	-18.52854000
125.46665939	0.00000000	-74.27411000	-17.78420000
125.66665938	0.00000000	-73.84965000	-17.40895000
125.86665937	0.00000000	-72.73621000	-17.36589000
126.06665936	0.00000000	-71.57356000	-17.36589000
126.26665934	0.00000000	-70.78001000	-17.36589000
126.46665933	0.00000000	-69.99261000	-17.36589000
126.66665932	0.00000000	-69.61736000	-17.40895000
126.86665931	0.00000000	-69.61736000	-17.78420000
127.06665930	0.00000000	-70.04182000	-18.52854000
127.26665928	0.00000000	-71.19833000	-18.90379000
127.46665927	0.00000000	-72.69316000	-18.94685000
127.66665926	0.00000000	-73.84965000	-18.94685000
127.86665925	0.00000000	-74.27411000	-18.94685000
128.06665924	0.00000000	-74.27411000	-18.90379000
128.26665923	0.00000000	-73.84965000	-18.52854000
128.46665921	0.00000000	-72.69316000	-17.78420000
128.66665920	0.00000000	-71.19833000	-17.40895000
128.86665919	0.00000000	-70.04182000	-17.36589000
129.06665918	0.00000000	-69.66658000	-17.40895000
129.26665917	0.00000000	-69.99261000	-17.78420000
129.46665915	0.00000000	-70.78001000	-18.52854000
129.66665914	0.00000000	-71.57356000	-18.90379000
129.86665913	0.00000000	-72.73621000	-18.94685000
130.06665912	0.00000000	-73.84965000	-18.94685000
130.26665911	0.00000000	-74.27411000	-18.94685000
130.46665909	0.00000000	-74.27411000	-18.90379000
130.66665908	0.00000000	-73.89886000	-18.52854000
130.86665907	0.00000000	-73.11147000	-17.78420000
131.06665906	0.00000000	-72.36097000	-17.40895000
131.26665905	0.00000000	-71.57356000	-17.40895000
131.46665904	0.00000000	-71.19833000	-17.78420000
131.66665902	0.00000000	-71.15526000	-18.52854000
131.86665901	0.00000000	-71.19833000	-18.90379000
132.06665900	0.00000000	-71.57356000	-18.98991000
132.26665899	0.00000000	-72.31791000	-19.36516000
132.46665898	0.00000000	-72.69316000	-20.06029000
132.66665896	0.00000000	-72.73621000	-20.06029000
132.86665895	0.00000000	-72.73621000	-19.32210000
133.06665894	0.00000000	-72.73621000	-18.57160000
133.26665893	0.00000000	-72.69316000	-17.78420000
133.46665892	0.00000000	-72.31791000	-17.36589000
133.66665890	0.00000000	-71.62278000	-16.99065000
133.86665889	0.00000000	-71.62278000	-16.62155000
134.06665888	0.00000000	-72.31791000	-17.03371000
134.26665887	0.00000000	-72.69316000	-17.74114000
134.46665886	0.00000000	-72.73621000	-18.57160000
134.66665885	0.00000000	-72.69316000	-19.32210000
134.86665883	0.00000000	-72.31791000	-20.06029000
135.06665882	0.00000000	-71.57356000	-20.10950000
135.26665881	0.00000000	-71.19833000	-19.74040000
135.46665880	0.00000000	-71.15526000	-19.73425000
135.66665879	0.00000000	-71.15526000	-19.27903000
135.86665877	0.00000000	-71.19833000	-18.57160000
136.06665876	0.00000000	-71.62278000	-17.78420000
136.26665875	0.00000000	-72.73621000	-17.40895000
136.46665874	0.00000000	-73.80659000	-17.36589000
136.66665873	0.00000000	-73.84965000	-17.36589000
136.86665871	0.00000000	-73.15452000	-17.40895000
137.06665870	0.00000000	-72.73621000	-17.78420000
137.26665869	0.00000000	-72.31791000	-18.52854000
137.46665868	0.00000000	-71.57356000	-18.90379000
137.66665867	0.00000000	-71.15526000	-18.98991000
137.86665866	0.00000000	-70.78001000	-19.32210000
138.06665864	0.00000000	-70.41092000	-19.69119000
138.26665863	0.00000000	-70.82307000	-19.32210000
138.46665862	0.00000000	-71.53051000	-18.98991000
138.66665861	0.00000000	-72.31791000	-18.90379000
138.86665860	0.00000000	-72.69316000	-18.52854000
139.06665858	0.00000000	-72.73621000	-17.74114000
139.26665857	0.00000000	-72.73621000	-17.03371000
139.46665856	0.00000000	-72.69316000	-16.62155000
139.66665855	0.00000000	-72.31791000	-16.99065000
139.86665854	0.00000000	-71.57356000	-17.36589000
140.06665852	0.00000000	-71.19833000	-17.78420000
140.26665851	0.00000000	-71.15526000	-18.52854000
140.46665850	0.00000000	-71.15526000	-18.94685000
140.66665849	0.00000000	-71.15526000	-19.36516000
140.86665848	0.00000000	-71.19833000	-20.10950000
141.06665847	0.00000000	-71.57356000	-20.43553000
141.26665845	0.00000000	-72.31791000	-20.10950000
141.46665844	0.00000000	-72.69316000	-19.32210000
141.66665843	0.00000000	-72.73621000	-18.57160000
141.86665842	0.00000000	-72.69316000	-17.74114000
142.06665841	0.00000000	-72.31791000	-16.99065000
142.26665839	0.00000000	-71.57356000	-16.20325000
142.46665838	0.00000000	-71.19833000	-15.87721000
142.66665837	0.00000000	-71.15526000	-16.25246000
142.86665836	0.00000000	-71.15526000	-17.36589000
143.06665835	0.00000000	-71.19833000	-18.47933000
143.26665834	0.00000000	-71.57356000	-18.94685000
143.46665832	0.00000000	-72.31791000	-19.36516000
143.66665831	0.00000000	-72.69316000	-20.06029000
143.86665830	0.00000000	-72.73621000	-20.06029000
144.06665829	0.00000000	-72.73621000	-19.36516000
144.26665828	0.00000000	-72.69316000	-18.94685000
144.46665826	0.00000000	-72.31791000	-18.52854000
144.66665825	0.00000000	-71.57356000	-17.78420000
144.86665824	0.00000000	-71.19833000	-17.40895000
145.06665823	0.00000000	-71.15526000	-17.36589000
145.26665822	0.00000000	-71.19833000	-17.36589000
145.46665820	0.00000000	-71.53051000	-17.36589000
145.66665819	0.00000000	-71.94266000	-17.40895000
145.86665818	0.00000000	-71.94881000	-17.83341000
146.06665817	0.00000000	-72.36097000	-18.94685000
146.26665816	0.00000000	-72.69316000	-20.01722000
146.46665815	0.00000000	-72.69316000	-20.06029000
146.66665813	0.00000000	-72.31791000	-19.36516000
146.86665812	0.00000000	-71.57356000	-18.98991000
147.06665811	0.00000000	-71.19833000	-18.90379000
147.26665810	0.00000000	-71.15526000	-18.52854000
147.46665809	0.00000000	-71.15526000	-17.78420000
147.66665807	0.00000000	-71.15526000	-17.40895000
147.86665806	0.00000000	-71.19833000	-17.36589000
148.06665805	0.00000000	-71.57356000	-17.36589000
148.26665804	0.00000000	-72.31791000	-17.36589000
148.46665803	0.00000000	-72.69316000	-17.40895000
148.66665801	0.00000000	-72.73621000	-17.78420000
148.86665800	0.00000000	-72.69316000	-18.52854000
149.06665799	0.00000000	-72.31791000	-18.90379000
149.26665798	0.00000000	-71.57356000	-18.94685000
149.46665797	0.00000000	-71.19833000	-18.94685000
149.66665796	0.00000000	-71.15526000	-18.90379000
149.86665794	0.00000000	-71.15526000	-18.52854000
150.06665793	0.00000000	-71.15526000	-17.78420000
150.26665792	0.00000000	-71.15526000	-17.40895000
150.46665791	0.00000000	-71.15526000	-17.36589000
150.66665790	0.00000000	-71.19833000	-17.36589000
150.86665788	0.00000000	-71.57356000	-17.36589000
151.06665787	0.00000000	-72.31791000	-17.36589000
151.26665786	0.00000000	-72.69316000	-17.36589000
151.46665785	0.00000000	-72.69316000	-17.40895000
151.66665784	0.00000000	-72.36097000	-17.78420000
151.86665782	0.00000000	-71.94881000	-18.52854000
152.06665781	0.00000000	-71.94266000	-18.90379000
152.26665780	0.00000000	-71.53051000	-18.94685000
152.46665779	0.00000000	-71.19833000	-18.90379000
152.66665778	0.00000000	-71.15526000	-18.52854000
152.86665777	0.00000000	-71.15526000	-17.78420000
153.06665775	0.00000000	-71.15526000	-17.40895000
153.26665774	0.00000000	-71.15526000	-17.36589000
153.46665773	0.00000000	-71.15526000	-17.36589000
153.66665772	0.00000000	-71.19833000	-17.36589000
153.86665771	0.00000000	-71.57356000	-17.36589000
154.06665769	0.00000000	-72.31791000	-17.36589000
154.26665768	0.00000000	-72.69316000	-17.36589000
154.46665767	0.00000000	-72.69316000	-17.40895000
154.66665766	0.00000000	-72.31791000	-17.74114000
154.86665765	0.00000000	-71.57356000	-18.15330000
155.06665763	0.00000000	-71.19833000	-18.15945000
155.26665762	0.00000000	-71.15526000	-18.57160000
155.46665761	0.00000000	-71.15526000	-18.90379000
155.66665760	0.00000000	-71.15526000	-18.94685000
155.86665759	0.00000000	-71.15526000	-18.90379000
156.06665758	0.00000000	-71.15526000	-18.52854000
156.26665756	0.00000000	-71.15526000	-17.78420000
156.46665755	0.00000000	-71.19833000	-17.40895000
156.66665754	0.00000000	-71.57356000	-17.32283000
156.86665753	0.00000000	-72.31791000	-16.99065000
157.06665752	0.00000000	-72.69316000	-16.62155000
157.26665750	0.00000000	-72.73621000	-16.99065000
157.46665749	0.00000000	-72.73621000	-17.36589000
157.66665748	0.00000000	-72.69316000	-17.78420000
157.86665747	0.00000000	-72.31791000	-18.52854000
158.06665746	0.00000000	-71.57356000	-18.90379000
158.26665744	0.00000000	-71.19833000	-18.94685000
158.46665743	0.00000000	-71.15526000	-18.94685000
158.66665742	0.00000000	-71.15526000	-18.94685000
158.86665741	0.00000000	-71.15526000	-18.94685000
159.06665740	0.00000000	-71.15526000	-18.90379000
159.26665739	0.00000000	-71.15526000	-18.52854000
159.46665737	0.00000000	-71.19833000	-17.78420000
159.66665736	0.00000000	-71.57356000	-17.40895000
159.86665735	0.00000000	-72.31791000	-17.36589000
160.06665734	0.00000000	-72.69316000	-17.36589000
160.26665733	0.00000000	-72.69316000	-17.36589000
160.46665731	0.00000000	-72.31791000	-17.40895000
160.66665730	0.00000000	-71.57356000	-17.78420000
160.86665729	0.00000000	-71.19833000	-18.52854000
161.06665728	0.00000000	-71.15526000	-18.90379000
161.26665727	0.00000000	-71.15526000	-18.94685000
161.46665725	0.00000000	-71.15526000	-18.94685000
161.66665724	0.00000000	-71.15526000	-18.90379000
161.86665723	0.00000000	-71.15526000	-18.52854000
162.06665722	0.00000000	-71.15526000	-17.78420000
162.26665721	0.00000000	-71.15526000	-17.40895000
162.46665720	0.00000000	-71.15526000	-17.36589000
162.66665718	0.00000000	-71.15526000	-17.36589000
162.86665717	0.00000000	-71.15526000	-17.36589000
163.06665716	0.00000000	-71.15526000	-17.36589000
163.26665715	0.00000000	-71.19833000	-17.36589000
163.46665714	0.00000000	-71.57356000	-17.36589000
163.66665712	0.00000000	-72.26870000	-17.36589000
163.86665711	0.00000000	-72.26870000	-17.40895000
164.06665710	0.00000000	-71.57356000	-17.74114000
164.26665709	0.00000000	-71.19833000	-18.11024000
164.46665708	0.00000000	-71.15526000	-17.78420000
164.66665706	0.00000000	-71.11221000	-17.78420000
164.86665705	0.00000000	-70.73695000	-18.15330000
165.06665704	0.00000000	-70.04182000	-18.15945000
165.26665703	0.00000000	-70.04182000	-18.52854000
165.46665702	0.00000000	-70.73695000	-18.47933000
165.66665701	0.00000000	-71.11221000	-17.78420000
165.86665699	0.00000000	-71.15526000	-17.40895000
166.06665698	0.00000000	-71.19833000	-17.36589000
166.26665697	0.00000000	-71.53051000	-17.36589000
166.46665696	0.00000000	-71.94266000	-17.36589000
166.66665695	0.00000000	-71.94881000	-17.40895000
166.86665693	0.00000000	-72.31791000	-17.78420000
167.06665692	0.00000000	-72.26870000	-18.52854000
167.26665691	0.00000000	-71.57356000	-18.90379000
167.46665690	0.00000000	-71.19833000	-18.94685000
167.66665689	0.00000000	-71.15526000	-18.94685000
167.86665687	0.00000000	-71.15526000	-18.94685000
168.06665686	0.00000000	-71.15526000	-18.94685000
168.26665685	0.00000000	-71.15526000	-18.94685000
168.46665684	0.00000000	-71.15526000	-18.90379000
168.66665683	0.00000000	-71.15526000	-18.57160000
168.86665682	0.00000000	-71.15526000	-18.20251000
169.06665680	0.00000000	-71.15526000	-18.57160000
169.26665679	0.00000000	-71.15526000	-18.90379000
169.46665678	0.00000000	-71.15526000	-18.94685000
169.66665677	0.00000000	-71.15526000	-18.94685000
169.86665676	0.00000000	-71.15526000	-18.90379000
170.06665674	0.00000000	-71.15526000	-18.52854000
170.26665673	0.00000000	-71.15526000	-17.78420000
170.46665672	0.00000000	-71.15526000	-17.45817000
170.66665671	0.00000000	-71.15526000	-17.78420000
170.86665670	0.00000000	-71.15526000	-18.47933000
171.06665668	0.00000000	-71.15526000	-18.52854000
171.26665667	0.00000000	-71.15526000	-18.20251000
171.46665666	0.00000000	-71.15526000	-18.57160000
171.66665665	0.00000000	-71.15526000	-18.90379000
171.86665664	0.00000000	-71.15526000	-18.90379000
172.06665663	0.00000000	-71.15526000	-18.52854000
172.26665661	0.00000000	-71.15526000	-17.78420000
172.46665660	0.00000000	-71.15526000	-17.40895000
172.66665659	0.00000000	-71.15526000	-17.36589000
172.86665658	0.00000000	-71.15526000	-17.36589000
173.06665657	0.00000000	-71.15526000	-17.36589000
173.26665655	0.00000000	-71.19833000	-17.40895000
173.46665654	0.00000000	-71.53051000	-17.74114000
173.66665653	0.00000000	-71.89960000	-18.15330000
173.86665652	0.00000000	-71.53051000	-18.11639000
174.06665651	0.00000000	-71.19833000	-18.15330000
174.26665649	0.00000000	-71.15526000	-17.74114000
174.46665648	0.00000000	-71.15526000	-17.40895000
174.66665647	0.00000000	-71.15526000	-17.36589000
174.86665646	0.00000000	-71.15526000	-17.36589000
175.06665645	0.00000000	-71.15526000	-17.36589000
175.26665644	0.00000000	-71.15526000	-17.36589000
175.46665642	0.00000000	-71.15526000	-17.36589000
175.66665641	0.00000000	-71.15526000	-17.36589000
175.86665640	0.00000000	-71.15526000	-17.36589000
176.06665639	0.00000000	-71.15526000	-17.36589000
176.26665638	0.00000000	-71.15526000	-17.36589000
176.46665636	0.00000000	-71.15526000	-17.36589000
176.66665635	0.00000000	-71.15526000	-17.36589000
176.86665634	0.00000000	-71.15526000	-17.36589000
177.06665633	0.00000000	-71.15526000	-17.40895000
177.26665632	0.00000000	-71.15526000	-17.74114000
177.46665630	0.00000000	-71.15526000	-18.11024000
177.66665629	0.00000000	-71.15526000	-17.74114000
177.86665628	0.00000000	-71.15526000	-17.40895000
178.06665627	0.00000000	-71.15526000	-17.40895000
178.26665626	0.00000000	-71.15526000	-17.78420000
178.46665625	0.00000000	-71.15526000	-18.47933000
178.66665623	0.00000000	-71.15526000	-18.47933000
178.86665622	0.00000000	-71.15526000	-17.78420000
179.06665621	0.00000000	-71.15526000	-17.40895000
179.26665620	0.00000000	-71.15526000	-17.36589000
179.46665619	0.00000000	-71.15526000	-17.40895000
179.66665617	0.00000000	-71.15526000	-17.78420000
179.86665616	0.00000000	-71.15526000	-18.52854000
180.06665615	0.00000000	-71.15526000	-18.90379000
180.26665614	0.00000000	-71.15526000	-18.94685000
180.46665613	0.00000000	-71.15526000	-18.90379000
180.66665611	0.00000000	-71.15526000	-18.52854000
180.86665610	0.00000000	-71.15526000	-17.83341000
181.06665609	0.00000000	-71.15526000	-17.78420000
181.26665608	0.00000000	-71.15526000	-18.11024000
181.46665607	0.00000000	-71.15526000	-17.74114000
181.66665606	0.00000000	-71.15526000	-17.40895000
181.86665604	0.00000000	-71.15526000	-17.36589000
182.06665603	0.00000000	-71.15526000	-17.36589000
182.26665602	0.00000000	-71.15526000	-17.36589000
182.46665601	0.00000000	-71.15526000	-17.40895000
182.66665600	0.00000000	-71.15526000	-17.78420000
182.86665598	0.00000000	-71.15526000	-18.47933000
183.06665597	0.00000000	-71.15526000	-18.52854000
183.26665596	0.00000000	-71.15526000	-18.20251000
183.46665595	0.00000000	-71.15526000	-18.57160000
183.66665594	0.00000000	-71.15526000	-18.85458000
183.86665592	0.00000000	-71.15526000	-18.52854000
184.06665591	0.00000000	-71.15526000	-17.78420000
184.26665590	0.00000000	-71.15526000	-17.40895000
184.46665589	0.00000000	-71.15526000	-17.36589000
184.66665588	0.00000000	-71.15526000	-17.36589000
184.86665587	0.00000000	-71.15526000	-17.36589000
185.06665585	0.00000000	-71.15526000	-17.36589000
185.26665584	0.00000000	-71.15526000	-17.36589000
185.46665583	0.00000000	-71.15526000	-17.40895000
185.66665582	0.00000000	-71.15526000	-17.74114000
185.86665581	0.00000000	-71.15526000	-18.15330000
186.06665579	0.00000000	-71.11221000	-18.15945000
186.26665578	0.00000000	-70.73695000	-18.52854000
186.46665577	0.00000000	-70.04182000	-18.52854000
186.66665576	0.00000000	-70.04182000	-18.20251000
186.86665575	0.00000000	-70.73695000	-18.52854000
187.06665573	0.00000000	-71.11221000	-18.47933000
187.26665572	0.00000000	-71.15526000	-17.78420000
187.46665571	0.00000000	-71.15526000	-17.40895000
187.66665570	0.00000000	-71.15526000	-17.32283000
187.86665569	0.00000000	-71.15526000	-16.99065000
188.06665568	0.00000000	-71.15526000	-16.62155000
188.26665566	0.00000000	-71.11221000	-16.99065000
188.46665565	0.00000000	-70.78001000	-17.36589000
188.66665564	0.00000000	-70.36786000	-17.78420000
188.86665563	0.00000000	-70.36171000	-18.52854000
189.06665562	0.00000000	-69.99261000	-18.90379000
189.26665560	0.00000000	-70.04182000	-18.90379000
189.46665559	0.00000000	-70.73695000	-18.57160000
189.66665558	0.00000000	-71.11221000	-18.15945000
189.86665557	0.00000000	-71.15526000	-18.19636000
190.06665556	0.00000000	-71.15526000	-18.11639000
190.26665554	0.00000000	-71.15526000	-18.15330000
190.46665553	0.00000000	-71.15526000	-17.74114000
190.66665552	0.00000000	-71.15526000	-17.40895000
190.86665551	0.00000000	-71.15526000	-17.36589000
191.06665550	0.00000000	-71.15526000	-17.36589000
191.26665549	0.00000000	-71.11221000	-17.36589000
191.46665547	0.00000000	-70.78001000	-17.36589000
191.66665546	0.00000000	-70.36786000	-17.36589000
191.86665545	0.00000000	-70.36171000	-17.40895000
192.06665544	0.00000000	-69.99261000	-17.78420000
192.26665543	0.00000000	-70.04182000	-18.47933000
192.46665541	0.00000000	-70.73695000	-18.47933000
192.66665540	0.00000000	-71.11221000	-17.83341000
192.86665539	0.00000000	-71.15526000	-17.78420000
193.06665538	0.00000000	-71.15526000	-18.15330000
193.26665537	0.00000000	-71.15526000	-18.11639000
193.46665535	0.00000000	-71.15526000	-18.15330000
193.66665534	0.00000000	-71.15526000	-17.74114000
193.86665533	0.00000000	-71.15526000	-17.40895000
194.06665532	0.00000000	-71.15526000	-17.36589000
194.26665531	0.00000000	-71.15526000	-17.36589000
194.46665530	0.00000000	-71.11221000	-17.36589000
194.66665528	0.00000000	-70.73695000	-17.36589000
194.86665527	0.00000000	-70.04182000	-17.36589000
195.06665526	0.00000000	-70.04182000	-17.36589000
195.26665525	0.00000000	-70.73695000	-17.40895000
195.46665524	0.00000000	-71.11221000	-17.74114000
195.66665522	0.00000000	-71.15526000	-18.11024000
195.86665521	0.00000000	-71.15526000	-17.74114000
196.06665520	0.00000000	-71.15526000	-17.40895000
