Time	Channel A	Channel B	Channel C
(us)	(V)	(mV)	(mV)

-4.49999956	0.00000000	-94.86958000	-28.42027000
-4.29999957	0.00000000	-94.86958000	-28.42027000
-4.09999958	0.00000000	-94.86958000	-28.42027000
-3.89999959	0.00000000	-94.86958000	-28.42027000
-3.69999960	0.00000000	-94.86958000	-28.42027000
-3.49999962	0.00000000	-94.82652000	-28.42027000
-3.29999963	0.00000000	-94.49434000	-28.42027000
-3.09999964	0.00000000	-94.12524000	-28.42027000
-2.89999965	0.00000000	-94.49434000	-28.42027000
-2.69999966	0.00000000	-94.82652000	-28.42027000
-2.49999968	0.00000000	-94.86958000	-28.42027000
-2.29999969	0.00000000	-94.86958000	-28.42027000
-2.09999970	0.00000000	-94.86958000	-28.42027000
-1.89999971	0.00000000	-94.86958000	-28.42027000
-1.69999972	0.00000000	-94.82652000	-28.42027000
-1.49999973	0.00000000	-94.49434000	-28.42027000
-1.29999975	0.00000000	-94.12524000	-28.42027000
-1.09999976	0.00000000	-94.49434000	-28.42027000
-0.89999977	0.00000000	-94.82652000	-28.42027000
-0.69999978	0.00000000	-94.86958000	-28.42027000
-0.49999979	0.00000000	-94.86958000	-28.42027000
-0.29999981	0.31803640	-94.86958000	-28.42027000
-0.09999982	0.63668800	-94.86958000	-28.42027000
0.10000017	0.95533960	-94.86958000	-28.42027000
0.30000016	0.95533960	-94.86958000	-28.42027000
0.50000015	0.79601380	-94.86958000	-28.42027000
0.70000013	0.15871060	-94.86958000	-28.42027000
0.90000012	-0.63668800	-94.86958000	-28.42027000
1.10000011	-1.59264300	-94.86958000	-28.42027000
1.30000010	-2.38927200	-94.86958000	-28.42027000
1.50000009	-2.86724900	-94.82652000	-28.42027000
1.70000008	-2.38927200	-94.45127000	-28.42027000
1.90000006	-1.11466500	-93.75615000	-28.42027000
2.10000005	0.95533960	-93.75615000	-28.42027000
2.30000004	2.86724900	-94.45127000	-28.42027000
2.50000003	4.61921700	-94.82652000	-28.42027000
2.70000002	5.41584600	-94.86958000	-28.42027000
2.90000000	4.61921700	-94.86958000	-28.46333000
3.09999999	2.54859700	-94.86958000	-28.83858000
3.29999998	-0.63668800	-94.86958000	-29.53371000
3.49999997	-3.98191400	-94.86958000	-29.53371000
3.69999996	-6.69045300	-94.82652000	-28.83858000
3.89999994	-7.96444400	-94.45127000	-28.46333000
4.09999993	-7.16781500	-93.70693000	-28.42027000
4.29999992	-4.45989200	-93.33169000	-28.42027000
4.49999991	-0.47736220	-93.33169000	-28.42027000
4.69999990	3.98191400	-93.70693000	-28.42027000
4.89999989	7.64579200	-94.45127000	-28.46333000
5.09999987	9.39837600	-94.82652000	-28.83858000
5.29999986	8.92039900	-94.86958000	-29.58292000
5.49999985	6.05315000	-94.86958000	-29.95817000
5.69999984	1.75196900	-94.86958000	-30.00123000
5.89999983	-3.18590100	-94.86958000	-29.95817000
6.09999981	-7.16781500	-94.82652000	-29.58292000
6.29999980	-9.23905000	-94.45127000	-28.83858000
6.49999979	-9.07972400	-93.75615000	-28.46333000
6.69999978	-6.69045300	-93.70693000	-28.42027000
6.89999977	-2.70792300	-94.03297000	-28.42027000
7.09999975	1.59264300	-93.70693000	-28.42027000
7.29999974	5.41584600	-93.75615000	-28.42027000
7.49999973	7.48646600	-94.45127000	-28.42027000
7.69999972	7.64579200	-94.82652000	-28.42027000
7.89999971	5.89382400	-94.86958000	-28.46333000
8.09999970	2.86724900	-94.86958000	-28.79552000
8.29999968	-0.31803640	-94.82652000	-29.16461000
8.49999967	-3.18590100	-94.49434000	-28.79552000
8.69999966	-4.93786900	-94.08218000	-28.46333000
8.89999965	-5.09719500	-94.07603000	-28.42027000
9.09999964	-4.14124000	-93.66387000	-28.42027000
9.29999962	-2.38927200	-93.38090000	-28.42027000
9.49999961	-0.47736220	-93.70693000	-28.42027000
9.69999960	1.27399100	-94.45127000	-28.42027000
9.89999959	2.22994600	-94.77731000	-28.42027000
10.09999958	2.54859700	-94.49434000	-28.42027000
10.29999956	2.07062000	-94.12524000	-28.42027000
10.49999955	1.27399100	-94.49434000	-28.42027000
10.69999954	0.31803640	-94.77731000	-28.42027000
10.89999953	-0.31803640	-94.45127000	-28.42027000
11.09999952	-0.79601380	-93.70693000	-28.42027000
11.29999951	-0.95533960	-93.33169000	-28.42027000
11.49999949	-0.95533960	-93.28863000	-28.42027000
11.69999948	-0.63668800	-93.33169000	-28.42027000
11.89999947	-0.31803640	-93.70693000	-28.42027000
12.09999946	-0.15871060	-94.45127000	-28.42027000
12.29999945	-0.15871060	-94.77731000	-28.42027000
12.49999943	0.00000000	-94.49434000	-28.42027000
12.69999942	0.00000000	-94.08218000	-28.42027000
12.89999941	0.00000000	-94.07603000	-28.42027000
13.09999940	0.00000000	-93.66387000	-28.42027000
13.29999939	0.00000000	-93.33169000	-28.42027000
13.49999937	0.00000000	-93.28863000	-28.42027000
13.69999936	0.00000000	-93.28863000	-28.42027000
13.89999935	0.00000000	-93.33169000	-28.42027000
14.09999934	-0.15871060	-93.66387000	-28.42027000
14.29999933	-0.15871060	-94.03297000	-28.42027000
14.49999932	-0.15871060	-93.70693000	-28.42027000
14.69999930	0.00000000	-93.70693000	-28.42027000
14.89999929	0.00000000	-94.07603000	-28.42027000
15.09999928	0.00000000	-94.03912000	-28.42027000
15.29999927	0.00000000	-94.11909000	-28.42027000
15.49999926	0.00000000	-94.03912000	-28.42027000
15.69999924	0.00000000	-94.07603000	-28.42027000
15.89999923	0.00000000	-93.70693000	-28.42027000
16.09999922	0.00000000	-93.70693000	-28.42027000
16.29999921	-0.15871060	-94.03297000	-28.42027000
16.49999920	-0.15871060	-93.66387000	-28.42027000
16.69999919	-0.15871060	-93.28863000	-28.42027000
16.89999917	0.00000000	-92.87032000	-28.42027000
17.09999916	0.00000000	-92.12598000	-28.42027000
17.29999915	0.00000000	-91.75073000	-28.42027000
17.49999914	0.00000000	-91.75073000	-28.42027000
17.69999913	0.00000000	-92.12598000	-28.42027000
17.89999911	0.00000000	-92.91338000	-28.42027000
18.09999910	0.00000000	-93.70693000	-28.42027000
18.29999909	0.00000000	-94.91264000	-28.42027000
18.49999908	0.00000000	-96.45053000	-28.42027000
18.69999907	0.00000000	-97.98843000	-28.42027000
18.89999905	-0.15871060	-99.05880000	-28.42027000
19.09999904	-0.15871060	-98.68356000	-28.42027000
19.29999903	0.00000000	-96.73351000	-28.42027000
19.49999902	0.00000000	-94.03297000	-28.42027000
19.69999901	0.00000000	-90.50197000	-28.42027000
19.89999900	0.00000000	-87.00787000	-28.42027000
20.09999898	0.00000000	-83.93823000	-28.42027000
20.29999897	0.00000000	-82.12352000	-28.42027000
20.49999896	0.00000000	-83.32922000	-28.42027000
20.69999895	0.00000000	-87.61073000	-28.42027000
20.89999894	0.00000000	-94.21751000	-28.42027000
21.09999892	0.00000000	-102.31300000	-28.42027000
21.29999891	0.00000000	-109.62110000	-28.42027000
21.49999890	0.00000000	-114.22860000	-28.42027000
21.69999889	0.00000000	-114.92370000	-28.42027000
21.89999888	0.00000000	-110.60530000	-28.46333000
22.09999886	0.00000000	-101.66710000	-28.79552000
22.29999885	0.00000000	-89.66534000	-29.16461000
22.49999884	0.00000000	-76.91314000	-28.79552000
22.69999883	0.00000000	-66.57849000	-28.46333000
22.89999882	0.00000000	-61.65108000	-28.42027000
23.09999881	0.00000000	-64.39468000	-28.37721000
23.29999879	0.00000000	-74.44635000	-28.00197000
23.49999878	0.00000000	-89.60999000	-27.25763000
23.69999877	0.00000000	-107.38800000	-26.88238000
23.89999876	0.00000000	-123.94810000	-26.83932000
24.09999875	0.00000000	-134.65800000	-26.88238000
24.29999873	0.00000000	-136.55880000	-27.30684000
24.49999872	0.00000000	-128.33410000	-28.46333000
24.69999871	0.00000000	-111.34350000	-30.00123000
24.89999870	0.00000000	-88.96407000	-31.53297000
25.09999869	0.00000000	-67.00294000	-32.68946000
25.29999867	0.00000000	-50.71973000	-33.06471000
25.49999866	0.00000000	-43.45472000	-32.64640000
25.69999865	0.00000000	-47.36712000	-31.06545000
25.89999864	0.00000000	-62.48154000	-28.32800000
26.09999863	0.00000000	-85.19930000	-24.84621000
26.29999862	0.00000000	-110.31620000	-20.98917000
26.49999860	0.00000000	-131.53910000	-17.96260000
26.69999859	0.00000000	-144.32820000	-16.80610000
26.89999858	0.00000000	-145.82310000	-18.01181000
27.09999857	0.00000000	-135.40230000	-21.54281000
27.29999856	0.00000000	-115.34820000	-27.39296000
27.49999854	0.00000000	-90.68036000	-34.73794000
27.69999853	0.00000000	-67.46432000	-42.03371000
27.89999852	0.00000000	-50.80585000	-47.33021000
28.09999851	0.00000000	-43.82997000	-48.44980000
28.29999850	0.00000000	-48.06225000	-44.59276000
28.49999848	0.00000000	-62.30314000	-36.82948000
28.69999847	0.00000000	-82.73252000	-26.32874000
28.89999846	0.00000000	-104.41070000	-14.76378000
29.09999845	0.00000000	-122.60700000	-4.77362200
29.29999844	0.00000000	-133.86440000	0.94119090
29.49999843	0.00000000	-135.86370000	0.52288380
29.69999841	0.00000000	-128.97390000	-6.44069800
29.89999840	0.00000000	-115.43430000	-18.43012000
30.09999839	0.00000000	-98.03149000	-33.15699000
30.29999838	0.00000000	-80.63483000	-47.79773000
30.49999837	0.00000000	-67.08907000	-58.99360000
30.69999835	0.00000000	-60.02091000	-63.97022000
30.89999834	0.00000000	-60.39001000	-61.59571000
31.09999833	0.00000000	-67.28592000	-51.51329000
31.29999832	0.00000000	-79.28149000	-35.75910000
31.49999831	0.00000000	-93.15329000	-18.33784000
31.69999829	0.00000000	-105.99160000	-2.86663400
31.89999828	0.00000000	-115.29900000	7.91092400
32.09999827	0.00000000	-119.62350000	10.97441000
32.29999826	0.00000000	-118.46090000	5.63484200
32.49999825	0.00000000	-112.27240000	-6.35457700
32.69999824	0.00000000	-102.26990000	-22.65625000
32.89999822	0.00000000	-91.05560000	-40.40969000
33.09999821	0.00000000	-81.37302000	-55.83169000
33.29999820	0.00000000	-74.77238000	-65.08366000
33.49999819	0.00000000	-72.86540000	-66.33243000
33.69999818	0.00000000	-75.84891000	-59.73794000
33.89999816	0.00000000	-82.40034000	-47.00418000
34.09999815	0.00000000	-90.50197000	-30.41954000
34.29999814	0.00000000	-98.64050000	-14.20399000
34.49999813	0.00000000	-104.78590000	-1.75319900
34.69999812	0.00000000	-107.52950000	5.16732200
34.89999810	0.00000000	-106.41610000	4.74901600
35.09999809	0.00000000	-102.17770000	-3.28494100
35.29999808	0.00000000	-96.03223000	-16.33858000
35.49999807	0.00000000	-89.51771000	-31.06545000
35.69999806	0.00000000	-84.86712000	-44.54970000
35.89999805	0.00000000	-82.91092000	-53.83858000
36.09999803	0.00000000	-83.66141000	-56.53912000
36.29999802	0.00000000	-87.14320000	-52.71899000
36.49999801	0.00000000	-92.08292000	-43.10408000
36.69999800	0.00000000	-97.15182000	-30.46260000
36.89999799	0.00000000	-100.97190000	-18.52239000
37.09999797	0.00000000	-102.92200000	-10.02092000
37.29999796	0.00000000	-102.09150000	-6.95127900
37.49999795	0.00000000	-98.68356000	-9.97170200
37.69999794	0.00000000	-93.70693000	-18.01181000
37.89999793	0.00000000	-89.09940000	-28.32800000
38.09999791	0.00000000	-85.93749000	-37.94907000
38.29999790	0.00000000	-84.39960000	-44.08218000
38.49999789	0.00000000	-84.77485000	-45.24483000
38.69999788	0.00000000	-87.14320000	-41.01255000
38.89999787	0.00000000	-90.96333000	-32.64640000
39.09999786	0.00000000	-95.61392000	-23.07455000
39.29999784	0.00000000	-99.47710000	-15.40969000
39.49999783	0.00000000	-102.22690000	-11.55266000
39.69999782	0.00000000	-103.34030000	-12.70915000
39.89999781	0.00000000	-102.22690000	-18.47318000
40.09999780	0.00000000	-99.47710000	-27.30684000
40.29999778	0.00000000	-95.61392000	-36.87869000
40.49999777	0.00000000	-90.96333000	-44.13140000
40.69999776	0.00000000	-87.10014000	-46.82579000
40.89999775	0.00000000	-84.31348000	-44.13140000
41.09999774	0.00000000	-82.81864000	-36.87869000
41.29999772	0.00000000	-83.24310000	-27.30684000
41.49999771	0.00000000	-85.89443000	-18.43012000
41.69999770	0.00000000	-89.75147000	-12.20472000
41.89999769	0.00000000	-93.66387000	-9.55339400
42.09999768	0.00000000	-97.57012000	-11.50960000
42.29999767	0.00000000	-100.59670000	-17.96260000
42.49999765	0.00000000	-101.80860000	-26.37795000
42.69999764	0.00000000	-101.06420000	-34.14124000
42.89999763	0.00000000	-99.15108000	-39.94832000
43.09999762	0.00000000	-96.40748000	-42.63656000
43.29999761	0.00000000	-93.33169000	-41.52312000
43.49999759	0.00000000	-90.59423000	-37.34006000
43.69999758	0.00000000	-88.68110000	-31.53297000
43.89999757	0.00000000	-87.85063000	-25.39985000
44.09999756	0.00000000	-88.26279000	-20.38632000
44.29999755	0.00000000	-89.29626000	-18.05487000
44.49999753	0.00000000	-90.44660000	-18.33784000
44.69999752	0.00000000	-90.45890000	-20.66314000
44.89999751	0.00000000	-90.21899000	-24.10187000
45.09999750	0.00000000	-90.59423000	-27.95275000
45.29999749	0.00000000	-91.75073000	-31.06545000
45.49999748	0.00000000	-93.33169000	-33.02165000
45.69999746	0.00000000	-95.33710000	-33.80905000
45.89999745	0.00000000	-98.03149000	-33.02165000
46.09999744	0.00000000	-100.68900000	-31.15772000
46.29999743	0.00000000	-102.22690000	-28.79552000
46.49999742	0.00000000	-102.18380000	-26.51329000
46.69999740	0.00000000	-100.17840000	-24.56324000
46.89999739	0.00000000	-95.89690000	-23.81890000
47.09999738	0.00000000	-90.12672000	-24.15108000
47.29999737	0.00000000	-84.31348000	-25.30758000
47.49999736	0.00000000	-79.70595000	-26.88853000
47.69999734	0.00000000	-77.47293000	-28.83858000
47.89999733	0.00000000	-79.01083000	-31.11466000
48.09999732	0.00000000	-84.03050000	-32.64640000
48.29999731	0.00000000	-91.05560000	-33.02165000
48.49999730	0.00000000	-99.52632000	-32.27731000
48.69999729	0.00000000	-107.15430000	-30.32726000
48.89999727	0.00000000	-111.02360000	-28.00197000
49.09999726	0.00000000	-110.69140000	-25.26452000
49.29999725	0.00000000	-106.36690000	-22.61319000
49.49999724	0.00000000	-98.64050000	-21.12451000
49.69999723	0.00000000	-89.01328000	-21.49975000
49.89999721	0.00000000	-80.21653000	-23.77584000
50.09999720	0.00000000	-74.77238000	-26.88853000
50.29999719	0.00000000	-74.02805000	-30.37647000
50.49999718	0.00000000	-77.84818000	-33.80905000
50.69999717	0.00000000	-85.56225000	-35.75910000
50.89999715	0.00000000	-94.78345000	-36.13435000
51.09999714	0.00000000	-103.29720000	-34.96555000
51.29999713	0.00000000	-109.02440000	-31.85900000
51.49999712	0.00000000	-110.23010000	-28.04503000
51.69999711	0.00000000	-106.79130000	-24.15108000
51.89999710	0.00000000	-100.27070000	-21.08145000
52.09999708	0.00000000	-92.12598000	-19.54355000
52.29999707	0.00000000	-84.49187000	-19.96186000
52.49999706	0.00000000	-79.47218000	-22.61319000
52.69999705	0.00000000	-78.72169000	-26.42101000
52.89999704	0.00000000	-82.12352000	-29.90895000
53.09999702	0.00000000	-88.63803000	-32.64640000
53.29999701	0.00000000	-95.89690000	-34.18430000
53.49999700	0.00000000	-101.71630000	-34.22736000
53.69999699	0.00000000	-104.83510000	-33.02165000
53.89999698	0.00000000	-104.78590000	-30.73942000
54.09999696	0.00000000	-101.34100000	-27.67593000
54.29999695	0.00000000	-95.20176000	-25.39985000
54.49999694	0.00000000	-88.72416000	-24.19414000
54.69999693	0.00000000	-83.70448000	-24.23720000
54.89999692	0.00000000	-81.74828000	-25.72589000
55.09999691	0.00000000	-82.86786000	-27.95891000
55.29999689	0.00000000	-86.35580000	-29.49065000
55.49999688	0.00000000	-91.75073000	-29.90895000
55.69999687	0.00000000	-97.47784000	-29.49065000
55.89999686	0.00000000	-101.71630000	-27.95891000
56.09999685	0.00000000	-103.25420000	-25.72589000
56.29999683	0.00000000	-101.75930000	-24.23720000
56.49999682	0.00000000	-97.94537000	-24.19414000
56.69999681	0.00000000	-93.28863000	-25.35064000
56.89999680	0.00000000	-88.68110000	-27.30684000
57.09999679	0.00000000	-85.19930000	-30.04429000
57.29999677	0.00000000	-84.03050000	-33.02165000
57.49999676	0.00000000	-84.77485000	-34.92249000
57.69999675	0.00000000	-87.47539000	-34.51033000
57.89999674	0.00000000	-91.28937000	-32.18504000
58.09999673	0.00000000	-94.77731000	-27.90969000
58.29999672	0.00000000	-97.47784000	-22.61319000
58.49999670	0.00000000	-98.64050000	-18.38090000
58.69999669	0.00000000	-97.89616000	-16.43085000
58.89999668	0.00000000	-96.03223000	-16.84916000
59.09999667	0.00000000	-93.70693000	-19.96186000
59.29999666	0.00000000	-91.75073000	-25.35064000
59.49999664	0.00000000	-90.16978000	-31.53297000
59.69999663	0.00000000	-89.05634000	-37.29700000
59.89999662	0.00000000	-89.05634000	-41.10482000
60.09999661	0.00000000	-90.16978000	-41.43085000
60.29999660	0.00000000	-91.66460000	-37.99213000
60.49999658	0.00000000	-92.82111000	-31.44069000
60.69999657	0.00000000	-93.24557000	-23.76968000
60.89999656	0.00000000	-93.24557000	-16.80610000
61.09999655	0.00000000	-92.87032000	-12.20472000
61.29999654	0.00000000	-92.12598000	-11.09129000
61.49999653	0.00000000	-91.75073000	-14.15477000
61.69999651	0.00000000	-91.70767000	-20.70620000
61.89999650	0.00000000	-91.75073000	-28.79552000
62.09999649	0.00000000	-92.17519000	-36.87869000
62.29999648	0.00000000	-93.28863000	-42.63656000
62.49999647	0.00000000	-94.40206000	-44.59276000
62.69999645	0.00000000	-94.82652000	-42.68578000
62.89999644	0.00000000	-94.82652000	-37.29700000
63.09999643	0.00000000	-94.40206000	-30.00123000
63.29999642	0.00000000	-93.24557000	-22.61319000
63.49999641	0.00000000	-91.70767000	-16.43085000
63.69999639	0.00000000	-90.21899000	-12.62303000
63.89999638	0.00000000	-89.43159000	-12.62303000
64.09999637	0.00000000	-89.79453000	-16.38164000
64.29999636	0.00000000	-90.54502000	-22.19488000
64.49999635	0.00000000	-91.75073000	-28.74631000
64.69999634	0.00000000	-93.24557000	-34.92249000
64.89999632	0.00000000	-94.40206000	-38.82874000
65.09999631	0.00000000	-94.82652000	-40.45890000
65.29999630	0.00000000	-94.82652000	-39.99138000
65.49999629	0.00000000	-94.40206000	-36.92175000
65.69999628	0.00000000	-93.24557000	-31.95128000
65.89999626	0.00000000	-91.75073000	-26.93159000
66.09999625	0.00000000	-90.63730000	-22.61319000
66.29999624	0.00000000	-90.63730000	-19.54355000
66.49999623	0.00000000	-91.75073000	-18.29478000
66.69999622	0.00000000	-93.24557000	-18.66388000
66.89999620	0.00000000	-94.45127000	-19.82652000
67.09999619	0.00000000	-95.20176000	-22.19488000
67.29999618	0.00000000	-95.52164000	-25.26452000
67.49999617	0.00000000	-94.35899000	-28.42027000
67.69999616	0.00000000	-92.08292000	-31.53297000
67.89999615	0.00000000	-89.75147000	-34.22736000
68.09999613	0.00000000	-87.47539000	-35.80217000
68.29999612	0.00000000	-86.35580000	-36.22047000
68.49999611	0.00000000	-87.10014000	-35.75910000
68.69999610	0.00000000	-89.05634000	-33.76599000
68.89999609	0.00000000	-92.17519000	-29.90895000
69.09999607	0.00000000	-96.03223000	-25.30758000
69.29999606	0.00000000	-99.47710000	-21.03838000
69.49999605	0.00000000	-101.75930000	-17.91953000
69.69999604	0.00000000	-101.71630000	-16.38164000
69.89999603	0.00000000	-99.05880000	-16.80610000
70.09999601	0.00000000	-94.77731000	-19.50049000
70.29999600	0.00000000	-89.75147000	-23.77584000
70.49999599	0.00000000	-84.73178000	-28.79552000
70.69999598	0.00000000	-81.28690000	-33.80905000
70.89999597	0.00000000	-80.16732000	-37.25394000
71.09999596	0.00000000	-82.08046000	-38.45349000
71.29999594	0.00000000	-86.68184000	-37.29700000
71.49999593	0.00000000	-92.12598000	-34.22736000
71.69999592	0.00000000	-97.94537000	-29.95817000
71.89999591	0.00000000	-102.92200000	-25.35679000
72.09999590	0.00000000	-105.21040000	-21.49975000
72.29999588	0.00000000	-104.50290000	-19.54355000
72.49999587	0.00000000	-101.02120000	-19.50049000
72.69999586	0.00000000	-95.98917000	-21.03838000
72.89999585	0.00000000	-90.16978000	-23.72662000
73.09999584	0.00000000	-84.77485000	-26.79626000
73.29999582	0.00000000	-81.32996000	-29.49065000
73.49999581	0.00000000	-80.49950000	-31.06545000
73.69999580	0.00000000	-82.44955000	-31.44069000
73.89999579	0.00000000	-86.26968000	-30.69636000
74.09999578	0.00000000	-91.28937000	-28.83858000
74.29999577	0.00000000	-95.93995000	-27.34990000
74.49999575	0.00000000	-99.43405000	-26.93159000
74.69999574	0.00000000	-101.34100000	-27.25763000
74.89999573	0.00000000	-100.59670000	-28.04503000
75.09999572	0.00000000	-97.98843000	-28.79552000
75.29999571	0.00000000	-94.86958000	-29.53371000
75.49999569	0.00000000	-91.70767000	-29.49065000
75.69999568	0.00000000	-88.68110000	-28.32800000
75.89999567	0.00000000	-86.78026000	-26.37795000
76.09999566	0.00000000	-87.05708000	-23.72662000
76.29999565	0.00000000	-88.17052000	-21.45669000
76.49999563	0.00000000	-89.38238000	-20.70620000
76.69999562	0.00000000	-91.28937000	-21.49975000
76.89999561	0.00000000	-92.77805000	-24.23720000
77.09999560	0.00000000	-93.19635000	-28.42027000
77.29999559	0.00000000	-92.87032000	-32.64640000
77.49999558	0.00000000	-92.12598000	-35.75910000
77.69999556	0.00000000	-91.79995000	-37.29700000
77.89999555	0.00000000	-92.17519000	-36.87869000
78.09999554	0.00000000	-93.28863000	-34.14124000
78.29999553	0.00000000	-94.40206000	-29.53371000
78.49999552	0.00000000	-94.82652000	-24.15108000
78.69999550	0.00000000	-94.82652000	-19.50049000
78.89999549	0.00000000	-94.35899000	-16.43085000
79.09999548	0.00000000	-92.82111000	-15.64345000
79.29999547	0.00000000	-90.54502000	-17.59350000
79.49999546	0.00000000	-88.63803000	-21.40748000
79.69999544	0.00000000	-87.43233000	-26.46407000
79.89999543	0.00000000	-87.05708000	-31.44069000
80.09999542	0.00000000	-87.51845000	-35.34079000
80.29999541	0.00000000	-89.43159000	-37.29700000
80.49999540	0.00000000	-92.49507000	-37.34006000
80.69999539	0.00000000	-95.15255000	-35.75910000
80.89999537	0.00000000	-97.14566000	-32.68946000
81.09999536	0.00000000	-97.89616000	-28.79552000
81.29999535	0.00000000	-97.52091000	-24.93233000
81.49999534	0.00000000	-95.93995000	-21.45669000
81.69999533	0.00000000	-93.24557000	-19.54355000
81.89999531	0.00000000	-90.21899000	-19.45743000
82.09999530	0.00000000	-87.89370000	-20.61393000
82.29999529	0.00000000	-87.10014000	-22.57013000
82.49999528	0.00000000	-87.47539000	-25.30758000
82.69999527	0.00000000	-89.01328000	-28.37721000
82.89999525	0.00000000	-91.28937000	-31.11466000
83.09999524	0.00000000	-93.19635000	-33.06471000
83.29999523	0.00000000	-94.40206000	-34.27042000
83.49999522	0.00000000	-94.82652000	-34.64567000
83.69999521	0.00000000	-94.82652000	-34.22736000
83.89999520	0.00000000	-94.40206000	-32.64640000
84.09999518	0.00000000	-93.28863000	-29.90895000
84.29999517	0.00000000	-92.17519000	-26.42101000
84.49999516	0.00000000	-91.75073000	-22.57013000
84.69999515	0.00000000	-91.70767000	-19.54355000
84.89999514	0.00000000	-91.70767000	-18.33784000
85.09999512	0.00000000	-91.70767000	-19.12524000
85.29999511	0.00000000	-91.66460000	-21.45669000
85.49999510	0.00000000	-91.28937000	-25.35679000
85.69999509	0.00000000	-90.54502000	-29.95817000
85.89999508	0.00000000	-90.16978000	-34.18430000
86.09999506	0.00000000	-90.16978000	-36.87869000
86.29999505	0.00000000	-90.59423000	-37.29700000
86.49999504	0.00000000	-91.70767000	-35.75910000
86.69999503	0.00000000	-92.87032000	-32.64640000
86.89999502	0.00000000	-93.66387000	-28.37721000
87.09999501	0.00000000	-94.45127000	-23.77584000
87.29999499	0.00000000	-94.77731000	-19.91880000
87.49999498	0.00000000	-94.40206000	-18.01181000
87.69999497	0.00000000	-93.19635000	-18.38706000
87.89999496	0.00000000	-91.33242000	-21.08145000
88.09999495	0.00000000	-89.43159000	-25.30758000
88.29999493	0.00000000	-88.63803000	-29.95817000
88.49999492	0.00000000	-88.58882000	-34.14124000
88.69999491	0.00000000	-89.01328000	-36.45423000
88.89999490	0.00000000	-90.16978000	-36.09129000
89.09999489	0.00000000	-91.70767000	-33.76599000
89.29999487	0.00000000	-93.24557000	-29.49065000
89.49999486	0.00000000	-94.40206000	-24.19414000
89.69999485	0.00000000	-94.77731000	-19.96186000
89.89999484	0.00000000	-94.40206000	-18.01181000
90.09999483	0.00000000	-93.24557000	-18.38706000
90.29999482	0.00000000	-91.75073000	-21.12451000
90.49999480	0.00000000	-90.59423000	-25.68282000
90.69999479	0.00000000	-90.16978000	-30.69636000
90.89999478	0.00000000	-90.12672000	-34.51033000
91.09999477	0.00000000	-90.12672000	-36.45423000
91.29999476	0.00000000	-90.16978000	-35.67298000
91.49999474	0.00000000	-90.54502000	-32.64640000
91.69999473	0.00000000	-91.28937000	-28.37721000
91.89999472	0.00000000	-91.61539000	-23.77584000
92.09999471	0.00000000	-91.28937000	-19.91880000
92.29999470	0.00000000	-90.59423000	-18.05487000
92.49999468	0.00000000	-90.59423000	-18.80536000
92.69999467	0.00000000	-91.28937000	-22.23794000
92.89999466	0.00000000	-91.70767000	-26.79626000
93.09999465	0.00000000	-92.17519000	-31.06545000
93.29999464	0.00000000	-93.28863000	-34.18430000
93.49999463	0.00000000	-94.35899000	-35.67298000
93.69999461	0.00000000	-94.35899000	-34.87328000
93.89999460	0.00000000	-93.24557000	-31.44069000
94.09999459	0.00000000	-91.66460000	-26.88238000
94.29999458	0.00000000	-89.70841000	-22.65625000
94.49999457	0.00000000	-87.43233000	-19.96186000
94.69999455	0.00000000	-85.93749000	-19.54355000
94.89999454	0.00000000	-85.89443000	-21.08145000
95.09999453	0.00000000	-87.05708000	-24.15108000
95.29999452	0.00000000	-89.01328000	-28.00197000
95.49999451	0.00000000	-91.75073000	-31.44069000
95.69999449	0.00000000	-94.82652000	-33.76599000
95.89999448	0.00000000	-97.52091000	-34.14124000
96.09999447	0.00000000	-99.01575000	-32.64640000
96.29999446	0.00000000	-98.64050000	-29.95201000
96.49999445	0.00000000	-96.31520000	-26.88853000
96.69999444	0.00000000	-92.87032000	-24.19414000
96.89999442	0.00000000	-88.96407000	-22.65625000
97.09999441	0.00000000	-85.51919000	-22.61319000
97.29999440	0.00000000	-83.19389000	-23.77584000
97.49999439	0.00000000	-82.81864000	-25.68282000
97.69999438	0.00000000	-84.31348000	-27.95891000
97.89999436	0.00000000	-87.05708000	-29.49065000
98.09999435	0.00000000	-90.54502000	-29.95817000
98.29999434	0.00000000	-94.45127000	-29.95817000
98.49999433	0.00000000	-97.85310000	-29.53371000
98.69999432	0.00000000	-99.80315000	-28.42027000
98.89999430	0.00000000	-99.43405000	-27.30684000
99.09999429	0.00000000	-97.56396000	-26.88238000
99.29999428	0.00000000	-94.82652000	-26.83932000
99.49999427	0.00000000	-91.70767000	-26.83932000
99.69999426	0.00000000	-88.58882000	-26.79626000
99.89999425	0.00000000	-85.85137000	-26.42101000
100.09999423	0.00000000	-83.98129000	-25.63976000
100.29999422	0.00000000	-83.61835000	-24.88927000
100.49999421	0.00000000	-85.51919000	-24.15108000
100.69999420	0.00000000	-88.54576000	-24.19414000
100.89999419	0.00000000	-91.66460000	-25.30758000
101.09999417	0.00000000	-94.40206000	-26.83932000
101.29999416	0.00000000	-96.35826000	-28.42027000
101.49999415	0.00000000	-97.52091000	-29.95201000
101.69999414	0.00000000	-97.52091000	-31.11466000
101.89999413	0.00000000	-96.35826000	-31.44069000
102.09999411	0.00000000	-94.45127000	-30.64714000
102.29999410	0.00000000	-92.08292000	-28.32800000
102.49999409	0.00000000	-89.75147000	-25.30758000
102.69999408	0.00000000	-87.47539000	-22.61319000
102.89999407	0.00000000	-86.31274000	-21.03838000
103.09999406	0.00000000	-86.63262000	-20.66314000
103.29999404	0.00000000	-87.43233000	-21.45669000
103.49999403	0.00000000	-89.01328000	-23.77584000
103.69999402	0.00000000	-91.28937000	-26.83932000
103.89999401	0.00000000	-93.19635000	-29.95201000
104.09999400	0.00000000	-94.40206000	-32.60334000
104.29999398	0.00000000	-94.77731000	-33.76599000
104.49999397	0.00000000	-94.40206000	-33.02165000
104.69999396	0.00000000	-93.24557000	-31.11466000
104.89999395	0.00000000	-91.75073000	-28.37721000
105.09999394	0.00000000	-90.54502000	-25.30758000
105.29999392	0.00000000	-89.75147000	-22.65625000
105.49999391	0.00000000	-88.96407000	-21.49975000
105.69999390	0.00000000	-88.63803000	-22.23794000
105.89999389	0.00000000	-89.01328000	-24.10187000
106.09999388	0.00000000	-90.16978000	-26.46407000
106.29999387	0.00000000	-91.66460000	-28.74631000
106.49999385	0.00000000	-92.82111000	-30.64714000
106.69999384	0.00000000	-93.19635000	-31.02239000
106.89999383	0.00000000	-92.87032000	-29.95201000
107.09999382	0.00000000	-92.08292000	-28.42027000
107.29999381	0.00000000	-91.33242000	-26.83932000
107.49999379	0.00000000	-90.54502000	-25.30758000
107.69999378	0.00000000	-90.16978000	-24.15108000
107.89999377	0.00000000	-90.12672000	-23.77584000
108.09999376	0.00000000	-90.16978000	-24.19414000
108.29999375	0.00000000	-90.59423000	-25.72589000
108.49999374	0.00000000	-91.70767000	-27.95891000
108.69999372	0.00000000	-92.82111000	-29.49065000
108.89999371	0.00000000	-93.24557000	-29.90895000
109.09999370	0.00000000	-93.24557000	-29.53371000
109.29999369	0.00000000	-92.82111000	-28.37721000
109.49999368	0.00000000	-91.66460000	-26.83932000
109.69999366	0.00000000	-90.16978000	-25.26452000
109.89999365	0.00000000	-89.01328000	-23.77584000
110.09999364	0.00000000	-88.58882000	-23.03149000
110.29999363	0.00000000	-88.58882000	-23.77584000
110.49999362	0.00000000	-89.01328000	-25.26452000
110.69999360	0.00000000	-90.12672000	-26.83932000
110.89999359	0.00000000	-91.28937000	-28.37721000
111.09999358	0.00000000	-92.08292000	-29.53371000
111.29999357	0.00000000	-92.82111000	-29.95817000
111.49999356	0.00000000	-92.82111000	-29.95817000
111.69999355	0.00000000	-92.08292000	-29.53371000
111.89999353	0.00000000	-91.37549000	-28.42027000
112.09999352	0.00000000	-90.92027000	-27.25763000
112.29999351	0.00000000	-90.91412000	-26.46407000
112.49999350	0.00000000	-90.50197000	-25.72589000
112.69999349	0.00000000	-90.16978000	-25.72589000
112.89999347	0.00000000	-90.12672000	-26.42101000
113.09999346	0.00000000	-90.16978000	-26.79626000
113.29999345	0.00000000	-90.54502000	-26.83932000
113.49999344	0.00000000	-91.28937000	-26.83932000
113.69999343	0.00000000	-91.66460000	-26.88238000
113.89999341	0.00000000	-91.70767000	-27.25763000
114.09999340	0.00000000	-91.70767000	-28.00197000
114.29999339	0.00000000	-91.70767000	-28.37721000
114.49999338	0.00000000	-91.70767000	-28.42027000
114.69999337	0.00000000	-91.70767000	-28.42027000
114.89999336	0.00000000	-91.70767000	-28.42027000
115.09999334	0.00000000	-91.66460000	-28.42027000
115.29999333	0.00000000	-91.28937000	-28.42027000
115.49999332	0.00000000	-90.54502000	-28.37721000
115.69999331	0.00000000	-90.16978000	-27.95275000
115.89999330	0.00000000	-90.12672000	-26.83932000
116.09999328	0.00000000	-90.16978000	-25.72589000
116.29999327	0.00000000	-90.54502000	-25.30758000
116.49999326	0.00000000	-91.28937000	-25.26452000
116.69999325	0.00000000	-91.66460000	-25.30758000
116.89999324	0.00000000	-91.70767000	-25.68282000
117.09999322	0.00000000	-91.66460000	-26.46407000
117.29999321	0.00000000	-91.28937000	-27.21457000
117.49999320	0.00000000	-90.54502000	-28.04503000
117.69999319	0.00000000	-90.12672000	-28.79552000
117.89999318	0.00000000	-89.70841000	-29.53371000
118.09999317	0.00000000	-89.01328000	-29.53371000
118.29999315	0.00000000	-89.01328000	-28.79552000
118.49999314	0.00000000	-89.75147000	-28.00197000
118.69999313	0.00000000	-90.54502000	-26.83932000
118.89999312	0.00000000	-91.70767000	-25.72589000
119.09999311	0.00000000	-92.82111000	-25.26452000
119.29999309	0.00000000	-93.24557000	-24.88927000
119.49999308	0.00000000	-93.24557000	-24.52018000
119.69999307	0.00000000	-92.82111000	-24.93233000
119.89999306	0.00000000	-91.70767000	-25.63976000
120.09999305	0.00000000	-90.54502000	-26.42101000
120.29999303	0.00000000	-89.70841000	-26.83932000
120.49999302	0.00000000	-88.54576000	-27.25763000
120.69999301	0.00000000	-87.47539000	-28.00197000
120.89999300	0.00000000	-87.47539000	-28.37721000
121.09999299	0.00000000	-88.58882000	-28.42027000
121.29999298	0.00000000	-90.08366000	-28.37721000
121.49999296	0.00000000	-91.28937000	-28.00197000
121.69999295	0.00000000	-92.08292000	-27.25763000
121.89999294	0.00000000	-92.87032000	-26.88238000
122.09999293	0.00000000	-93.24557000	-26.79626000
122.29999292	0.00000000	-93.24557000	-26.42101000
122.49999290	0.00000000	-92.82111000	-25.68282000
122.69999289	0.00000000	-91.70767000	-25.30758000
122.89999288	0.00000000	-90.54502000	-25.26452000
123.09999287	0.00000000	-89.70841000	-25.30758000
123.29999286	0.00000000	-88.58882000	-25.68282000
123.49999284	0.00000000	-87.85063000	-26.42101000
123.69999283	0.00000000	-88.17052000	-26.83932000
123.89999282	0.00000000	-88.54576000	-27.25763000
124.09999281	0.00000000	-88.96407000	-28.00197000
124.29999280	0.00000000	-89.75147000	-28.37721000
124.49999279	0.00000000	-90.50197000	-28.37721000
124.69999277	0.00000000	-91.33242000	-28.00197000
124.89999276	0.00000000	-92.08292000	-27.25763000
125.09999275	0.00000000	-92.87032000	-26.88238000
125.29999274	0.00000000	-93.19635000	-26.79626000
125.49999273	0.00000000	-92.82111000	-26.42101000
125.69999271	0.00000000	-91.70767000	-25.68282000
125.89999270	0.00000000	-90.54502000	-25.30758000
126.09999269	0.00000000	-89.75147000	-25.30758000
126.29999268	0.00000000	-88.96407000	-25.68282000
126.49999267	0.00000000	-88.58882000	-26.42101000
126.69999265	0.00000000	-88.54576000	-26.79626000
126.89999264	0.00000000	-88.58882000	-26.88238000
127.09999263	0.00000000	-89.01328000	-27.25763000
127.29999262	0.00000000	-90.16978000	-28.00197000
127.49999261	0.00000000	-91.66460000	-28.32800000
127.69999260	0.00000000	-92.82111000	-28.00197000
127.89999258	0.00000000	-93.19635000	-27.25763000
128.09999257	0.00000000	-92.87032000	-26.88238000
128.29999256	0.00000000	-92.08292000	-26.83932000
128.49999255	0.00000000	-91.28937000	-26.83932000
128.69999254	0.00000000	-90.12672000	-26.83932000
128.89999252	0.00000000	-89.01328000	-26.83932000
129.09999251	0.00000000	-88.58882000	-26.83932000
129.29999250	0.00000000	-88.58882000	-26.83932000
129.49999249	0.00000000	-89.01328000	-26.88238000
129.69999248	0.00000000	-90.12672000	-27.21457000
129.89999246	0.00000000	-91.28937000	-27.58366000
130.09999245	0.00000000	-92.08292000	-27.21457000
130.29999244	0.00000000	-92.87032000	-26.88238000
130.49999243	0.00000000	-93.19635000	-26.83932000
130.69999242	0.00000000	-92.82111000	-26.83932000
130.89999241	0.00000000	-91.70767000	-26.83932000
131.09999239	0.00000000	-90.54502000	-26.83932000
131.29999238	0.00000000	-89.75147000	-26.83932000
131.49999237	0.00000000	-88.96407000	-26.83932000
131.69999236	0.00000000	-88.63803000	-26.88238000
131.89999235	0.00000000	-88.96407000	-27.25763000
132.09999233	0.00000000	-89.75147000	-28.00197000
132.29999232	0.00000000	-90.50197000	-28.32800000
132.49999231	0.00000000	-91.28937000	-28.00197000
132.69999230	0.00000000	-91.61539000	-27.25763000
132.89999229	0.00000000	-91.28937000	-26.83932000
133.09999227	0.00000000	-90.54502000	-26.42101000
133.29999226	0.00000000	-90.16978000	-25.68282000
133.49999225	0.00000000	-90.12672000	-25.30758000
133.69999224	0.00000000	-90.12672000	-25.26452000
133.89999223	0.00000000	-90.12672000	-25.30758000
134.09999222	0.00000000	-90.12672000	-25.68282000
134.29999220	0.00000000	-90.12672000	-26.46407000
134.49999219	0.00000000	-90.12672000	-27.21457000
134.69999218	0.00000000	-90.12672000	-28.00197000
134.89999217	0.00000000	-90.12672000	-28.37721000
135.09999216	0.00000000	-90.12672000	-28.42027000
135.29999214	0.00000000	-90.12672000	-28.37721000
135.49999213	0.00000000	-90.12672000	-28.00197000
135.69999212	0.00000000	-90.12672000	-27.21457000
135.89999211	0.00000000	-90.16978000	-26.46407000
136.09999210	0.00000000	-90.54502000	-25.68282000
136.29999208	0.00000000	-91.28937000	-25.30758000
136.49999207	0.00000000	-91.66460000	-25.26452000
136.69999206	0.00000000	-91.66460000	-25.26452000
136.89999205	0.00000000	-91.28937000	-25.30758000
137.09999204	0.00000000	-90.50197000	-25.68282000
137.29999203	0.00000000	-89.75147000	-26.42101000
137.49999201	0.00000000	-88.96407000	-26.83932000
137.69999200	0.00000000	-88.58882000	-27.25763000
137.89999199	0.00000000	-88.58882000	-28.00197000
138.09999198	0.00000000	-88.96407000	-28.37721000
138.29999197	0.00000000	-89.70841000	-28.37721000
138.49999195	0.00000000	-90.12672000	-28.00197000
138.69999194	0.00000000	-90.54502000	-27.25763000
138.89999193	0.00000000	-91.28937000	-26.83932000
139.09999192	0.00000000	-91.61539000	-26.42101000
139.29999191	0.00000000	-91.28937000	-25.68282000
139.49999189	0.00000000	-90.54502000	-25.30758000
139.69999188	0.00000000	-90.16978000	-25.26452000
139.89999187	0.00000000	-90.08366000	-25.30758000
140.09999186	0.00000000	-89.75147000	-25.72589000
140.29999185	0.00000000	-89.38238000	-26.83932000
140.49999184	0.00000000	-89.75147000	-27.95275000
140.69999182	0.00000000	-90.08366000	-28.37721000
140.89999181	0.00000000	-90.16978000	-28.42027000
141.09999180	0.00000000	-90.54502000	-28.42027000
141.29999179	0.00000000	-91.24016000	-28.37721000
141.49999178	0.00000000	-91.24016000	-28.00197000
141.69999176	0.00000000	-90.54502000	-27.21457000
141.89999175	0.00000000	-90.16978000	-26.46407000
142.09999174	0.00000000	-90.12672000	-25.68282000
142.29999173	0.00000000	-90.12672000	-25.30758000
142.49999172	0.00000000	-90.12672000	-25.26452000
142.69999170	0.00000000	-90.12672000	-25.30758000
142.89999169	0.00000000	-90.12672000	-25.68282000
143.09999168	0.00000000	-90.12672000	-26.46407000
143.29999167	0.00000000	-90.12672000	-27.21457000
143.49999166	0.00000000	-90.16978000	-28.00197000
143.69999165	0.00000000	-90.50197000	-28.37721000
143.89999163	0.00000000	-90.87106000	-28.37721000
144.09999162	0.00000000	-90.50197000	-28.00197000
144.29999161	0.00000000	-90.16978000	-27.21457000
144.49999160	0.00000000	-90.08366000	-26.46407000
144.69999159	0.00000000	-89.70841000	-25.68282000
144.89999157	0.00000000	-88.96407000	-25.30758000
145.09999156	0.00000000	-88.63803000	-25.26452000
145.29999155	0.00000000	-88.96407000	-25.30758000
145.49999154	0.00000000	-89.70841000	-25.68282000
145.69999153	0.00000000	-90.08366000	-26.46407000
145.89999151	0.00000000	-90.12672000	-27.17150000
146.09999150	0.00000000	-90.12672000	-27.58366000
146.29999149	0.00000000	-90.12672000	-27.21457000
146.49999148	0.00000000	-90.12672000	-26.88238000
146.69999147	0.00000000	-90.08366000	-26.83932000
146.89999146	0.00000000	-89.70841000	-26.79626000
147.09999144	0.00000000	-88.96407000	-26.42101000
147.29999143	0.00000000	-88.63803000	-25.68282000
147.49999142	0.00000000	-88.96407000	-25.30758000
147.69999141	0.00000000	-89.70841000	-25.26452000
147.89999140	0.00000000	-90.08366000	-25.26452000
148.09999138	0.00000000	-90.12672000	-25.30758000
148.29999137	0.00000000	-90.12672000	-25.68282000
148.49999136	0.00000000	-90.12672000	-26.42101000
148.69999135	0.00000000	-90.12672000	-26.79626000
148.89999134	0.00000000	-90.12672000	-26.83932000
149.09999132	0.00000000	-90.12672000	-26.83932000
149.29999131	0.00000000	-90.08366000	-26.83932000
149.49999130	0.00000000	-89.70841000	-26.83932000
149.69999129	0.00000000	-88.96407000	-26.83932000
149.89999128	0.00000000	-88.58882000	-26.79626000
150.09999127	0.00000000	-88.58882000	-26.42101000
150.29999125	0.00000000	-88.96407000	-25.68282000
150.49999124	0.00000000	-89.70841000	-25.30758000
150.69999123	0.00000000	-90.08366000	-25.30758000
150.89999122	0.00000000	-90.12672000	-25.63976000
151.09999121	0.00000000	-90.12672000	-26.04577000
151.29999119	0.00000000	-90.12672000	-26.05807000
151.49999118	0.00000000	-90.12672000	-26.46407000
151.69999117	0.00000000	-90.12672000	-26.79626000
151.89999116	0.00000000	-90.12672000	-26.83932000
152.09999115	0.00000000	-90.12672000	-26.83932000
152.29999113	0.00000000	-90.08366000	-26.83932000
152.49999112	0.00000000	-89.70841000	-26.83932000
152.69999111	0.00000000	-88.96407000	-26.79626000
152.89999110	0.00000000	-88.58882000	-26.42101000
153.09999109	0.00000000	-88.54576000	-25.68282000
153.29999108	0.00000000	-88.58882000	-25.30758000
153.49999106	0.00000000	-88.96407000	-25.26452000
153.69999105	0.00000000	-89.70841000	-25.26452000
153.89999104	0.00000000	-90.08366000	-25.26452000
154.09999103	0.00000000	-90.16978000	-25.26452000
154.29999102	0.00000000	-90.50197000	-25.30758000
154.49999100	0.00000000	-90.91412000	-25.68282000
154.69999099	0.00000000	-90.87720000	-26.46407000
154.89999098	0.00000000	-90.87106000	-27.12229000
155.09999097	0.00000000	-90.08366000	-27.20841000
155.29999096	0.00000000	-89.01328000	-26.47638000
155.49999094	0.00000000	-88.58882000	-26.51329000
155.69999093	0.00000000	-88.54576000	-26.79626000
155.89999092	0.00000000	-88.54576000	-26.79626000
156.09999091	0.00000000	-88.58882000	-26.46407000
156.29999090	0.00000000	-88.96407000	-26.05807000
156.49999089	0.00000000	-89.70841000	-26.04577000
156.69999087	0.00000000	-90.08366000	-25.63976000
156.89999086	0.00000000	-90.12672000	-25.30758000
157.09999085	0.00000000	-90.12672000	-25.26452000
157.29999084	0.00000000	-90.12672000	-25.26452000
157.49999083	0.00000000	-90.12672000	-25.30758000
157.69999081	0.00000000	-90.12672000	-25.68282000
157.89999080	0.00000000	-90.08366000	-26.42101000
158.09999079	0.00000000	-89.70841000	-26.79626000
158.29999078	0.00000000	-88.96407000	-26.83932000
158.49999077	0.00000000	-88.58882000	-26.83932000
158.69999075	0.00000000	-88.54576000	-26.83932000
158.89999074	0.00000000	-88.58882000	-26.79626000
159.09999073	0.00000000	-88.96407000	-26.42101000
159.29999072	0.00000000	-89.70841000	-25.68282000
159.49999071	0.00000000	-90.08366000	-25.30758000
159.69999070	0.00000000	-90.12672000	-25.26452000
159.89999068	0.00000000	-90.12672000	-25.26452000
160.09999067	0.00000000	-90.12672000	-25.30758000
160.29999066	0.00000000	-90.12672000	-25.68282000
160.49999065	0.00000000	-90.12672000	-26.42101000
160.69999064	0.00000000	-90.12672000	-26.79626000
160.89999062	0.00000000	-90.12672000	-26.83932000
161.09999061	0.00000000	-90.08366000	-26.83932000
161.29999060	0.00000000	-89.70841000	-26.83932000
161.49999059	0.00000000	-88.96407000	-26.83932000
161.69999058	0.00000000	-88.58882000	-26.83932000
161.89999056	0.00000000	-88.54576000	-26.83932000
162.09999055	0.00000000	-88.54576000	-26.83932000
162.29999054	0.00000000	-88.54576000	-26.79626000
162.49999053	0.00000000	-88.58882000	-26.42101000
162.69999052	0.00000000	-88.96407000	-25.68282000
162.89999051	0.00000000	-89.70841000	-25.35679000
163.09999049	0.00000000	-90.08366000	-25.68282000
163.29999048	0.00000000	-90.12672000	-26.42101000
163.49999047	0.00000000	-90.12672000	-26.79626000
163.69999046	0.00000000	-90.12672000	-26.83932000
163.89999045	0.00000000	-90.12672000	-26.83932000
164.09999043	0.00000000	-90.12672000	-26.83932000
164.29999042	0.00000000	-90.08366000	-26.83932000
164.49999041	0.00000000	-89.70841000	-26.83932000
164.69999040	0.00000000	-88.96407000	-26.83932000
164.89999039	0.00000000	-88.58882000	-26.83932000
165.09999037	0.00000000	-88.54576000	-26.83932000
165.29999036	0.00000000	-88.54576000	-26.83932000
165.49999035	0.00000000	-88.58882000	-26.79626000
165.69999034	0.00000000	-88.96407000	-26.42101000
165.89999033	0.00000000	-89.70841000	-25.68282000
166.09999032	0.00000000	-90.08366000	-25.30758000
166.29999030	0.00000000	-90.12672000	-25.30758000
166.49999029	0.00000000	-90.12672000	-25.63976000
166.69999028	0.00000000	-90.12672000	-26.04577000
166.89999027	0.00000000	-90.08366000	-26.05807000
167.09999026	0.00000000	-89.70841000	-26.46407000
167.29999024	0.00000000	-88.96407000	-26.79626000
167.49999023	0.00000000	-88.58882000	-26.83932000
167.69999022	0.00000000	-88.54576000	-26.83932000
167.89999021	0.00000000	-88.54576000	-26.83932000
168.09999020	0.00000000	-88.54576000	-26.83932000
168.29999018	0.00000000	-88.54576000	-26.83932000
168.49999017	0.00000000	-88.54576000	-26.83932000
168.69999016	0.00000000	-88.54576000	-26.83932000
168.89999015	0.00000000	-88.54576000	-26.83932000
169.09999014	0.00000000	-88.54576000	-26.83932000
169.29999013	0.00000000	-88.58882000	-26.83932000
169.49999011	0.00000000	-88.96407000	-26.83932000
169.69999010	0.00000000	-89.70841000	-26.83932000
169.89999009	0.00000000	-90.08366000	-26.79626000
170.09999008	0.00000000	-90.08366000	-26.46407000
170.29999007	0.00000000	-89.70841000	-26.10113000
170.49999005	0.00000000	-88.96407000	-26.42101000
170.69999004	0.00000000	-88.58882000	-26.42101000
170.89999003	0.00000000	-88.54576000	-26.10113000
171.09999002	0.00000000	-88.54576000	-26.46407000
171.29999001	0.00000000	-88.54576000	-26.79626000
171.49998999	0.00000000	-88.54576000	-26.83932000
171.69998998	0.00000000	-88.54576000	-26.83932000
171.89998997	0.00000000	-88.58882000	-26.83932000
172.09998996	0.00000000	-88.96407000	-26.83932000
172.29998995	0.00000000	-89.65919000	-26.83932000
172.49998994	0.00000000	-89.70841000	-26.83932000
172.69998992	0.00000000	-89.38238000	-26.83932000
172.89998991	0.00000000	-89.70841000	-26.79626000
173.09998990	0.00000000	-89.70841000	-26.46407000
173.29998989	0.00000000	-89.38238000	-26.10113000
173.49998988	0.00000000	-89.70841000	-26.46407000
173.69998986	0.00000000	-89.65919000	-26.79626000
173.89998985	0.00000000	-88.96407000	-26.83932000
174.09998984	0.00000000	-88.58882000	-26.83932000
174.29998983	0.00000000	-88.54576000	-26.83932000
174.49998982	0.00000000	-88.54576000	-26.83932000
174.69998980	0.00000000	-88.58882000	-26.83932000
174.89998979	0.00000000	-88.92101000	-26.83932000
175.09998978	0.00000000	-89.29010000	-26.83932000
175.29998977	0.00000000	-88.96407000	-26.83932000
175.49998976	0.00000000	-88.96407000	-26.83932000
175.69998975	0.00000000	-89.33316000	-26.83932000
175.89998973	0.00000000	-89.29626000	-26.83932000
176.09998972	0.00000000	-89.33316000	-26.79626000
176.29998971	0.00000000	-88.92101000	-26.46407000
176.49998970	0.00000000	-88.63803000	-26.10113000
176.69998969	0.00000000	-88.92101000	-26.46407000
176.89998967	0.00000000	-89.29010000	-26.79626000
177.09998966	0.00000000	-88.92101000	-26.83932000
177.29998965	0.00000000	-88.58882000	-26.83932000
177.49998964	0.00000000	-88.54576000	-26.83932000
177.69998963	0.00000000	-88.54576000	-26.83932000
177.89998961	0.00000000	-88.54576000	-26.83932000
178.09998960	0.00000000	-88.54576000	-26.83932000
178.29998959	0.00000000	-88.54576000	-26.79626000
178.49998958	0.00000000	-88.54576000	-26.42101000
178.69998957	0.00000000	-88.54576000	-25.68282000
178.89998956	0.00000000	-88.54576000	-25.30758000
179.09998954	0.00000000	-88.54576000	-25.26452000
179.29998953	0.00000000	-88.54576000	-25.26452000
179.49998952	0.00000000	-88.54576000	-25.30758000
179.69998951	0.00000000	-88.54576000	-25.68282000
179.89998950	0.00000000	-88.54576000	-26.42101000
180.09998948	0.00000000	-88.54576000	-26.79626000
180.29998947	0.00000000	-88.54576000	-26.83932000
180.49998946	0.00000000	-88.54576000	-26.79626000
180.69998945	0.00000000	-88.54576000	-26.42101000
180.89998944	0.00000000	-88.54576000	-25.68282000
181.09998942	0.00000000	-88.54576000	-25.30758000
181.29998941	0.00000000	-88.54576000	-25.26452000
181.49998940	0.00000000	-88.54576000	-25.26452000
181.69998939	0.00000000	-88.54576000	-25.26452000
181.89998938	0.00000000	-88.54576000	-25.26452000
182.09998937	0.00000000	-88.54576000	-25.26452000
182.29998935	0.00000000	-88.50270000	-25.26452000
182.49998934	0.00000000	-88.17052000	-25.26452000
182.69998933	0.00000000	-87.80142000	-25.30758000
182.89998932	0.00000000	-88.17052000	-25.68282000
183.09998931	0.00000000	-88.50270000	-26.42101000
183.29998929	0.00000000	-88.54576000	-26.79626000
183.49998928	0.00000000	-88.54576000	-26.83932000
183.69998927	0.00000000	-88.54576000	-26.79626000
183.89998926	0.00000000	-88.54576000	-26.42101000
184.09998925	0.00000000	-88.54576000	-25.68282000
184.29998923	0.00000000	-88.54576000	-25.30758000
184.49998922	0.00000000	-88.54576000	-25.26452000
184.69998921	0.00000000	-88.54576000	-25.26452000
184.89998920	0.00000000	-88.54576000	-25.26452000
185.09998919	0.00000000	-88.54576000	-25.26452000
185.29998918	0.00000000	-88.54576000	-25.30758000
185.49998916	0.00000000	-88.54576000	-25.68282000
185.69998915	0.00000000	-88.54576000	-26.42101000
185.89998914	0.00000000	-88.54576000	-26.83932000
186.09998913	0.00000000	-88.54576000	-27.21457000
186.29998912	0.00000000	-88.54576000	-27.53445000
186.49998910	0.00000000	-88.54576000	-26.79626000
186.69998909	0.00000000	-88.54576000	-25.72589000
186.89998908	0.00000000	-88.54576000	-25.30758000
187.09998907	0.00000000	-88.54576000	-25.26452000
187.29998906	0.00000000	-88.54576000	-25.26452000
187.49998904	0.00000000	-88.58882000	-25.26452000
187.69998903	0.00000000	-88.92101000	-25.26452000
187.89998902	0.00000000	-89.29010000	-25.26452000
188.09998901	0.00000000	-88.92101000	-25.30758000
188.29998900	0.00000000	-88.58882000	-25.68282000
188.49998899	0.00000000	-88.54576000	-26.42101000
188.69998897	0.00000000	-88.54576000	-26.79626000
188.89998896	0.00000000	-88.54576000	-26.83932000
189.09998895	0.00000000	-88.54576000	-26.83932000
189.29998894	0.00000000	-88.54576000	-26.83932000
189.49998893	0.00000000	-88.58882000	-26.83932000
189.69998891	0.00000000	-88.92101000	-26.83932000
189.89998890	0.00000000	-89.29010000	-26.83932000
190.09998889	0.00000000	-88.92101000	-26.83932000
190.29998888	0.00000000	-88.58882000	-26.79626000
190.49998887	0.00000000	-88.54576000	-26.42101000
190.69998885	0.00000000	-88.54576000	-25.68282000
190.89998884	0.00000000	-88.54576000	-25.30758000
191.09998883	0.00000000	-88.54576000	-25.26452000
191.29998882	0.00000000	-88.54576000	-25.26452000
191.49998881	0.00000000	-88.54576000	-25.30758000
191.69998880	0.00000000	-88.54576000	-25.68282000
191.89998878	0.00000000	-88.54576000	-26.42101000
192.09998877	0.00000000	-88.54576000	-26.79626000
192.29998876	0.00000000	-88.54576000	-26.79626000
192.49998875	0.00000000	-88.54576000	-26.46407000
192.69998874	0.00000000	-88.54576000	-26.10113000
192.89998872	0.00000000	-88.54576000	-26.42101000
193.09998871	0.00000000	-88.54576000	-26.37795000
193.29998870	0.00000000	-88.54576000	-25.68282000
193.49998869	0.00000000	-88.54576000	-25.30758000
193.69998868	0.00000000	-88.54576000	-25.26452000
193.89998866	0.00000000	-88.50270000	-25.26452000
194.09998865	0.00000000	-88.17052000	-25.26452000
194.29998864	0.00000000	-87.80142000	-25.26452000
194.49998863	0.00000000	-88.17052000	-25.26452000
194.69998862	0.00000000	-88.50270000	-25.26452000
194.89998861	0.00000000	-88.54576000	-25.26452000
195.09998859	0.00000000	-88.54576000	-25.26452000
195.29998858	0.00000000	-88.54576000	-25.30758000
195.49998857	0.00000000	-88.54576000	-25.63976000
195.69998856	0.00000000	-88.54576000	-26.00270000
195.89998855	0.00000000	-88.54576000	-25.63976000
196.09998853	0.00000000	-88.54576000	-25.30758000
