Time	Channel A	Channel B	Channel C
(us)	(V)	(mV)	(mV)

-4.53333289	0.00000000	-29.66289000	-1.57480300
-4.33333290	0.00000000	-29.99508000	-1.57480300
-4.13333291	0.00000000	-30.03814000	-1.57480300
-3.93333293	0.00000000	-30.03814000	-1.57480300
-3.73333294	0.00000000	-30.03814000	-1.57480300
-3.53333295	0.00000000	-30.03814000	-1.57480300
-3.33333296	0.00000000	-30.03814000	-1.57480300
-3.13333297	0.00000000	-30.03814000	-1.57480300
-2.93333299	0.00000000	-30.03814000	-1.57480300
-2.73333300	0.00000000	-30.03814000	-1.57480300
-2.53333301	0.00000000	-29.99508000	-1.57480300
-2.33333302	0.00000000	-29.66289000	-1.57480300
-2.13333303	0.00000000	-29.29380000	-1.57480300
-1.93333304	0.00000000	-29.66289000	-1.57480300
-1.73333306	0.00000000	-29.99508000	-1.57480300
-1.53333307	0.00000000	-30.03814000	-1.57480300
-1.33333308	0.00000000	-30.03814000	-1.57480300
-1.13333309	0.00000000	-30.03814000	-1.57480300
-0.93333310	0.00000000	-30.03814000	-1.57480300
-0.73333312	0.00000000	-30.03814000	-1.57480300
-0.53333313	0.00000000	-30.03814000	-1.57480300
-0.33333314	0.15871060	-30.03814000	-1.57480300
-0.13333315	0.47736220	-30.03814000	-1.57480300
0.06666684	0.95533960	-30.03814000	-1.57480300
0.26666682	0.95533960	-30.03814000	-1.57480300
0.46666681	0.95533960	-30.03814000	-1.57480300
0.66666680	0.47736220	-30.03814000	-1.57480300
0.86666679	-0.15871060	-30.03814000	-1.57480300
1.06666678	-1.11466500	-30.03814000	-1.57480300
1.26666677	-2.22994600	-30.03814000	-1.57480300
1.46666675	-2.70792300	-30.03814000	-1.57480300
1.66666674	-2.70792300	-30.03814000	-1.53174200
1.86666673	-1.75196900	-30.03814000	-1.19955700
2.06666672	-0.15871060	-30.03814000	-0.83661410
2.26666671	1.91129400	-30.03814000	-1.19955700
2.46666669	3.98191400	-30.03814000	-1.53174200
2.66666668	5.09719500	-30.03814000	-1.57480300
2.86666667	5.25652100	-30.03814000	-1.57480300
3.06666666	3.66326300	-30.03814000	-1.61786400
3.26666665	0.95533960	-30.03814000	-1.95004900
3.46666663	-2.38927200	-30.03814000	-2.31914400
3.66666662	-5.57517200	-30.03814000	-1.95004900
3.86666661	-7.64579200	-29.99508000	-1.61786400
4.06666660	-7.80511800	-29.66289000	-1.53174200
4.26666659	-5.89382400	-29.29380000	-1.15649600
4.46666658	-2.54859700	-29.66289000	-0.46136810
4.66666656	1.91129400	-29.99508000	-0.46136810
4.86666655	6.05315000	-30.03814000	-1.15649600
5.06666654	8.76107300	-30.03814000	-1.53174200
5.26666653	9.39837600	-30.03814000	-1.61786400
5.46666652	7.64579200	-30.03814000	-1.95004900
5.66666650	3.82258900	-30.03814000	-2.31914400
5.86666649	-0.95533960	-30.03814000	-1.95004900
6.06666648	-5.41584600	-30.03814000	-1.61786400
6.26666647	-8.60174700	-30.03814000	-1.57480300
6.46666646	-9.55770200	-29.99508000	-1.53174200
6.66666644	-8.12377000	-29.66289000	-1.15649600
6.86666643	-4.77854300	-29.29380000	-0.41830710
7.06666642	-0.31803640	-29.61983000	-0.04306102
7.26666641	3.82258900	-29.57062000	-0.04306102
7.46666640	6.69045300	-28.92470000	-0.41830710
7.66666639	7.80511800	-28.92470000	-1.15649600
7.86666637	6.84916400	-29.61983000	-1.53174200
8.06666636	4.30056600	-29.99508000	-1.57480300
8.26666635	1.11466500	-30.03814000	-1.57480300
8.46666634	-1.91129400	-30.03814000	-1.57480300
8.66666633	-4.30056600	-30.03814000	-1.57480300
8.86666631	-5.25652100	-30.03814000	-1.57480300
9.06666630	-4.77854300	-29.99508000	-1.57480300
9.26666629	-3.34522600	-29.66289000	-1.57480300
9.46666628	-1.27399100	-29.29380000	-1.57480300
9.66666627	0.47736220	-29.66289000	-1.57480300
9.86666625	1.91129400	-29.99508000	-1.57480300
10.06666624	2.54859700	-30.03814000	-1.57480300
10.26666623	2.38927200	-30.03814000	-1.57480300
10.46666622	1.75196900	-30.03814000	-1.57480300
10.66666621	0.79601380	-30.03814000	-1.57480300
10.86666620	0.00000000	-30.03814000	-1.57480300
11.06666618	-0.63668800	-30.03814000	-1.57480300
11.26666617	-0.95533960	-30.03814000	-1.57480300
11.46666616	-0.95533960	-30.03814000	-1.57480300
11.66666615	-0.79601380	-30.03814000	-1.57480300
11.86666614	-0.47736220	-30.03814000	-1.57480300
12.06666612	-0.31803640	-30.03814000	-1.57480300
12.26666611	-0.15871060	-30.03814000	-1.57480300
12.46666610	-0.15871060	-30.03814000	-1.57480300
12.66666609	0.00000000	-29.99508000	-1.53174200
12.86666608	0.00000000	-29.66289000	-1.19955700
13.06666606	0.00000000	-29.29380000	-0.83661410
13.26666605	0.00000000	-29.66289000	-1.15649600
13.46666604	0.00000000	-29.94586000	-1.15649600
13.66666603	0.00000000	-29.61983000	-0.83661410
13.86666602	0.00000000	-28.87549000	-1.19955700
14.06666601	-0.15871060	-28.54946000	-1.53174200
14.26666599	-0.15871060	-28.87549000	-1.57480300
14.46666598	-0.15871060	-29.61983000	-1.57480300
14.66666597	0.00000000	-29.99508000	-1.57480300
14.86666596	-0.15871060	-29.99508000	-1.57480300
15.06666595	0.00000000	-29.66289000	-1.57480300
15.26666593	0.00000000	-29.29380000	-1.57480300
15.46666592	0.15871060	-29.66289000	-1.57480300
15.66666591	0.00000000	-29.99508000	-1.57480300
15.86666590	0.00000000	-30.03814000	-1.57480300
16.06666589	0.00000000	-29.99508000	-1.57480300
16.26666587	0.00000000	-29.61983000	-1.57480300
16.46666586	0.00000000	-28.92470000	-1.57480300
16.66666585	0.00000000	-28.87549000	-1.57480300
16.86666584	-0.15871060	-29.20152000	-1.57480300
17.06666583	0.00000000	-28.83243000	-1.57480300
17.26666582	0.00000000	-28.45718000	-1.57480300
17.46666580	0.00000000	-28.08194000	-1.57480300
17.66666579	0.00000000	-27.71284000	-1.57480300
17.86666578	0.00000000	-28.12500000	-1.57480300
18.06666577	0.00000000	-28.83243000	-1.57480300
18.26666576	0.00000000	-29.70595000	-1.57480300
18.46666574	0.00000000	-30.87475000	-1.57480300
18.66666573	0.00000000	-32.78174000	-1.57480300
18.86666572	0.00000000	-34.27657000	-1.57480300
19.06666571	0.00000000	-34.65182000	-1.57480300
19.26666570	0.00000000	-33.85827000	-1.57480300
19.46666568	0.00000000	-31.48376000	-1.57480300
19.66666567	0.00000000	-28.03888000	-1.57480300
19.86666566	0.00000000	-24.13263000	-1.57480300
20.06666565	0.00000000	-20.68774000	-1.57480300
20.26666564	0.00000000	-18.41166000	-1.57480300
20.46666563	0.00000000	-18.45472000	-1.57480300
20.66666561	0.00000000	-21.19833000	-1.57480300
20.86666560	0.00000000	-26.26722000	-1.57480300
21.06666559	0.00000000	-33.29232000	-1.57480300
21.26666558	0.00000000	-40.97564000	-1.57480300
21.46666557	0.00000000	-47.48400000	-1.57480300
21.66666555	0.00000000	-50.46752000	-1.57480300
21.86666554	0.00000000	-48.51131000	-1.57480300
22.06666553	0.00000000	-41.49237000	-1.57480300
22.26666552	0.00000000	-30.64714000	-1.57480300
22.46666551	0.00000000	-17.90108000	-1.57480300
22.66666549	0.00000000	-6.36072800	-1.57480300
22.86666548	0.00000000	0.94119090	-1.57480300
23.06666547	0.00000000	2.01771600	-1.53174200
23.26666546	0.00000000	-4.26304100	-1.15649600
23.46666545	0.00000000	-17.42741000	-0.41830710
23.66666544	0.00000000	-34.83022000	-0.04306102
23.86666542	0.00000000	-52.55905000	0.00000000
24.06666541	0.00000000	-66.38164000	0.00000000
24.26666540	0.00000000	-72.15181000	-0.04306102
24.46666539	0.00000000	-68.24556000	-0.46136810
24.66666538	0.00000000	-55.40108000	-1.62401600
24.86666536	0.00000000	-35.30389000	-3.15575800
25.06666535	0.00000000	-12.54921000	-4.68750000
25.26666534	0.00000000	7.08661400	-5.85014700
25.46666533	0.00000000	19.08218000	-6.17618100
25.66666532	0.00000000	20.16486000	-5.38262700
25.86666530	0.00000000	10.10704000	-3.02042300
26.06666529	0.00000000	-9.61491000	0.41830710
26.26666528	0.00000000	-34.27657000	4.31840500
26.46666527	0.00000000	-57.86786000	7.75713500
26.66666526	0.00000000	-75.22145000	10.03322000
26.86666525	0.00000000	-82.15427000	9.98400600
27.06666523	0.00000000	-76.80241000	7.24655500
27.26666522	0.00000000	-60.98056000	2.18380900
27.46666521	0.00000000	-38.55192000	-4.77977300
27.66666520	0.00000000	-14.22244000	-12.11860000
27.86666519	0.00000000	6.25000000	-18.25787000
28.06666517	0.00000000	18.25172000	-21.64739000
28.26666516	0.00000000	19.45743000	-20.44168000
28.46666515	0.00000000	9.83021600	-14.63459000
28.66666514	0.00000000	-7.89862200	-5.29650500
28.86666513	0.00000000	-29.52756000	6.26845500
29.06666511	0.00000000	-50.04921000	17.42126000
29.26666510	0.00000000	-65.17593000	25.13533000
29.46666509	0.00000000	-72.15181000	27.82972000
29.66666508	0.00000000	-69.45128000	24.58169000
29.86666507	0.00000000	-58.00320000	14.91142000
30.06666506	0.00000000	-41.39394000	0.28297240
30.26666504	0.00000000	-23.94193000	-15.14518000
30.46666503	0.00000000	-8.40920300	-28.29109000
30.66666502	0.00000000	2.01771600	-36.33120000
30.86666501	0.00000000	5.17962600	-36.70644000
31.06666500	0.00000000	0.99040350	-29.36146000
31.26666498	0.00000000	-9.01205700	-15.84030000
31.46666497	0.00000000	-22.18258000	1.15649600
31.66666496	0.00000000	-35.76525000	17.74729000
31.86666495	0.00000000	-47.35482000	30.56717000
32.06666494	0.00000000	-54.32455000	37.12475000
32.26666492	0.00000000	-55.21038000	36.28814000
32.46666491	0.00000000	-50.97810000	27.36835000
32.66666490	0.00000000	-42.83341000	11.98942000
32.86666489	0.00000000	-31.99434000	-5.75787400
33.06666488	0.00000000	-21.24139000	-22.06570000
33.26666487	0.00000000	-13.05979000	-34.05511000
33.46666485	0.00000000	-9.14739100	-39.44390000
33.66666484	0.00000000	-9.52263600	-36.74950000
33.86666483	0.00000000	-14.17938000	-26.71629000
34.06666482	0.00000000	-22.22564000	-11.65723000
34.26666481	0.00000000	-31.06545000	5.33956700
34.46666479	0.00000000	-38.41658000	20.34941000
34.66666478	0.00000000	-42.69808000	30.10580000
34.86666477	0.00000000	-43.16560000	32.80635000
35.06666476	0.00000000	-40.46506000	28.56791000
35.26666475	0.00000000	-35.43922000	17.74729000
35.46666473	0.00000000	-28.92470000	3.15575800
35.66666472	0.00000000	-23.15453000	-11.52190000
35.86666471	0.00000000	-19.66043000	-23.09301000
36.06666470	0.00000000	-18.87303000	-28.90010000
36.26666469	0.00000000	-21.14911000	-27.78666000
36.46666468	0.00000000	-25.38755000	-20.53395000
36.66666466	0.00000000	-30.37032000	-9.33809000
36.86666465	0.00000000	-34.97170000	2.97736200
37.06666464	0.00000000	-37.30315000	13.74877000
37.26666463	0.00000000	-37.35236000	19.88804000
37.46666462	0.00000000	-35.39001000	19.93110000
37.66666460	0.00000000	-31.53297000	14.16708000
37.86666459	0.00000000	-26.91929000	4.26919300
38.06666458	0.00000000	-22.68701000	-6.45300100
38.26666457	0.00000000	-19.99262000	-14.54232000
38.46666456	0.00000000	-19.56816000	-18.39936000
38.66666454	0.00000000	-21.10605000	-16.81841000
38.86666453	0.00000000	-24.22490000	-9.99015700
39.06666452	0.00000000	-28.45718000	-0.46136810
39.26666451	0.00000000	-32.73868000	8.36614100
39.46666450	0.00000000	-36.23277000	14.12401000
39.66666449	0.00000000	-38.55807000	15.28666000
39.86666447	0.00000000	-38.88410000	11.42962000
40.06666446	0.00000000	-36.97096000	3.76476400
40.26666445	0.00000000	-33.11393000	-5.85014700
40.46666444	0.00000000	-28.50024000	-14.58538000
40.66666443	0.00000000	-24.22490000	-19.60507000
40.86666441	0.00000000	-21.10605000	-19.23597000
41.06666440	0.00000000	-19.52510000	-14.25935000
41.26666439	0.00000000	-19.52510000	-5.75787400
41.46666438	0.00000000	-21.06299000	4.18307100
41.66666437	0.00000000	-23.80659000	12.64149000
41.86666435	0.00000000	-27.34375000	17.24286000
42.06666434	0.00000000	-31.57603000	16.91068000
42.26666433	0.00000000	-35.39001000	11.94021000
42.46666432	0.00000000	-37.35236000	4.26919300
42.66666431	0.00000000	-37.43848000	-4.22613100
42.86666430	0.00000000	-36.23277000	-11.52190000
43.06666428	0.00000000	-33.90133000	-15.79724000
43.26666427	0.00000000	-30.45644000	-16.21555000
43.46666426	0.00000000	-27.38681000	-13.14591000
43.66666425	0.00000000	-25.38755000	-7.43110200
43.86666424	0.00000000	-24.22490000	-0.87967510
44.06666422	0.00000000	-24.22490000	4.51525500
44.26666421	0.00000000	-25.29527000	8.03395600
44.46666420	0.00000000	-26.40871000	8.82750900
44.66666419	0.00000000	-26.83317000	7.33882900
44.86666418	0.00000000	-26.87623000	4.26919300
45.06666416	0.00000000	-26.91929000	0.41830710
45.26666415	0.00000000	-27.34375000	-3.06348400
45.46666414	0.00000000	-28.50024000	-5.80093500
45.66666413	0.00000000	-30.08120000	-7.29576700
45.86666412	0.00000000	-32.08661000	-6.96358300
46.06666411	0.00000000	-34.78716000	-5.06274600
46.26666409	0.00000000	-37.39542000	-2.78051200
46.46666408	0.00000000	-38.50886000	-0.41830710
46.66666407	0.00000000	-37.30315000	1.48868100
46.86666406	0.00000000	-33.85827000	2.68823800
47.06666405	0.00000000	-28.78937000	3.06348400
47.26666403	0.00000000	-23.33907000	2.64517700
47.46666402	0.00000000	-17.94414000	1.11343500
47.66666401	0.00000000	-14.17938000	-1.15649600
47.86666400	0.00000000	-13.80413000	-3.11269700
48.06666399	0.00000000	-16.96604000	-4.68750000
48.26666397	0.00000000	-23.52977000	-5.80093500
48.46666396	0.00000000	-32.32037000	-5.80093500
48.66666395	0.00000000	-40.04675000	-4.64443900
48.86666394	0.00000000	-45.12180000	-2.69439000
49.06666393	0.00000000	-47.02263000	0.00000000
49.26666392	0.00000000	-44.61122000	2.69439000
49.46666390	0.00000000	-38.09055000	4.60137700
49.66666389	0.00000000	-28.83243000	5.33956700
49.86666388	0.00000000	-19.56816000	4.18307100
50.06666387	0.00000000	-12.26624000	1.53174200
50.26666386	0.00000000	-8.82750900	-1.58095500
50.46666384	0.00000000	-10.72835000	-4.68750000
50.66666383	0.00000000	-16.87377000	-7.38188900
50.86666382	0.00000000	-25.76279000	-8.91978400
51.06666381	0.00000000	-35.34695000	-8.87672100
51.26666380	0.00000000	-42.65502000	-6.92052100
51.46666379	0.00000000	-45.77386000	-3.11269700
51.66666377	0.00000000	-44.27903000	1.11343500
51.86666376	0.00000000	-38.88410000	4.60137700
52.06666375	0.00000000	-31.20078000	6.92052100
52.26666374	0.00000000	-23.10531000	7.29576700
52.46666373	0.00000000	-16.96604000	5.75787400
52.66666371	0.00000000	-14.26550000	2.69439000
52.86666370	0.00000000	-15.76033000	-1.15649600
53.06666369	0.00000000	-20.78002000	-4.64443900
53.26666368	0.00000000	-27.66978000	-7.33882900
53.46666367	0.00000000	-34.97170000	-8.45226300
53.66666365	0.00000000	-39.91141000	-7.33882900
53.86666364	0.00000000	-41.16019000	-4.68750000
54.06666363	0.00000000	-38.84104000	-1.62401600
54.26666362	0.00000000	-33.85827000	1.07037400
54.46666361	0.00000000	-27.34375000	2.60211600
54.66666360	0.00000000	-21.57357000	2.64517700
54.86666358	0.00000000	-18.07948000	1.53174200
55.06666357	0.00000000	-17.34129000	0.00000000
55.26666356	0.00000000	-20.03568000	-1.53174200
55.46666355	0.00000000	-25.33834000	-2.64517700
55.66666354	0.00000000	-31.10851000	-2.64517700
55.86666352	0.00000000	-35.76525000	-1.53174200
56.06666351	0.00000000	-38.46580000	0.00000000
56.26666350	0.00000000	-38.46580000	1.53174200
56.46666349	0.00000000	-35.81446000	2.60211600
56.66666348	0.00000000	-31.57603000	2.18380900
56.86666346	0.00000000	-26.91929000	-0.09227362
57.06666345	0.00000000	-22.68701000	-3.11269700
57.26666344	0.00000000	-20.03568000	-5.85014700
57.46666343	0.00000000	-19.99262000	-7.75713500
57.66666342	0.00000000	-22.26870000	-8.50147600
57.86666341	0.00000000	-25.71358000	-7.25270600
58.06666339	0.00000000	-29.57062000	-3.80782500
58.26666338	0.00000000	-32.64640000	1.19955700
58.46666337	0.00000000	-34.23351000	6.13312000
58.66666336	0.00000000	-34.27657000	9.60875900
58.86666335	0.00000000	-33.11393000	10.35925000
59.06666333	0.00000000	-31.20078000	8.45226300
59.26666332	0.00000000	-28.87549000	4.14000900
59.46666331	0.00000000	-26.96850000	-1.99311000
59.66666330	0.00000000	-25.76279000	-8.50147600
59.86666329	0.00000000	-25.38755000	-13.10285000
60.06666327	0.00000000	-25.76279000	-14.67766000
60.26666326	0.00000000	-26.91929000	-13.10285000
60.46666325	0.00000000	-28.41412000	-8.45226300
60.66666324	0.00000000	-29.57062000	-1.53174200
60.86666323	0.00000000	-29.94586000	5.75787400
61.06666322	0.00000000	-29.61983000	11.52190000
61.26666320	0.00000000	-28.83243000	14.21629000
61.46666319	0.00000000	-28.08194000	13.05364000
61.66666318	0.00000000	-27.34375000	8.45226300
61.86666317	0.00000000	-27.34375000	1.48868100
62.06666316	0.00000000	-28.08194000	-6.22539300
62.26666314	0.00000000	-28.83243000	-13.10285000
62.46666313	0.00000000	-29.61983000	-16.95374000
62.66666312	0.00000000	-29.99508000	-16.59080000
62.86666311	0.00000000	-30.03814000	-12.77067000
63.06666310	0.00000000	-29.99508000	-6.18233200
63.26666308	0.00000000	-29.52756000	1.48868100
63.46666307	0.00000000	-28.03888000	8.45226300
63.66666306	0.00000000	-26.18110000	13.05364000
63.86666305	0.00000000	-25.38755000	14.25935000
64.06666304	0.00000000	-25.33834000	11.94021000
64.26666303	0.00000000	-25.76279000	6.96358300
64.46666301	0.00000000	-26.91929000	0.37524600
64.66666300	0.00000000	-28.45718000	-6.13312000
64.86666299	0.00000000	-29.99508000	-11.23893000
65.06666298	0.00000000	-31.15157000	-13.93947000
65.26666297	0.00000000	-31.52682000	-14.35162000
65.46666295	0.00000000	-31.15157000	-12.03248000
65.66666294	0.00000000	-29.99508000	-7.80019600
65.86666293	0.00000000	-28.45718000	-2.78051200
66.06666292	0.00000000	-26.96850000	2.27608300
66.26666291	0.00000000	-26.22416000	6.13312000
66.46666289	0.00000000	-26.96850000	8.50147600
66.66666288	0.00000000	-28.45718000	8.87672100
66.86666287	0.00000000	-29.99508000	7.43110200
67.06666286	0.00000000	-31.15157000	5.11195900
67.26666285	0.00000000	-31.48376000	2.69439000
67.46666284	0.00000000	-30.73326000	-0.41830710
67.66666282	0.00000000	-28.78937000	-3.90009800
67.86666281	0.00000000	-26.50098000	-6.60063900
68.06666280	0.00000000	-24.18184000	-8.58759800
68.26666279	0.00000000	-22.68701000	-9.38115100
68.46666278	0.00000000	-22.68701000	-9.38115100
68.66666276	0.00000000	-24.26796000	-8.50147600
68.86666275	0.00000000	-27.34375000	-5.75787400
69.06666274	0.00000000	-31.20078000	-1.53174200
69.26666273	0.00000000	-34.65182000	3.06963600
69.46666272	0.00000000	-36.97712000	6.96358300
69.66666270	0.00000000	-37.35236000	9.29502900
69.86666269	0.00000000	-35.81446000	10.07628000
70.06666268	0.00000000	-32.64640000	8.82750900
70.26666267	0.00000000	-27.98966000	5.38262700
70.46666266	0.00000000	-22.64394000	0.37524600
70.66666265	0.00000000	-18.41166000	-4.64443900
70.86666263	0.00000000	-16.45546000	-8.91978400
71.06666262	0.00000000	-16.87377000	-11.61417000
71.26666261	0.00000000	-19.94340000	-11.98327000
71.46666260	0.00000000	-25.01230000	-10.07628000
71.66666259	0.00000000	-30.78863000	-6.17618100
71.86666257	0.00000000	-36.59571000	-1.19955700
72.06666256	0.00000000	-40.37893000	3.80782500
72.26666255	0.00000000	-41.20940000	7.25270600
72.46666254	0.00000000	-38.88410000	8.50147600
72.66666253	0.00000000	-34.31963000	7.67101300
72.86666251	0.00000000	-28.83243000	5.01353300
73.06666250	0.00000000	-23.43135000	0.83661410
73.26666249	0.00000000	-18.78691000	-2.60211600
73.46666248	0.00000000	-16.49852000	-4.60137700
73.66666247	0.00000000	-16.87377000	-5.38262700
73.86666246	0.00000000	-19.94340000	-4.64443900
74.06666244	0.00000000	-24.92003000	-3.15575800
74.26666243	0.00000000	-29.90280000	-1.62401600
74.46666242	0.00000000	-33.85827000	-0.46136810
74.66666241	0.00000000	-36.18971000	-0.09227362
74.86666240	0.00000000	-36.97712000	-0.46136810
75.06666238	0.00000000	-35.76525000	-1.57480300
75.26666237	0.00000000	-32.73868000	-2.68823800
75.46666236	0.00000000	-28.92470000	-3.06348400
75.66666235	0.00000000	-25.80585000	-2.64517700
75.86666234	0.00000000	-23.84965000	-1.07037400
76.06666232	0.00000000	-23.01919000	1.58095500
76.26666231	0.00000000	-23.43135000	4.22613100
76.46666230	0.00000000	-24.55093000	5.75787400
76.66666229	0.00000000	-26.45792000	5.75787400
76.86666228	0.00000000	-27.94660000	4.18307100
77.06666227	0.00000000	-28.41412000	1.07037400
77.26666225	0.00000000	-28.45718000	-3.15575800
77.46666224	0.00000000	-28.45718000	-7.38188900
77.66666223	0.00000000	-28.45718000	-10.45152000
77.86666222	0.00000000	-28.50024000	-11.56496000
78.06666221	0.00000000	-28.87549000	-10.03322000
78.26666219	0.00000000	-29.61983000	-6.17618100
78.46666218	0.00000000	-30.03814000	-1.15649600
78.66666217	0.00000000	-30.41338000	4.22613100
78.86666216	0.00000000	-30.73326000	8.45226300
79.06666215	0.00000000	-29.90280000	10.40846000
79.26666213	0.00000000	-28.03888000	10.03322000
79.46666212	0.00000000	-25.71358000	7.29576700
79.66666211	0.00000000	-23.80659000	2.69439000
79.86666210	0.00000000	-22.64394000	-2.69439000
80.06666209	0.00000000	-22.68701000	-7.33882900
80.26666208	0.00000000	-24.26796000	-10.45152000
80.46666206	0.00000000	-27.25147000	-11.60802000
80.66666205	0.00000000	-30.31496000	-10.45152000
80.86666204	0.00000000	-31.95128000	-7.42495000
81.06666203	0.00000000	-33.15699000	-3.57406500
81.26666202	0.00000000	-33.80905000	-0.04306102
81.46666200	0.00000000	-32.64640000	3.11269700
81.66666199	0.00000000	-29.99508000	5.80093500
81.86666198	0.00000000	-26.96850000	7.33882900
82.06666197	0.00000000	-24.60015000	7.33882900
82.26666196	0.00000000	-23.43135000	5.80093500
82.46666194	0.00000000	-23.01919000	3.11269700
82.66666193	0.00000000	-23.80659000	0.04306102
82.86666192	0.00000000	-25.33834000	-2.73745100
83.06666191	0.00000000	-27.29453000	-5.06274600
83.26666190	0.00000000	-29.57062000	-7.05585600
83.46666189	0.00000000	-31.06545000	-8.17544300
83.66666187	0.00000000	-31.15157000	-8.54453700
83.86666186	0.00000000	-30.41338000	-7.33882900
84.06666185	0.00000000	-29.66289000	-4.64443900
84.26666184	0.00000000	-28.83243000	-1.15649600
84.46666183	0.00000000	-28.08194000	2.69439000
84.66666181	0.00000000	-27.29453000	5.75787400
84.86666180	0.00000000	-26.91929000	7.33882900
85.06666179	0.00000000	-26.87623000	7.33882900
85.26666178	0.00000000	-26.87623000	5.75787400
85.46666177	0.00000000	-26.87623000	2.69439000
85.66666175	0.00000000	-26.87623000	-1.20570900
85.86666174	0.00000000	-26.87623000	-5.06274600
86.06666173	0.00000000	-26.87623000	-8.54453700
86.26666172	0.00000000	-26.91929000	-10.45152000
86.46666171	0.00000000	-27.34375000	-10.45152000
86.66666170	0.00000000	-28.45718000	-8.45226300
86.86666168	0.00000000	-29.61983000	-4.22613100
87.06666167	0.00000000	-30.41338000	1.11343500
87.26666166	0.00000000	-31.15157000	5.71481200
87.46666165	0.00000000	-31.10851000	8.45226300
87.66666164	0.00000000	-29.99508000	8.82750900
87.86666162	0.00000000	-28.45718000	6.92052100
88.06666161	0.00000000	-26.87623000	3.06963600
88.26666160	0.00000000	-25.33834000	-1.53174200
88.46666159	0.00000000	-24.22490000	-5.80093500
88.66666158	0.00000000	-24.22490000	-8.87057000
88.86666156	0.00000000	-25.33834000	-10.03322000
89.06666155	0.00000000	-26.87623000	-8.82750900
89.26666154	0.00000000	-28.41412000	-5.38262700
89.46666153	0.00000000	-29.61983000	-0.37524600
89.66666152	0.00000000	-30.37032000	4.55831700
89.86666151	0.00000000	-30.73326000	8.03395600
90.06666149	0.00000000	-29.99508000	8.82750900
90.26666148	0.00000000	-28.87549000	7.29576700
90.46666147	0.00000000	-28.08194000	3.80782500
90.66666146	0.00000000	-27.29453000	-1.19955700
90.86666145	0.00000000	-26.91929000	-6.13312000
91.06666143	0.00000000	-26.87623000	-9.60875900
91.26666142	0.00000000	-26.87623000	-10.35925000
91.46666141	0.00000000	-26.91929000	-8.50147600
91.66666140	0.00000000	-27.25147000	-4.60137700
91.86666139	0.00000000	-27.66363000	0.37524600
92.06666137	0.00000000	-27.62672000	5.33956700
92.26666136	0.00000000	-27.66363000	8.36614100
92.46666135	0.00000000	-27.29453000	8.45226300
92.66666134	0.00000000	-27.34375000	6.13312000
92.86666133	0.00000000	-28.08194000	2.27608300
93.06666132	0.00000000	-28.83243000	-2.73745100
93.26666130	0.00000000	-29.66289000	-7.29576700
93.46666129	0.00000000	-30.37032000	-9.98400600
93.66666128	0.00000000	-30.73326000	-9.98400600
93.86666127	0.00000000	-29.94586000	-7.33882900
94.06666126	0.00000000	-28.45718000	-3.11269700
94.26666124	0.00000000	-26.87623000	1.48868100
94.46666123	0.00000000	-25.29527000	5.33956700
94.66666122	0.00000000	-23.75738000	7.24655500
94.86666121	0.00000000	-22.64394000	6.87746000
95.06666120	0.00000000	-22.68701000	4.18307100
95.26666118	0.00000000	-24.22490000	0.00000000
95.46666117	0.00000000	-26.91929000	-4.18307100
95.66666116	0.00000000	-29.99508000	-6.92052100
95.86666115	0.00000000	-32.73868000	-7.71407400
96.06666114	0.00000000	-34.65182000	-6.92052100
96.26666113	0.00000000	-35.39616000	-4.26919300
96.46666111	0.00000000	-34.23351000	-0.83661410
96.66666110	0.00000000	-31.53297000	1.86392700
96.86666109	0.00000000	-28.03888000	3.85088600
97.06666108	0.00000000	-24.18184000	4.55831700
97.26666107	0.00000000	-21.10605000	3.85088600
97.46666105	0.00000000	-19.52510000	1.90698800
97.66666104	0.00000000	-19.56816000	-0.37524600
97.86666103	0.00000000	-21.52436000	-2.69439000
98.06666102	0.00000000	-25.33834000	-4.18307100
98.26666101	0.00000000	-29.57062000	-4.26919300
98.46666099	0.00000000	-33.06471000	-3.53100400
98.66666098	0.00000000	-35.43922000	-2.73745100
98.86666097	0.00000000	-36.18971000	-1.57480300
99.06666096	0.00000000	-35.43922000	-0.46136810
99.26666095	0.00000000	-33.06471000	-0.04306102
99.46666094	0.00000000	-29.61983000	0.00000000
99.66666092	0.00000000	-25.76279000	0.00000000
99.86666091	0.00000000	-22.64394000	0.04306102
100.06666090	0.00000000	-20.68774000	0.41830710
100.26666089	0.00000000	-19.90034000	1.15649600
100.46666088	0.00000000	-20.68774000	1.53174200
100.66666086	0.00000000	-22.64394000	1.53174200
100.86666085	0.00000000	-25.71358000	1.11343500
101.06666084	0.00000000	-29.15231000	-0.04306102
101.26666083	0.00000000	-31.52682000	-1.57480300
101.46666082	0.00000000	-33.11393000	-3.15575800
101.66666080	0.00000000	-33.85211000	-4.64443900
101.86666079	0.00000000	-33.11393000	-5.38262700
102.06666078	0.00000000	-31.57603000	-4.60137700
102.26666077	0.00000000	-29.57062000	-2.73745100
102.46666076	0.00000000	-26.87623000	-0.37524600
102.66666075	0.00000000	-24.22490000	1.95004900
102.86666073	0.00000000	-22.68701000	4.26919300
103.06666072	0.00000000	-22.64394000	5.71481200
103.26666071	0.00000000	-23.75738000	5.33956700
103.46666070	0.00000000	-25.29527000	3.06348400
103.66666069	0.00000000	-26.87623000	0.04306102
103.86666067	0.00000000	-28.45718000	-2.73745100
104.06666066	0.00000000	-29.99508000	-5.06274600
104.26666065	0.00000000	-31.15157000	-6.96358300
104.46666064	0.00000000	-31.52682000	-7.29576700
104.66666063	0.00000000	-31.10851000	-5.80093500
104.86666061	0.00000000	-29.61983000	-3.11269700
105.06666060	0.00000000	-27.71284000	-0.04306102
105.26666059	0.00000000	-26.54404000	2.64517700
105.46666058	0.00000000	-25.71358000	4.18307100
105.66666057	0.00000000	-25.38755000	4.22613100
105.86666056	0.00000000	-25.71358000	3.06348400
106.06666054	0.00000000	-26.50098000	1.15649600
106.26666053	0.00000000	-27.29453000	-1.15649600
106.46666052	0.00000000	-28.45718000	-3.06348400
106.66666051	0.00000000	-29.52756000	-4.22613100
106.86666050	0.00000000	-29.57062000	-4.22613100
107.06666048	0.00000000	-28.83243000	-3.11269700
107.26666047	0.00000000	-28.03888000	-1.57480300
107.46666046	0.00000000	-26.87623000	0.00000000
107.66666045	0.00000000	-25.76279000	1.53174200
107.86666044	0.00000000	-25.33834000	2.64517700
108.06666042	0.00000000	-25.33834000	2.64517700
108.26666041	0.00000000	-25.76279000	1.53174200
108.46666040	0.00000000	-26.91929000	0.00000000
108.66666039	0.00000000	-28.41412000	-1.53174200
108.86666038	0.00000000	-29.57062000	-2.68823800
109.06666037	0.00000000	-29.94586000	-3.06348400
109.26666035	0.00000000	-29.57062000	-2.68823800
109.46666034	0.00000000	-28.45718000	-1.53174200
109.66666033	0.00000000	-27.29453000	0.00000000
109.86666032	0.00000000	-26.50098000	1.53174200
110.06666031	0.00000000	-25.71358000	2.64517700
110.26666029	0.00000000	-25.38755000	2.64517700
110.46666028	0.00000000	-25.71358000	1.53174200
110.66666027	0.00000000	-26.50098000	0.00000000
110.86666026	0.00000000	-27.25147000	-1.53174200
111.06666025	0.00000000	-28.08194000	-2.73745100
111.26666023	0.00000000	-28.78937000	-3.48794300
111.46666022	0.00000000	-29.20152000	-3.90009800
111.66666021	0.00000000	-28.83243000	-3.48794300
111.86666020	0.00000000	-28.45718000	-2.73745100
112.06666019	0.00000000	-28.03888000	-1.57480300
112.26666018	0.00000000	-27.25147000	-0.41830710
112.46666016	0.00000000	-26.54404000	0.32603340
112.66666015	0.00000000	-26.13189000	0.78124990
112.86666014	0.00000000	-26.50098000	0.74434050
113.06666013	0.00000000	-26.83317000	0.78124990
113.26666012	0.00000000	-26.87623000	0.37524600
113.46666010	0.00000000	-26.91929000	0.00000000
113.66666009	0.00000000	-27.29453000	-0.41830710
113.86666008	0.00000000	-28.03888000	-1.15649600
114.06666007	0.00000000	-28.36491000	-1.53174200
114.26666006	0.00000000	-28.03888000	-1.57480300
114.46666004	0.00000000	-27.29453000	-1.57480300
114.66666003	0.00000000	-26.91929000	-1.57480300
114.86666002	0.00000000	-26.87623000	-1.61786400
115.06666001	0.00000000	-26.91929000	-1.95004900
115.26666000	0.00000000	-27.25147000	-2.31914400
115.46665999	0.00000000	-27.62057000	-1.90698800
115.66665997	0.00000000	-27.25147000	-1.19955700
115.86665996	0.00000000	-26.91929000	-0.37524600
116.06665995	0.00000000	-26.87623000	0.37524600
116.26665994	0.00000000	-26.87623000	1.15649600
116.46665993	0.00000000	-26.87623000	1.53174200
116.66665991	0.00000000	-26.91929000	1.53174200
116.86665990	0.00000000	-27.29453000	1.15649600
117.06665989	0.00000000	-27.98966000	0.37524600
117.26665988	0.00000000	-27.98966000	-0.41830710
117.46665987	0.00000000	-27.25147000	-1.57480300
117.66665985	0.00000000	-26.50098000	-2.68823800
117.86665984	0.00000000	-25.71358000	-3.11269700
118.06665983	0.00000000	-25.38755000	-3.11269700
118.26665982	0.00000000	-25.71358000	-2.73745100
118.46665981	0.00000000	-26.50098000	-1.95004900
118.66665980	0.00000000	-27.25147000	-1.19955700
118.86665978	0.00000000	-28.08194000	-0.37524600
119.06665977	0.00000000	-28.83243000	0.37524600
119.26665976	0.00000000	-29.61983000	1.15649600
119.46665975	0.00000000	-29.94586000	1.48253000
119.66665974	0.00000000	-29.57062000	1.15649600
119.86665972	0.00000000	-28.45718000	0.41830710
120.06665971	0.00000000	-27.29453000	0.00000000
120.26665970	0.00000000	-26.45792000	-0.41830710
120.46665969	0.00000000	-25.29527000	-1.15649600
120.66665968	0.00000000	-24.22490000	-1.53174200
120.86665966	0.00000000	-24.18184000	-1.57480300
121.06665965	0.00000000	-24.92003000	-1.57480300
121.26665964	0.00000000	-25.71358000	-1.57480300
121.46665963	0.00000000	-26.91929000	-1.57480300
121.66665962	0.00000000	-28.41412000	-1.53174200
121.86665961	0.00000000	-29.57062000	-1.15649600
122.06665959	0.00000000	-29.99508000	-0.41830710
122.26665958	0.00000000	-29.99508000	-0.04306102
122.46665957	0.00000000	-29.57062000	0.00000000
122.66665956	0.00000000	-28.45718000	0.00000000
122.86665955	0.00000000	-27.29453000	0.00000000
123.06665953	0.00000000	-26.50098000	0.00000000
123.26665952	0.00000000	-25.67052000	0.00000000
123.46665951	0.00000000	-24.96309000	-0.04306102
123.66665950	0.00000000	-24.55093000	-0.41830710
123.86665949	0.00000000	-24.96309000	-1.15649600
124.06665947	0.00000000	-25.67052000	-1.53174200
124.26665946	0.00000000	-26.50098000	-1.57480300
124.46665945	0.00000000	-27.25147000	-1.57480300
124.66665944	0.00000000	-28.08194000	-1.57480300
124.86665943	0.00000000	-28.78937000	-1.53174200
125.06665942	0.00000000	-29.20152000	-1.15649600
125.26665940	0.00000000	-28.83243000	-0.41830710
125.46665939	0.00000000	-28.50024000	-0.04306102
125.66665938	0.00000000	-28.41412000	0.00000000
125.86665937	0.00000000	-27.98966000	0.00000000
126.06665936	0.00000000	-26.87623000	0.00000000
126.26665934	0.00000000	-25.76279000	0.00000000
126.46665933	0.00000000	-25.33834000	0.00000000
126.66665932	0.00000000	-25.29527000	0.00000000
126.86665931	0.00000000	-25.33834000	-0.04306102
127.06665930	0.00000000	-25.76279000	-0.41830710
127.26665928	0.00000000	-26.87623000	-1.15649600
127.46665927	0.00000000	-28.03888000	-1.53174200
127.66665926	0.00000000	-28.83243000	-1.57480300
127.86665925	0.00000000	-29.57062000	-1.53174200
128.06665924	0.00000000	-29.57062000	-1.15649600
128.26665923	0.00000000	-28.83243000	-0.41830710
128.46665921	0.00000000	-28.03888000	-0.04306102
128.66665920	0.00000000	-26.87623000	0.00000000
128.86665919	0.00000000	-25.76279000	0.00000000
129.06665918	0.00000000	-25.33834000	0.00000000
129.26665917	0.00000000	-25.33834000	-0.04306102
129.46665915	0.00000000	-25.71358000	-0.41830710
129.66665914	0.00000000	-26.50098000	-1.15649600
129.86665913	0.00000000	-27.25147000	-1.53174200
130.06665912	0.00000000	-28.03888000	-1.53174200
130.26665911	0.00000000	-28.41412000	-1.15649600
130.46665909	0.00000000	-28.45718000	-0.41830710
130.66665908	0.00000000	-28.41412000	-0.04306102
130.86665907	0.00000000	-28.03888000	0.00000000
131.06665906	0.00000000	-27.25147000	0.00000000
131.26665905	0.00000000	-26.50098000	0.00000000
131.46665904	0.00000000	-25.71358000	-0.04306102
131.66665902	0.00000000	-25.38755000	-0.41830710
131.86665901	0.00000000	-25.71358000	-1.15649600
132.06665900	0.00000000	-26.50098000	-1.53174200
132.26665899	0.00000000	-27.25147000	-1.57480300
132.46665898	0.00000000	-28.03888000	-1.57480300
132.66665896	0.00000000	-28.36491000	-1.53174200
132.86665895	0.00000000	-28.03888000	-1.15649600
133.06665894	0.00000000	-27.29453000	-0.37524600
133.26665893	0.00000000	-26.91929000	0.37524600
133.46665892	0.00000000	-26.87623000	1.15649600
133.66665890	0.00000000	-26.87623000	1.53174200
133.86665889	0.00000000	-26.87623000	1.53174200
134.06665888	0.00000000	-26.87623000	1.15649600
134.26665887	0.00000000	-26.87623000	0.37524600
134.46665886	0.00000000	-26.87623000	-0.41830710
134.66665885	0.00000000	-26.87623000	-1.53174200
134.86665883	0.00000000	-26.87623000	-2.26993100
135.06665882	0.00000000	-26.83317000	-1.95004900
135.26665881	0.00000000	-26.45792000	-1.61786400
135.46665880	0.00000000	-25.71358000	-1.53174200
135.66665879	0.00000000	-25.38755000	-1.15649600
135.86665877	0.00000000	-25.76279000	-0.41830710
136.06665876	0.00000000	-26.87623000	0.00000000
136.26665875	0.00000000	-27.98966000	0.41830710
136.46665874	0.00000000	-28.41412000	1.11343500
136.66665873	0.00000000	-28.45718000	1.11343500
136.86665871	0.00000000	-28.41412000	0.41830710
137.06665870	0.00000000	-28.03888000	0.04306102
137.26665869	0.00000000	-27.25147000	-0.04306102
137.46665868	0.00000000	-26.50098000	-0.41830710
137.66665867	0.00000000	-25.71358000	-1.15649600
137.86665866	0.00000000	-25.33834000	-1.53174200
138.06665864	0.00000000	-25.33834000	-1.57480300
138.26665863	0.00000000	-25.76279000	-1.57480300
138.46665862	0.00000000	-26.87623000	-1.53174200
138.66665861	0.00000000	-27.98966000	-1.15649600
138.86665860	0.00000000	-28.41412000	-0.41830710
139.06665858	0.00000000	-28.45718000	-0.04306102
139.26665857	0.00000000	-28.41412000	0.04306102
139.46665856	0.00000000	-28.03888000	0.41830710
139.66665855	0.00000000	-27.29453000	1.11343500
139.86665854	0.00000000	-26.91929000	1.11343500
140.06665852	0.00000000	-26.83317000	0.37524600
140.26665851	0.00000000	-26.50098000	-0.37524600
140.46665850	0.00000000	-26.13189000	-1.15649600
140.66665849	0.00000000	-26.50098000	-1.57480300
140.86665848	0.00000000	-26.83317000	-1.95004900
141.06665847	0.00000000	-26.91929000	-2.31914400
141.26665845	0.00000000	-27.25147000	-1.90698800
141.46665844	0.00000000	-27.62057000	-1.19955700
141.66665843	0.00000000	-27.25147000	-0.41830710
141.86665842	0.00000000	-26.91929000	0.00000000
142.06665841	0.00000000	-26.87623000	0.41830710
142.26665839	0.00000000	-26.87623000	1.15649600
142.46665838	0.00000000	-26.87623000	1.53174200
142.66665837	0.00000000	-26.83317000	1.53174200
142.86665836	0.00000000	-26.50098000	1.11343500
143.06665835	0.00000000	-26.13189000	0.00000000
143.26665834	0.00000000	-26.50098000	-1.11343500
143.46665832	0.00000000	-26.83317000	-1.57480300
143.66665831	0.00000000	-26.87623000	-1.95004900
143.86665830	0.00000000	-26.87623000	-2.31914400
144.06665829	0.00000000	-26.87623000	-1.90698800
144.26665828	0.00000000	-26.87623000	-1.19955700
144.46665826	0.00000000	-26.83317000	-0.41830710
144.66665825	0.00000000	-26.50098000	-0.04306102
144.86665824	0.00000000	-26.13189000	0.04306102
145.06665823	0.00000000	-26.50098000	0.37524600
145.26665822	0.00000000	-26.83317000	0.73818890
145.46665820	0.00000000	-26.87623000	0.32603340
145.66665819	0.00000000	-26.87623000	-0.37524600
145.86665818	0.00000000	-26.87623000	-1.15649600
146.06665817	0.00000000	-26.87623000	-1.53174200
146.26665816	0.00000000	-26.87623000	-1.57480300
146.46665815	0.00000000	-26.87623000	-1.57480300
146.66665813	0.00000000	-26.83317000	-1.57480300
146.86665812	0.00000000	-26.50098000	-1.57480300
147.06665811	0.00000000	-26.13189000	-1.53174200
147.26665810	0.00000000	-26.50098000	-1.15649600
147.46665809	0.00000000	-26.83317000	-0.41830710
147.66665807	0.00000000	-26.87623000	-0.04306102
147.86665806	0.00000000	-26.87623000	0.00000000
148.06665805	0.00000000	-26.91929000	0.00000000
148.26665804	0.00000000	-27.29453000	0.00000000
148.46665803	0.00000000	-27.98966000	-0.04306102
148.66665801	0.00000000	-27.98966000	-0.41830710
148.86665800	0.00000000	-27.29453000	-1.15649600
149.06665799	0.00000000	-26.91929000	-1.53174200
149.26665798	0.00000000	-26.87623000	-1.57480300
149.46665797	0.00000000	-26.83317000	-1.57480300
149.66665796	0.00000000	-26.45792000	-1.53174200
149.86665794	0.00000000	-25.71358000	-1.15649600
150.06665793	0.00000000	-25.38755000	-0.41830710
150.26665792	0.00000000	-25.71358000	-0.04306102
150.46665791	0.00000000	-26.45792000	0.00000000
150.66665790	0.00000000	-26.83317000	0.00000000
150.86665788	0.00000000	-26.87623000	0.00000000
151.06665787	0.00000000	-26.87623000	0.00000000
151.26665786	0.00000000	-26.91929000	0.00000000
151.46665785	0.00000000	-27.25147000	0.00000000
151.66665784	0.00000000	-27.62057000	0.00000000
151.86665782	0.00000000	-27.25147000	0.00000000
152.06665781	0.00000000	-26.91929000	0.00000000
152.26665780	0.00000000	-26.83317000	0.00000000
152.46665779	0.00000000	-26.45792000	0.00000000
152.66665778	0.00000000	-25.71358000	0.00000000
152.86665777	0.00000000	-25.33834000	0.00000000
153.06665775	0.00000000	-25.29527000	0.00000000
153.26665774	0.00000000	-25.33834000	0.00000000
153.46665773	0.00000000	-25.71358000	0.00000000
153.66665772	0.00000000	-26.45792000	0.00000000
153.86665771	0.00000000	-26.87623000	0.00000000
154.06665769	0.00000000	-27.29453000	0.00000000
154.26665768	0.00000000	-27.98966000	0.00000000
154.46665767	0.00000000	-27.98966000	0.00000000
154.66665766	0.00000000	-27.29453000	0.00000000
154.86665765	0.00000000	-26.91929000	0.00000000
155.06665763	0.00000000	-26.83317000	-0.04306102
155.26665762	0.00000000	-26.45792000	-0.37524600
155.46665761	0.00000000	-25.71358000	-0.78124990
155.66665760	0.00000000	-25.33834000	-0.79355310
155.86665759	0.00000000	-25.29527000	-1.15649600
156.06665758	0.00000000	-25.29527000	-1.11343500
156.26665756	0.00000000	-25.33834000	-0.41830710
156.46665755	0.00000000	-25.71358000	-0.04306102
156.66665754	0.00000000	-26.45792000	0.00000000
156.86665753	0.00000000	-26.83317000	0.00000000
157.06665752	0.00000000	-26.91929000	0.00000000
157.26665750	0.00000000	-27.25147000	0.00000000
157.46665749	0.00000000	-27.62057000	0.00000000
157.66665748	0.00000000	-27.25147000	0.00000000
157.86665747	0.00000000	-26.87623000	-0.04306102
158.06665746	0.00000000	-26.45792000	-0.41830710
158.26665744	0.00000000	-25.71358000	-1.15649600
158.46665743	0.00000000	-25.33834000	-1.48253000
158.66665742	0.00000000	-25.33834000	-1.19955700
158.86665741	0.00000000	-25.67052000	-0.79355310
159.06665740	0.00000000	-26.08268000	-0.78124990
159.26665739	0.00000000	-26.08883000	-0.37524600
159.46665737	0.00000000	-26.50098000	-0.04306102
159.66665736	0.00000000	-26.83317000	0.04306102
159.86665735	0.00000000	-26.87623000	0.37524600
160.06665734	0.00000000	-26.87623000	0.73818890
160.26665733	0.00000000	-26.87623000	0.37524600
160.46665731	0.00000000	-26.87623000	0.04306102
160.66665730	0.00000000	-26.87623000	-0.04306102
160.86665729	0.00000000	-26.87623000	-0.41830710
161.06665728	0.00000000	-26.87623000	-1.15649600
161.26665727	0.00000000	-26.83317000	-1.53174200
161.46665725	0.00000000	-26.45792000	-1.57480300
161.66665724	0.00000000	-25.71358000	-1.53174200
161.86665723	0.00000000	-25.33834000	-1.15649600
162.06665722	0.00000000	-25.29527000	-0.41830710
162.26665721	0.00000000	-25.33834000	-0.04306102
162.46665720	0.00000000	-25.71358000	0.00000000
162.66665718	0.00000000	-26.45792000	0.00000000
162.86665717	0.00000000	-26.87623000	0.00000000
163.06665716	0.00000000	-27.25147000	0.00000000
163.26665715	0.00000000	-27.62057000	0.00000000
163.46665714	0.00000000	-27.25147000	0.00000000
163.66665712	0.00000000	-26.91929000	0.00000000
163.86665711	0.00000000	-26.87623000	-0.04306102
164.06665710	0.00000000	-26.83317000	-0.37524600
164.26665709	0.00000000	-26.45792000	-0.73818890
164.46665708	0.00000000	-25.71358000	-0.37524600
164.66665706	0.00000000	-25.33834000	-0.04306102
164.86665705	0.00000000	-25.29527000	0.00000000
165.06665704	0.00000000	-25.29527000	0.00000000
165.26665703	0.00000000	-25.29527000	0.00000000
165.46665702	0.00000000	-25.29527000	0.00000000
165.66665701	0.00000000	-25.33834000	0.00000000
165.86665699	0.00000000	-25.71358000	0.00000000
166.06665698	0.00000000	-26.45792000	0.00000000
166.26665697	0.00000000	-26.83317000	0.00000000
166.46665696	0.00000000	-26.87623000	0.00000000
166.66665695	0.00000000	-26.87623000	0.00000000
166.86665693	0.00000000	-26.87623000	0.00000000
167.06665692	0.00000000	-26.87623000	0.00000000
167.26665691	0.00000000	-26.87623000	-0.04306102
167.46665690	0.00000000	-26.83317000	-0.41830710
167.66665689	0.00000000	-26.50098000	-1.15649600
167.86665687	0.00000000	-26.08883000	-1.48253000
168.06665686	0.00000000	-26.08268000	-1.15649600
168.26665685	0.00000000	-25.71358000	-0.41830710
168.46665684	0.00000000	-25.76279000	-0.04306102
168.66665683	0.00000000	-26.45792000	0.00000000
168.86665682	0.00000000	-26.83317000	0.00000000
169.06665680	0.00000000	-26.87623000	0.00000000
169.26665679	0.00000000	-26.87623000	0.00000000
169.46665678	0.00000000	-26.87623000	0.00000000
169.66665677	0.00000000	-26.87623000	0.00000000
169.86665676	0.00000000	-26.87623000	0.00000000
170.06665674	0.00000000	-26.83317000	0.00000000
170.26665673	0.00000000	-26.50098000	0.00000000
170.46665672	0.00000000	-26.08883000	0.00000000
170.66665671	0.00000000	-26.12574000	0.00000000
170.86665670	0.00000000	-26.04577000	0.00000000
171.06665668	0.00000000	-26.08268000	0.00000000
171.26665667	0.00000000	-25.71358000	0.00000000
171.46665666	0.00000000	-25.71358000	0.00000000
171.66665665	0.00000000	-26.03961000	0.00000000
171.86665664	0.00000000	-25.71358000	0.00000000
172.06665663	0.00000000	-25.76279000	-0.04306102
172.26665661	0.00000000	-26.45792000	-0.37524600
172.46665660	0.00000000	-26.83317000	-0.73818890
172.66665659	0.00000000	-26.87623000	-0.37524600
172.86665658	0.00000000	-26.87623000	-0.04306102
173.06665657	0.00000000	-26.87623000	0.00000000
173.26665655	0.00000000	-26.87623000	0.00000000
173.46665654	0.00000000	-26.87623000	0.00000000
173.66665653	0.00000000	-26.83317000	0.00000000
173.86665652	0.00000000	-26.45792000	0.00000000
174.06665651	0.00000000	-25.71358000	0.00000000
174.26665649	0.00000000	-25.38755000	0.00000000
174.46665648	0.00000000	-25.67052000	0.00000000
174.66665647	0.00000000	-26.08268000	0.00000000
174.86665646	0.00000000	-26.08883000	0.00000000
175.06665645	0.00000000	-26.50098000	0.00000000
175.26665644	0.00000000	-26.83317000	0.00000000
175.46665642	0.00000000	-26.87623000	0.00000000
175.66665641	0.00000000	-26.87623000	0.00000000
175.86665640	0.00000000	-26.83317000	0.00000000
176.06665639	0.00000000	-26.45792000	0.00000000
176.26665638	0.00000000	-25.71358000	0.00000000
176.46665636	0.00000000	-25.33834000	0.00000000
176.66665635	0.00000000	-25.33834000	0.00000000
176.86665634	0.00000000	-25.67052000	0.00000000
177.06665633	0.00000000	-26.08268000	0.00000000
177.26665632	0.00000000	-26.04577000	0.00000000
177.46665630	0.00000000	-26.08268000	0.00000000
177.66665629	0.00000000	-25.71358000	0.00000000
177.86665628	0.00000000	-25.76279000	0.00000000
178.06665627	0.00000000	-26.45792000	0.00000000
178.26665626	0.00000000	-26.78395000	0.00000000
178.46665625	0.00000000	-26.45792000	0.00000000
178.66665623	0.00000000	-25.76279000	0.00000000
178.86665622	0.00000000	-25.71358000	0.00000000
179.06665621	0.00000000	-26.08268000	0.00000000
179.26665620	0.00000000	-26.04577000	0.00000000
179.46665619	0.00000000	-26.12574000	0.00000000
179.66665617	0.00000000	-26.04577000	0.00000000
179.86665616	0.00000000	-26.08268000	0.00000000
180.06665615	0.00000000	-25.67052000	0.00000000
180.26665614	0.00000000	-25.38755000	-0.04306102
180.46665613	0.00000000	-25.71358000	-0.37524600
180.66665611	0.00000000	-26.45792000	-0.73818890
180.86665610	0.00000000	-26.83317000	-0.37524600
181.06665609	0.00000000	-26.87623000	-0.04306102
181.26665608	0.00000000	-26.83317000	0.00000000
181.46665607	0.00000000	-26.50098000	0.00000000
181.66665606	0.00000000	-26.13189000	0.00000000
181.86665604	0.00000000	-26.50098000	0.00000000
182.06665603	0.00000000	-26.78395000	0.00000000
182.26665602	0.00000000	-26.45792000	0.00000000
182.46665601	0.00000000	-25.71358000	0.00000000
182.66665600	0.00000000	-25.33834000	0.00000000
182.86665598	0.00000000	-25.33834000	-0.04306102
183.06665597	0.00000000	-25.67052000	-0.37524600
183.26665596	0.00000000	-26.03961000	-0.73818890
183.46665595	0.00000000	-25.71358000	-0.37524600
183.66665594	0.00000000	-25.76279000	-0.04306102
183.86665592	0.00000000	-26.45792000	0.00000000
184.06665591	0.00000000	-26.83317000	0.00000000
184.26665590	0.00000000	-26.87623000	0.00000000
184.46665589	0.00000000	-26.87623000	0.00000000
184.66665588	0.00000000	-26.87623000	0.00000000
184.86665587	0.00000000	-26.83317000	0.04306102
185.06665585	0.00000000	-26.45792000	0.37524600
185.26665584	0.00000000	-25.71358000	0.73818890
185.46665583	0.00000000	-25.33834000	0.37524600
185.66665582	0.00000000	-25.29527000	0.00000000
185.86665581	0.00000000	-25.29527000	-0.41830710
186.06665579	0.00000000	-25.29527000	-1.15649600
186.26665578	0.00000000	-25.29527000	-1.48253000
186.46665577	0.00000000	-25.29527000	-1.19955700
186.66665576	0.00000000	-25.33834000	-0.79355310
186.86665575	0.00000000	-25.67052000	-0.78124990
187.06665573	0.00000000	-26.08268000	-0.37524600
187.26665572	0.00000000	-26.04577000	0.00000000
187.46665571	0.00000000	-26.08268000	0.37524600
187.66665570	0.00000000	-25.71358000	0.73818890
187.86665569	0.00000000	-25.71358000	0.37524600
188.06665568	0.00000000	-26.03961000	0.04306102
188.26665566	0.00000000	-25.67052000	0.00000000
188.46665565	0.00000000	-25.33834000	0.00000000
188.66665564	0.00000000	-25.29527000	0.00000000
188.86665563	0.00000000	-25.29527000	-0.04306102
189.06665562	0.00000000	-25.29527000	-0.37524600
189.26665560	0.00000000	-25.29527000	-0.73818890
189.46665559	0.00000000	-25.29527000	-0.37524600
189.66665558	0.00000000	-25.33834000	-0.04306102
189.86665557	0.00000000	-25.71358000	0.00000000
190.06665556	0.00000000	-26.45792000	0.00000000
190.26665554	0.00000000	-26.83317000	0.00000000
190.46665553	0.00000000	-26.87623000	0.00000000
190.66665552	0.00000000	-26.83317000	0.00000000
190.86665551	0.00000000	-26.45792000	0.00000000
191.06665550	0.00000000	-25.71358000	0.00000000
191.26665549	0.00000000	-25.33834000	0.00000000
191.46665547	0.00000000	-25.29527000	0.00000000
191.66665546	0.00000000	-25.29527000	0.00000000
191.86665545	0.00000000	-25.29527000	0.00000000
192.06665544	0.00000000	-25.29527000	0.00000000
192.26665543	0.00000000	-25.29527000	0.00000000
192.46665541	0.00000000	-25.33834000	-0.04306102
192.66665540	0.00000000	-25.71358000	-0.37524600
192.86665539	0.00000000	-26.40871000	-0.73818890
193.06665538	0.00000000	-26.45792000	-0.37524600
193.26665537	0.00000000	-26.13189000	-0.04306102
193.46665535	0.00000000	-26.50098000	0.00000000
193.66665534	0.00000000	-26.78395000	0.00000000
193.86665533	0.00000000	-26.50098000	0.00000000
194.06665532	0.00000000	-26.08883000	0.00000000
194.26665531	0.00000000	-26.08268000	0.00000000
194.46665530	0.00000000	-25.67052000	0.00000000
194.66665528	0.00000000	-25.33834000	0.00000000
194.86665527	0.00000000	-25.29527000	0.00000000
195.06665526	0.00000000	-25.29527000	0.00000000
195.26665525	0.00000000	-25.33834000	-0.04306102
195.46665524	0.00000000	-25.67052000	-0.37524600
195.66665522	0.00000000	-26.03961000	-0.73818890
195.86665521	0.00000000	-25.67052000	-0.37524600
196.06665520	0.00000000	-25.38755000	-0.04306102
