Time	Channel A	Channel B	Channel C
(us)	(V)	(mV)	(mV)

-4.59999956	0.00000000	-18.55315000	1.57480300
-4.39999957	0.00000000	-18.55315000	1.57480300
-4.19999958	0.00000000	-18.22711000	1.57480300
-3.99999959	0.00000000	-18.59621000	1.57480300
-3.79999960	0.00000000	-18.92839000	1.57480300
-3.59999962	0.00000000	-18.92839000	1.61786400
-3.39999963	0.00000000	-18.59621000	1.95004900
-3.19999964	0.00000000	-18.22711000	2.31914400
-2.99999965	0.00000000	-18.59621000	1.95004900
-2.79999966	0.00000000	-18.92839000	1.61786400
-2.59999968	0.00000000	-18.92839000	1.57480300
-2.39999969	0.00000000	-18.59621000	1.57480300
-2.19999970	0.00000000	-18.18405000	1.61786400
-1.99999971	0.00000000	-18.22096000	1.95004900
-1.79999972	0.00000000	-18.18405000	2.31914400
-1.59999973	0.00000000	-18.59621000	1.95004900
-1.39999975	0.00000000	-18.92839000	1.61786400
-1.19999976	0.00000000	-18.97145000	1.61786400
-0.99999977	0.00000000	-18.92839000	1.95004900
-0.79999978	0.00000000	-18.59621000	2.31914400
-0.59999979	0.00000000	-18.22711000	1.95004900
-0.39999981	0.00000000	-18.59621000	1.66707700
-0.19999982	0.47736220	-18.87918000	1.95004900
0.00000017	0.79601380	-18.59621000	2.31914400
0.20000016	0.95533960	-18.18405000	1.95004900
0.40000015	0.95533960	-18.22096000	1.66707700
0.60000013	0.63668800	-18.14099000	1.95004900
0.80000012	0.00000000	-18.22096000	2.31914400
1.00000011	-0.79601380	-18.14099000	1.95004900
1.20000010	-1.91129400	-18.17790000	1.66707700
1.40000009	-2.54859700	-17.76575000	1.99311000
1.60000008	-2.70792300	-17.43356000	2.73745100
1.80000006	-2.07062000	-17.39050000	3.06348400
2.00000005	-0.63668800	-17.39050000	2.78051200
2.20000004	1.27399100	-17.39050000	2.41141700
2.40000003	3.34522600	-17.39050000	2.73745100
2.60000002	4.93786900	-17.43356000	2.68823800
2.80000000	5.25652100	-17.80881000	1.99311000
2.99999999	4.30056600	-18.55315000	1.61786400
3.19999998	1.91129400	-18.87918000	1.57480300
3.39999997	-1.43331700	-18.55315000	1.57480300
3.59999996	-4.77854300	-17.80881000	1.61786400
3.79999994	-7.16781500	-17.43356000	1.99311000
3.99999993	-7.96444400	-17.39050000	2.73745100
4.19999992	-6.69045300	-17.39050000	3.11269700
4.39999991	-3.66326300	-17.39050000	3.15575800
4.59999990	0.63668800	-17.43356000	3.15575800
4.79999989	4.93786900	-17.80881000	3.11269700
4.99999987	8.28309500	-18.50394000	2.73745100
5.19999986	9.39837600	-18.55315000	1.99311000
5.39999985	8.28309500	-18.22711000	1.61786400
5.59999984	5.09719500	-18.55315000	1.57480300
5.79999983	0.63668800	-18.55315000	1.57480300
5.99999981	-4.14124000	-18.18405000	1.57480300
6.19999980	-7.80511800	-18.17790000	1.61786400
6.39999979	-9.39837600	-17.76575000	1.99311000
6.59999978	-8.60174700	-17.43356000	2.73745100
6.79999977	-5.89382400	-17.39050000	3.11269700
6.99999975	-1.75196900	-17.39050000	3.15575800
7.19999974	2.54859700	-17.39050000	3.15575800
7.39999973	6.05315000	-17.39050000	3.11269700
7.59999972	7.64579200	-17.43356000	2.73745100
7.79999971	7.32714100	-17.80881000	1.99311000
7.99999970	5.25652100	-18.55315000	1.61786400
8.19999968	2.22994600	-18.92839000	1.57480300
8.39999967	-1.11466500	-18.92839000	1.57480300
8.59999966	-3.66326300	-18.55315000	1.61786400
8.79999965	-5.09719500	-17.80881000	1.99311000
8.99999964	-4.93786900	-17.43356000	2.73745100
9.19999962	-3.82258900	-17.43356000	3.06348400
9.39999961	-1.91129400	-17.80881000	2.78051200
9.59999960	0.00000000	-18.50394000	2.36835600
9.79999959	1.59264300	-18.50394000	2.36220500
9.99999958	2.38927200	-17.80881000	1.99311000
10.19999956	2.38927200	-17.43356000	1.99311000
10.39999955	1.91129400	-17.43356000	2.36220500
10.59999954	1.11466500	-17.76575000	2.32529500
10.79999953	0.15871060	-18.13484000	2.36220500
10.99999952	-0.47736220	-17.80881000	1.95004900
11.19999951	-0.95533960	-17.85802000	1.61786400
11.39999949	-0.95533960	-18.50394000	1.61786400
11.59999948	-0.95533960	-18.50394000	1.95004900
11.79999947	-0.63668800	-17.80881000	2.31914400
11.99999946	-0.31803640	-17.43356000	1.95004900
12.19999945	-0.15871060	-17.39050000	1.61786400
12.39999943	-0.15871060	-17.39050000	1.61786400
12.59999942	0.00000000	-17.43356000	1.99311000
12.79999941	0.00000000	-17.76575000	2.73745100
12.99999940	0.00000000	-18.13484000	3.06348400
13.19999939	0.15871060	-17.76575000	2.73745100
13.39999937	0.00000000	-17.43356000	2.04232300
13.59999936	0.00000000	-17.39050000	2.04232300
13.79999935	0.00000000	-17.43356000	2.73745100
13.99999934	0.00000000	-17.76575000	3.11269700
14.19999933	-0.15871060	-18.13484000	3.15575800
14.39999932	-0.15871060	-17.76575000	3.15575800
14.59999930	-0.15871060	-17.43356000	3.15575800
14.79999929	0.00000000	-17.39050000	3.15575800
14.99999928	0.00000000	-17.39050000	3.11269700
15.19999927	0.00000000	-17.39050000	2.73745100
15.39999926	0.00000000	-17.43356000	1.99311000
15.59999924	0.00000000	-17.80881000	1.61786400
15.79999923	0.00000000	-18.50394000	1.57480300
15.99999922	0.00000000	-18.50394000	1.57480300
16.19999921	0.00000000	-17.80881000	1.57480300
16.39999920	-0.15871060	-17.43356000	1.57480300
16.59999919	-0.15871060	-17.39050000	1.61786400
16.79999917	-0.15871060	-17.34744000	1.95004900
16.99999916	0.00000000	-16.97219000	2.31914400
17.19999915	0.00000000	-16.22785000	1.95004900
17.39999914	0.00000000	-15.85261000	1.61786400
17.59999913	0.00000000	-15.85261000	1.57480300
17.79999911	0.00000000	-16.22785000	1.57480300
17.99999910	0.00000000	-17.01525000	1.61786400
18.19999909	0.00000000	-17.80881000	1.99311000
18.39999908	0.00000000	-19.01451000	2.68823800
18.59999907	0.00000000	-20.55241000	2.73745100
18.79999905	0.00000000	-22.09030000	2.41141700
18.99999904	0.00000000	-23.16068000	2.78051200
19.19999903	0.00000000	-22.74237000	3.06348400
19.39999902	0.00000000	-20.46014000	2.73745100
19.59999901	0.00000000	-17.34744000	1.99311000
19.79999900	0.00000000	-13.81028000	1.61786400
19.99999898	0.00000000	-9.95324800	1.57480300
20.19999897	0.00000000	-6.96973400	1.57480300
20.39999896	0.00000000	-6.22539300	1.57480300
20.59999895	0.00000000	-8.59375000	1.57480300
20.79999894	0.00000000	-13.61959000	1.57480300
20.99999892	0.00000000	-20.64468000	1.57480300
21.19999891	0.00000000	-28.32185000	1.57480300
21.39999890	0.00000000	-34.88558000	1.57480300
21.59999889	0.00000000	-38.33046000	1.57480300
21.79999888	0.00000000	-37.86909000	1.61786400
21.99999886	0.00000000	-32.70177000	1.95004900
22.19999885	0.00000000	-22.65010000	2.31914400
22.39999884	0.00000000	-9.90403500	1.95004900
22.59999883	0.00000000	2.42987200	1.61786400
22.79999882	0.00000000	11.63263000	1.61786400
22.99999881	0.00000000	14.61614000	1.99311000
23.19999879	-0.15871060	9.96555000	2.73745100
23.39999878	0.00000000	-1.71013800	3.15575800
23.59999877	0.00000000	-18.31939000	3.57406500
23.79999876	0.00000000	-36.46653000	4.31840500
23.99999875	0.00000000	-51.49483000	4.64443900
24.19999873	0.00000000	-59.95940000	4.26919300
24.39999872	0.00000000	-59.45497000	3.11269700
24.59999871	0.00000000	-48.98499000	1.57480300
24.79999870	0.00000000	-30.41954000	0.00000000
24.99999869	0.00000000	-8.04010800	-1.57480300
25.19999867	0.00000000	13.21973000	-3.02042300
25.39999866	0.00000000	28.20497000	-3.38951800
25.59999865	0.00000000	33.18159000	-1.86392700
25.79999864	0.00000000	26.20571000	0.41830710
25.99999863	0.00000000	8.84596300	3.24803100
26.19999862	0.00000000	-14.73917000	6.72982200
26.39999860	0.00000000	-39.44390000	10.53765000
26.59999859	0.00000000	-59.49803000	13.18898000
26.79999858	0.00000000	-69.92495000	13.56422000
26.99999857	0.00000000	-68.38705000	11.61417000
27.19999856	0.00000000	-55.26574000	7.24655500
27.39999854	0.00000000	-33.67372000	0.69512790
27.59999853	0.00000000	-8.96899500	-7.01279500
27.79999852	0.00000000	13.08440000	-13.52116000
27.99999851	0.00000000	27.78666000	-17.37205000
28.19999850	0.00000000	32.06201000	-17.28592000
28.39999848	0.00000000	25.17839000	-12.64149000
28.59999847	0.00000000	9.35654400	-4.09694900
28.79999846	0.00000000	-11.53420000	6.72982200
28.99999845	0.00000000	-33.16929000	17.92569000
29.19999844	0.00000000	-50.56594000	26.75935000
29.39999843	0.00000000	-59.91634000	30.98548000
29.59999841	0.00000000	-59.95940000	29.36146000
29.79999840	0.00000000	-51.11958000	21.55512000
29.99999839	0.00000000	-35.72219000	8.40920300
30.19999838	0.00000000	-17.90108000	-7.33882900
30.39999837	0.00000000	-1.24261800	-21.60433000
30.59999835	0.00000000	11.17126000	-30.89321000
30.79999834	0.00000000	16.61540000	-33.58760000
30.99999833	0.00000000	14.79454000	-28.90010000
31.19999832	0.00000000	6.66215500	-17.28592000
31.39999831	0.00000000	-5.71481200	-1.07037400
31.59999829	0.00000000	-19.99877000	16.30783000
31.79999828	0.00000000	-32.74483000	30.98548000
31.99999827	0.00000000	-40.93873000	39.86220000
32.19999826	0.00000000	-43.72539000	41.01870000
32.39999825	0.00000000	-41.03100000	34.05511000
32.59999824	0.00000000	-33.72293000	20.53395000
32.79999822	0.00000000	-23.67126000	3.15575800
32.99999821	0.00000000	-13.20128000	-14.21629000
33.19999820	0.00000000	-4.26919300	-27.78666000
33.39999819	0.00000000	1.50098400	-35.12549000
33.59999818	0.00000000	2.65748000	-34.75024000
33.79999816	0.00000000	-1.15649600	-26.62401000
33.99999815	0.00000000	-8.41535400	-12.72761000
34.19999814	0.00000000	-16.92298000	4.26919300
34.39999813	0.00000000	-24.64936000	20.44168000
34.59999812	0.00000000	-30.08735000	32.05585000
34.79999810	0.00000000	-32.00049000	36.74950000
34.99999809	0.00000000	-30.13656000	34.05511000
35.19999808	0.00000000	-25.15994000	24.80315000
35.39999807	0.00000000	-19.01451000	10.96211000
35.59999806	0.00000000	-13.20128000	-3.72170300
35.79999805	0.00000000	-8.96899500	-16.12328000
35.99999803	0.00000000	-7.43110200	-24.20645000
36.19999802	0.00000000	-8.92593500	-25.73819000
36.39999801	0.00000000	-12.73991000	-20.39862000
36.59999800	0.00000000	-17.39050000	-9.99015700
36.79999799	0.00000000	-22.04109000	3.02042300
36.99999797	0.00000000	-25.85507000	14.91142000
37.19999796	0.00000000	-27.34990000	21.88730000
37.39999795	0.00000000	-25.85507000	23.13607000
37.59999794	0.00000000	-22.04109000	18.90994000
37.79999793	0.00000000	-17.39050000	10.45152000
37.99999791	0.00000000	-12.78297000	0.13533460
38.19999790	0.00000000	-9.34424200	-9.06126900
38.39999789	0.00000000	-8.50147600	-14.03174000
38.59999788	0.00000000	-9.62106200	-13.70571000
38.79999787	0.00000000	-11.99557000	-8.31692900
38.99999786	0.00000000	-15.90182000	0.46136810
39.19999784	0.00000000	-20.46014000	10.03322000
39.39999783	0.00000000	-24.36639000	17.28592000
39.59999782	0.00000000	-26.69783000	19.98031000
39.79999781	0.00000000	-27.48524000	17.28592000
39.99999780	0.00000000	-26.27953000	10.03322000
40.19999778	0.00000000	-23.20374000	0.41830710
40.39999777	0.00000000	-18.97145000	-8.74138700
40.59999776	0.00000000	-14.69611000	-14.91142000
40.79999775	0.00000000	-11.15896000	-16.08022000
40.99999774	0.00000000	-8.45841400	-12.59227000
41.19999772	0.00000000	-7.34498000	-4.92125900
41.39999771	0.00000000	-8.45841400	5.05659400
41.59999770	0.00000000	-11.15896000	13.84719000
41.79999769	0.00000000	-14.69611000	19.69119000
41.99999768	0.00000000	-18.92839000	20.81693000
42.19999767	0.00000000	-22.78543000	17.42126000
42.39999765	0.00000000	-25.11688000	10.49459000
42.59999764	0.00000000	-25.94734000	2.04232300
42.79999763	0.00000000	-25.15994000	-5.67175200
42.99999762	0.00000000	-23.20374000	-11.06053000
43.19999761	0.00000000	-20.13410000	-12.63533000
43.39999759	0.00000000	-16.69537000	-10.35925000
43.59999758	0.00000000	-14.36393000	-5.38262700
43.79999757	0.00000000	-13.11516000	1.11343500
43.99999756	0.00000000	-12.73991000	6.87130900
44.19999755	0.00000000	-13.06594000	10.45152000
44.39999753	0.00000000	-13.85334000	12.03248000
44.59999752	0.00000000	-14.60384000	11.61417000
44.79999751	0.00000000	-15.39124000	8.96284400
44.99999750	0.00000000	-15.76649000	5.15501900
45.19999749	0.00000000	-15.85261000	1.66707700
45.39999748	0.00000000	-16.27707000	-1.07037400
45.59999746	0.00000000	-17.52584000	-2.64517700
45.79999745	0.00000000	-19.80807000	-3.02042300
45.99999744	0.00000000	-22.87770000	-2.27608300
46.19999743	0.00000000	-25.15994000	-0.33218500
46.39999742	0.00000000	-26.36565000	1.95004900
46.59999740	0.00000000	-26.27953000	4.26919300
46.79999739	0.00000000	-24.23105000	5.80093500
46.99999738	0.00000000	-19.58046000	6.21924200
47.19999737	0.00000000	-13.11516000	5.85014700
47.39999736	0.00000000	-7.29576700	4.68750000
47.59999734	0.00000000	-3.43257800	3.11269700
47.79999733	0.00000000	-1.95004900	1.15649600
47.99999732	0.00000000	-4.31840500	-1.11343500
48.19999731	0.00000000	-10.08243000	-2.60211600
48.39999730	0.00000000	-17.85802000	-2.64517700
48.59999729	0.00000000	-26.32259000	-1.48868100
48.79999727	0.00000000	-33.21235000	0.46751960
48.99999726	0.00000000	-36.28814000	3.19881900
49.19999725	0.00000000	-34.75024000	6.22539300
49.39999724	0.00000000	-28.97392000	8.54453700
49.59999723	0.00000000	-20.46014000	9.33809000
49.79999721	0.00000000	-11.20202000	8.91978400
49.99999720	0.00000000	-3.11269700	6.96358300
50.19999719	0.00000000	1.45177200	3.48794300
50.39999718	0.00000000	1.12573800	-0.33218500
50.59999717	0.00000000	-3.89394600	-3.80782500
50.79999715	0.00000000	-11.95251000	-5.71481200
50.99999714	0.00000000	-21.24754000	-5.75787400
51.19999713	0.00000000	-29.26304000	-4.18307100
51.39999712	0.00000000	-33.95054000	-1.07037400
51.59999711	0.00000000	-33.96284000	3.15575800
51.79999710	0.00000000	-30.13656000	7.38188900
51.99999708	0.00000000	-23.16068000	10.45152000
52.19999707	0.00000000	-14.73917000	11.60802000
52.39999706	0.00000000	-7.43110200	10.45152000
52.59999705	0.00000000	-3.19881900	7.42495000
52.79999704	0.00000000	-3.19881900	3.57406500
52.99999702	0.00000000	-7.38804100	0.09227362
53.19999701	0.00000000	-14.27165000	-2.64517700
53.39999700	0.00000000	-21.57972000	-4.18307100
53.59999699	0.00000000	-27.34990000	-4.18307100
53.79999698	0.00000000	-30.04429000	-2.60211600
53.99999696	0.00000000	-28.88164000	0.41830710
54.19999695	0.00000000	-24.32333000	3.80782500
54.39999694	0.00000000	-17.80881000	5.75787400
54.59999693	0.00000000	-11.66339000	6.21924200
54.79999692	0.00000000	-7.43110200	5.80093500
54.99999691	0.00000000	-6.22539300	4.26919300
55.19999689	0.00000000	-8.13238100	2.04232300
55.39999688	0.00000000	-11.99557000	0.55364170
55.59999687	0.00000000	-17.43356000	0.51058070
55.79999686	0.00000000	-23.11762000	1.62401600
55.99999685	0.00000000	-26.92544000	3.15575800
56.19999683	0.00000000	-27.39296000	4.68750000
56.39999682	0.00000000	-25.11688000	5.80093500
56.59999681	0.00000000	-21.29675000	5.75787400
56.79999680	0.00000000	-16.60310000	4.22613100
56.99999679	0.00000000	-12.40773000	1.53174200
57.19999677	0.00000000	-9.30118100	-1.53174200
57.39999676	0.00000000	-8.55068800	-4.18307100
57.59999675	0.00000000	-10.03937000	-5.29650500
57.79999674	0.00000000	-13.11516000	-4.13385800
57.99999673	0.00000000	-16.97219000	-1.07037400
58.19999672	0.00000000	-20.41708000	3.20497000
58.39999670	0.00000000	-22.74237000	7.84940900
58.59999669	0.00000000	-23.16068000	12.03248000
58.79999668	0.00000000	-22.04109000	14.25935000
58.99999667	0.00000000	-20.13410000	13.10285000
59.19999666	0.00000000	-17.80881000	8.91978400
59.39999664	0.00000000	-15.90182000	3.11269700
59.59999663	0.00000000	-14.69611000	-3.06963600
59.79999662	0.00000000	-14.32087000	-8.40920300
59.99999661	0.00000000	-14.69611000	-11.10359000
60.19999660	0.00000000	-15.80955000	-10.31619000
60.39999658	0.00000000	-16.97219000	-6.45300100
60.59999657	0.00000000	-17.76575000	0.13533460
60.79999656	0.00000000	-18.50394000	7.75713500
60.99999655	0.00000000	-18.50394000	14.30241000
61.19999654	0.00000000	-17.80881000	17.79035000
61.39999653	0.00000000	-17.39050000	17.79035000
61.59999651	0.00000000	-16.97219000	14.25935000
61.79999650	0.00000000	-16.27707000	7.38188900
61.99999649	0.00000000	-16.32013000	-0.69512790
62.19999648	0.00000000	-17.39050000	-7.67101300
62.39999647	0.00000000	-18.55315000	-12.68455000
62.59999645	0.00000000	-19.30364000	-14.16708000
62.79999644	0.00000000	-19.71580000	-11.52190000
62.99999643	0.00000000	-19.30364000	-5.75787400
63.19999642	0.00000000	-18.55315000	1.62401600
63.39999641	0.00000000	-17.34744000	9.29502900
63.59999639	0.00000000	-15.85261000	15.42200000
63.79999638	0.00000000	-14.69611000	17.79035000
63.99999637	0.00000000	-14.32087000	16.67692000
64.19999636	0.00000000	-14.69611000	12.81373000
64.39999635	0.00000000	-15.85261000	6.64370100
64.59999634	0.00000000	-17.39050000	0.09227362
64.79999632	0.00000000	-18.92839000	-5.71481200
64.99999631	0.00000000	-20.08489000	-9.56569900
65.19999630	0.00000000	-20.46014000	-10.35925000
65.39999629	0.00000000	-20.08489000	-8.50147600
65.59999628	0.00000000	-18.92839000	-4.64443900
65.79999626	0.00000000	-17.39050000	0.00000000
65.99999625	0.00000000	-15.85261000	4.64443900
66.19999624	0.00000000	-14.73917000	8.54453700
66.39999623	0.00000000	-14.73917000	10.91289000
66.59999622	0.00000000	-15.85261000	12.07554000
66.79999620	0.00000000	-17.39050000	11.70029000
66.99999619	0.00000000	-18.92839000	9.79945900
67.19999618	0.00000000	-20.04183000	7.43110200
67.39999617	0.00000000	-19.99877000	4.26919300
67.59999616	0.00000000	-18.50394000	0.46751960
67.79999615	0.00000000	-16.18479000	-2.64517700
67.99999613	0.00000000	-13.89641000	-4.64443900
68.19999612	0.00000000	-11.95251000	-5.85014700
68.39999611	0.00000000	-11.24508000	-6.17618100
68.59999610	0.00000000	-11.99557000	-5.38262700
68.79999609	0.00000000	-14.36393000	-3.02042300
68.99999607	0.00000000	-17.80881000	0.46751960
69.19999606	0.00000000	-21.66585000	4.73671200
69.39999605	0.00000000	-24.74163000	8.96284400
69.59999604	0.00000000	-26.27953000	12.07554000
69.79999603	0.00000000	-25.85507000	13.61343000
69.99999601	0.00000000	-23.11762000	13.14591000
70.19999600	0.00000000	-18.50394000	10.07628000
70.39999599	0.00000000	-13.11516000	5.11195900
70.59999598	0.00000000	-8.50147600	0.09227362
70.79999597	0.00000000	-5.76402500	-4.22613100
70.99999596	0.00000000	-5.43184000	-7.29576700
71.19999594	0.00000000	-7.80634800	-8.45226300
71.39999593	0.00000000	-13.15822000	-7.25270600
71.59999592	0.00000000	-19.62352000	-3.80782500
71.79999591	0.00000000	-24.74163000	1.15649600
71.99999590	0.00000000	-28.27879000	5.80093500
72.19999588	0.00000000	-30.13656000	9.29502900
72.39999587	0.00000000	-28.93085000	11.23893000
72.59999586	0.00000000	-24.74163000	10.86983000
72.79999585	0.00000000	-18.97145000	8.96284400
72.99999584	0.00000000	-13.15822000	5.89320800
73.19999582	0.00000000	-8.50147600	2.46063000
73.39999581	0.00000000	-5.80708600	0.13533460
73.59999580	0.00000000	-5.76402500	-1.06422200
73.79999579	0.00000000	-8.08316900	-1.06422200
73.99999578	0.00000000	-11.95251000	0.04306102
74.19999577	0.00000000	-16.97219000	1.53174200
74.39999575	0.00000000	-21.57972000	2.68823800
74.59999574	0.00000000	-24.69857000	3.06348400
74.79999573	0.00000000	-25.85507000	2.68823800
74.99999572	0.00000000	-24.74163000	1.57480300
75.19999571	0.00000000	-22.09030000	0.46136810
75.39999569	0.00000000	-18.97145000	0.09227362
75.59999568	0.00000000	-15.85261000	0.51058070
75.79999567	0.00000000	-13.20128000	2.04232300
75.99999566	0.00000000	-11.99557000	4.36146600
76.19999565	0.00000000	-12.31545000	6.68676100
76.39999563	0.00000000	-13.06594000	8.96284400
76.59999562	0.00000000	-14.27165000	9.99015700
76.79999561	0.00000000	-15.76649000	8.50147600
76.99999560	0.00000000	-16.92298000	5.06274600
77.19999559	0.00000000	-17.34744000	1.20570900
77.39999558	0.00000000	-17.39050000	-2.73745100
77.59999556	0.00000000	-17.39050000	-6.13312000
77.79999555	0.00000000	-17.43356000	-8.03395600
77.99999554	0.00000000	-17.80881000	-7.20349400
78.19999553	0.00000000	-18.59621000	-3.80782500
78.39999552	0.00000000	-19.34670000	1.19955700
78.59999550	0.00000000	-20.08489000	6.21924200
78.79999549	0.00000000	-20.04183000	10.49459000
78.99999548	0.00000000	-18.92839000	13.18898000
79.19999547	0.00000000	-17.34744000	13.56422000
79.39999546	0.00000000	-15.39124000	11.65723000
79.59999544	0.00000000	-13.11516000	7.75713500
79.79999543	0.00000000	-11.62032000	2.78051200
79.99999542	0.00000000	-11.62032000	-2.22687000
80.19999541	0.00000000	-13.11516000	-5.71481200
80.39999540	0.00000000	-15.43430000	-7.29576700
80.59999539	0.00000000	-17.76575000	-6.92052100
80.79999537	0.00000000	-20.13410000	-4.60137700
80.99999536	0.00000000	-21.99803000	-1.15649600
81.19999535	0.00000000	-22.78543000	2.73745100
81.39999534	0.00000000	-21.95497000	6.22539300
81.59999533	0.00000000	-19.71580000	8.96284400
81.79999531	0.00000000	-16.64616000	10.49459000
81.99999530	0.00000000	-14.32087000	10.49459000
82.19999529	0.00000000	-12.69070000	9.00590400
82.39999528	0.00000000	-11.62032000	6.68676100
82.59999527	0.00000000	-11.99557000	4.31840500
82.79999525	0.00000000	-13.89641000	1.58095500
82.99999524	0.00000000	-16.18479000	-1.11343500
83.19999523	0.00000000	-18.50394000	-3.11269700
83.39999522	0.00000000	-20.04183000	-4.64443900
83.59999521	0.00000000	-20.46014000	-5.33956700
83.79999520	0.00000000	-20.08489000	-4.18307100
83.99999518	0.00000000	-18.97145000	-1.53174200
84.19999517	0.00000000	-17.85802000	1.58095500
84.39999516	0.00000000	-17.39050000	4.73671200
84.59999515	0.00000000	-16.97219000	7.84940900
84.79999514	0.00000000	-16.22785000	10.49459000
84.99999512	0.00000000	-15.85261000	11.60802000
85.19999511	0.00000000	-15.80955000	10.49459000
85.39999510	0.00000000	-15.80955000	7.80019600
85.59999509	0.00000000	-15.76649000	4.26919300
85.79999508	0.00000000	-15.43430000	0.00000000
85.99999506	0.00000000	-15.06521000	-4.18307100
86.19999505	0.00000000	-15.47736000	-6.87746000
86.39999504	0.00000000	-16.22785000	-7.24655500
86.59999503	0.00000000	-17.39050000	-5.33956700
86.79999502	0.00000000	-18.55315000	-1.48868100
86.99999501	0.00000000	-19.34670000	3.15575800
87.19999499	0.00000000	-20.08489000	7.75713500
87.39999498	0.00000000	-20.08489000	11.23893000
87.59999497	0.00000000	-19.30364000	12.40773000
87.79999496	0.00000000	-18.13484000	11.61417000
87.99999495	0.00000000	-16.18479000	8.50147600
88.19999493	0.00000000	-14.32087000	3.53100400
88.39999492	0.00000000	-13.15822000	-1.43946800
88.59999491	0.00000000	-13.15822000	-5.29650500
88.79999490	0.00000000	-14.27165000	-6.82824800
88.99999489	0.00000000	-15.80955000	-5.71481200
89.19999487	0.00000000	-17.34744000	-2.60211600
89.39999486	0.00000000	-18.55315000	1.99311000
89.59999485	0.00000000	-19.30364000	6.96358300
89.79999484	0.00000000	-19.71580000	10.40846000
89.99999483	0.00000000	-19.30364000	11.65723000
90.19999482	0.00000000	-18.55315000	10.82677000
90.39999480	0.00000000	-17.34744000	8.12622900
90.59999479	0.00000000	-15.90182000	3.48794300
90.79999478	0.00000000	-15.11442000	-1.43946800
90.99999477	0.00000000	-15.43430000	-5.29650500
91.19999476	0.00000000	-15.80955000	-6.82824800
91.39999474	0.00000000	-16.22785000	-5.71481200
91.59999473	0.00000000	-16.92298000	-2.60211600
91.79999472	0.00000000	-16.92298000	2.04232300
91.99999471	0.00000000	-16.22785000	7.33882900
92.19999470	0.00000000	-15.85261000	11.14665000
92.39999468	0.00000000	-15.80955000	11.98327000
92.59999467	0.00000000	-15.85261000	10.45152000
92.79999466	0.00000000	-16.27707000	6.96358300
92.99999465	0.00000000	-17.39050000	1.99311000
93.19999464	0.00000000	-18.50394000	-2.60211600
93.39999463	0.00000000	-18.92839000	-5.67175200
93.59999461	0.00000000	-18.97145000	-6.40994000
93.79999460	0.00000000	-18.92839000	-4.18307100
93.99999459	0.00000000	-18.46087000	-0.33218500
94.19999458	0.00000000	-16.92298000	3.90625000
94.39999457	0.00000000	-14.64690000	8.12622900
94.59999455	0.00000000	-12.73991000	10.40846000
94.79999454	0.00000000	-11.57726000	10.45152000
94.99999453	0.00000000	-11.57726000	8.50147600
95.19999452	0.00000000	-12.73991000	4.73671200
95.39999451	0.00000000	-14.69611000	0.88582670
95.59999449	0.00000000	-17.43356000	-1.86392700
95.79999448	0.00000000	-20.50935000	-3.76476400
95.99999447	0.00000000	-23.16068000	-3.71555100
96.19999446	0.00000000	-24.32333000	-1.48868100
96.39999445	0.00000000	-23.53592000	1.53174200
96.59999444	0.00000000	-21.24754000	4.26919300
96.79999442	0.00000000	-17.72268000	6.22539300
96.99999441	0.00000000	-13.89641000	7.38188900
97.19999440	0.00000000	-10.41462000	7.33882900
97.39999439	0.00000000	-8.50147600	5.85014700
97.59999438	0.00000000	-8.41535400	3.57406500
97.79999436	0.00000000	-9.66412400	1.62401600
97.99999435	0.00000000	-12.37082000	0.09227362
98.19999434	0.00000000	-16.59695000	-0.69512790
98.39999433	0.00000000	-20.41708000	-0.32603340
98.59999432	0.00000000	-23.20374000	0.41830710
98.79999430	0.00000000	-24.74163000	1.57480300
98.99999429	0.00000000	-24.69857000	2.68823800
99.19999428	0.00000000	-22.78543000	3.11269700
99.39999427	0.00000000	-19.34670000	3.15575800
99.59999426	0.00000000	-15.85261000	3.15575800
99.79999425	0.00000000	-12.69070000	3.19881900
99.99999423	0.00000000	-10.03937000	3.57406500
100.19999422	0.00000000	-8.87672100	4.31840500
100.39999421	0.00000000	-9.62106200	4.69365100
100.59999420	0.00000000	-11.53420000	4.73671200
100.79999419	0.00000000	-14.22859000	4.64443900
100.99999417	0.00000000	-17.01525000	3.85088600
101.19999416	0.00000000	-19.72195000	1.95004900
101.39999415	0.00000000	-22.36712000	0.09227362
101.59999414	0.00000000	-23.16068000	-1.11343500
101.79999413	0.00000000	-22.46555000	-1.53174200
101.99999411	0.00000000	-21.29675000	-1.48253000
102.19999410	0.00000000	-19.30364000	-0.64591530
102.39999409	0.00000000	-17.01525000	1.66707700
102.59999408	0.00000000	-14.64690000	4.68750000
102.79999407	0.00000000	-12.73991000	7.38188900
102.99999406	0.00000000	-11.57726000	8.91978400
103.19999404	0.00000000	-11.57726000	8.91978400
103.39999403	0.00000000	-12.73991000	7.38188900
103.59999402	0.00000000	-14.64690000	4.68750000
103.79999401	0.00000000	-16.97219000	1.62401600
103.99999400	0.00000000	-18.87918000	-1.11343500
104.19999398	0.00000000	-20.08489000	-3.02042300
104.39999397	0.00000000	-20.46014000	-3.76476400
104.59999396	0.00000000	-20.08489000	-2.60211600
104.79999395	0.00000000	-18.92839000	0.04306102
104.99999394	0.00000000	-17.39050000	3.11269700
105.19999392	0.00000000	-15.85261000	5.80093500
105.39999391	0.00000000	-14.69611000	7.38188900
105.59999390	0.00000000	-14.27165000	7.80019600
105.79999389	0.00000000	-14.27165000	7.38188900
105.99999388	0.00000000	-14.69611000	5.80093500
106.19999387	0.00000000	-15.85261000	3.15575800
106.39999385	0.00000000	-17.34744000	0.51058070
106.59999384	0.00000000	-18.50394000	-1.02116100
106.79999383	0.00000000	-18.87918000	-1.06422200
106.99999382	0.00000000	-18.50394000	0.04306102
107.19999381	0.00000000	-17.39050000	1.57480300
107.39999379	0.00000000	-16.22785000	3.15575800
107.59999378	0.00000000	-15.47736000	4.68750000
107.79999377	0.00000000	-15.06521000	5.80093500
107.99999376	0.00000000	-15.43430000	5.80093500
108.19999375	0.00000000	-15.80955000	4.68750000
108.39999374	0.00000000	-16.27707000	3.15575800
108.59999372	0.00000000	-17.39050000	1.62401600
108.79999371	0.00000000	-18.50394000	0.46136810
108.99999370	0.00000000	-18.87918000	0.09227362
109.19999369	0.00000000	-18.50394000	0.46136810
109.39999368	0.00000000	-17.39050000	1.62401600
109.59999366	0.00000000	-16.22785000	3.11269700
109.79999365	0.00000000	-15.43430000	4.31840500
109.99999364	0.00000000	-14.64690000	5.11195900
110.19999363	0.00000000	-14.32087000	5.85014700
110.39999362	0.00000000	-14.64690000	5.80093500
110.59999360	0.00000000	-15.43430000	4.68750000
110.79999359	0.00000000	-16.22785000	3.15575800
110.99999358	0.00000000	-17.39050000	1.62401600
111.19999357	0.00000000	-18.50394000	0.46136810
111.39999356	0.00000000	-18.87918000	0.04306102
111.59999355	0.00000000	-18.55315000	0.04306102
111.79999353	0.00000000	-17.76575000	0.46136810
111.99999352	-0.15871060	-17.01525000	1.57480300
112.19999351	0.00000000	-16.22785000	2.73745100
112.39999350	0.00000000	-15.85261000	3.53100400
112.59999349	0.00000000	-15.80955000	4.31840500
112.79999347	0.00000000	-15.80955000	4.69365100
112.99999346	0.00000000	-15.80955000	4.69365100
113.19999345	0.00000000	-15.80955000	4.31840500
113.39999344	0.00000000	-15.80955000	3.57406500
113.59999343	0.00000000	-15.85261000	3.15575800
113.79999341	0.00000000	-16.22785000	2.73745100
113.99999340	0.00000000	-16.97219000	1.99311000
114.19999339	0.00000000	-17.29823000	1.61786400
114.39999338	0.00000000	-16.97219000	1.57480300
114.59999337	0.00000000	-16.27707000	1.57480300
114.79999336	0.00000000	-16.27707000	1.53174200
114.99999334	0.00000000	-16.92298000	1.19955700
115.19999333	0.00000000	-16.92298000	0.83661410
115.39999332	0.00000000	-16.22785000	1.24877000
115.59999331	0.00000000	-15.85261000	1.95004900
115.79999330	0.00000000	-15.80955000	2.78051200
115.99999328	0.00000000	-15.85261000	3.53100400
116.19999327	0.00000000	-16.22785000	4.31840500
116.39999326	0.00000000	-16.97219000	4.69365100
116.59999325	0.00000000	-17.34744000	4.73671200
116.79999324	0.00000000	-17.39050000	4.69365100
116.99999322	0.00000000	-17.34744000	4.31840500
117.19999321	0.00000000	-16.92298000	3.53100400
117.39999320	0.00000000	-15.85261000	2.73745100
117.59999319	0.00000000	-15.06521000	1.57480300
117.79999318	0.00000000	-15.01599000	0.46136810
117.99999317	0.00000000	-14.60384000	0.09227362
118.19999315	0.00000000	-14.32087000	0.41830710
118.39999314	0.00000000	-14.64690000	1.19955700
118.59999313	0.00000000	-15.43430000	1.95004900
118.79999312	0.00000000	-16.22785000	2.78051200
118.99999311	0.00000000	-17.39050000	3.53100400
119.19999309	0.00000000	-18.55315000	4.31840500
119.39999308	0.00000000	-19.30364000	4.69365100
119.59999307	0.00000000	-19.66658000	4.73671200
119.79999306	0.00000000	-18.87918000	4.69365100
119.99999305	0.00000000	-17.39050000	4.31840500
120.19999303	0.00000000	-15.85261000	3.53100400
120.39999302	0.00000000	-14.64690000	2.78051200
120.59999301	0.00000000	-13.85334000	1.99311000
120.79999300	0.00000000	-13.11516000	1.61786400
120.99999299	0.00000000	-13.15822000	1.57480300
121.19999298	0.00000000	-14.27165000	1.57480300
121.39999296	0.00000000	-15.80955000	1.57480300
121.59999295	0.00000000	-17.34744000	1.61786400
121.79999294	0.00000000	-18.50394000	1.99311000
121.99999293	0.00000000	-18.92839000	2.73745100
122.19999292	0.00000000	-18.97145000	3.11269700
122.39999290	0.00000000	-18.92839000	3.19881900
122.59999289	0.00000000	-18.50394000	3.57406500
122.79999288	0.00000000	-17.34744000	4.26919300
122.99999287	0.00000000	-15.85261000	4.26919300
123.19999286	0.00000000	-14.69611000	3.57406500
123.39999284	0.00000000	-14.27165000	3.19881900
123.59999283	0.00000000	-14.22859000	3.11269700
123.79999282	0.00000000	-14.22859000	2.73745100
123.99999281	0.00000000	-14.27165000	1.99311000
124.19999280	0.00000000	-14.69611000	1.61786400
124.39999279	0.00000000	-15.80955000	1.57480300
124.59999277	0.00000000	-16.97219000	1.57480300
124.79999276	0.00000000	-17.76575000	1.61786400
124.99999275	0.00000000	-18.50394000	1.99311000
125.19999274	0.00000000	-18.55315000	2.73745100
125.39999273	0.00000000	-18.18405000	3.11269700
125.59999271	0.00000000	-18.13484000	3.19881900
125.79999270	0.00000000	-17.34744000	3.57406500
125.99999269	0.00000000	-16.22785000	4.26919300
126.19999268	0.00000000	-15.43430000	4.26919300
126.39999267	0.00000000	-14.64690000	3.57406500
126.59999265	0.00000000	-14.27165000	3.19881900
126.79999264	0.00000000	-14.27165000	3.11269700
126.99999263	0.00000000	-14.69611000	2.73745100
127.19999262	0.00000000	-15.80955000	1.99311000
127.39999261	0.00000000	-16.97219000	1.61786400
127.59999260	0.00000000	-17.76575000	1.57480300
127.79999258	0.00000000	-18.55315000	1.61786400
127.99999257	0.00000000	-18.87918000	1.99311000
128.19999256	0.00000000	-18.50394000	2.73745100
128.39999255	0.00000000	-17.39050000	3.11269700
128.59999254	0.00000000	-16.22785000	3.15575800
128.79999252	0.00000000	-15.43430000	3.15575800
128.99999251	0.00000000	-14.64690000	3.15575800
129.19999250	0.00000000	-14.27165000	3.15575800
129.39999249	0.00000000	-14.27165000	3.11269700
129.59999248	0.00000000	-14.69611000	2.73745100
129.79999246	0.00000000	-15.80955000	1.99311000
129.99999245	0.00000000	-16.97219000	1.66707700
130.19999244	0.00000000	-17.76575000	1.99311000
130.39999243	0.00000000	-18.50394000	2.73745100
130.59999242	0.00000000	-18.46087000	3.11269700
130.79999241	0.00000000	-17.39050000	3.15575800
130.99999239	0.00000000	-16.22785000	3.15575800
131.19999238	0.00000000	-15.43430000	3.15575800
131.39999237	0.00000000	-14.64690000	3.15575800
131.59999236	0.00000000	-14.32087000	3.11269700
131.79999235	0.00000000	-14.64690000	2.73745100
131.99999233	0.00000000	-15.39124000	1.99311000
132.19999232	0.00000000	-15.80955000	1.61786400
132.39999231	0.00000000	-16.22785000	1.57480300
132.59999230	0.00000000	-16.92298000	1.61786400
132.79999229	0.00000000	-16.97219000	1.99311000
132.99999227	0.00000000	-16.60310000	2.78051200
133.19999226	0.00000000	-16.59695000	3.53100400
133.39999225	0.00000000	-16.18479000	4.31840500
133.59999224	0.00000000	-15.85261000	4.64443900
133.79999223	0.00000000	-15.80955000	4.31840500
133.99999222	0.00000000	-15.80955000	3.57406500
134.19999220	0.00000000	-15.80955000	3.15575800
134.39999219	0.00000000	-15.80955000	2.73745100
134.59999218	0.00000000	-15.80955000	1.99311000
134.79999217	0.00000000	-15.80955000	1.61786400
134.99999216	0.00000000	-15.80955000	1.57480300
135.19999214	0.00000000	-15.80955000	1.57480300
135.39999213	0.00000000	-15.80955000	1.61786400
135.59999212	0.00000000	-15.80955000	1.99311000
135.79999211	0.00000000	-15.85261000	2.78051200
135.99999210	0.00000000	-16.22785000	3.53100400
136.19999208	0.00000000	-16.97219000	4.31840500
136.39999207	0.00000000	-17.34744000	4.69365100
136.59999206	0.00000000	-17.39050000	4.69365100
136.79999205	0.00000000	-17.39050000	4.31840500
136.99999204	0.00000000	-17.34744000	3.57406500
137.19999203	0.00000000	-16.92298000	3.15575800
137.39999201	0.00000000	-15.80955000	2.73745100
137.59999200	0.00000000	-14.69611000	1.99311000
137.79999199	0.00000000	-14.27165000	1.61786400
137.99999198	0.00000000	-14.27165000	1.57480300
138.19999197	0.00000000	-14.64690000	1.57480300
138.39999195	0.00000000	-15.43430000	1.61786400
138.59999194	0.00000000	-16.18479000	1.99311000
138.79999193	0.00000000	-16.97219000	2.73745100
138.99999192	0.00000000	-17.34744000	3.15575800
139.19999191	0.00000000	-17.39050000	3.57406500
139.39999189	0.00000000	-17.34744000	4.31840500
139.59999188	0.00000000	-16.97219000	4.69365100
139.79999187	0.00000000	-16.22785000	4.69365100
139.99999186	0.00000000	-15.85261000	4.31840500
140.19999185	0.00000000	-15.80955000	3.53100400
140.39999184	0.00000000	-15.80955000	2.78051200
140.59999182	0.00000000	-15.80955000	1.99311000
140.79999181	0.00000000	-15.80955000	1.61786400
140.99999180	0.00000000	-15.85261000	1.57480300
141.19999179	0.00000000	-16.22785000	1.57480300
141.39999178	0.00000000	-16.97219000	1.61786400
141.59999176	0.00000000	-17.29823000	1.99311000
141.79999175	0.00000000	-17.01525000	2.78051200
141.99999174	0.00000000	-16.56004000	3.53100400
142.19999173	0.00000000	-16.22170000	4.31840500
142.39999172	0.00000000	-15.44045000	4.69365100
142.59999170	0.00000000	-15.47736000	4.69365100
142.79999169	0.00000000	-15.76649000	4.31840500
142.99999168	0.00000000	-15.80955000	3.53100400
143.19999167	0.00000000	-15.80955000	2.78051200
143.39999166	0.00000000	-15.80955000	1.99311000
143.59999165	0.00000000	-15.80955000	1.61786400
143.79999163	0.00000000	-15.80955000	1.57480300
143.99999162	0.00000000	-15.80955000	1.61786400
144.19999161	0.00000000	-15.80955000	1.99311000
144.39999160	0.00000000	-15.80955000	2.78051200
144.59999159	0.00000000	-15.80955000	3.53100400
144.79999157	0.00000000	-15.80955000	4.31840500
144.99999156	0.00000000	-15.80955000	4.69365100
145.19999155	0.00000000	-15.80955000	4.69365100
145.39999154	0.00000000	-15.85261000	4.31840500
145.59999153	0.00000000	-16.22785000	3.53100400
145.79999151	0.00000000	-16.97219000	2.78051200
145.99999150	0.00000000	-17.34744000	1.99311000
146.19999149	0.00000000	-17.34744000	1.61786400
146.39999148	0.00000000	-16.97219000	1.57480300
146.59999147	0.00000000	-16.22785000	1.57480300
146.79999146	0.00000000	-15.85261000	1.61786400
146.99999144	0.00000000	-15.80955000	1.99311000
147.19999143	0.00000000	-15.80955000	2.73745100
147.39999142	0.00000000	-15.80955000	3.11269700
147.59999141	0.00000000	-15.80955000	3.15575800
147.79999140	0.00000000	-15.80955000	3.19881900
147.99999138	0.00000000	-15.85261000	3.53100400
148.19999137	0.00000000	-16.22785000	3.90009800
148.39999136	0.00000000	-16.97219000	3.53100400
148.59999135	0.00000000	-17.29823000	3.15575800
148.79999134	0.00000000	-16.97219000	2.73745100
148.99999132	0.00000000	-16.22785000	1.99311000
149.19999131	0.00000000	-15.85261000	1.61786400
149.39999130	0.00000000	-15.80955000	1.57480300
149.59999129	0.00000000	-15.80955000	1.61786400
149.79999128	0.00000000	-15.80955000	1.99311000
149.99999127	0.00000000	-15.80955000	2.73745100
150.19999125	0.00000000	-15.80955000	3.11269700
150.39999124	0.00000000	-15.80955000	3.15575800
150.59999123	0.00000000	-15.80955000	3.15575800
150.79999122	0.00000000	-15.85261000	3.15575800
150.99999121	0.00000000	-16.22785000	3.15575800
151.19999119	0.00000000	-16.97219000	3.15575800
151.39999118	0.00000000	-17.34744000	3.15575800
151.59999117	0.00000000	-17.34744000	3.15575800
151.79999116	0.00000000	-16.97219000	3.15575800
151.99999115	0.00000000	-16.22785000	3.15575800
152.19999113	0.00000000	-15.85261000	3.15575800
152.39999112	0.00000000	-15.80955000	3.15575800
152.59999111	0.00000000	-15.80955000	3.15575800
152.79999110	0.00000000	-15.80955000	3.15575800
152.99999109	0.00000000	-15.80955000	3.15575800
153.19999108	0.00000000	-15.80955000	3.15575800
153.39999106	0.00000000	-15.80955000	3.15575800
153.59999105	0.00000000	-15.85261000	3.15575800
153.79999104	0.00000000	-16.22785000	3.15575800
153.99999103	0.00000000	-16.97219000	3.15575800
154.19999102	0.00000000	-17.34744000	3.15575800
154.39999100	0.00000000	-17.34744000	3.15575800
154.59999099	0.00000000	-16.97219000	3.15575800
154.79999098	0.00000000	-16.22785000	3.15575800
154.99999097	0.00000000	-15.85261000	3.11269700
155.19999096	0.00000000	-15.80955000	2.73745100
155.39999094	0.00000000	-15.76649000	1.99311000
155.59999093	0.00000000	-15.43430000	1.66707700
155.79999092	0.00000000	-15.02214000	1.99311000
155.99999091	0.00000000	-15.05905000	2.73745100
156.19999090	0.00000000	-15.02214000	3.11269700
156.39999089	0.00000000	-15.43430000	3.19881900
156.59999087	0.00000000	-15.80955000	3.57406500
156.79999086	0.00000000	-16.18479000	4.31840500
156.99999085	0.00000000	-16.59695000	4.69365100
157.19999084	0.00000000	-16.60310000	4.69365100
157.39999083	0.00000000	-16.97219000	4.31840500
157.59999081	0.00000000	-16.92298000	3.57406500
157.79999080	0.00000000	-16.22785000	3.15575800
157.99999079	0.00000000	-15.80955000	2.73745100
158.19999078	0.00000000	-15.43430000	1.99311000
158.39999077	0.00000000	-15.02214000	1.61786400
158.59999075	0.00000000	-15.01599000	1.61786400
158.79999074	0.00000000	-14.64690000	1.99311000
158.99999073	0.00000000	-14.69611000	2.73745100
159.19999072	0.00000000	-15.39124000	3.11269700
159.39999071	0.00000000	-15.76649000	3.15575800
159.59999070	0.00000000	-15.80955000	3.19881900
159.79999068	0.00000000	-15.85261000	3.53100400
159.99999067	0.00000000	-16.18479000	3.90009800
160.19999066	0.00000000	-16.55389000	3.53100400
160.39999065	0.00000000	-16.18479000	3.19881900
160.59999064	0.00000000	-15.85261000	3.15575800
160.79999062	0.00000000	-15.80955000	3.11269700
160.99999061	0.00000000	-15.80955000	2.73745100
161.19999060	0.00000000	-15.80955000	1.99311000
161.39999059	0.00000000	-15.80955000	1.61786400
161.59999058	0.00000000	-15.80955000	1.61786400
161.79999056	0.00000000	-15.80955000	1.99311000
161.99999055	0.00000000	-15.80955000	2.73745100
162.19999054	0.00000000	-15.80955000	3.11269700
162.39999053	0.00000000	-15.80955000	3.15575800
162.59999052	0.00000000	-15.80955000	3.15575800
162.79999051	0.00000000	-15.80955000	3.15575800
162.99999049	0.00000000	-15.85261000	3.15575800
163.19999048	0.00000000	-16.22785000	3.15575800
163.39999047	0.00000000	-16.97219000	3.15575800
163.59999046	0.00000000	-17.34744000	3.15575800
163.79999045	0.00000000	-17.34744000	3.11269700
163.99999043	0.00000000	-16.97219000	2.78051200
164.19999042	0.00000000	-16.22785000	2.41141700
164.39999041	0.00000000	-15.85261000	2.78051200
164.59999040	0.00000000	-15.80955000	3.11269700
164.79999039	0.00000000	-15.76649000	3.15575800
164.99999037	0.00000000	-15.39124000	3.15575800
165.19999036	0.00000000	-14.69611000	3.15575800
165.39999035	0.00000000	-14.69611000	3.15575800
165.59999034	0.00000000	-15.39124000	3.15575800
165.79999033	0.00000000	-15.76649000	3.15575800
165.99999032	0.00000000	-15.80955000	3.15575800
166.19999030	0.00000000	-15.80955000	3.15575800
166.39999029	0.00000000	-15.80955000	3.15575800
166.59999028	0.00000000	-15.80955000	3.15575800
166.79999027	0.00000000	-15.80955000	3.15575800
166.99999026	0.00000000	-15.80955000	3.15575800
167.19999024	0.00000000	-15.80955000	3.15575800
167.39999023	0.00000000	-15.80955000	3.15575800
167.59999022	0.00000000	-15.80955000	3.15575800
167.79999021	0.00000000	-15.80955000	3.15575800
167.99999020	0.00000000	-15.80955000	3.11269700
168.19999018	0.00000000	-15.80955000	2.78051200
168.39999017	0.00000000	-15.80955000	2.41141700
168.59999016	0.00000000	-15.80955000	2.78051200
168.79999015	0.00000000	-15.80955000	3.11269700
168.99999014	0.00000000	-15.80955000	3.15575800
169.19999013	0.00000000	-15.80955000	3.15575800
169.39999011	0.00000000	-15.80955000	3.15575800
169.59999010	0.00000000	-15.80955000	3.15575800
169.79999009	0.00000000	-15.80955000	3.15575800
169.99999008	0.00000000	-15.80955000	3.15575800
170.19999007	0.00000000	-15.80955000	3.15575800
170.39999005	0.00000000	-15.80955000	3.15575800
170.59999004	0.00000000	-15.80955000	3.15575800
170.79999003	0.00000000	-15.80955000	3.15575800
170.99999002	0.00000000	-15.80955000	3.15575800
171.19999001	0.00000000	-15.80955000	3.15575800
171.39998999	0.00000000	-15.80955000	3.15575800
171.59998998	0.00000000	-15.80955000	3.15575800
171.79998997	0.00000000	-15.80955000	3.15575800
171.99998996	0.00000000	-15.80955000	3.15575800
172.19998995	0.00000000	-15.80955000	3.15575800
172.39998994	0.00000000	-15.80955000	3.15575800
172.59998992	0.00000000	-15.80955000	3.15575800
172.79998991	0.00000000	-15.80955000	3.15575800
172.99998990	0.00000000	-15.80955000	3.15575800
173.19998989	0.00000000	-15.80955000	3.15575800
173.39998988	0.00000000	-15.80955000	3.15575800
173.59998986	0.00000000	-15.80955000	3.15575800
173.79998985	0.00000000	-15.80955000	3.15575800
173.99998984	0.00000000	-15.76649000	3.15575800
174.19998983	0.00000000	-15.43430000	3.15575800
174.39998982	0.00000000	-15.06521000	3.15575800
174.59998980	0.00000000	-15.43430000	3.15575800
174.79998979	0.00000000	-15.76649000	3.15575800
174.99998978	0.00000000	-15.80955000	3.15575800
175.19998977	0.00000000	-15.80955000	3.15575800
175.39998976	0.00000000	-15.80955000	3.15575800
175.59998975	0.00000000	-15.76649000	3.15575800
175.79998973	0.00000000	-15.43430000	3.15575800
175.99998972	0.00000000	-15.06521000	3.15575800
176.19998971	0.00000000	-15.43430000	3.15575800
176.39998970	0.00000000	-15.76649000	3.15575800
176.59998969	0.00000000	-15.80955000	3.15575800
176.79998967	0.00000000	-15.80955000	3.15575800
176.99998966	0.00000000	-15.80955000	3.15575800
177.19998965	0.00000000	-15.80955000	3.15575800
177.39998964	0.00000000	-15.80955000	3.15575800
177.59998963	0.00000000	-15.80955000	3.15575800
177.79998961	0.00000000	-15.80955000	3.15575800
177.99998960	0.00000000	-15.80955000	3.15575800
178.19998959	0.00000000	-15.85261000	3.15575800
178.39998958	0.00000000	-16.18479000	3.15575800
178.59998957	0.00000000	-16.55389000	3.15575800
178.79998956	0.00000000	-16.18479000	3.15575800
178.99998954	0.00000000	-15.85261000	3.15575800
179.19998953	0.00000000	-15.80955000	3.15575800
179.39998952	0.00000000	-15.80955000	3.15575800
179.59998951	0.00000000	-15.76649000	3.15575800
179.79998950	0.00000000	-15.43430000	3.15575800
179.99998948	0.00000000	-15.06521000	3.15575800
180.19998947	0.00000000	-15.43430000	3.15575800
180.39998946	0.00000000	-15.76649000	3.15575800
180.59998945	0.00000000	-15.80955000	3.15575800
180.79998944	0.00000000	-15.80955000	3.15575800
180.99998942	0.00000000	-15.80955000	3.15575800
181.19998941	0.00000000	-15.80955000	3.15575800
181.39998940	0.00000000	-15.80955000	3.15575800
181.59998939	0.00000000	-15.80955000	3.15575800
181.79998938	0.00000000	-15.80955000	3.15575800
181.99998937	0.00000000	-15.80955000	3.15575800
182.19998935	0.00000000	-15.80955000	3.15575800
182.39998934	0.00000000	-15.80955000	3.15575800
182.59998933	0.00000000	-15.80955000	3.15575800
182.79998932	0.00000000	-15.80955000	3.15575800
182.99998931	0.00000000	-15.80955000	3.15575800
183.19998929	0.00000000	-15.80955000	3.11269700
183.39998928	0.00000000	-15.80955000	2.78051200
183.59998927	0.00000000	-15.80955000	2.41141700
183.79998926	0.00000000	-15.80955000	2.78051200
183.99998925	0.00000000	-15.80955000	3.11269700
184.19998923	0.00000000	-15.80955000	3.15575800
184.39998922	0.00000000	-15.80955000	3.15575800
184.59998921	0.00000000	-15.80955000	3.15575800
184.79998920	0.00000000	-15.80955000	3.15575800
184.99998919	0.00000000	-15.80955000	3.15575800
185.19998918	0.00000000	-15.80955000	3.15575800
185.39998916	0.00000000	-15.76649000	3.15575800
185.59998915	0.00000000	-15.43430000	3.15575800
185.79998914	0.00000000	-15.02214000	3.11269700
185.99998913	0.00000000	-15.05905000	2.73745100
186.19998912	0.00000000	-15.02214000	1.99311000
186.39998910	0.00000000	-15.43430000	1.66707700
186.59998909	0.00000000	-15.76649000	1.99311000
186.79998908	0.00000000	-15.80955000	2.73745100
186.99998907	0.00000000	-15.80955000	3.11269700
187.19998906	0.00000000	-15.80955000	3.15575800
187.39998904	0.00000000	-15.80955000	3.19881900
187.59998903	0.00000000	-15.80955000	3.53100400
187.79998902	0.00000000	-15.80955000	3.90009800
187.99998901	0.00000000	-15.80955000	3.53100400
188.19998900	0.00000000	-15.80955000	3.19881900
188.39998899	0.00000000	-15.80955000	3.15575800
188.59998897	0.00000000	-15.80955000	3.11269700
188.79998896	0.00000000	-15.80955000	2.78051200
188.99998895	0.00000000	-15.80955000	2.36835600
189.19998894	0.00000000	-15.80955000	2.40526600
189.39998893	0.00000000	-15.80955000	2.36835600
189.59998891	0.00000000	-15.80955000	2.78051200
189.79998890	0.00000000	-15.80955000	3.11269700
189.99998889	0.00000000	-15.80955000	3.15575800
190.19998888	0.00000000	-15.80955000	3.15575800
190.39998887	0.00000000	-15.80955000	3.15575800
190.59998885	0.00000000	-15.80955000	3.15575800
190.79998884	0.00000000	-15.80955000	3.15575800
190.99998883	0.00000000	-15.80955000	3.15575800
191.19998882	0.00000000	-15.76649000	3.15575800
191.39998881	0.00000000	-15.43430000	3.15575800
191.59998880	0.00000000	-15.02214000	3.15575800
191.79998878	0.00000000	-15.01599000	3.15575800
191.99998877	0.00000000	-14.64690000	3.15575800
192.19998876	0.00000000	-14.69611000	3.15575800
192.39998875	0.00000000	-15.39124000	3.15575800
192.59998874	0.00000000	-15.76649000	3.15575800
192.79998872	0.00000000	-15.80955000	3.15575800
192.99998871	0.00000000	-15.80955000	3.15575800
193.19998870	0.00000000	-15.80955000	3.15575800
193.39998869	0.00000000	-15.80955000	3.15575800
193.59998868	0.00000000	-15.80955000	3.15575800
193.79998866	0.00000000	-15.80955000	3.15575800
193.99998865	0.00000000	-15.80955000	3.15575800
194.19998864	0.00000000	-15.76649000	3.15575800
194.39998863	0.00000000	-15.43430000	3.15575800
194.59998862	0.00000000	-15.02214000	3.15575800
194.79998861	0.00000000	-15.05905000	3.15575800
194.99998859	0.00000000	-15.02214000	3.15575800
195.19998858	0.00000000	-15.43430000	3.15575800
195.39998857	0.00000000	-15.76649000	3.15575800
195.59998856	0.00000000	-15.80955000	3.15575800
195.79998855	0.00000000	-15.80955000	3.15575800
195.99998853	0.00000000	-15.80955000	3.15575800
