Time	Channel A	Channel B	Channel C
(us)	(V)	(mV)	(mV)

-4.59999956	0.00000000	-56.92052000	-27.25763000
-4.39999957	0.00000000	-56.92052000	-27.95275000
-4.19999958	0.00000000	-56.92052000	-28.00197000
-3.99999959	0.00000000	-56.92052000	-27.67593000
-3.79999960	0.00000000	-56.92052000	-28.04503000
-3.59999962	0.00000000	-56.92052000	-28.37721000
-3.39999963	0.00000000	-56.92052000	-28.42027000
-3.19999964	0.00000000	-56.92052000	-28.42027000
-2.99999965	0.00000000	-56.92052000	-28.42027000
-2.79999966	0.00000000	-56.92052000	-28.42027000
-2.59999968	0.00000000	-56.92052000	-28.42027000
-2.39999969	0.00000000	-56.92052000	-28.42027000
-2.19999970	0.00000000	-56.92052000	-28.42027000
-1.99999971	0.00000000	-56.92052000	-28.42027000
-1.79999972	0.00000000	-56.92052000	-28.42027000
-1.59999973	0.00000000	-56.92052000	-28.42027000
-1.39999975	0.00000000	-56.92052000	-28.37721000
-1.19999976	0.00000000	-56.92052000	-28.00197000
-0.99999977	0.00000000	-56.92052000	-27.30684000
-0.79999978	0.00000000	-56.92052000	-27.30684000
-0.59999979	0.00000000	-56.92052000	-28.00197000
-0.39999981	0.15871060	-56.92052000	-28.37721000
-0.19999982	0.47736220	-56.92052000	-28.42027000
0.00000017	0.79601380	-56.92052000	-28.42027000
0.20000016	0.95533960	-56.92052000	-28.42027000
0.40000015	0.95533960	-56.92052000	-28.42027000
0.60000013	0.63668800	-56.92052000	-28.42027000
0.80000012	0.00000000	-56.92052000	-28.42027000
1.00000011	-1.11466500	-56.92052000	-28.42027000
1.20000010	-2.07062000	-56.92052000	-28.42027000
1.40000009	-2.70792300	-56.92052000	-28.37721000
1.60000008	-2.70792300	-56.92052000	-28.00197000
1.80000006	-1.91129400	-56.92052000	-27.25763000
2.00000005	-0.31803640	-56.92052000	-26.88238000
2.20000004	1.75196900	-56.96358000	-26.88238000
2.40000003	3.82258900	-57.29576000	-27.21457000
2.60000002	5.09719500	-57.66486000	-27.62672000
2.80000000	5.25652100	-57.29576000	-27.63287000
2.99999999	3.98191400	-56.96358000	-28.04503000
3.19999998	1.43331700	-56.92052000	-28.37721000
3.39999997	-1.91129400	-56.92052000	-28.42027000
3.59999996	-5.09719500	-56.92052000	-28.37721000
3.79999994	-7.48646600	-56.92052000	-28.00197000
3.99999993	-7.96444400	-56.92052000	-27.21457000
4.19999992	-6.37180100	-56.92052000	-26.51329000
4.39999991	-3.02657500	-56.92052000	-26.10113000
4.59999990	1.27399100	-56.92052000	-26.46407000
4.79999989	5.57517200	-56.92052000	-26.79626000
4.99999987	8.44242100	-56.92052000	-26.88238000
5.19999986	9.55770200	-56.92052000	-27.25763000
5.39999985	7.96444400	-56.92052000	-27.95275000
5.59999984	4.61921700	-56.92052000	-28.00197000
5.79999983	-0.15871060	-56.92052000	-27.63287000
5.99999981	-4.77854300	-56.92052000	-27.62672000
6.19999980	-8.28309500	-56.92052000	-27.17150000
6.39999979	-9.39837600	-56.92052000	-26.51329000
6.59999978	-8.44242100	-56.92052000	-26.10113000
6.79999977	-5.41584600	-56.92052000	-26.46407000
6.99999975	-1.11466500	-56.92052000	-26.79626000
7.19999974	3.18590100	-56.92052000	-26.83932000
7.39999973	6.37180100	-56.92052000	-26.83932000
7.59999972	7.80511800	-56.92052000	-26.83932000
7.79999971	7.16781500	-56.92052000	-26.88238000
7.99999970	4.93786900	-56.92052000	-27.25763000
8.19999968	1.59264300	-56.92052000	-28.00197000
8.39999967	-1.59264300	-56.92052000	-28.37721000
8.59999966	-3.98191400	-56.92052000	-28.37721000
8.79999965	-5.09719500	-56.92052000	-28.00197000
8.99999964	-4.93786900	-56.92052000	-27.25763000
9.19999962	-3.50393700	-56.92052000	-26.88238000
9.39999961	-1.59264300	-56.92052000	-26.83932000
9.59999960	0.31803640	-56.92052000	-26.88238000
9.79999959	1.75196900	-56.92052000	-27.25763000
9.99999958	2.54859700	-56.92052000	-28.00197000
10.19999956	2.38927200	-56.92052000	-28.37721000
10.39999955	1.91129400	-56.92052000	-28.42027000
10.59999954	0.95533960	-56.92052000	-28.42027000
10.79999953	0.15871060	-56.92052000	-28.42027000
10.99999952	-0.47736220	-56.92052000	-28.42027000
11.19999951	-0.79601380	-56.92052000	-28.42027000
11.39999949	-0.95533960	-56.96358000	-28.42027000
11.59999948	-0.79601380	-57.29576000	-28.42027000
11.79999947	-0.63668800	-57.66486000	-28.42027000
11.99999946	-0.31803640	-57.29576000	-28.42027000
12.19999945	-0.15871060	-56.96358000	-28.42027000
12.39999943	-0.15871060	-56.96358000	-28.42027000
12.59999942	0.00000000	-57.29576000	-28.42027000
12.79999941	0.00000000	-57.66486000	-28.42027000
12.99999940	0.00000000	-57.33883000	-28.42027000
13.19999939	0.15871060	-57.33883000	-28.42027000
13.39999937	0.00000000	-57.70792000	-28.42027000
13.59999936	0.00000000	-57.71407000	-28.42027000
13.79999935	0.00000000	-58.08316000	-28.42027000
13.99999934	-0.15871060	-58.08316000	-28.42027000
14.19999933	-0.15871060	-57.71407000	-28.42027000
14.39999932	-0.15871060	-57.70792000	-28.42027000
14.59999930	0.00000000	-57.33883000	-28.42027000
14.79999929	0.00000000	-57.38804000	-28.42027000
14.99999928	0.00000000	-58.03395000	-28.42027000
15.19999927	0.00000000	-58.08316000	-28.42027000
15.39999926	0.00000000	-57.75713000	-28.42027000
15.59999924	0.00000000	-58.12622000	-28.42027000
15.79999923	0.00000000	-58.45841000	-28.37721000
15.99999922	0.00000000	-58.50147000	-28.04503000
16.19999921	0.00000000	-58.50147000	-27.67593000
16.39999920	0.00000000	-58.45841000	-28.04503000
16.59999919	-0.15871060	-58.08316000	-28.37721000
16.79999917	0.00000000	-57.29576000	-28.37721000
16.99999916	0.00000000	-56.54527000	-28.04503000
17.19999915	0.00000000	-55.75787000	-27.63287000
17.39999914	0.00000000	-55.38263000	-27.62672000
17.59999913	0.00000000	-55.38263000	-27.25763000
17.79999911	0.00000000	-55.75787000	-27.25763000
17.99999910	0.00000000	-56.58833000	-27.58366000
18.19999909	0.00000000	-57.71407000	-27.21457000
18.39999908	0.00000000	-59.33194000	-26.88238000
18.59999907	0.00000000	-60.83292000	-26.83932000
18.79999905	0.00000000	-62.40772000	-26.88238000
18.99999904	0.00000000	-63.06594000	-27.21457000
19.19999903	0.00000000	-62.31545000	-27.62672000
19.39999902	0.00000000	-59.99015000	-27.58981000
19.59999901	0.00000000	-56.87746000	-27.62672000
19.79999900	0.00000000	-53.34030000	-27.21457000
19.99999898	0.00000000	-49.52633000	-26.88238000
20.19999897	0.00000000	-46.87500000	-26.83932000
20.39999896	0.00000000	-46.49975000	-26.88238000
20.59999895	0.00000000	-48.49901000	-27.21457000
20.79999894	0.00000000	-53.19881000	-27.58366000
20.99999892	0.00000000	-60.13164000	-27.21457000
21.19999891	0.00000000	-67.48277000	-26.93159000
21.39999890	0.00000000	-73.67126000	-27.21457000
21.59999889	0.00000000	-77.44217000	-27.62672000
21.79999888	0.00000000	-76.97465000	-27.63287000
21.99999886	0.00000000	-71.49360000	-28.04503000
22.19999885	0.00000000	-61.80487000	-28.37721000
22.39999884	0.00000000	-49.39099000	-28.42027000
22.59999883	0.00000000	-37.14321000	-28.42027000
22.79999882	0.00000000	-28.30955000	-28.42027000
22.99999881	0.00000000	-26.02116000	-28.37721000
23.19999879	0.00000000	-30.72096000	-28.00197000
23.39999878	0.00000000	-42.03371000	-27.21457000
23.59999877	0.00000000	-58.67987000	-26.46407000
23.79999876	0.00000000	-76.79011000	-25.68282000
23.99999875	0.00000000	-92.18749000	-25.35679000
24.19999873	0.00000000	-100.56590000	-25.72589000
24.39999872	0.00000000	-99.03420000	-26.88853000
24.59999871	0.00000000	-87.77681000	-28.42027000
24.79999870	0.00000000	-69.20522000	-30.00123000
24.99999869	0.00000000	-46.78272000	-31.53297000
25.19999867	0.00000000	-25.97810000	-32.68946000
25.39999866	0.00000000	-11.69414000	-33.06471000
25.59999865	0.00000000	-7.51107200	-32.64640000
25.79999864	0.00000000	-14.90526000	-31.06545000
25.99999863	0.00000000	-32.67717000	-28.32800000
26.19999862	0.00000000	-56.96358000	-24.84621000
26.39999860	0.00000000	-81.67445000	-20.98917000
26.59999859	0.00000000	-100.99040000	-17.96260000
26.79999858	0.00000000	-110.66070000	-16.80610000
26.99999857	0.00000000	-108.33540000	-18.05487000
27.19999856	0.00000000	-94.83882000	-21.96112000
27.39999854	0.00000000	-73.20374000	-28.55561000
27.59999853	0.00000000	-48.54207000	-36.22662000
27.79999852	0.00000000	-26.86393000	-43.19020000
27.99999851	0.00000000	-12.90600000	-47.79773000
28.19999850	0.00000000	-8.99975300	-48.86811000
28.39999848	0.00000000	-15.93258000	-45.28789000
28.59999847	0.00000000	-31.74827000	-36.78642000
28.79999846	0.00000000	-52.59596000	-25.26452000
28.99999845	0.00000000	-73.85580000	-13.65034000
29.19999844	0.00000000	-90.52042000	-4.35531500
29.39999843	0.00000000	-99.49556000	0.98425190
29.59999841	0.00000000	-99.53863000	0.47982280
29.79999840	0.00000000	-91.07406000	-6.90821800
29.99999839	0.00000000	-76.41486000	-20.01107000
30.19999838	0.00000000	-58.96899000	-35.80217000
30.39999837	0.00000000	-42.35359000	-50.48597000
30.59999835	0.00000000	-29.93356000	-60.94365000
30.79999834	0.00000000	-24.48942000	-65.12672000
30.99999833	0.00000000	-26.31028000	-61.59571000
31.19999832	0.00000000	-34.44267000	-50.39985000
31.39999831	0.00000000	-46.78272000	-34.18430000
31.59999829	0.00000000	-60.73450000	-16.38779000
31.79999828	0.00000000	-73.11761000	-0.54749010
31.99999827	0.00000000	-81.67445000	9.81176100
32.19999826	0.00000000	-84.79330000	12.13091000
32.39999825	0.00000000	-82.14198000	5.58562900
32.59999824	0.00000000	-74.83390000	-7.88631800
32.79999822	0.00000000	-64.73917000	-25.30758000
32.99999821	0.00000000	-53.93700000	-43.10408000
33.19999820	0.00000000	-44.64198000	-57.78789000
33.39999819	0.00000000	-39.24089000	-66.24015000
33.59999818	0.00000000	-38.40428000	-66.28937000
33.79999816	0.00000000	-42.21825000	-58.24926000
33.99999815	0.00000000	-49.15108000	-44.68504000
34.19999814	0.00000000	-57.29576000	-28.04503000
34.39999813	0.00000000	-65.39124000	-11.41732000
34.59999812	0.00000000	-71.16142000	1.26722400
34.79999810	0.00000000	-73.16068000	7.48646600
34.99999809	0.00000000	-71.62893000	5.58562900
35.19999808	0.00000000	-66.97219000	-3.23572800
35.39999807	0.00000000	-60.13164000	-16.80610000
35.59999806	0.00000000	-53.57406000	-32.56028000
35.79999805	0.00000000	-49.28642000	-46.40133000
35.99999803	0.00000000	-47.33637000	-54.58292000
36.19999802	0.00000000	-48.54207000	-56.20694000
36.39999801	0.00000000	-52.73130000	-51.55635000
36.59999800	0.00000000	-58.45841000	-41.52312000
36.79999799	0.00000000	-63.85334000	-28.51255000
36.99999797	0.00000000	-67.30437000	-16.19710000
37.19999796	0.00000000	-68.13484000	-8.10777600
37.39999795	0.00000000	-66.22785000	-5.74557000
37.59999794	0.00000000	-62.77681000	-9.55339400
37.79999793	0.00000000	-58.45841000	-17.96260000
37.99999791	0.00000000	-53.85088000	-28.32800000
38.19999790	0.00000000	-50.03691000	-37.89985000
38.39999789	0.00000000	-48.49901000	-43.66388000
38.59999788	0.00000000	-49.61245000	-44.08833000
38.79999787	0.00000000	-52.64517000	-39.48080000
38.99999786	0.00000000	-56.54527000	-31.07160000
39.19999784	0.00000000	-60.45767000	-21.49975000
39.39999783	0.00000000	-64.31471000	-13.87180000
39.59999782	0.00000000	-66.97219000	-10.43922000
39.79999781	0.00000000	-67.43970000	-12.75836000
39.99999780	0.00000000	-66.27091000	-19.96186000
40.19999778	0.00000000	-63.93946000	-29.58292000
40.39999777	0.00000000	-60.41461000	-38.78568000
40.59999776	0.00000000	-56.54527000	-45.33095000
40.79999775	0.00000000	-52.68823000	-47.19488000
40.99999774	0.00000000	-49.98769000	-43.75615000
41.19999772	0.00000000	-49.19414000	-35.71604000
41.39999771	0.00000000	-49.94463000	-25.72589000
41.59999770	0.00000000	-52.31299000	-16.52313000
41.79999769	0.00000000	-55.75787000	-10.34695000
41.99999768	0.00000000	-59.61491000	-9.17814900
42.19999767	0.00000000	-62.73376000	-12.57382000
42.39999765	0.00000000	-64.73302000	-19.54355000
42.59999764	0.00000000	-65.89567000	-28.37721000
42.79999763	0.00000000	-65.85260000	-36.82948000
42.99999762	0.00000000	-64.35777000	-42.63656000
43.19999761	0.00000000	-62.03863000	-44.59276000
43.39999759	0.00000000	-59.75024000	-42.72884000
43.59999758	0.00000000	-57.75713000	-37.71530000
43.79999757	0.00000000	-56.58833000	-31.20078000
43.99999756	0.00000000	-55.75787000	-24.65551000
44.19999755	0.00000000	-55.38263000	-20.01107000
44.39999753	0.00000000	-55.33957000	-18.01181000
44.59999752	0.00000000	-55.33957000	-18.38706000
44.79999751	0.00000000	-55.33957000	-21.08145000
44.99999750	0.00000000	-55.38263000	-25.26452000
45.19999749	0.00000000	-55.80708000	-29.49065000
45.39999748	0.00000000	-57.01279000	-32.64640000
45.59999746	0.00000000	-58.96899000	-34.55955000
45.79999745	0.00000000	-61.70644000	-34.96555000
45.99999744	0.00000000	-64.78223000	-33.43996000
46.19999743	0.00000000	-67.52583000	-31.20078000
46.39999742	0.00000000	-69.39591000	-28.79552000
46.59999740	0.00000000	-69.67273000	-26.51329000
46.79999739	0.00000000	-66.92913000	-24.56324000
46.99999738	0.00000000	-61.57726000	-23.81890000
47.19999737	0.00000000	-55.33957000	-24.15108000
47.39999736	0.00000000	-49.15108000	-25.30758000
47.59999734	0.00000000	-44.17446000	-26.88853000
47.79999733	0.00000000	-42.31053000	-28.83858000
47.99999732	0.00000000	-44.26673000	-31.15772000
48.19999731	0.00000000	-50.07997000	-33.06471000
48.39999730	0.00000000	-58.55069000	-34.18430000
48.59999729	0.00000000	-67.43970000	-33.76599000
48.79999727	0.00000000	-74.79084000	-31.48991000
48.99999726	0.00000000	-78.98006000	-28.46333000
49.19999725	0.00000000	-78.55560000	-25.68282000
49.39999724	0.00000000	-73.16068000	-23.35753000
49.59999723	0.00000000	-64.31471000	-21.45669000
49.79999721	0.00000000	-54.31225000	-21.16757000
49.99999720	0.00000000	-45.80462000	-23.03149000
50.19999719	0.00000000	-40.77264000	-26.51329000
50.39999718	0.00000000	-40.03444000	-30.32726000
50.59999717	0.00000000	-44.26673000	-33.85211000
50.79999715	0.00000000	-52.26993000	-36.13435000
50.99999714	0.00000000	-61.15280000	-36.87254000
51.19999713	0.00000000	-68.92839000	-35.29773000
51.39999712	0.00000000	-74.32332000	-31.48376000
51.59999711	0.00000000	-75.81815000	-26.88238000
51.79999710	0.00000000	-72.78542000	-22.61319000
51.99999708	0.00000000	-66.22785000	-19.54355000
52.19999707	0.00000000	-58.16929000	-18.38706000
52.39999706	0.00000000	-50.49828000	-19.50049000
52.59999705	0.00000000	-45.89075000	-22.19488000
52.79999704	0.00000000	-45.42937000	-25.72589000
52.99999702	0.00000000	-48.49901000	-29.95817000
53.19999701	0.00000000	-54.22613000	-33.71678000
53.39999700	0.00000000	-60.77756000	-35.29773000
53.59999699	0.00000000	-66.18479000	-34.60261000
53.79999698	0.00000000	-69.67273000	-32.69562000
53.99999696	0.00000000	-69.99876000	-29.95201000
54.19999695	0.00000000	-66.97219000	-26.93159000
54.39999694	0.00000000	-61.62032000	-24.61245000
54.59999693	0.00000000	-55.85014000	-23.81890000
54.79999692	0.00000000	-51.24261000	-24.19414000
54.99999691	0.00000000	-48.91732000	-25.72589000
55.19999689	0.00000000	-49.70472000	-27.95891000
55.39999688	0.00000000	-53.10654000	-29.49065000
55.59999687	0.00000000	-58.08316000	-29.90895000
55.79999686	0.00000000	-62.69069000	-29.49065000
55.99999685	0.00000000	-65.80955000	-27.95891000
56.19999683	0.00000000	-67.01525000	-25.72589000
56.39999682	0.00000000	-66.18479000	-24.23720000
56.59999681	0.00000000	-63.52116000	-24.23720000
56.79999680	0.00000000	-59.29502000	-25.81816000
56.99999679	0.00000000	-55.51796000	-28.88779000
57.19999677	0.00000000	-53.14960000	-32.68946000
57.39999676	0.00000000	-52.73130000	-35.71604000
57.59999675	0.00000000	-53.85088000	-36.87254000
57.79999674	0.00000000	-55.80708000	-35.71604000
57.99999673	0.00000000	-58.54454000	-32.60334000
58.19999672	0.00000000	-61.57111000	-27.95275000
58.39999670	0.00000000	-63.85334000	-22.61319000
58.59999669	0.00000000	-64.27164000	-18.38090000
58.79999668	0.00000000	-63.20127000	-16.47392000
58.99999667	0.00000000	-61.62032000	-17.26747000
59.19999666	0.00000000	-59.70718000	-21.16757000
59.39999664	0.00000000	-57.80634000	-27.34990000
59.59999663	0.00000000	-57.05585000	-34.64567000
59.79999662	0.00000000	-57.38804000	-41.10482000
59.99999661	0.00000000	-58.54454000	-44.21752000
60.19999660	0.00000000	-60.03937000	-43.47933000
60.39999658	0.00000000	-61.19586000	-39.57308000
60.59999657	0.00000000	-61.62032000	-32.60334000
60.79999656	0.00000000	-61.62032000	-24.23720000
60.99999655	0.00000000	-61.24508000	-17.31053000
61.19999654	0.00000000	-60.41461000	-13.73647000
61.39999653	0.00000000	-59.28888000	-13.36122000
61.59999651	0.00000000	-57.75713000	-16.15404000
61.79999650	0.00000000	-57.05585000	-22.69931000
61.99999649	0.00000000	-57.38804000	-31.11466000
62.19999648	0.00000000	-58.59375000	-38.82874000
62.39999647	0.00000000	-60.50073000	-44.26673000
62.59999645	0.00000000	-62.77681000	-46.12450000
62.79999644	0.00000000	-64.27164000	-43.79921000
62.99999643	0.00000000	-64.31471000	-37.29700000
63.19999642	0.00000000	-63.15207000	-28.88779000
63.39999641	0.00000000	-61.24508000	-21.12451000
63.59999639	0.00000000	-58.91978000	-15.27436000
63.79999638	0.00000000	-56.96358000	-12.24778000
63.99999637	0.00000000	-55.43184000	-12.99213000
64.19999636	0.00000000	-54.68750000	-17.54429000
64.39999635	0.00000000	-55.47490000	-23.68356000
64.59999634	0.00000000	-57.33883000	-29.95201000
64.79999632	0.00000000	-59.66412000	-35.75910000
64.99999631	0.00000000	-61.62032000	-39.99138000
65.19999630	0.00000000	-63.20127000	-41.52312000
65.39999629	0.00000000	-64.27164000	-40.03444000
65.59999628	0.00000000	-63.89641000	-36.22662000
65.79999626	0.00000000	-61.99557000	-31.57603000
65.99999625	0.00000000	-59.75024000	-26.88238000
66.19999624	0.00000000	-57.80634000	-22.65625000
66.39999623	0.00000000	-57.01279000	-19.91880000
66.59999622	0.00000000	-57.01279000	-19.03912000
66.79999620	0.00000000	-57.80634000	-19.03912000
66.99999619	0.00000000	-59.70718000	-19.87574000
67.19999618	0.00000000	-61.57111000	-22.23794000
67.39999617	0.00000000	-62.73376000	-25.63976000
67.59999616	0.00000000	-62.69069000	-29.16461000
67.79999615	0.00000000	-61.19586000	-31.90822000
67.99999613	0.00000000	-58.87672000	-34.31963000
68.19999612	0.00000000	-56.58833000	-36.17741000
68.39999611	0.00000000	-54.68750000	-36.96481000
68.59999610	0.00000000	-54.35531000	-36.13435000
68.79999609	0.00000000	-55.85014000	-33.80905000
68.99999607	0.00000000	-58.59375000	-29.95817000
69.19999606	0.00000000	-62.03863000	-25.72589000
69.39999605	0.00000000	-65.52657000	-22.15182000
69.59999604	0.00000000	-67.76575000	-19.08218000
69.79999603	0.00000000	-68.17789000	-17.22441000
69.99999601	0.00000000	-66.22785000	-18.01181000
70.19999600	0.00000000	-62.73376000	-21.03838000
70.39999599	0.00000000	-58.08316000	-25.35679000
70.59999598	0.00000000	-53.10654000	-30.37647000
70.79999597	0.00000000	-49.66166000	-35.38385000
70.99999596	0.00000000	-48.49901000	-38.82874000
71.19999594	0.00000000	-50.07997000	-39.99138000
71.39999593	0.00000000	-54.26919000	-38.45964000
71.59999592	0.00000000	-59.66412000	-34.64567000
71.79999591	0.00000000	-64.73917000	-30.04429000
71.99999590	0.00000000	-69.02066000	-25.77510000
72.19999588	0.00000000	-71.67200000	-22.65625000
72.39999587	0.00000000	-71.67200000	-21.08145000
72.59999586	0.00000000	-68.97145000	-21.08145000
72.79999585	0.00000000	-64.36392000	-22.65625000
72.99999584	0.00000000	-58.91978000	-25.68282000
73.19999582	0.00000000	-53.93700000	-29.11540000
73.39999581	0.00000000	-50.45521000	-31.44069000
73.59999580	0.00000000	-49.66166000	-32.64640000
73.79999579	0.00000000	-51.15034000	-32.64640000
73.99999578	0.00000000	-54.26919000	-31.53297000
74.19999577	0.00000000	-58.50147000	-30.04429000
74.39999575	0.00000000	-62.77681000	-28.88779000
74.59999574	0.00000000	-66.22785000	-28.51255000
74.79999573	0.00000000	-68.17789000	-28.88779000
74.99999572	0.00000000	-67.80880000	-30.04429000
75.19999571	0.00000000	-65.98794000	-31.53297000
75.39999569	0.00000000	-63.57652000	-32.60334000
75.59999568	0.00000000	-60.86983000	-32.18504000
75.79999567	0.00000000	-57.80634000	-29.95201000
75.99999566	0.00000000	-55.93627000	-27.25763000
76.19999565	0.00000000	-55.85014000	-24.84621000
76.39999563	0.00000000	-56.96358000	-22.19488000
76.59999562	0.00000000	-58.45841000	-20.38632000
76.79999561	0.00000000	-59.66412000	-21.21678000
76.99999560	0.00000000	-60.41461000	-24.56939000
77.19999559	0.00000000	-60.82677000	-29.25074000
77.39999558	0.00000000	-60.45767000	-33.90748000
77.59999556	0.00000000	-60.17470000	-38.50270000
77.79999555	0.00000000	-60.50073000	-41.10482000
77.99999554	0.00000000	-61.28814000	-40.40969000
78.19999553	0.00000000	-62.03863000	-37.34006000
78.39999552	0.00000000	-62.82603000	-32.64640000
78.59999550	0.00000000	-63.20127000	-26.83932000
78.79999549	0.00000000	-63.20127000	-21.08145000
78.99999548	0.00000000	-62.77681000	-16.89222000
79.19999547	0.00000000	-61.57111000	-15.69267000
79.39999546	0.00000000	-59.66412000	-17.59350000
79.59999544	0.00000000	-57.33883000	-21.40748000
79.79999543	0.00000000	-55.47490000	-26.46407000
79.99999542	0.00000000	-54.68750000	-31.48376000
80.19999541	0.00000000	-55.47490000	-35.75910000
80.39999540	0.00000000	-57.38804000	-38.50270000
80.59999539	0.00000000	-60.08243000	-39.24704000
80.79999537	0.00000000	-62.77681000	-38.08440000
80.99999536	0.00000000	-64.73302000	-34.64567000
81.19999535	0.00000000	-65.89567000	-30.41954000
81.39999534	0.00000000	-65.85260000	-26.46407000
81.59999533	0.00000000	-64.31471000	-22.61319000
81.79999531	0.00000000	-61.66338000	-19.91880000
81.99999530	0.00000000	-58.96899000	-19.08218000
82.19999529	0.00000000	-57.01279000	-19.45743000
82.39999528	0.00000000	-55.85014000	-21.03838000
82.59999527	0.00000000	-55.85014000	-23.77584000
82.79999525	0.00000000	-56.96358000	-27.25763000
82.99999524	0.00000000	-58.50147000	-31.11466000
83.19999523	0.00000000	-60.08243000	-34.22736000
83.39999522	0.00000000	-61.62032000	-36.22662000
83.59999521	0.00000000	-62.77681000	-37.34006000
83.79999520	0.00000000	-63.15207000	-36.92175000
83.99999518	0.00000000	-62.82603000	-34.60261000
84.19999517	0.00000000	-62.03863000	-31.11466000
84.39999516	0.00000000	-61.28814000	-26.83932000
84.59999515	0.00000000	-60.50073000	-22.61319000
84.79999514	0.00000000	-60.12549000	-19.50049000
84.99999512	0.00000000	-60.08243000	-17.96260000
85.19999511	0.00000000	-60.03937000	-18.38706000
85.39999510	0.00000000	-59.66412000	-21.08145000
85.59999509	0.00000000	-58.91978000	-25.30758000
85.79999508	0.00000000	-58.54454000	-30.00123000
85.99999506	0.00000000	-58.50147000	-34.64567000
86.19999505	0.00000000	-58.54454000	-38.45964000
86.39999504	0.00000000	-58.96899000	-39.99138000
86.59999503	0.00000000	-60.12549000	-38.82874000
86.79999502	0.00000000	-61.66338000	-35.38385000
86.99999501	0.00000000	-63.20127000	-30.37647000
87.19999499	0.00000000	-64.35777000	-25.35679000
87.39999498	0.00000000	-64.73302000	-21.08145000
87.59999497	0.00000000	-64.31471000	-18.43012000
87.79999496	0.00000000	-62.77681000	-18.43012000
87.99999495	0.00000000	-60.50073000	-21.08145000
88.19999493	0.00000000	-58.59375000	-25.35679000
88.39999492	0.00000000	-57.38804000	-30.37647000
88.59999491	0.00000000	-57.01279000	-35.34079000
88.79999490	0.00000000	-57.38804000	-38.41043000
88.99999489	0.00000000	-58.54454000	-38.82874000
89.19999487	0.00000000	-60.08243000	-36.87869000
89.39999486	0.00000000	-61.66338000	-32.68946000
89.59999485	0.00000000	-63.20127000	-27.72515000
89.79999484	0.00000000	-64.31471000	-23.81890000
89.99999483	0.00000000	-64.35777000	-21.12451000
90.19999482	0.00000000	-63.57652000	-20.38632000
90.39999480	0.00000000	-62.45079000	-22.28100000
90.59999479	0.00000000	-60.87598000	-25.77510000
90.79999478	0.00000000	-59.75024000	-30.37647000
90.99999477	0.00000000	-58.96899000	-34.96555000
91.19999476	0.00000000	-58.96899000	-37.62303000
91.39999474	0.00000000	-59.70718000	-38.03519000
91.59999473	0.00000000	-60.45767000	-35.71604000
91.79999472	0.00000000	-61.24508000	-31.53297000
91.99999471	0.00000000	-61.62032000	-26.88238000
92.19999470	0.00000000	-61.62032000	-22.69931000
92.39999468	0.00000000	-61.28814000	-20.42938000
92.59999467	0.00000000	-60.91904000	-21.16757000
92.79999466	0.00000000	-61.33120000	-24.15108000
92.99999465	0.00000000	-62.03863000	-28.04503000
93.19999464	0.00000000	-62.82603000	-31.90822000
93.39999463	0.00000000	-63.20127000	-35.38385000
93.59999461	0.00000000	-63.24434000	-37.24778000
93.79999460	0.00000000	-63.20127000	-36.82948000
93.99999459	0.00000000	-62.73376000	-33.80905000
94.19999458	0.00000000	-61.19586000	-29.25689000
94.39999457	0.00000000	-58.91978000	-25.39985000
94.59999455	0.00000000	-57.01279000	-22.65625000
94.79999454	0.00000000	-55.85014000	-21.54281000
94.99999453	0.00000000	-55.85014000	-22.70546000
95.19999452	0.00000000	-57.01279000	-25.72589000
95.39999451	0.00000000	-58.96899000	-29.58292000
95.59999449	0.00000000	-61.70644000	-33.02165000
95.79999448	0.00000000	-64.78223000	-35.34079000
95.99999447	0.00000000	-67.43970000	-35.71604000
96.19999446	0.00000000	-68.60236000	-34.18430000
96.39999445	0.00000000	-67.81496000	-31.11466000
96.59999444	0.00000000	-65.52657000	-27.30684000
96.79999442	0.00000000	-62.03863000	-24.23720000
96.99999441	0.00000000	-58.54454000	-22.69931000
97.19999440	0.00000000	-55.43184000	-23.03149000
97.39999439	0.00000000	-53.10654000	-24.93233000
97.59999438	0.00000000	-52.35605000	-27.21457000
97.79999436	0.00000000	-53.14960000	-29.58292000
97.99999435	0.00000000	-55.89320000	-31.44069000
98.19999434	0.00000000	-60.08243000	-32.22810000
98.39999433	0.00000000	-64.31471000	-31.48991000
98.59999432	0.00000000	-67.48277000	-30.04429000
98.79999430	0.00000000	-69.39591000	-28.83858000
98.99999429	0.00000000	-69.75885000	-28.04503000
99.19999428	0.00000000	-67.85802000	-27.25763000
99.39999427	0.00000000	-64.78223000	-26.93159000
99.59999426	0.00000000	-61.28814000	-27.21457000
99.79999425	0.00000000	-57.75713000	-27.62672000
99.99999423	0.00000000	-55.05659000	-27.58981000
100.19999422	0.00000000	-53.14960000	-27.62672000
100.39999421	0.00000000	-53.14960000	-27.21457000
100.59999420	0.00000000	-55.05659000	-26.88238000
100.79999419	0.00000000	-57.75713000	-26.88238000
100.99999417	0.00000000	-61.24508000	-27.25763000
101.19999416	0.00000000	-64.31471000	-28.08809000
101.39999415	0.00000000	-66.32012000	-29.25689000
101.59999414	0.00000000	-67.48277000	-31.15772000
101.79999413	0.00000000	-67.43970000	-32.64640000
101.99999411	0.00000000	-65.94488000	-33.02165000
102.19999410	0.00000000	-63.61958000	-32.27731000
102.39999409	0.00000000	-61.28814000	-30.32726000
102.59999408	0.00000000	-58.96899000	-28.04503000
102.79999407	0.00000000	-57.43110000	-25.68282000
102.99999406	0.00000000	-56.96358000	-23.81890000
103.19999404	0.00000000	-57.01279000	-23.03149000
103.39999403	0.00000000	-57.80634000	-23.81890000
103.59999402	0.00000000	-59.70718000	-25.72589000
103.79999401	0.00000000	-61.62032000	-28.46333000
103.99999400	0.00000000	-63.24434000	-31.53297000
104.19999398	0.00000000	-64.73302000	-34.18430000
104.39999397	0.00000000	-65.52042000	-35.38385000
104.59999396	0.00000000	-65.10827000	-34.97785000
104.79999395	0.00000000	-64.03174000	-33.43381000
104.99999394	0.00000000	-62.45694000	-30.37647000
105.19999392	0.00000000	-61.28814000	-27.34990000
105.39999391	0.00000000	-60.12549000	-25.39985000
105.59999390	0.00000000	-59.38730000	-24.61245000
105.79999389	0.00000000	-59.75024000	-25.35064000
105.99999388	0.00000000	-60.50073000	-26.88853000
106.19999387	0.00000000	-61.66338000	-28.79552000
106.39999385	0.00000000	-62.77681000	-30.73942000
106.59999384	0.00000000	-63.20127000	-31.90822000
106.79999383	0.00000000	-63.20127000	-32.68946000
106.99999382	0.00000000	-62.82603000	-32.60334000
107.19999381	0.00000000	-62.03863000	-31.11466000
107.39999379	0.00000000	-61.24508000	-28.88164000
107.59999378	0.00000000	-60.12549000	-27.34990000
107.79999377	0.00000000	-59.43036000	-26.88238000
107.99999376	0.00000000	-60.12549000	-26.93159000
108.19999375	0.00000000	-61.24508000	-27.72515000
108.39999374	0.00000000	-62.08169000	-29.58292000
108.59999372	0.00000000	-63.24434000	-31.11466000
108.79999371	0.00000000	-64.31471000	-31.95128000
108.99999370	0.00000000	-64.35777000	-32.68946000
109.19999369	0.00000000	-63.61958000	-32.64640000
109.39999368	0.00000000	-62.82603000	-31.48991000
109.59999366	0.00000000	-61.62032000	-29.58292000
109.79999365	0.00000000	-60.12549000	-27.30684000
109.99999364	0.00000000	-58.96899000	-25.77510000
110.19999363	0.00000000	-58.59375000	-25.35679000
110.39999362	0.00000000	-58.96899000	-25.72589000
110.59999360	0.00000000	-60.12549000	-26.88853000
110.79999359	0.00000000	-61.66338000	-28.42027000
110.99999358	0.00000000	-63.15207000	-30.00123000
111.19999357	0.00000000	-63.93946000	-31.48991000
111.39999356	0.00000000	-63.61958000	-32.27116000
111.59999355	0.00000000	-63.24434000	-31.90822000
111.79999353	0.00000000	-62.82603000	-31.15772000
111.99999352	0.00000000	-62.03863000	-29.95201000
112.19999351	0.00000000	-61.28814000	-28.46333000
112.39999350	0.00000000	-60.50073000	-27.30684000
112.59999349	0.00000000	-60.17470000	-26.83932000
112.79999347	0.00000000	-60.50073000	-26.46407000
112.99999346	0.00000000	-61.24508000	-26.14419000
113.19999345	0.00000000	-61.66338000	-26.88853000
113.39999344	0.00000000	-62.03863000	-27.95275000
113.59999343	0.00000000	-62.40772000	-28.37721000
113.79999341	0.00000000	-62.03863000	-28.42027000
113.99999340	0.00000000	-61.70644000	-28.42027000
114.19999339	0.00000000	-61.66338000	-28.42027000
114.39999338	0.00000000	-61.66338000	-28.46333000
114.59999337	0.00000000	-61.66338000	-28.83858000
114.79999336	0.00000000	-61.66338000	-29.58292000
114.99999334	0.00000000	-61.62032000	-29.95817000
115.19999333	0.00000000	-61.28814000	-30.00123000
115.39999332	0.00000000	-60.91904000	-29.95817000
115.59999331	0.00000000	-61.28814000	-29.58292000
115.79999330	0.00000000	-61.62032000	-28.83858000
115.99999328	0.00000000	-61.66338000	-28.42027000
116.19999327	0.00000000	-61.70644000	-28.00197000
116.39999326	0.00000000	-62.08169000	-27.25763000
116.59999325	0.00000000	-62.82603000	-26.88238000
116.79999324	0.00000000	-63.15207000	-26.88238000
116.99999322	0.00000000	-62.82603000	-27.25763000
117.19999321	0.00000000	-62.08169000	-28.04503000
117.39999320	0.00000000	-61.66338000	-28.79552000
117.59999319	0.00000000	-61.24508000	-29.62598000
117.79999318	0.00000000	-60.50073000	-30.37647000
117.99999317	0.00000000	-60.12549000	-31.15772000
118.19999315	0.00000000	-60.12549000	-31.48376000
118.39999314	0.00000000	-60.50073000	-31.15772000
118.59999313	0.00000000	-61.28814000	-30.41954000
118.79999312	0.00000000	-62.08169000	-30.00123000
118.99999311	0.00000000	-63.24434000	-29.53371000
119.19999309	0.00000000	-64.35777000	-28.46333000
119.39999308	0.00000000	-64.78223000	-27.72515000
119.59999307	0.00000000	-64.78223000	-28.04503000
119.79999306	0.00000000	-64.35777000	-28.37721000
119.99999305	0.00000000	-63.20127000	-28.46333000
120.19999303	0.00000000	-61.70644000	-28.83858000
120.39999302	0.00000000	-60.50073000	-29.58292000
120.59999301	0.00000000	-59.75024000	-30.00123000
120.79999300	0.00000000	-59.33809000	-30.41954000
120.99999299	0.00000000	-59.75024000	-31.15772000
121.19999298	0.00000000	-60.50073000	-31.53297000
121.39999296	0.00000000	-61.70644000	-31.57603000
121.59999295	0.00000000	-63.20127000	-31.53297000
121.79999294	0.00000000	-64.35777000	-31.15772000
121.99999293	0.00000000	-64.78223000	-30.41954000
122.19999292	0.00000000	-64.82529000	-30.00123000
122.39999290	0.00000000	-64.78223000	-29.58292000
122.59999289	0.00000000	-64.35777000	-28.83858000
122.79999288	0.00000000	-63.20127000	-28.46333000
122.99999287	0.00000000	-61.70644000	-28.42027000
123.19999286	0.00000000	-60.54995000	-28.42027000
123.39999284	0.00000000	-60.12549000	-28.42027000
123.59999283	0.00000000	-60.08243000	-28.46333000
123.79999282	0.00000000	-60.12549000	-28.83858000
123.99999281	0.00000000	-60.50073000	-29.58292000
124.19999280	0.00000000	-61.28814000	-30.00123000
124.39999279	0.00000000	-62.03863000	-30.37647000
124.59999277	0.00000000	-62.82603000	-30.73942000
124.79999276	0.00000000	-63.24434000	-30.37647000
124.99999275	0.00000000	-63.66264000	-30.00123000
125.19999274	0.00000000	-64.35777000	-29.58292000
125.39999273	0.00000000	-64.35777000	-28.83858000
125.59999271	0.00000000	-63.66264000	-28.42027000
125.79999270	0.00000000	-63.24434000	-28.00197000
125.99999269	0.00000000	-62.77681000	-27.30684000
126.19999268	0.00000000	-61.66338000	-27.30684000
126.39999267	0.00000000	-60.54995000	-28.00197000
126.59999265	0.00000000	-60.12549000	-28.37721000
126.79999264	0.00000000	-60.12549000	-28.46333000
126.99999263	0.00000000	-60.50073000	-28.83858000
127.19999262	0.00000000	-61.28814000	-29.58292000
127.39999261	0.00000000	-62.08169000	-29.95817000
127.59999260	0.00000000	-63.24434000	-30.00123000
127.79999258	0.00000000	-64.35777000	-29.95817000
127.99999257	0.00000000	-64.73302000	-29.58292000
128.19999256	0.00000000	-64.40699000	-28.83858000
128.39999255	0.00000000	-63.61958000	-28.46333000
128.59999254	0.00000000	-62.82603000	-28.42027000
128.79999252	0.00000000	-61.66338000	-28.42027000
128.99999251	0.00000000	-60.54995000	-28.42027000
129.19999250	0.00000000	-60.12549000	-28.42027000
129.39999249	0.00000000	-60.12549000	-28.46333000
129.59999248	0.00000000	-60.54995000	-28.83858000
129.79999246	0.00000000	-61.66338000	-29.58292000
129.99999245	0.00000000	-62.82603000	-29.95817000
130.19999244	0.00000000	-63.61958000	-29.95817000
130.39999243	0.00000000	-64.35777000	-29.58292000
130.59999242	0.00000000	-64.31471000	-28.83858000
130.79999241	0.00000000	-63.24434000	-28.46333000
130.99999239	0.00000000	-62.13090000	-28.42027000
131.19999238	0.00000000	-61.66338000	-28.42027000
131.39999237	0.00000000	-61.24508000	-28.46333000
131.59999236	0.00000000	-60.50073000	-28.83858000
131.79999235	0.00000000	-60.17470000	-29.58292000
131.99999233	0.00000000	-60.54995000	-30.00123000
132.19999232	0.00000000	-61.66338000	-30.37647000
132.39999231	0.00000000	-62.77681000	-30.78248000
132.59999230	0.00000000	-63.24434000	-30.74557000
132.79999229	0.00000000	-63.61958000	-30.78248000
132.99999227	0.00000000	-63.98867000	-30.32726000
133.19999226	0.00000000	-63.57652000	-29.58292000
133.39999225	0.00000000	-62.91216000	-28.42027000
133.59999224	0.00000000	-62.45694000	-27.34990000
133.79999223	0.00000000	-62.49385000	-27.30684000
133.99999222	0.00000000	-62.45694000	-28.04503000
134.19999220	0.00000000	-62.86909000	-28.79552000
134.39999219	0.00000000	-63.20127000	-29.62598000
134.59999218	0.00000000	-63.24434000	-30.37647000
134.79999217	0.00000000	-63.20127000	-31.15772000
134.99999216	0.00000000	-62.82603000	-31.53297000
135.19999214	0.00000000	-62.08169000	-31.57603000
135.39999213	0.00000000	-61.70644000	-31.53297000
135.59999212	0.00000000	-61.70644000	-31.15772000
135.79999211	0.00000000	-62.08169000	-30.37647000
135.99999210	0.00000000	-62.82603000	-29.62598000
136.19999208	0.00000000	-63.24434000	-28.83858000
136.39999207	0.00000000	-63.66264000	-28.46333000
136.59999206	0.00000000	-64.40699000	-28.42027000
136.79999205	0.00000000	-64.78223000	-28.46333000
136.99999204	0.00000000	-64.78223000	-28.83858000
137.19999203	0.00000000	-64.35777000	-29.58292000
137.39999201	0.00000000	-63.24434000	-30.00123000
137.59999200	0.00000000	-62.13090000	-30.41954000
137.79999199	0.00000000	-61.70644000	-31.15772000
137.99999198	0.00000000	-61.66338000	-31.53297000
138.19999197	0.00000000	-61.70644000	-31.57603000
138.39999195	0.00000000	-62.08169000	-31.53297000
138.59999194	0.00000000	-62.86909000	-31.15772000
138.79999193	0.00000000	-63.61958000	-30.37647000
138.99999192	0.00000000	-64.40699000	-29.62598000
139.19999191	0.00000000	-64.78223000	-28.83858000
139.39999189	0.00000000	-64.82529000	-28.46333000
139.59999188	0.00000000	-64.73302000	-28.42027000
139.79999187	0.00000000	-63.98867000	-28.37721000
139.99999186	0.00000000	-62.50000000	-28.08809000
140.19999185	0.00000000	-61.75566000	-28.10039000
140.39999184	0.00000000	-61.66338000	-29.20767000
140.59999182	0.00000000	-61.70644000	-29.95817000
140.79999181	0.00000000	-62.08169000	-30.41954000
140.99999180	0.00000000	-62.82603000	-31.15772000
141.19999179	0.00000000	-63.20127000	-31.48376000
141.39999178	0.00000000	-63.24434000	-31.15772000
141.59999176	0.00000000	-63.24434000	-30.37647000
141.79999175	0.00000000	-63.24434000	-29.58292000
141.99999174	0.00000000	-63.24434000	-28.42027000
142.19999173	0.00000000	-63.20127000	-27.30684000
142.39999172	0.00000000	-62.82603000	-26.88238000
142.59999170	0.00000000	-62.08169000	-26.88238000
142.79999169	0.00000000	-61.70644000	-27.25763000
142.99999168	0.00000000	-61.70644000	-28.04503000
143.19999167	0.00000000	-62.08169000	-28.83858000
143.39999166	0.00000000	-62.82603000	-30.00123000
143.59999165	0.00000000	-63.20127000	-31.11466000
143.79999163	0.00000000	-63.24434000	-31.48376000
143.99999162	0.00000000	-63.24434000	-31.15772000
144.19999161	0.00000000	-63.20127000	-30.37647000
144.39999160	0.00000000	-62.82603000	-29.62598000
144.59999159	0.00000000	-62.08169000	-28.83858000
144.79999157	0.00000000	-61.70644000	-28.42027000
144.99999156	0.00000000	-61.70644000	-28.04503000
145.19999155	0.00000000	-62.08169000	-27.67593000
145.39999154	0.00000000	-62.82603000	-28.04503000
145.59999153	0.00000000	-63.20127000	-28.42027000
145.79999151	0.00000000	-63.24434000	-28.83858000
145.99999150	0.00000000	-63.24434000	-29.58292000
146.19999149	0.00000000	-63.24434000	-29.95817000
146.39999148	0.00000000	-63.24434000	-30.00123000
146.59999147	0.00000000	-63.24434000	-30.00123000
146.79999146	0.00000000	-63.24434000	-30.00123000
146.99999144	0.00000000	-63.20127000	-29.95817000
147.19999143	0.00000000	-62.82603000	-29.58292000
147.39999142	0.00000000	-62.13090000	-28.83858000
147.59999141	0.00000000	-62.13090000	-28.46333000
147.79999140	0.00000000	-62.82603000	-28.42027000
147.99999138	0.00000000	-63.20127000	-28.42027000
148.19999137	0.00000000	-63.24434000	-28.42027000
148.39999136	0.00000000	-63.24434000	-28.46333000
148.59999135	0.00000000	-63.24434000	-28.83858000
148.79999134	0.00000000	-63.28740000	-29.58292000
148.99999132	0.00000000	-63.61958000	-29.95817000
149.19999131	0.00000000	-63.98867000	-30.04429000
149.39999130	0.00000000	-63.61958000	-30.37647000
149.59999129	0.00000000	-63.28740000	-30.73942000
149.79999128	0.00000000	-63.24434000	-30.37647000
149.99999127	0.00000000	-63.24434000	-30.04429000
150.19999125	0.00000000	-63.24434000	-29.95817000
150.39999124	0.00000000	-63.24434000	-29.62598000
150.59999123	0.00000000	-63.24434000	-29.25689000
150.79999122	0.00000000	-63.24434000	-29.62598000
150.99999121	0.00000000	-63.28740000	-29.95817000
151.19999119	0.00000000	-63.66264000	-30.00123000
151.39999118	0.00000000	-64.40699000	-30.00123000
151.59999117	0.00000000	-64.78223000	-30.00123000
151.79999116	0.00000000	-64.78223000	-30.00123000
151.99999115	0.00000000	-64.40699000	-30.00123000
152.19999113	0.00000000	-63.66264000	-30.00123000
152.39999112	0.00000000	-63.28740000	-30.00123000
152.59999111	0.00000000	-63.24434000	-30.00123000
152.79999110	0.00000000	-63.24434000	-30.00123000
152.99999109	0.00000000	-63.24434000	-30.00123000
153.19999108	0.00000000	-63.24434000	-30.00123000
153.39999106	0.00000000	-63.24434000	-30.00123000
153.59999105	0.00000000	-63.24434000	-29.95817000
153.79999104	0.00000000	-63.28740000	-29.58292000
153.99999103	0.00000000	-63.66264000	-28.88779000
154.19999102	0.00000000	-64.40699000	-28.88779000
154.39999100	0.00000000	-64.78223000	-29.58292000
154.59999099	0.00000000	-64.82529000	-29.95817000
154.79999098	0.00000000	-64.78223000	-30.00123000
154.99999097	0.00000000	-64.40699000	-30.00123000
155.19999096	0.00000000	-63.66264000	-30.00123000
155.39999094	0.00000000	-63.24434000	-30.00123000
155.59999093	0.00000000	-62.86909000	-30.00123000
155.79999092	0.00000000	-62.45694000	-30.00123000
155.99999091	0.00000000	-62.49385000	-29.95817000
156.19999090	0.00000000	-62.45694000	-29.58292000
156.39999089	0.00000000	-62.86909000	-28.83858000
156.59999087	0.00000000	-63.24434000	-28.46333000
156.79999086	0.00000000	-63.66264000	-28.42027000
156.99999085	0.00000000	-64.40699000	-28.42027000
157.19999084	0.00000000	-64.78223000	-28.42027000
157.39999083	0.00000000	-64.82529000	-28.42027000
157.59999081	0.00000000	-64.78223000	-28.42027000
157.79999080	0.00000000	-64.40699000	-28.46333000
157.99999079	0.00000000	-63.66264000	-28.83858000
158.19999078	0.00000000	-63.28740000	-29.58292000
158.39999077	0.00000000	-63.24434000	-29.95817000
158.59999075	0.00000000	-63.24434000	-30.00123000
158.79999074	0.00000000	-63.24434000	-30.00123000
158.99999073	0.00000000	-63.24434000	-30.00123000
159.19999072	0.00000000	-63.24434000	-29.95817000
159.39999071	0.00000000	-63.24434000	-29.58292000
159.59999070	0.00000000	-63.24434000	-28.83858000
159.79999068	0.00000000	-63.28740000	-28.46333000
159.99999067	0.00000000	-63.66264000	-28.42027000
160.19999066	0.00000000	-64.35777000	-28.42027000
160.39999065	0.00000000	-64.40699000	-28.42027000
160.59999064	0.00000000	-64.08095000	-28.46333000
160.79999062	0.00000000	-64.40699000	-28.83858000
160.99999061	0.00000000	-64.35777000	-29.58292000
161.19999060	0.00000000	-63.66264000	-29.95817000
161.39999059	0.00000000	-63.28740000	-30.00123000
161.59999058	0.00000000	-63.24434000	-30.00123000
161.79999056	0.00000000	-63.24434000	-30.00123000
161.99999055	0.00000000	-63.24434000	-29.95817000
162.19999054	0.00000000	-63.24434000	-29.62598000
162.39999053	0.00000000	-63.28740000	-29.25689000
162.59999052	0.00000000	-63.61958000	-29.58292000
162.79999051	0.00000000	-64.03174000	-29.53371000
162.99999049	0.00000000	-64.03790000	-28.88779000
163.19999048	0.00000000	-64.45004000	-28.88779000
163.39999047	0.00000000	-64.78223000	-29.58292000
163.59999046	0.00000000	-64.82529000	-29.95817000
163.79999045	0.00000000	-64.82529000	-30.00123000
163.99999043	0.00000000	-64.82529000	-30.00123000
164.19999042	0.00000000	-64.78223000	-30.00123000
164.39999041	0.00000000	-64.40699000	-30.00123000
164.59999040	0.00000000	-63.66264000	-30.00123000
164.79999039	0.00000000	-63.28740000	-30.00123000
164.99999037	0.00000000	-63.24434000	-30.00123000
165.19999036	0.00000000	-63.24434000	-30.00123000
165.39999035	0.00000000	-63.24434000	-30.00123000
165.59999034	0.00000000	-63.24434000	-30.00123000
165.79999033	0.00000000	-63.28740000	-30.00123000
165.99999032	0.00000000	-63.66264000	-30.00123000
166.19999030	0.00000000	-64.40699000	-30.00123000
166.39999029	0.00000000	-64.78223000	-30.00123000
166.59999028	0.00000000	-64.82529000	-30.00123000
166.79999027	0.00000000	-64.82529000	-30.00123000
166.99999026	0.00000000	-64.82529000	-30.00123000
167.19999024	0.00000000	-64.82529000	-30.00123000
167.39999023	0.00000000	-64.78223000	-30.00123000
167.59999022	0.00000000	-64.40699000	-30.00123000
167.79999021	0.00000000	-63.66264000	-30.00123000
167.99999020	0.00000000	-63.28740000	-30.00123000
168.19999018	0.00000000	-63.24434000	-30.00123000
168.39999017	0.00000000	-63.24434000	-30.00123000
168.59999016	0.00000000	-63.24434000	-30.00123000
168.79999015	0.00000000	-63.28740000	-30.00123000
168.99999014	0.00000000	-63.66264000	-30.00123000
169.19999013	0.00000000	-64.40699000	-30.00123000
169.39999011	0.00000000	-64.78223000	-30.00123000
169.59999010	0.00000000	-64.82529000	-30.00123000
169.79999009	0.00000000	-64.82529000	-30.00123000
169.99999008	0.00000000	-64.82529000	-30.00123000
170.19999007	0.00000000	-64.82529000	-30.00123000
170.39999005	0.00000000	-64.82529000	-30.00123000
170.59999004	0.00000000	-64.78223000	-30.00123000
170.79999003	0.00000000	-64.40699000	-30.00123000
170.99999002	0.00000000	-63.66264000	-30.00123000
171.19999001	0.00000000	-63.28740000	-30.00123000
171.39998999	0.00000000	-63.28740000	-30.00123000
171.59998998	0.00000000	-63.61958000	-30.04429000
171.79998997	0.00000000	-64.03174000	-30.37647000
171.99998996	0.00000000	-64.03790000	-30.73942000
172.19998995	0.00000000	-64.45004000	-30.37647000
172.39998994	0.00000000	-64.78223000	-30.04429000
172.59998992	0.00000000	-64.82529000	-30.00123000
172.79998991	0.00000000	-64.82529000	-30.00123000
172.99998990	0.00000000	-64.82529000	-30.00123000
173.19998989	0.00000000	-64.82529000	-30.00123000
173.39998988	0.00000000	-64.78223000	-30.00123000
173.59998986	0.00000000	-64.45004000	-30.00123000
173.79998985	0.00000000	-64.08095000	-30.00123000
173.99998984	0.00000000	-64.40699000	-29.95817000
174.19998983	0.00000000	-64.35777000	-29.62598000
174.39998982	0.00000000	-63.71186000	-29.25689000
174.59998980	0.00000000	-63.66264000	-29.62598000
174.79998979	0.00000000	-63.98867000	-29.95817000
174.99998978	0.00000000	-63.66264000	-30.00123000
175.19998977	0.00000000	-63.71186000	-30.00123000
175.39998976	0.00000000	-64.40699000	-30.00123000
175.59998975	0.00000000	-64.73302000	-30.00123000
175.79998973	0.00000000	-64.45004000	-30.00123000
175.99998972	0.00000000	-64.03790000	-30.00123000
176.19998971	0.00000000	-64.03174000	-29.95817000
176.39998970	0.00000000	-63.61958000	-29.58292000
176.59998969	0.00000000	-63.33661000	-28.88779000
176.79998967	0.00000000	-63.61958000	-28.88779000
176.99998966	0.00000000	-64.03174000	-29.58292000
177.19998965	0.00000000	-64.03790000	-29.95817000
177.39998964	0.00000000	-64.45004000	-30.00123000
177.59998963	0.00000000	-64.78223000	-30.00123000
177.79998961	0.00000000	-64.82529000	-30.00123000
177.99998960	0.00000000	-64.82529000	-30.00123000
178.19998959	0.00000000	-64.82529000	-30.00123000
178.39998958	0.00000000	-64.82529000	-30.00123000
178.59998957	0.00000000	-64.82529000	-30.00123000
178.79998956	0.00000000	-64.82529000	-30.00123000
178.99998954	0.00000000	-64.82529000	-30.00123000
179.19998953	0.00000000	-64.82529000	-30.00123000
179.39998952	0.00000000	-64.82529000	-30.00123000
179.59998951	0.00000000	-64.78223000	-30.00123000
179.79998950	0.00000000	-64.45004000	-30.00123000
179.99998948	0.00000000	-64.08095000	-30.00123000
180.19998947	0.00000000	-64.45004000	-30.04429000
180.39998946	0.00000000	-64.78223000	-30.37647000
180.59998945	0.00000000	-64.82529000	-30.78248000
180.79998944	0.00000000	-64.82529000	-30.74557000
180.99998942	0.00000000	-64.82529000	-30.78248000
181.19998941	0.00000000	-64.82529000	-30.37647000
181.39998940	0.00000000	-64.82529000	-30.04429000
181.59998939	0.00000000	-64.82529000	-30.00123000
181.79998938	0.00000000	-64.82529000	-30.00123000
181.99998937	0.00000000	-64.82529000	-30.00123000
182.19998935	0.00000000	-64.82529000	-30.00123000
182.39998934	0.00000000	-64.82529000	-30.00123000
182.59998933	0.00000000	-64.82529000	-30.04429000
182.79998932	0.00000000	-64.82529000	-30.41954000
182.99998931	0.00000000	-64.82529000	-31.15772000
183.19998929	0.00000000	-64.82529000	-31.53297000
183.39998928	0.00000000	-64.82529000	-31.57603000
183.59998927	0.00000000	-64.82529000	-31.57603000
183.79998926	0.00000000	-64.82529000	-31.53297000
183.99998925	0.00000000	-64.82529000	-31.15772000
184.19998923	0.00000000	-64.82529000	-30.41954000
184.39998922	0.00000000	-64.82529000	-30.04429000
184.59998921	0.00000000	-64.82529000	-30.00123000
184.79998920	0.00000000	-64.82529000	-29.95817000
184.99998919	0.00000000	-64.82529000	-29.62598000
185.19998918	0.00000000	-64.82529000	-29.25689000
185.39998916	0.00000000	-64.82529000	-29.62598000
185.59998915	0.00000000	-64.82529000	-29.95817000
185.79998914	0.00000000	-64.82529000	-30.04429000
185.99998913	0.00000000	-64.82529000	-30.41954000
186.19998912	0.00000000	-64.82529000	-31.15772000
186.39998910	0.00000000	-64.82529000	-31.53297000
186.59998909	0.00000000	-64.82529000	-31.53297000
186.79998908	0.00000000	-64.82529000	-31.15772000
186.99998907	0.00000000	-64.82529000	-30.41954000
187.19998906	0.00000000	-64.82529000	-30.04429000
187.39998904	0.00000000	-64.86835000	-30.00123000
187.59998903	0.00000000	-65.20053000	-29.95817000
187.79998902	0.00000000	-65.56963000	-29.58292000
187.99998901	0.00000000	-65.20053000	-28.83858000
188.19998900	0.00000000	-64.86835000	-28.51255000
188.39998899	0.00000000	-64.82529000	-28.83858000
188.59998897	0.00000000	-64.82529000	-29.58292000
188.79998896	0.00000000	-64.82529000	-29.95817000
188.99998895	0.00000000	-64.82529000	-30.00123000
189.19998894	0.00000000	-64.82529000	-30.00123000
189.39998893	0.00000000	-64.82529000	-30.00123000
189.59998891	0.00000000	-64.82529000	-30.00123000
189.79998890	0.00000000	-64.82529000	-30.00123000
189.99998889	0.00000000	-64.82529000	-30.00123000
190.19998888	0.00000000	-64.82529000	-30.00123000
190.39998887	0.00000000	-64.82529000	-29.95817000
190.59998885	0.00000000	-64.82529000	-29.58292000
190.79998884	0.00000000	-64.82529000	-28.88779000
190.99998883	0.00000000	-64.82529000	-28.83858000
191.19998882	0.00000000	-64.82529000	-29.20767000
191.39998881	0.00000000	-64.82529000	-29.21383000
191.59998880	0.00000000	-64.82529000	-29.62598000
191.79998878	0.00000000	-64.82529000	-29.95817000
191.99998877	0.00000000	-64.82529000	-30.00123000
192.19998876	0.00000000	-64.82529000	-30.00123000
192.39998875	0.00000000	-64.82529000	-30.00123000
192.59998874	0.00000000	-64.82529000	-30.00123000
192.79998872	0.00000000	-64.82529000	-30.00123000
192.99998871	0.00000000	-64.82529000	-30.00123000
193.19998870	0.00000000	-64.86835000	-30.00123000
193.39998869	0.00000000	-65.20053000	-30.00123000
193.59998868	0.00000000	-65.56963000	-29.95817000
193.79998866	0.00000000	-65.20053000	-29.62598000
193.99998865	0.00000000	-64.86835000	-29.25689000
194.19998864	0.00000000	-64.82529000	-29.62598000
194.39998863	0.00000000	-64.82529000	-29.95817000
194.59998862	0.00000000	-64.78223000	-30.00123000
194.79998861	0.00000000	-64.45004000	-30.00123000
194.99998859	0.00000000	-64.08095000	-30.00123000
195.19998858	0.00000000	-64.45004000	-30.00123000
195.39998857	0.00000000	-64.78223000	-30.04429000
195.59998856	0.00000000	-64.82529000	-30.37647000
195.79998855	0.00000000	-64.86835000	-30.73942000
195.99998853	0.00000000	-65.24360000	-30.37647000
