Time	Channel A	Channel B	Channel C
(us)	(V)	(mV)	(mV)

-4.49999956	0.00000000	-10.97441000	-9.47342500
-4.29999957	0.00000000	-10.69144000	-9.43036400
-4.09999958	0.00000000	-10.27928000	-9.09817800
-3.89999959	0.00000000	-10.31619000	-8.72908400
-3.69999960	0.00000000	-10.27928000	-9.09817800
-3.49999962	0.00000000	-10.69144000	-9.43036400
-3.29999963	0.00000000	-11.02362000	-9.47342500
-3.09999964	0.00000000	-11.06668000	-9.47342500
-2.89999965	0.00000000	-11.02362000	-9.43036400
-2.69999966	0.00000000	-10.69144000	-9.09817800
-2.49999968	0.00000000	-10.32234000	-8.72908400
-2.29999969	0.00000000	-10.69144000	-9.09817800
-2.09999970	0.00000000	-11.02362000	-9.43036400
-1.89999971	0.00000000	-11.06668000	-9.47342500
-1.69999972	0.00000000	-11.06668000	-9.47342500
-1.49999973	0.00000000	-11.06668000	-9.47342500
-1.29999975	0.00000000	-11.06668000	-9.47342500
-1.09999976	0.00000000	-11.06668000	-9.47342500
-0.89999977	0.00000000	-11.06668000	-9.47342500
-0.69999978	0.00000000	-11.06668000	-9.47342500
-0.49999979	0.00000000	-11.06668000	-9.47342500
-0.29999981	0.15871060	-11.06668000	-9.47342500
-0.09999982	0.63668800	-11.06668000	-9.47342500
0.10000017	0.95533960	-11.06668000	-9.47342500
0.30000016	0.95533960	-11.06668000	-9.47342500
0.50000015	0.95533960	-11.06668000	-9.47342500
0.70000013	0.47736220	-11.02362000	-9.47342500
0.90000012	-0.31803640	-10.69144000	-9.47342500
1.10000011	-1.27399100	-10.27928000	-9.47342500
1.30000010	-2.22994600	-10.31619000	-9.47342500
1.50000009	-2.70792300	-10.23622000	-9.43036400
1.70000008	-2.54859700	-10.27313000	-9.05511800
1.90000006	-1.59264300	-9.90403500	-8.35998900
2.10000005	0.15871060	-9.90403500	-8.35998900
2.30000004	2.22994600	-10.27313000	-9.05511800
2.50000003	4.14124000	-10.27928000	-9.43036400
2.70000002	5.25652100	-10.69144000	-9.47342500
2.90000000	5.09719500	-11.02362000	-9.47342500
3.09999999	3.50393700	-11.06668000	-9.47342500
3.29999998	0.79601380	-11.06668000	-9.47342500
3.49999997	-2.70792300	-11.06668000	-9.47342500
3.69999996	-5.73449800	-11.02362000	-9.47342500
3.89999994	-7.64579200	-10.64838000	-9.43036400
4.09999993	-7.80511800	-9.90403500	-9.05511800
4.29999992	-5.73449800	-9.52879000	-8.35998900
4.49999991	-2.07062000	-9.48572700	-8.31077700
4.69999990	2.38927200	-9.48572700	-8.67987200
4.89999989	6.37180100	-9.52879000	-8.68602300
5.09999987	8.92039900	-9.90403500	-9.09817800
5.29999986	9.39837600	-10.64838000	-9.43036400
5.49999985	7.32714100	-11.02362000	-9.51648500
5.69999984	3.50393700	-11.06668000	-9.84867000
5.89999983	-1.27399100	-11.02362000	-10.21161000
6.09999981	-5.73449800	-10.69144000	-9.84867000
6.29999980	-8.76107300	-10.27928000	-9.51648500
6.49999979	-9.39837600	-10.27313000	-9.47342500
6.69999978	-7.80511800	-9.86097400	-9.43036400
6.89999977	-4.30056600	-9.57800100	-9.09817800
7.09999975	0.00000000	-9.86097400	-8.68602300
7.29999974	3.98191400	-10.27313000	-8.72293300
7.49999973	6.84916400	-10.27928000	-8.68602300
7.69999972	7.80511800	-10.69144000	-9.09817800
7.89999971	6.69045300	-11.02362000	-9.43036400
8.09999970	4.14124000	-11.06668000	-9.47342500
8.29999968	0.95533960	-11.02362000	-9.47342500
8.49999967	-2.22994600	-10.69144000	-9.47342500
8.69999966	-4.30056600	-10.32234000	-9.47342500
8.89999965	-5.09719500	-10.69144000	-9.47342500
9.09999964	-4.61921700	-10.97441000	-9.47342500
9.29999962	-3.18590100	-10.64838000	-9.47342500
9.49999961	-1.11466500	-9.95324800	-9.43036400
9.69999960	0.63668800	-9.95324800	-9.09817800
9.89999959	2.07062000	-10.64838000	-8.77829600
10.09999958	2.54859700	-11.02362000	-9.42421200
10.29999956	2.38927200	-11.02362000	-9.79330600
10.49999955	1.59264300	-10.64838000	-9.10433000
10.69999954	0.79601380	-9.95324800	-9.14124000
10.89999953	0.00000000	-9.95324800	-9.43036400
11.09999952	-0.63668800	-10.64838000	-9.47342500
11.29999951	-0.95533960	-11.02362000	-9.47342500
11.49999949	-0.95533960	-11.02362000	-9.47342500
11.69999948	-0.79601380	-10.64838000	-9.47342500
11.89999947	-0.47736220	-9.95324800	-9.47342500
12.09999946	-0.15871060	-9.95324800	-9.47342500
12.29999945	-0.15871060	-10.64838000	-9.47342500
12.49999943	-0.15871060	-11.02362000	-9.47342500
12.69999942	0.00000000	-11.06668000	-9.47342500
12.89999941	0.00000000	-11.02362000	-9.47342500
13.09999940	0.00000000	-10.69144000	-9.47342500
13.29999939	0.15871060	-10.32234000	-9.47342500
13.49999937	0.00000000	-10.69144000	-9.47342500
13.69999936	0.00000000	-11.02362000	-9.47342500
13.89999935	0.00000000	-11.02362000	-9.47342500
14.09999934	0.00000000	-10.69144000	-9.47342500
14.29999933	-0.15871060	-10.32234000	-9.47342500
14.49999932	-0.15871060	-10.69144000	-9.47342500
14.69999930	0.00000000	-11.02362000	-9.47342500
14.89999929	0.00000000	-11.06668000	-9.47342500
15.09999928	0.00000000	-11.06668000	-9.47342500
15.29999927	0.00000000	-11.06668000	-9.47342500
15.49999926	0.00000000	-11.06668000	-9.47342500
15.69999924	0.00000000	-11.06668000	-9.47342500
15.89999923	0.00000000	-11.06668000	-9.47342500
16.09999922	0.00000000	-11.06668000	-9.47342500
16.29999921	0.00000000	-11.06668000	-9.47342500
16.49999920	0.00000000	-11.02362000	-9.47342500
16.69999919	-0.15871060	-10.64838000	-9.47342500
16.89999917	0.00000000	-9.90403500	-9.47342500
17.09999916	0.00000000	-9.48572700	-9.47342500
17.29999915	0.00000000	-9.06742000	-9.47342500
17.49999914	0.00000000	-8.32308000	-9.47342500
17.69999913	0.00000000	-7.99704600	-9.47342500
17.89999911	0.00000000	-8.37229300	-9.47342500
18.09999910	0.00000000	-9.52879000	-9.47342500
18.29999909	0.00000000	-11.06668000	-9.47342500
18.49999908	0.00000000	-12.64764000	-9.47342500
18.69999907	0.00000000	-14.18553000	-9.47342500
18.89999905	0.00000000	-15.34203000	-9.47342500
19.09999904	0.00000000	-15.67421000	-9.47342500
19.29999903	0.00000000	-14.88066000	-9.47342500
19.49999902	0.00000000	-12.51230000	-9.47342500
19.69999901	0.00000000	-9.06742000	-9.47342500
19.89999900	0.00000000	-5.16117100	-9.47342500
20.09999898	0.00000000	-1.71628900	-9.47342500
20.29999897	0.00000000	0.55979330	-9.47342500
20.49999896	0.00000000	0.51673230	-9.47342500
20.69999895	0.00000000	-2.22687000	-9.47342500
20.89999894	0.00000000	-7.34498000	-9.47342500
21.09999892	0.00000000	-14.69611000	-9.47342500
21.29999891	0.00000000	-22.74237000	-9.47342500
21.49999890	0.00000000	-28.88164000	-9.47342500
21.69999889	0.00000000	-31.53912000	-9.47342500
21.89999888	0.00000000	-29.53371000	-9.47342500
22.09999886	0.00000000	-22.51476000	-9.47342500
22.29999885	0.00000000	-11.67569000	-9.47342500
22.49999884	0.00000000	1.07037400	-9.47342500
22.69999883	0.00000000	12.61073000	-9.47342500
22.89999882	0.00000000	19.91265000	-9.47342500
23.09999881	0.00000000	20.98917000	-9.47342500
23.29999879	0.00000000	14.70842000	-9.43036400
23.49999878	0.00000000	1.54404500	-9.05511800
23.69999877	0.00000000	-15.80955000	-8.31077700
23.89999876	0.00000000	-33.21235000	-7.93553100
24.09999875	0.00000000	-46.70890000	-7.89247000
24.29999873	0.00000000	-53.17421000	-7.93553100
24.49999872	0.00000000	-49.96924000	-8.35998900
24.69999871	0.00000000	-36.84793000	-9.51648500
24.89999870	0.00000000	-16.75074000	-11.04823000
25.09999869	0.00000000	5.63484200	-12.62918000
25.29999867	0.00000000	25.31373000	-14.11786000
25.49999866	0.00000000	37.27239000	-14.85605000
25.69999865	0.00000000	38.76107000	-14.03174000
25.89999864	0.00000000	29.07849000	-11.74951000
26.09999863	0.00000000	9.73179100	-8.22465500
26.29999862	0.00000000	-14.56078000	-4.36146600
26.49999860	0.00000000	-38.51501000	-0.51058070
26.69999859	0.00000000	-56.24384000	2.14074800
26.89999858	0.00000000	-63.60112000	2.46678100
27.09999857	0.00000000	-58.94439000	0.14148620
27.29999856	0.00000000	-43.17175000	-4.91510800
27.49999854	0.00000000	-20.41708000	-11.51575000
27.69999853	0.00000000	3.58636800	-18.89764000
27.89999852	0.00000000	24.10802000	-25.77510000
28.09999851	0.00000000	36.80487000	-29.91511000
28.29999850	0.00000000	38.38583000	-29.49680000
28.49999848	0.00000000	28.85088000	-24.06496000
28.69999847	0.00000000	11.44808000	-14.81299000
28.89999846	0.00000000	-9.81791200	-3.53100400
29.09999845	0.00000000	-30.69636000	7.67101300
29.29999844	0.00000000	-46.14911000	16.86762000
29.49999843	0.00000000	-53.21727000	21.00148000
29.69999841	0.00000000	-50.89813000	18.31324000
29.89999840	0.00000000	-40.18824000	9.38730200
30.09999839	0.00000000	-23.95423000	-4.17691900
30.29999838	0.00000000	-6.55142700	-20.01722000
30.49999837	0.00000000	8.98129900	-34.60876000
30.69999835	0.00000000	19.45128000	-44.26673000
30.89999834	0.00000000	22.98843000	-46.55511000
31.09999833	0.00000000	19.58661000	-41.11097000
31.29999832	0.00000000	10.28543000	-28.34030000
31.49999831	0.00000000	-2.41756900	-11.00517000
31.69999829	0.00000000	-15.99409000	6.78518600
31.89999828	0.00000000	-27.21457000	21.46899000
32.09999827	0.00000000	-34.28272000	29.97047000
32.29999826	0.00000000	-36.19587000	30.34572000
32.49999825	0.00000000	-32.74483000	22.58243000
32.69999824	0.00000000	-24.65551000	7.90477300
32.89999822	0.00000000	-14.22859000	-10.58686000
33.09999821	0.00000000	-3.75861200	-28.38337000
33.29999820	0.00000000	4.70595500	-41.94759000
33.49999819	0.00000000	9.03051100	-48.87426000
33.69999818	0.00000000	8.66141700	-47.33637000
33.89999816	0.00000000	4.42298200	-37.72145000
34.09999815	0.00000000	-3.29724400	-22.66855000
34.29999814	0.00000000	-12.09400000	-5.24729300
34.49999813	0.00000000	-19.48819000	10.92520000
34.69999812	0.00000000	-24.13878000	22.16412000
34.89999810	0.00000000	-25.30143000	26.07037000
35.09999809	0.00000000	-22.65010000	22.63164000
35.29999808	0.00000000	-17.29823000	12.54921000
35.49999807	0.00000000	-11.10974000	-2.08538400
35.69999806	0.00000000	-5.29650500	-17.88263000
35.89999805	0.00000000	-1.10728300	-30.98548000
36.09999803	0.00000000	0.04921259	-38.33046000
36.29999802	0.00000000	-2.22687000	-38.37352000
36.49999801	0.00000000	-6.79133800	-31.49606000
36.69999800	0.00000000	-12.18012000	-19.97416000
36.89999799	0.00000000	-16.79380000	-6.87130900
37.09999797	0.00000000	-19.53125000	4.65059000
37.29999796	0.00000000	-19.90650000	11.57726000
37.49999795	0.00000000	-17.99951000	12.03863000
37.69999794	0.00000000	-14.13632000	6.69906400
37.89999793	0.00000000	-9.52879000	-2.50369100
38.09999791	0.00000000	-5.25344500	-13.23819000
38.29999790	0.00000000	-2.17765700	-22.02264000
38.49999789	0.00000000	-1.02116100	-26.29183000
38.69999788	0.00000000	-2.17765700	-25.13533000
38.89999787	0.00000000	-5.25344500	-19.04527000
39.09999786	0.00000000	-9.48572700	-9.84867000
39.29999784	0.00000000	-13.76107000	-0.68897630
39.49999783	0.00000000	-17.25517000	5.85629900
39.69999782	0.00000000	-19.58046000	7.72022600
39.89999781	0.00000000	-19.95571000	4.32455700
40.09999780	0.00000000	-18.41781000	-3.38336600
40.29999778	0.00000000	-15.34203000	-12.96137000
40.49999777	0.00000000	-11.44193000	-22.15797000
40.69999776	0.00000000	-7.57258800	-27.87278000
40.89999775	0.00000000	-4.09079700	-28.29724000
41.09999774	0.00000000	-2.13459600	-23.68971000
41.29999772	0.00000000	-1.71628900	-15.23130000
41.49999771	0.00000000	-2.50984200	-5.24729300
41.69999770	0.00000000	-4.87819900	3.58021600
41.89999769	0.00000000	-8.32308000	8.96899500
42.09999768	0.00000000	-12.18012000	9.38730200
42.29999767	0.00000000	-15.29897000	5.16117100
42.49999765	0.00000000	-17.25517000	-2.50369100
42.69999764	0.00000000	-18.04257000	-11.70029000
42.89999763	0.00000000	-17.29823000	-19.42052000
43.09999762	0.00000000	-15.76649000	-24.10802000
43.29999761	0.00000000	-13.81028000	-25.27067000
43.49999759	0.00000000	-11.48499000	-22.57628000
43.69999758	0.00000000	-9.52879000	-16.85531000
43.89999757	0.00000000	-7.94783400	-9.93479300
44.09999756	0.00000000	-6.79133800	-3.80167300
44.29999755	0.00000000	-6.41609200	0.09227362
44.49999753	0.00000000	-6.74212600	0.93503930
44.69999752	0.00000000	-7.48646600	-0.55364170
44.89999751	0.00000000	-7.86171200	-3.62327700
45.09999750	0.00000000	-7.90477300	-7.47416300
45.29999749	0.00000000	-7.99704600	-10.96211000
45.49999748	0.00000000	-8.83366100	-13.69956000
45.69999746	0.00000000	-11.15896000	-15.23130000
45.89999745	0.00000000	-14.22859000	-15.27436000
46.09999744	0.00000000	-17.34744000	-14.11786000
46.29999743	0.00000000	-20.04183000	-12.16781000
46.49999742	0.00000000	-21.53666000	-9.47342500
46.69999740	0.00000000	-21.06914000	-6.82209600
46.89999739	0.00000000	-17.95029000	-5.24729300
47.09999738	0.00000000	-12.51230000	-4.82898600
47.29999737	0.00000000	-5.94857300	-5.19808000
47.49999736	0.00000000	0.60900590	-6.40378900
47.69999734	0.00000000	5.16732200	-8.31077700
47.89999733	0.00000000	6.32997000	-10.62992000
48.09999732	0.00000000	3.58636800	-12.58612000
48.29999731	0.00000000	-2.60211600	-14.11786000
48.49999730	0.00000000	-11.10974000	-14.81299000
48.69999729	0.00000000	-19.95571000	-13.69956000
48.89999727	0.00000000	-26.88238000	-11.38041000
49.09999726	0.00000000	-29.95817000	-8.67987200
49.29999725	0.00000000	-28.42027000	-5.57332700
49.49999724	0.00000000	-22.60704000	-3.33415300
49.69999723	0.00000000	-13.71801000	-2.50369100
49.89999721	0.00000000	-3.71555100	-3.29109200
50.09999720	0.00000000	4.74901600	-5.24729300
50.29999719	0.00000000	9.35654400	-8.40305000
50.49999718	0.00000000	8.98129900	-12.58612000
50.69999717	0.00000000	3.63558100	-16.39395000
50.89999715	0.00000000	-4.83513700	-18.35015000
51.09999714	0.00000000	-14.09326000	-18.35015000
51.29999713	0.00000000	-22.23179000	-16.39395000
51.49999712	0.00000000	-27.21457000	-12.53691000
51.69999711	0.00000000	-28.00197000	-7.93553100
51.89999710	0.00000000	-24.13878000	-3.70939900
52.09999708	0.00000000	-16.87992000	-0.97194880
52.29999707	0.00000000	-8.41535400	-0.22145670
52.49999706	0.00000000	-1.10728300	-1.34719500
52.69999705	0.00000000	3.12500000	-4.45374000
52.89999704	0.00000000	3.16806100	-8.26771600
53.09999702	0.00000000	-0.64591530	-12.16166000
53.29999701	0.00000000	-6.79133800	-15.18824000
53.49999700	0.00000000	-13.71801000	-16.39395000
53.69999699	0.00000000	-19.44513000	-15.64960000
53.89999698	0.00000000	-22.13952000	-13.74262000
54.09999696	0.00000000	-21.06914000	-11.04823000
54.29999695	0.00000000	-17.25517000	-8.35383800
54.49999694	0.00000000	-12.22933000	-6.44685000
54.69999693	0.00000000	-6.83439900	-5.66560000
54.89999692	0.00000000	-2.64517700	-6.40378900
55.09999691	0.00000000	-1.06422200	-7.89247000
55.29999689	0.00000000	-2.22687000	-9.47342500
55.49999688	0.00000000	-5.67175200	-10.96211000
55.69999687	0.00000000	-10.64838000	-11.70029000
55.89999686	0.00000000	-15.25591000	-10.91289000
56.09999685	0.00000000	-18.32554000	-9.05511800
56.29999683	0.00000000	-19.11294000	-6.77903500
56.49999682	0.00000000	-17.21210000	-5.33341500
56.69999681	0.00000000	-13.81028000	-5.66560000
56.89999680	0.00000000	-9.95324800	-7.60949800
57.09999679	0.00000000	-6.83439900	-10.31004000
57.29999677	0.00000000	-4.87819900	-13.79183000
57.49999676	0.00000000	-4.13385800	-16.76919000
57.69999675	0.00000000	-5.29650500	-17.88263000
57.89999674	0.00000000	-7.94783400	-16.35089000
58.09999673	0.00000000	-11.02362000	-12.49385000
58.29999672	0.00000000	-13.71801000	-7.47416300
58.49999670	0.00000000	-15.25591000	-2.08538400
58.69999669	0.00000000	-15.29897000	2.09768700
58.89999668	0.00000000	-14.13632000	3.58636800
59.09999667	0.00000000	-12.22933000	1.67322800
59.29999666	0.00000000	-9.95324800	-3.33415300
59.49999664	0.00000000	-8.41535400	-9.89173200
59.69999663	0.00000000	-7.99704600	-16.85531000
59.89999662	0.00000000	-8.37229300	-22.57628000
60.09999661	0.00000000	-9.52879000	-25.22145000
60.29999660	0.00000000	-11.02362000	-23.68971000
60.49999658	0.00000000	-12.18012000	-18.30093000
60.69999657	0.00000000	-12.55536000	-10.62992000
60.89999656	0.00000000	-12.18012000	-2.54675200
61.09999655	0.00000000	-11.06668000	3.62942900
61.29999654	0.00000000	-9.90403500	6.74212600
61.49999653	0.00000000	-9.11048200	6.32381900
61.69999651	0.00000000	-8.32308000	2.00541300
61.89999650	0.00000000	-8.04010800	-5.61638700
62.09999649	0.00000000	-8.79060000	-14.48696000
62.29999648	0.00000000	-10.69144000	-21.78888000
62.49999647	0.00000000	-12.60458000	-26.47638000
62.69999645	0.00000000	-14.18553000	-27.17766000
62.89999644	0.00000000	-15.29897000	-23.73892000
63.09999643	0.00000000	-15.29897000	-16.81225000
63.29999642	0.00000000	-14.13632000	-8.35998900
63.49999641	0.00000000	-12.18012000	-0.64591530
63.69999639	0.00000000	-9.48572700	4.78592500
63.89999638	0.00000000	-6.83439900	6.73597400
64.09999637	0.00000000	-5.29650500	5.20423200
64.29999636	0.00000000	-5.29650500	0.55979330
64.49999635	0.00000000	-6.79133800	-6.36072800
64.69999634	0.00000000	-9.11048200	-13.69956000
64.89999632	0.00000000	-11.44193000	-19.83883000
65.09999631	0.00000000	-13.76107000	-23.32062000
65.29999630	0.00000000	-15.29897000	-23.04380000
65.49999629	0.00000000	-15.67421000	-20.39247000
65.69999628	0.00000000	-14.88066000	-16.48622000
65.89999626	0.00000000	-12.60458000	-11.42347000
66.09999625	0.00000000	-9.99630800	-6.44685000
66.29999624	0.00000000	-8.41535400	-2.54675200
66.49999623	0.00000000	-7.99704600	-0.55364170
66.69999622	0.00000000	-8.37229300	-0.09227362
66.89999620	0.00000000	-9.52879000	-0.51058070
67.09999619	0.00000000	-11.06668000	-2.08538400
67.29999618	0.00000000	-12.60458000	-4.77977300
67.49999617	0.00000000	-13.67495000	-7.89247000
67.69999616	0.00000000	-13.29970000	-11.04823000
67.89999615	0.00000000	-11.44193000	-14.16092000
68.09999613	0.00000000	-9.52879000	-16.85531000
68.29999612	0.00000000	-7.90477300	-18.39321000
68.49999611	0.00000000	-6.45915300	-18.43627000
68.69999610	0.00000000	-6.13927100	-17.23056000
68.89999609	0.00000000	-8.04010800	-14.85605000
69.09999607	0.00000000	-11.06668000	-10.95595000
69.29999606	0.00000000	-14.22859000	-6.35457700
69.49999605	0.00000000	-17.29823000	-2.08538400
69.69999604	0.00000000	-19.53125000	0.97810030
69.89999603	0.00000000	-19.48819000	2.13459600
70.09999601	0.00000000	-16.83686000	0.93503930
70.29999600	0.00000000	-12.60458000	-2.50369100
70.49999599	0.00000000	-7.94783400	-7.51722400
70.69999598	0.00000000	-3.67249000	-12.53691000
70.89999597	0.00000000	-0.64591530	-16.85531000
71.09999596	0.00000000	0.14148620	-19.88189000
71.29999594	0.00000000	-1.85162400	-20.66929000
71.49999593	0.00000000	-6.04699800	-18.71924000
71.69999592	0.00000000	-11.85408000	-14.90526000
71.89999591	0.00000000	-17.21210000	-9.89173200
72.09999590	0.00000000	-21.16142000	-5.29035400
72.29999588	0.00000000	-23.02534000	-2.17765700
72.49999587	0.00000000	-22.27485000	-1.01501000
72.69999586	0.00000000	-18.79306000	-2.12844500
72.89999585	0.00000000	-13.81028000	-4.77977300
73.09999584	0.00000000	-8.37229300	-7.84940900
73.29999582	0.00000000	-3.75861200	-10.53765000
73.49999581	0.00000000	-1.02116100	-12.11860000
73.69999580	0.00000000	-0.64591530	-12.53691000
73.89999579	0.00000000	-2.50984200	-12.16166000
74.09999578	0.00000000	-5.99163300	-11.00517000
74.29999577	0.00000000	-9.90403500	-9.55954600
74.49999575	0.00000000	-14.18553000	-8.77829600
74.69999574	0.00000000	-17.95029000	-9.14124000
74.89999573	0.00000000	-19.53125000	-9.89173200
75.09999572	0.00000000	-18.79306000	-11.09744000
75.29999571	0.00000000	-16.50467000	-12.53691000
75.49999569	0.00000000	-13.06594000	-13.28125000
75.69999568	0.00000000	-9.99630800	-12.49385000
75.89999567	0.00000000	-7.99704600	-10.53765000
76.09999566	0.00000000	-6.83439900	-7.47416300
76.29999565	0.00000000	-6.83439900	-4.03543200
76.49999563	0.00000000	-7.90477300	-1.75319900
76.69999562	0.00000000	-9.06742000	-1.01501000
76.89999561	0.00000000	-9.86097400	-2.59596400
77.09999560	0.00000000	-10.64838000	-6.40378900
77.29999559	0.00000000	-11.02362000	-11.04823000
77.49999558	0.00000000	-11.06668000	-15.69882000
77.69999556	0.00000000	-11.06668000	-19.50664000
77.89999555	0.00000000	-11.10974000	-21.04454000
78.09999554	0.00000000	-11.48499000	-19.92495000
78.29999553	0.00000000	-12.27239000	-16.81225000
78.49999552	0.00000000	-13.02288000	-12.11860000
78.69999550	0.00000000	-13.81028000	-6.31151500
78.89999549	0.00000000	-14.09326000	-0.59670270
79.09999548	0.00000000	-13.34276000	3.21112200
79.29999547	0.00000000	-11.44193000	3.62942900
79.49999546	0.00000000	-9.52879000	0.97810030
79.69999544	0.00000000	-7.90477300	-3.62327700
79.89999543	0.00000000	-6.41609200	-9.05511800
80.09999542	0.00000000	-5.67175200	-14.07480000
80.29999541	0.00000000	-6.45915300	-17.97490000
80.49999540	0.00000000	-8.37229300	-19.93110000
80.69999539	0.00000000	-11.06668000	-19.97416000
80.89999537	0.00000000	-13.76107000	-18.39321000
81.09999536	0.00000000	-15.67421000	-15.27436000
81.29999535	0.00000000	-16.46161000	-11.04823000
81.49999534	0.00000000	-15.67421000	-6.77903500
81.69999533	0.00000000	-13.76107000	-3.29109200
81.89999531	0.00000000	-11.06668000	-0.92888770
82.09999530	0.00000000	-8.41535400	-0.17839570
82.29999529	0.00000000	-6.83439900	-0.92888770
82.49999528	0.00000000	-6.41609200	-3.24803100
82.69999527	0.00000000	-6.79133800	-6.31151500
82.89999525	0.00000000	-7.94783400	-9.47342500
83.09999524	0.00000000	-9.48572700	-12.62918000
83.29999523	0.00000000	-11.06668000	-15.69882000
83.49999522	0.00000000	-12.60458000	-18.01796000
83.69999521	0.00000000	-13.71801000	-18.76845000
83.89999520	0.00000000	-13.76107000	-18.01796000
84.09999518	0.00000000	-13.02288000	-15.64960000
84.29999517	0.00000000	-12.27239000	-12.16166000
84.49999516	0.00000000	-11.48499000	-7.89247000
84.69999515	0.00000000	-11.10974000	-3.66633800
84.89999514	0.00000000	-11.06668000	-0.59670270
85.09999512	0.00000000	-11.02362000	0.60285430
85.29999511	0.00000000	-10.64838000	-0.17839570
85.49999510	0.00000000	-9.90403500	-2.54675200
85.69999509	0.00000000	-9.48572700	-6.82209600
85.89999508	0.00000000	-9.06742000	-12.16166000
86.09999506	0.00000000	-8.37229300	-16.76919000
86.29999505	0.00000000	-8.41535400	-19.50664000
86.49999504	0.00000000	-9.52879000	-19.93110000
86.69999503	0.00000000	-11.06668000	-18.35015000
86.89999502	0.00000000	-12.60458000	-14.85605000
87.09999501	0.00000000	-13.76107000	-9.84867000
87.29999499	0.00000000	-14.18553000	-4.87204700
87.49999498	0.00000000	-14.18553000	-0.97194880
87.69999497	0.00000000	-13.76107000	0.88582670
87.89999496	0.00000000	-12.55536000	0.18454720
88.09999495	0.00000000	-10.64838000	-2.91584600
88.29999493	0.00000000	-8.37229300	-7.14812900
88.49999492	0.00000000	-6.87746000	-12.21087000
88.69999491	0.00000000	-6.79133800	-16.72613000
88.89999490	0.00000000	-7.57258800	-19.08834000
89.09999489	0.00000000	-8.74138700	-18.71924000
89.29999487	0.00000000	-10.69144000	-16.39395000
89.49999486	0.00000000	-12.55536000	-12.11860000
89.69999485	0.00000000	-13.76107000	-6.82209600
89.89999484	0.00000000	-14.13632000	-2.59596400
90.09999483	0.00000000	-13.76107000	-0.63976370
90.29999482	0.00000000	-12.64764000	-1.01501000
90.49999480	0.00000000	-11.48499000	-3.70939900
90.69999479	0.00000000	-10.69144000	-7.93553100
90.89999478	0.00000000	-9.90403500	-12.53691000
91.09999477	0.00000000	-9.52879000	-16.39395000
91.29999476	0.00000000	-9.48572700	-18.30093000
91.49999474	0.00000000	-9.52879000	-17.88263000
91.69999473	0.00000000	-9.90403500	-14.81299000
91.89999472	0.00000000	-10.64838000	-9.89173200
92.09999471	0.00000000	-11.02362000	-5.29035400
92.29999470	0.00000000	-11.06668000	-2.12844500
92.49999468	0.00000000	-11.06668000	-0.63976370
92.69999467	0.00000000	-11.06668000	-1.43946800
92.89999466	0.00000000	-11.10974000	-4.87204700
93.09999465	0.00000000	-11.53420000	-9.43036400
93.29999464	0.00000000	-12.64764000	-13.69956000
93.49999463	0.00000000	-13.71801000	-16.76919000
93.69999461	0.00000000	-13.76107000	-17.88263000
93.89999460	0.00000000	-13.02288000	-16.39395000
94.09999459	0.00000000	-12.18012000	-12.96137000
94.29999458	0.00000000	-10.59916000	-9.09817800
94.49999457	0.00000000	-8.37229300	-5.24729300
94.69999455	0.00000000	-6.79133800	-2.59596400
94.89999454	0.00000000	-5.99163300	-2.22071800
95.09999453	0.00000000	-5.67175200	-4.08464600
95.29999452	0.00000000	-6.87746000	-7.56028500
95.49999451	0.00000000	-9.52879000	-11.38041000
95.69999449	0.00000000	-12.60458000	-14.85605000
95.89999448	0.00000000	-15.34203000	-16.71998000
96.09999447	0.00000000	-17.25517000	-16.39395000
96.29999446	0.00000000	-18.04257000	-14.07480000
96.49999445	0.00000000	-17.21210000	-10.67298000
96.69999444	0.00000000	-14.88066000	-7.19734200
96.89999442	0.00000000	-11.06668000	-4.87204700
97.09999441	0.00000000	-7.20964500	-3.66633800
97.29999440	0.00000000	-4.45989200	-3.70939900
97.49999439	0.00000000	-2.50984200	-5.24729300
97.69999438	0.00000000	-2.17765700	-7.93553100
97.89999436	0.00000000	-3.71555100	-10.96211000
98.09999435	0.00000000	-6.83439900	-13.28125000
98.29999434	0.00000000	-11.06668000	-14.07480000
98.49999433	0.00000000	-15.29897000	-13.69956000
98.69999432	0.00000000	-18.41781000	-12.16781000
98.89999430	0.00000000	-19.95571000	-9.93479300
99.09999429	0.00000000	-19.58046000	-8.40305000
99.29999428	0.00000000	-17.25517000	-7.93553100
99.49999427	0.00000000	-13.81028000	-7.93553100
99.69999426	0.00000000	-9.95324800	-8.31077700
99.89999425	0.00000000	-6.83439900	-9.00590400
100.09999423	0.00000000	-4.83513700	-9.00590400
100.29999422	0.00000000	-3.67249000	-8.31077700
100.49999421	0.00000000	-3.71555100	-7.93553100
100.69999420	0.00000000	-5.29650500	-7.89247000
100.89999419	0.00000000	-8.32308000	-7.93553100
101.09999417	0.00000000	-11.81102000	-8.35998900
101.29999416	0.00000000	-14.51156000	-9.51648500
101.49999415	0.00000000	-16.50467000	-11.04823000
101.69999414	0.00000000	-17.25517000	-12.58612000
101.89999413	0.00000000	-16.87992000	-13.69956000
102.09999411	0.00000000	-15.34203000	-13.69956000
102.29999410	0.00000000	-13.02288000	-12.53691000
102.49999409	0.00000000	-10.69144000	-10.58686000
102.69999408	0.00000000	-8.37229300	-7.89247000
102.89999407	0.00000000	-6.83439900	-5.24729300
103.09999406	0.00000000	-6.41609200	-3.70939900
103.29999404	0.00000000	-6.79133800	-3.66633800
103.49999403	0.00000000	-7.94783400	-4.82283400
103.69999402	0.00000000	-9.52879000	-6.77903500
103.89999401	0.00000000	-11.48499000	-9.51648500
104.09999400	0.00000000	-13.76107000	-12.53691000
104.29999398	0.00000000	-15.29897000	-14.85605000
104.49999397	0.00000000	-15.71727000	-15.60654000
104.69999396	0.00000000	-15.29897000	-14.85605000
104.89999395	0.00000000	-13.76107000	-12.53691000
105.09999394	0.00000000	-11.48499000	-9.51648500
105.29999392	0.00000000	-9.57800100	-6.82209600
105.49999391	0.00000000	-8.41535400	-5.24729300
105.69999390	0.00000000	-8.37229300	-4.82898600
105.89999389	0.00000000	-9.11048200	-5.24729300
106.09999388	0.00000000	-9.90403500	-6.77903500
106.29999387	0.00000000	-11.06668000	-9.05511800
106.49999385	0.00000000	-12.18012000	-11.00517000
106.69999384	0.00000000	-12.60458000	-12.53691000
106.89999383	0.00000000	-12.60458000	-13.23819000
107.09999382	0.00000000	-12.22933000	-12.16781000
107.29999381	0.00000000	-11.44193000	-10.31004000
107.49999379	0.00000000	-10.69144000	-9.09817800
107.69999378	0.00000000	-9.90403500	-7.89247000
107.89999377	0.00000000	-9.57800100	-6.82209600
108.09999376	0.00000000	-9.90403500	-6.82209600
108.29999375	0.00000000	-10.69144000	-7.98474400
108.49999374	0.00000000	-11.48499000	-9.84867000
108.69999372	0.00000000	-12.64764000	-11.74951000
108.89999371	0.00000000	-13.71801000	-12.53691000
109.09999370	0.00000000	-13.71801000	-12.58612000
109.29999369	0.00000000	-12.64764000	-12.16166000
109.49999368	0.00000000	-11.48499000	-10.96211000
109.69999366	0.00000000	-10.64838000	-9.09817800
109.89999365	0.00000000	-9.48572700	-7.14812900
110.09999364	0.00000000	-8.41535400	-6.02854300
110.29999363	0.00000000	-8.37229300	-5.61638700
110.49999362	0.00000000	-9.11048200	-6.44685000
110.69999360	0.00000000	-9.90403500	-8.26771600
110.89999359	0.00000000	-11.10974000	-10.21161000
111.09999358	0.00000000	-12.55536000	-11.38041000
111.29999357	0.00000000	-13.34276000	-12.21087000
111.49999356	0.00000000	-13.02288000	-12.53691000
111.69999355	0.00000000	-12.64764000	-12.21087000
111.89999353	0.00000000	-12.18012000	-11.42347000
112.09999352	0.00000000	-11.06668000	-10.62992000
112.29999351	0.00000000	-9.95324800	-9.47342500
112.49999350	0.00000000	-9.52879000	-8.35998900
112.69999349	0.00000000	-9.52879000	-7.93553100
112.89999347	0.00000000	-9.90403500	-7.89247000
113.09999346	0.00000000	-10.64838000	-7.93553100
113.29999345	0.00000000	-11.02362000	-8.31077700
113.49999344	0.00000000	-11.06668000	-9.05511800
113.69999343	0.00000000	-11.06668000	-9.47342500
113.89999341	0.00000000	-11.06668000	-9.84867000
114.09999340	0.00000000	-11.06668000	-10.25467000
114.29999339	0.00000000	-11.06668000	-10.26698000
114.49999338	0.00000000	-11.06668000	-10.67298000
114.69999337	0.00000000	-11.06668000	-11.00517000
114.89999336	0.00000000	-11.06668000	-11.04823000
115.09999334	0.00000000	-11.06668000	-11.04823000
115.29999333	0.00000000	-11.06668000	-11.04823000
115.49999332	0.00000000	-11.06668000	-11.00517000
115.69999331	0.00000000	-11.06668000	-10.62992000
115.89999330	0.00000000	-11.06668000	-9.84867000
116.09999328	0.00000000	-11.06668000	-9.09817800
116.29999327	0.00000000	-11.10974000	-8.31077700
116.49999326	0.00000000	-11.48499000	-7.93553100
116.69999325	0.00000000	-12.22933000	-7.89247000
116.89999324	0.00000000	-12.55536000	-7.93553100
117.09999322	0.00000000	-12.22933000	-8.31077700
117.29999321	0.00000000	-11.44193000	-9.09817800
117.49999320	0.00000000	-10.69144000	-9.84867000
117.69999319	0.00000000	-9.90403500	-10.62992000
117.89999318	0.00000000	-9.52879000	-11.00517000
118.09999317	0.00000000	-9.48572700	-11.04823000
118.29999315	0.00000000	-9.52879000	-11.04823000
118.49999314	0.00000000	-9.90403500	-11.00517000
118.69999313	0.00000000	-10.69144000	-10.62992000
118.89999312	0.00000000	-11.48499000	-9.84867000
119.09999311	0.00000000	-12.64764000	-9.09817800
119.29999309	0.00000000	-13.76107000	-8.31077700
119.49999308	0.00000000	-14.13632000	-7.93553100
119.69999307	0.00000000	-13.76107000	-7.89247000
119.89999306	0.00000000	-12.64764000	-7.93553100
120.09999305	0.00000000	-11.48499000	-8.31077700
120.29999303	0.00000000	-10.64838000	-9.05511800
120.49999302	0.00000000	-9.48572700	-9.43036400
120.69999301	0.00000000	-8.37229300	-9.47342500
120.89999300	0.00000000	-7.99704600	-9.51648500
121.09999299	0.00000000	-8.37229300	-9.89173200
121.29999298	0.00000000	-9.52879000	-10.62992000
121.49999296	0.00000000	-11.02362000	-11.00517000
121.69999295	0.00000000	-12.22933000	-11.04823000
121.89999294	0.00000000	-13.02288000	-11.00517000
122.09999293	0.00000000	-13.81028000	-10.62992000
122.29999292	0.00000000	-14.13632000	-9.84867000
122.49999290	0.00000000	-13.81028000	-9.09817800
122.69999289	0.00000000	-13.02288000	-8.31077700
122.89999288	0.00000000	-12.22933000	-7.93553100
123.09999287	0.00000000	-11.06668000	-7.89247000
123.29999286	0.00000000	-9.95324800	-7.93553100
123.49999284	0.00000000	-9.52879000	-8.31077700
123.69999283	0.00000000	-9.48572700	-9.09817800
123.89999282	0.00000000	-9.48572700	-9.84867000
124.09999281	0.00000000	-9.52879000	-10.62992000
124.29999280	0.00000000	-9.95324800	-11.00517000
124.49999279	0.00000000	-11.06668000	-11.04823000
124.69999277	0.00000000	-12.18012000	-11.04823000
124.89999276	0.00000000	-12.60458000	-11.00517000
125.09999275	0.00000000	-12.64764000	-10.62992000
125.29999274	0.00000000	-12.64764000	-9.84867000
125.49999273	0.00000000	-12.64764000	-9.09817800
125.69999271	0.00000000	-12.60458000	-8.31077700
125.89999270	0.00000000	-12.22933000	-7.93553100
126.09999269	0.00000000	-11.44193000	-7.89247000
126.29999268	0.00000000	-10.69144000	-7.93553100
126.49999267	0.00000000	-9.86097400	-8.31077700
126.69999265	0.00000000	-9.15354300	-9.05511800
126.89999264	0.00000000	-8.79060000	-9.43036400
127.09999263	0.00000000	-9.52879000	-9.51648500
127.29999262	0.00000000	-10.64838000	-9.89173200
127.49999261	0.00000000	-11.48499000	-10.58686000
127.69999260	0.00000000	-12.64764000	-10.58686000
127.89999258	0.00000000	-13.76107000	-9.89173200
128.09999257	0.00000000	-14.13632000	-9.51648500
128.29999256	0.00000000	-13.76107000	-9.47342500
128.49999255	0.00000000	-12.60458000	-9.43036400
128.69999254	0.00000000	-11.10974000	-9.05511800
128.89999252	0.00000000	-9.95324800	-8.35998900
129.09999251	0.00000000	-9.52879000	-8.35998900
129.29999250	0.00000000	-9.48572700	-9.05511800
129.49999249	0.00000000	-9.52879000	-9.43036400
129.69999248	0.00000000	-9.95324800	-9.51648500
129.89999246	0.00000000	-11.06668000	-9.84867000
130.09999245	0.00000000	-12.22933000	-10.21161000
130.29999244	0.00000000	-13.02288000	-9.84867000
130.49999243	0.00000000	-13.76107000	-9.51648500
130.69999242	0.00000000	-13.71801000	-9.43036400
130.89999241	0.00000000	-12.64764000	-9.05511800
131.09999239	0.00000000	-11.48499000	-8.35998900
131.29999238	0.00000000	-10.69144000	-8.35998900
131.49999237	0.00000000	-9.90403500	-9.05511800
131.69999236	0.00000000	-9.52879000	-9.47342500
131.89999235	0.00000000	-9.52879000	-9.89173200
132.09999233	0.00000000	-9.90403500	-10.62992000
132.29999232	0.00000000	-10.69144000	-11.00517000
132.49999231	0.00000000	-11.44193000	-11.04823000
132.69999230	0.00000000	-12.22933000	-11.00517000
132.89999229	0.00000000	-12.60458000	-10.62992000
133.09999227	0.00000000	-12.60458000	-9.84867000
133.29999226	0.00000000	-12.22933000	-9.09817800
133.49999225	0.00000000	-11.48499000	-8.31077700
133.69999224	0.00000000	-11.10974000	-7.93553100
133.89999223	0.00000000	-11.06668000	-7.89247000
134.09999222	0.00000000	-11.06668000	-7.93553100
134.29999220	0.00000000	-11.06668000	-8.31077700
134.49999219	0.00000000	-11.06668000	-9.09817800
134.69999218	0.00000000	-11.06668000	-9.84867000
134.89999217	0.00000000	-11.06668000	-10.67298000
135.09999216	0.00000000	-11.06668000	-11.38041000
135.29999214	0.00000000	-11.06668000	-11.79257000
135.49999213	0.00000000	-11.02362000	-11.38041000
135.69999212	0.00000000	-10.69144000	-10.67298000
135.89999211	0.00000000	-10.37155000	-9.84867000
136.09999210	0.00000000	-11.10974000	-9.09817800
136.29999208	0.00000000	-12.18012000	-8.31077700
136.49999207	0.00000000	-12.60458000	-7.93553100
136.69999206	0.00000000	-12.64764000	-7.89247000
136.89999205	0.00000000	-12.64764000	-7.93553100
137.09999204	0.00000000	-12.60458000	-8.31077700
137.29999203	0.00000000	-12.22933000	-9.09817800
137.49999201	0.00000000	-11.44193000	-9.84867000
137.69999200	0.00000000	-10.69144000	-10.62992000
137.89999199	0.00000000	-9.90403500	-11.00517000
138.09999198	0.00000000	-9.57800100	-11.04823000
138.29999197	0.00000000	-9.90403500	-11.04823000
138.49999195	0.00000000	-10.64838000	-11.00517000
138.69999194	0.00000000	-11.06668000	-10.62992000
138.89999193	0.00000000	-11.48499000	-9.89173200
139.09999192	0.00000000	-12.22933000	-9.47342500
139.29999191	0.00000000	-12.60458000	-9.05511800
139.49999189	0.00000000	-12.60458000	-8.31077700
139.69999188	0.00000000	-12.22933000	-7.93553100
139.89999187	0.00000000	-11.48499000	-7.89247000
140.09999186	0.00000000	-11.06668000	-7.93553100
140.29999185	0.00000000	-10.64838000	-8.31077700
140.49999184	0.00000000	-9.95324800	-9.09817800
140.69999182	0.00000000	-9.95324800	-9.84867000
140.89999181	0.00000000	-10.64838000	-10.67298000
141.09999180	0.00000000	-11.06668000	-11.38041000
141.29999179	0.00000000	-11.48499000	-11.79257000
141.49999178	0.00000000	-12.22933000	-11.38041000
141.69999176	0.00000000	-12.55536000	-10.62992000
141.89999175	0.00000000	-12.22933000	-9.47342500
142.09999174	0.00000000	-11.48499000	-8.35998900
142.29999173	0.00000000	-11.10974000	-7.93553100
142.49999172	0.00000000	-11.06668000	-7.89247000
142.69999170	0.00000000	-11.06668000	-7.89247000
142.89999169	0.00000000	-11.06668000	-7.93553100
143.09999168	0.00000000	-11.06668000	-8.35998900
143.29999167	0.00000000	-11.10974000	-9.47342500
143.49999166	0.00000000	-11.44193000	-10.58686000
143.69999165	0.00000000	-11.85408000	-11.00517000
143.89999163	0.00000000	-11.81717000	-11.04823000
144.09999162	0.00000000	-11.85408000	-11.00517000
144.29999161	0.00000000	-11.44193000	-10.62992000
144.49999160	0.00000000	-11.10974000	-9.84867000
144.69999159	0.00000000	-11.06668000	-9.09817800
144.89999157	0.00000000	-11.06668000	-8.31077700
145.09999156	0.00000000	-11.06668000	-7.93553100
145.29999155	0.00000000	-11.06668000	-7.93553100
145.49999154	0.00000000	-11.06668000	-8.31077700
145.69999153	0.00000000	-11.10974000	-9.05511800
145.89999151	0.00000000	-11.48499000	-9.47342500
146.09999150	0.00000000	-12.22933000	-9.89173200
146.29999149	0.00000000	-12.55536000	-10.62992000
146.49999148	0.00000000	-12.22933000	-11.00517000
146.69999147	0.00000000	-11.48499000	-11.00517000
146.89999146	0.00000000	-11.10974000	-10.62992000
147.09999144	0.00000000	-11.02362000	-9.89173200
147.29999143	0.00000000	-10.69144000	-9.47342500
147.49999142	0.00000000	-10.32234000	-9.09817800
147.69999141	0.00000000	-10.69144000	-8.72908400
147.89999140	0.00000000	-11.02362000	-9.05511800
148.09999138	0.00000000	-11.10974000	-9.05511800
148.29999137	0.00000000	-11.48499000	-8.72908400
148.49999136	0.00000000	-12.22933000	-9.09817800
148.69999135	0.00000000	-12.60458000	-9.47342500
148.89999134	0.00000000	-12.60458000	-9.89173200
149.09999132	0.00000000	-12.22933000	-10.62992000
149.29999131	0.00000000	-11.48499000	-11.00517000
149.49999130	0.00000000	-11.10974000	-11.00517000
149.69999129	0.00000000	-11.06668000	-10.62992000
149.89999128	0.00000000	-11.06668000	-9.89173200
150.09999127	0.00000000	-11.06668000	-9.51648500
150.29999125	0.00000000	-11.06668000	-9.47342500
150.49999124	0.00000000	-11.06668000	-9.47342500
150.69999123	0.00000000	-11.06668000	-9.43036400
150.89999122	0.00000000	-11.06668000	-9.09817800
151.09999121	0.00000000	-11.10974000	-8.72908400
151.29999119	0.00000000	-11.48499000	-9.09817800
151.49999118	0.00000000	-12.18012000	-9.43036400
151.69999117	0.00000000	-12.18012000	-9.47342500
151.89999116	0.00000000	-11.48499000	-9.47342500
152.09999115	0.00000000	-11.10974000	-9.51648500
152.29999113	0.00000000	-11.06668000	-9.84867000
152.49999112	0.00000000	-11.06668000	-10.21161000
152.69999111	0.00000000	-11.06668000	-9.84867000
152.89999110	0.00000000	-11.06668000	-9.51648500
153.09999109	0.00000000	-11.06668000	-9.47342500
153.29999108	0.00000000	-11.06668000	-9.47342500
153.49999106	0.00000000	-11.06668000	-9.47342500
153.69999105	0.00000000	-11.10974000	-9.47342500
153.89999104	0.00000000	-11.48499000	-9.47342500
154.09999103	0.00000000	-12.22933000	-9.47342500
154.29999102	0.00000000	-12.60458000	-9.47342500
154.49999100	0.00000000	-12.64764000	-9.47342500
154.69999099	0.00000000	-12.64764000	-9.47342500
154.89999098	0.00000000	-12.60458000	-9.47342500
155.09999097	0.00000000	-12.22933000	-9.47342500
155.29999096	0.00000000	-11.48499000	-9.47342500
155.49999094	0.00000000	-11.10974000	-9.47342500
155.69999093	0.00000000	-11.06668000	-9.47342500
155.89999092	0.00000000	-11.06668000	-9.47342500
156.09999091	0.00000000	-11.06668000	-9.47342500
156.29999090	0.00000000	-11.06668000	-9.47342500
156.49999089	0.00000000	-11.10974000	-9.47342500
156.69999087	0.00000000	-11.48499000	-9.47342500
156.89999086	0.00000000	-12.22933000	-9.43036400
157.09999085	0.00000000	-12.60458000	-9.09817800
157.29999084	0.00000000	-12.64764000	-8.68602300
157.49999083	0.00000000	-12.64764000	-8.67987200
157.69999081	0.00000000	-12.60458000	-8.31077700
157.89999080	0.00000000	-12.22933000	-8.35998900
158.09999079	0.00000000	-11.48499000	-9.05511800
158.29999078	0.00000000	-11.10974000	-9.43036400
158.49999077	0.00000000	-11.06668000	-9.47342500
158.69999075	0.00000000	-11.06668000	-9.47342500
158.89999074	0.00000000	-11.02362000	-9.47342500
159.09999073	0.00000000	-10.69144000	-9.47342500
159.29999072	0.00000000	-10.37155000	-9.47342500
159.49999071	0.00000000	-11.06668000	-9.47342500
159.69999070	0.00000000	-11.81102000	-9.47342500
159.89999068	0.00000000	-11.86024000	-9.47342500
160.09999067	0.00000000	-12.27239000	-9.47342500
160.29999066	0.00000000	-12.60458000	-9.47342500
160.49999065	0.00000000	-12.64764000	-9.47342500
160.69999064	0.00000000	-12.60458000	-9.47342500
160.89999062	0.00000000	-12.22933000	-9.47342500
161.09999061	0.00000000	-11.48499000	-9.51648500
161.29999060	0.00000000	-11.10974000	-9.89173200
161.49999059	0.00000000	-11.06668000	-10.62992000
161.69999058	0.00000000	-11.06668000	-10.95595000
161.89999056	0.00000000	-11.06668000	-10.62992000
162.09999055	0.00000000	-11.06668000	-9.89173200
162.29999054	0.00000000	-11.06668000	-9.51648500
162.49999053	0.00000000	-11.06668000	-9.47342500
162.69999052	0.00000000	-11.06668000	-9.47342500
162.89999051	0.00000000	-11.10974000	-9.47342500
163.09999049	0.00000000	-11.48499000	-9.47342500
163.29999048	0.00000000	-12.22933000	-9.47342500
163.49999047	0.00000000	-12.60458000	-9.47342500
163.69999046	0.00000000	-12.64764000	-9.47342500
163.89999045	0.00000000	-12.64764000	-9.47342500
164.09999043	0.00000000	-12.64764000	-9.47342500
164.29999042	0.00000000	-12.60458000	-9.47342500
164.49999041	0.00000000	-12.22933000	-9.47342500
164.69999040	0.00000000	-11.48499000	-9.47342500
164.89999039	0.00000000	-11.10974000	-9.47342500
165.09999037	0.00000000	-11.06668000	-9.47342500
165.29999036	0.00000000	-11.06668000	-9.47342500
165.49999035	0.00000000	-11.06668000	-9.47342500
165.69999034	0.00000000	-11.06668000	-9.47342500
165.89999033	0.00000000	-11.06668000	-9.47342500
166.09999032	0.00000000	-11.06668000	-9.43036400
166.29999030	0.00000000	-11.06668000	-9.09817800
166.49999029	0.00000000	-11.10974000	-8.72908400
166.69999028	0.00000000	-11.48499000	-9.09817800
166.89999027	0.00000000	-12.22933000	-9.43036400
167.09999026	0.00000000	-12.55536000	-9.47342500
167.29999024	0.00000000	-12.22933000	-9.47342500
167.49999023	0.00000000	-11.53420000	-9.47342500
167.69999022	0.00000000	-11.48499000	-9.47342500
167.89999021	0.00000000	-11.81102000	-9.47342500
168.09999020	0.00000000	-11.44193000	-9.47342500
168.29999018	0.00000000	-11.10974000	-9.47342500
168.49999017	0.00000000	-11.06668000	-9.47342500
168.69999016	0.00000000	-11.06668000	-9.47342500
168.89999015	0.00000000	-11.06668000	-9.47342500
169.09999014	0.00000000	-11.06668000	-9.47342500
169.29999013	0.00000000	-11.06668000	-9.47342500
169.49999011	0.00000000	-11.10974000	-9.47342500
169.69999010	0.00000000	-11.48499000	-9.47342500
169.89999009	0.00000000	-12.18012000	-9.47342500
170.09999008	0.00000000	-12.18012000	-9.47342500
170.29999007	0.00000000	-11.48499000	-9.47342500
170.49999005	0.00000000	-11.10974000	-9.47342500
170.69999004	0.00000000	-11.06668000	-9.47342500
170.89999003	0.00000000	-11.06668000	-9.47342500
171.09999002	0.00000000	-11.06668000	-9.47342500
171.29999001	0.00000000	-11.06668000	-9.47342500
171.49998999	0.00000000	-11.06668000	-9.47342500
171.69998998	0.00000000	-11.06668000	-9.47342500
171.89998997	0.00000000	-11.06668000	-9.47342500
172.09998996	0.00000000	-11.06668000	-9.47342500
172.29998995	0.00000000	-11.06668000	-9.47342500
172.49998994	0.00000000	-11.10974000	-9.47342500
172.69998992	0.00000000	-11.44193000	-9.47342500
172.89998991	0.00000000	-11.81102000	-9.47342500
173.09998990	0.00000000	-11.44193000	-9.47342500
173.29998989	0.00000000	-11.10974000	-9.47342500
173.49998988	0.00000000	-11.06668000	-9.47342500
173.69998986	0.00000000	-11.06668000	-9.47342500
173.89998985	0.00000000	-11.06668000	-9.47342500
174.09998984	0.00000000	-11.06668000	-9.47342500
174.29998983	0.00000000	-11.06668000	-9.47342500
174.49998982	0.00000000	-11.06668000	-9.47342500
174.69998980	0.00000000	-11.06668000	-9.47342500
174.89998979	0.00000000	-11.06668000	-9.47342500
175.09998978	0.00000000	-11.06668000	-9.47342500
175.29998977	0.00000000	-11.06668000	-9.51648500
175.49998976	0.00000000	-11.06668000	-9.84867000
175.69998975	0.00000000	-11.06668000	-10.25467000
175.89998973	0.00000000	-11.06668000	-10.21776000
176.09998972	0.00000000	-11.06668000	-10.25467000
176.29998971	0.00000000	-11.06668000	-9.84867000
176.49998970	0.00000000	-11.06668000	-9.51648500
176.69998969	0.00000000	-11.06668000	-9.47342500
176.89998967	0.00000000	-11.06668000	-9.47342500
177.09998966	0.00000000	-11.06668000	-9.47342500
177.29998965	0.00000000	-11.06668000	-9.47342500
177.49998964	0.00000000	-11.06668000	-9.47342500
177.69998963	0.00000000	-11.06668000	-9.47342500
177.89998961	0.00000000	-11.06668000	-9.47342500
178.09998960	0.00000000	-11.10974000	-9.47342500
178.29998959	0.00000000	-11.48499000	-9.47342500
178.49998958	0.00000000	-12.18012000	-9.47342500
178.69998957	0.00000000	-12.22933000	-9.47342500
178.89998956	0.00000000	-11.86024000	-9.47342500
179.09998954	0.00000000	-11.85408000	-9.47342500
179.29998953	0.00000000	-11.44193000	-9.47342500
179.49998952	0.00000000	-11.10974000	-9.47342500
179.69998951	0.00000000	-11.06668000	-9.47342500
179.89998950	0.00000000	-11.06668000	-9.47342500
180.09998948	0.00000000	-11.06668000	-9.47342500
180.29998947	0.00000000	-11.06668000	-9.51648500
180.49998946	0.00000000	-11.06668000	-9.84867000
180.69998945	0.00000000	-11.10974000	-10.21161000
180.89998944	0.00000000	-11.44193000	-9.84867000
181.09998942	0.00000000	-11.81102000	-9.51648500
181.29998941	0.00000000	-11.44193000	-9.47342500
181.49998940	0.00000000	-11.10974000	-9.47342500
181.69998939	0.00000000	-11.10974000	-9.47342500
181.89998938	0.00000000	-11.44193000	-9.47342500
182.09998937	0.00000000	-11.81102000	-9.47342500
182.29998935	0.00000000	-11.44193000	-9.47342500
182.49998934	0.00000000	-11.10974000	-9.47342500
182.69998933	0.00000000	-11.06668000	-9.47342500
182.89998932	0.00000000	-11.06668000	-9.47342500
183.09998931	0.00000000	-11.06668000	-9.47342500
183.29998929	0.00000000	-11.06668000	-9.47342500
183.49998928	0.00000000	-11.10974000	-9.51648500
183.69998927	0.00000000	-11.48499000	-9.84867000
183.89998926	0.00000000	-12.18012000	-10.21161000
184.09998925	0.00000000	-12.18012000	-9.84867000
184.29998923	0.00000000	-11.48499000	-9.51648500
184.49998922	0.00000000	-11.15896000	-9.47342500
184.69998921	0.00000000	-11.44193000	-9.47342500
184.89998920	0.00000000	-11.81102000	-9.47342500
185.09998919	0.00000000	-11.44193000	-9.47342500
185.29998918	0.00000000	-11.10974000	-9.47342500
185.49998916	0.00000000	-11.06668000	-9.47342500
185.69998915	0.00000000	-11.06668000	-9.47342500
185.89998914	0.00000000	-11.06668000	-9.51648500
186.09998913	0.00000000	-11.06668000	-9.89173200
186.29998912	0.00000000	-11.06668000	-10.62992000
186.49998910	0.00000000	-11.06668000	-11.00517000
186.69998909	0.00000000	-11.06668000	-11.00517000
186.89998908	0.00000000	-11.06668000	-10.62992000
187.09998907	0.00000000	-11.10974000	-9.89173200
187.29998906	0.00000000	-11.48499000	-9.51648500
187.49998904	0.00000000	-12.18012000	-9.43036400
187.69998903	0.00000000	-12.22933000	-9.09817800
187.89998902	0.00000000	-11.86024000	-8.68602300
188.09998901	0.00000000	-11.85408000	-8.72293300
188.29998900	0.00000000	-11.44193000	-8.68602300
188.49998899	0.00000000	-11.10974000	-9.09817800
188.69998897	0.00000000	-11.06668000	-9.47342500
188.89998896	0.00000000	-11.06668000	-9.89173200
189.09998895	0.00000000	-11.06668000	-10.62992000
189.29998894	0.00000000	-11.06668000	-11.00517000
189.49998893	0.00000000	-11.06668000	-11.00517000
189.69998891	0.00000000	-11.06668000	-10.67298000
189.89998890	0.00000000	-11.06668000	-10.26698000
190.09998889	0.00000000	-11.10974000	-10.25467000
190.29998888	0.00000000	-11.48499000	-9.84867000
190.49998887	0.00000000	-12.22933000	-9.51648500
190.69998885	0.00000000	-12.60458000	-9.47342500
190.89998884	0.00000000	-12.64764000	-9.47342500
191.09998883	0.00000000	-12.60458000	-9.47342500
191.29998882	0.00000000	-12.22933000	-9.47342500
191.49998881	0.00000000	-11.48499000	-9.47342500
191.69998880	0.00000000	-11.10974000	-9.47342500
191.89998878	0.00000000	-11.06668000	-9.47342500
192.09998877	0.00000000	-11.06668000	-9.47342500
192.29998876	0.00000000	-11.06668000	-9.47342500
192.49998875	0.00000000	-11.06668000	-9.47342500
192.69998874	0.00000000	-11.06668000	-9.47342500
192.89998872	0.00000000	-11.10974000	-9.47342500
193.09998871	0.00000000	-11.48499000	-9.47342500
193.29998870	0.00000000	-12.22933000	-9.47342500
193.49998869	0.00000000	-12.60458000	-9.47342500
193.69998868	0.00000000	-12.64764000	-9.47342500
193.89998866	0.00000000	-12.64764000	-9.47342500
194.09998865	0.00000000	-12.60458000	-9.47342500
194.29998864	0.00000000	-12.22933000	-9.47342500
194.49998863	0.00000000	-11.48499000	-9.47342500
194.69998862	0.00000000	-11.10974000	-9.47342500
194.89998861	0.00000000	-11.06668000	-9.47342500
195.09998859	0.00000000	-11.06668000	-9.47342500
195.29998858	0.00000000	-11.10974000	-9.47342500
195.49998857	0.00000000	-11.48499000	-9.47342500
195.69998856	0.00000000	-12.22933000	-9.47342500
195.89998855	0.00000000	-12.60458000	-9.51648500
196.09998853	0.00000000	-12.64764000	-9.84867000
