Time	Channel A	Channel B	Channel C
(us)	(V)	(mV)	(mV)

-4.49999956	0.00000000	-50.12918000	-11.04823000
-4.29999957	0.00000000	-49.48326000	-11.04823000
-4.09999958	0.00000000	-49.48326000	-11.04823000
-3.89999959	0.00000000	-50.12918000	-11.04823000
-3.69999960	0.00000000	-50.17839000	-11.04823000
-3.49999962	0.00000000	-49.85236000	-11.04823000
-3.29999963	0.00000000	-50.22145000	-11.04823000
-3.09999964	0.00000000	-50.50443000	-11.04823000
-2.89999965	0.00000000	-50.22145000	-11.04823000
-2.69999966	0.00000000	-49.80930000	-11.04823000
-2.49999968	0.00000000	-49.80315000	-11.04823000
-2.29999969	0.00000000	-49.39099000	-11.04823000
-2.09999970	0.00000000	-49.05881000	-11.04823000
-1.89999971	0.00000000	-49.05881000	-11.04823000
-1.69999972	0.00000000	-49.39099000	-11.04823000
-1.49999973	0.00000000	-49.76009000	-11.04823000
-1.29999975	0.00000000	-49.39099000	-11.04823000
-1.09999976	0.00000000	-49.05881000	-11.04823000
-0.89999977	0.00000000	-49.05881000	-11.04823000
-0.69999978	0.00000000	-49.39099000	-11.04823000
-0.49999979	0.00000000	-49.76009000	-11.04823000
-0.29999981	0.31803640	-49.39099000	-11.04823000
-0.09999982	0.63668800	-49.10802000	-11.04823000
0.10000017	0.95533960	-49.39099000	-11.04823000
0.30000016	1.11466500	-49.76009000	-11.04823000
0.50000015	0.79601380	-49.39099000	-11.09129000
0.70000013	0.31803640	-49.10802000	-11.42347000
0.90000012	-0.47736220	-49.43405000	-11.79257000
1.10000011	-1.43331700	-50.12918000	-11.42347000
1.30000010	-2.38927200	-50.12918000	-11.09129000
1.50000009	-2.70792300	-49.43405000	-11.04823000
1.70000008	-2.38927200	-49.05881000	-11.04823000
1.90000006	-1.27399100	-49.05881000	-11.04823000
2.10000005	0.47736220	-49.43405000	-11.04823000
2.30000004	2.70792300	-50.12918000	-11.04823000
2.50000003	4.45989200	-50.12918000	-11.04823000
2.70000002	5.41584600	-49.48326000	-11.09129000
2.90000000	4.93786900	-49.43405000	-11.46653000
3.09999999	3.02657500	-49.76009000	-12.16166000
3.29999998	0.00000000	-49.39099000	-12.16166000
3.49999997	-3.50393700	-49.05881000	-11.46653000
3.69999996	-6.37180100	-49.01575000	-11.09129000
3.89999994	-7.80511800	-49.01575000	-11.00517000
4.09999993	-7.48646600	-49.01575000	-10.62992000
4.29999992	-4.93786900	-49.01575000	-9.89173200
4.49999991	-1.11466500	-49.01575000	-9.56569900
4.69999990	3.34522600	-49.01575000	-9.89173200
4.89999989	7.16781500	-49.01575000	-10.62992000
5.09999987	9.23905000	-49.01575000	-11.00517000
5.29999986	9.07972400	-49.01575000	-11.04823000
5.49999985	6.53112700	-49.01575000	-11.04823000
5.69999984	2.38927200	-49.01575000	-11.04823000
5.89999983	-2.22994600	-49.01575000	-11.04823000
6.09999981	-6.53112700	-49.01575000	-11.00517000
6.29999980	-9.07972400	-49.01575000	-10.62992000
6.49999979	-9.23905000	-49.01575000	-9.89173200
6.69999978	-7.16781500	-49.01575000	-9.51648500
6.89999977	-3.50393700	-49.01575000	-9.51648500
7.09999975	0.95533960	-49.01575000	-9.89173200
7.29999974	4.77854300	-49.01575000	-10.62992000
7.49999973	7.16781500	-49.05881000	-11.00517000
7.69999972	7.64579200	-49.39099000	-11.04823000
7.89999971	6.37180100	-49.76009000	-11.04823000
8.09999970	3.50393700	-49.39099000	-11.04823000
8.29999968	0.15871060	-49.05881000	-11.04823000
8.49999967	-2.86724900	-49.01575000	-11.04823000
8.69999966	-4.61921700	-49.01575000	-11.04823000
8.89999965	-5.09719500	-49.01575000	-11.04823000
9.09999964	-4.45989200	-49.01575000	-11.04823000
9.29999962	-2.70792300	-49.01575000	-11.04823000
9.49999961	-0.63668800	-49.01575000	-11.04823000
9.69999960	1.11466500	-49.01575000	-11.04823000
9.89999959	2.22994600	-49.05881000	-11.04823000
10.09999958	2.54859700	-49.39099000	-11.04823000
10.29999956	2.22994600	-49.76009000	-11.04823000
10.49999955	1.43331700	-49.39099000	-11.04823000
10.69999954	0.63668800	-49.05881000	-11.04823000
10.89999953	-0.15871060	-49.01575000	-11.04823000
11.09999952	-0.63668800	-49.01575000	-11.04823000
11.29999951	-0.95533960	-49.05881000	-11.04823000
11.49999949	-0.95533960	-49.39099000	-11.04823000
11.69999948	-0.79601380	-49.80315000	-11.04823000
11.89999947	-0.47736220	-49.76624000	-11.04823000
12.09999946	-0.15871060	-49.80315000	-11.04823000
12.29999945	-0.15871060	-49.39099000	-11.04823000
12.49999943	-0.15871060	-49.10802000	-11.04823000
12.69999942	0.00000000	-49.39099000	-11.04823000
12.89999941	0.00000000	-49.80315000	-11.04823000
13.09999940	0.15871060	-49.76624000	-11.04823000
13.29999939	0.00000000	-49.80315000	-11.04823000
13.49999937	0.00000000	-49.39099000	-11.04823000
13.69999936	0.00000000	-49.05881000	-11.04823000
13.89999935	0.00000000	-49.01575000	-11.04823000
14.09999934	-0.15871060	-49.01575000	-11.04823000
14.29999933	-0.15871060	-49.01575000	-11.04823000
14.49999932	-0.15871060	-49.01575000	-11.04823000
14.69999930	0.00000000	-49.01575000	-11.04823000
14.89999929	0.00000000	-49.01575000	-11.04823000
15.09999928	0.00000000	-49.01575000	-11.04823000
15.29999927	0.00000000	-49.05881000	-11.04823000
15.49999926	0.00000000	-49.39099000	-11.04823000
15.69999924	0.00000000	-49.76009000	-11.04823000
15.89999923	0.00000000	-49.39099000	-11.04823000
16.09999922	0.00000000	-49.05881000	-11.04823000
16.29999921	0.00000000	-49.01575000	-11.04823000
16.49999920	0.00000000	-49.01575000	-11.04823000
16.69999919	0.00000000	-49.01575000	-11.04823000
16.89999917	-0.15871060	-49.01575000	-11.04823000
17.09999916	0.00000000	-48.97269000	-11.04823000
17.29999915	0.00000000	-48.59744000	-11.04823000
17.49999914	0.00000000	-47.85310000	-11.04823000
17.69999913	0.00000000	-47.52707000	-11.04823000
17.89999911	0.00000000	-47.90231000	-11.04823000
18.09999910	0.00000000	-49.05881000	-11.04823000
18.29999909	0.00000000	-50.59670000	-11.04823000
18.49999908	0.00000000	-52.13459000	-11.04823000
18.69999907	0.00000000	-53.34030000	-11.04823000
18.89999905	0.00000000	-54.09079000	-11.04823000
19.09999904	0.00000000	-54.41068000	-11.04823000
19.29999903	0.00000000	-53.20496000	-11.04823000
19.49999902	0.00000000	-50.50443000	-11.04823000
19.69999901	0.00000000	-47.01648000	-11.04823000
19.89999900	0.00000000	-43.15945000	-11.04823000
20.09999898	0.00000000	-40.04060000	-11.04823000
20.29999897	0.00000000	-38.17667000	-11.04823000
20.49999896	0.00000000	-38.26894000	-11.04823000
20.69999895	0.00000000	-41.79995000	-11.04823000
20.89999894	0.00000000	-47.94537000	-11.04823000
21.09999892	0.00000000	-55.33957000	-11.04823000
21.29999891	0.00000000	-62.64764000	-11.04823000
21.49999890	0.00000000	-68.04256000	-11.04823000
21.69999889	0.00000000	-69.86343000	-11.04823000
21.89999888	0.00000000	-67.11368000	-11.04823000
22.09999886	0.00000000	-59.30733000	-11.04823000
22.29999885	0.00000000	-48.08686000	-11.04823000
22.49999884	0.00000000	-35.34079000	-11.04823000
22.69999883	0.00000000	-24.21875000	-11.04823000
22.89999882	0.00000000	-18.07332000	-11.04823000
23.09999881	0.00000000	-18.53469000	-11.04823000
23.29999879	0.00000000	-26.35334000	-11.00517000
23.49999878	0.00000000	-40.68036000	-10.62992000
23.69999877	0.00000000	-58.45841000	-9.89173200
23.89999876	0.00000000	-75.76894000	-9.51648500
24.09999875	0.00000000	-88.09669000	-9.51648500
24.29999873	0.00000000	-91.91682000	-9.89173200
24.49999872	0.00000000	-86.42347000	-10.67298000
24.69999871	0.00000000	-71.67814000	-11.51575000
24.89999870	0.00000000	-50.46136000	-13.04749000
25.09999869	0.00000000	-28.07579000	-14.94833000
25.29999867	0.00000000	-9.55954600	-16.06791000
25.49999866	0.00000000	0.39370070	-16.48007000
25.69999865	0.00000000	-1.13804100	-15.60654000
25.89999864	0.00000000	-13.88410000	-13.28125000
26.09999863	0.00000000	-34.77485000	-9.43036400
26.29999862	0.00000000	-59.48573000	-5.19808000
26.49999860	0.00000000	-82.28346000	-1.71013800
26.69999859	0.00000000	-97.69315000	0.55979330
26.89999858	0.00000000	-102.33760000	0.46751960
27.09999857	0.00000000	-94.61737000	-2.59596400
27.29999856	0.00000000	-76.93159000	-8.07086500
27.49999854	0.00000000	-53.66634000	-15.04675000
27.69999853	0.00000000	-29.74901000	-22.75467000
27.89999852	0.00000000	-10.40231000	-28.84473000
28.09999851	0.00000000	-0.34448820	-31.53912000
28.29999850	0.00000000	-1.05191900	-29.91511000
28.49999848	0.00000000	-12.26009000	-23.68971000
28.69999847	0.00000000	-31.15157000	-13.65650000
28.89999846	0.00000000	-53.16190000	-2.04232300
29.09999845	0.00000000	-73.25910000	8.74138700
29.29999844	0.00000000	-86.84178000	16.44931000
29.49999843	0.00000000	-91.58464000	18.68233000
29.69999841	0.00000000	-87.35236000	14.77608000
29.89999840	0.00000000	-75.43676000	4.65059000
30.09999839	0.00000000	-58.83366000	-9.98400600
30.29999838	0.00000000	-41.79995000	-25.78125000
30.49999837	0.00000000	-27.38066000	-38.92716000
30.69999835	0.00000000	-18.11639000	-46.64124000
30.89999834	0.00000000	-15.74803000	-47.33637000
31.09999833	0.00000000	-20.72466000	-39.95448000
31.29999832	0.00000000	-31.10236000	-25.68897000
31.49999831	0.00000000	-44.27288000	-7.94168200
31.69999829	0.00000000	-57.43725000	9.43651600
31.89999828	0.00000000	-67.95644000	22.58243000
32.09999827	0.00000000	-74.14493000	28.80782000
32.29999826	0.00000000	-74.93233000	27.23302000
32.49999825	0.00000000	-69.95570000	17.89493000
32.69999824	0.00000000	-61.10974000	2.09768700
32.89999822	0.00000000	-50.63976000	-16.43701000
33.09999821	0.00000000	-40.54502000	-33.45226000
33.29999820	0.00000000	-32.81865000	-45.84769000
33.49999819	0.00000000	-28.96161000	-50.82431000
33.69999818	0.00000000	-30.07505000	-47.38558000
33.89999816	0.00000000	-35.42692000	-36.18971000
34.09999815	0.00000000	-43.15945000	-20.01722000
34.29999814	0.00000000	-51.66707000	-2.63902500
34.49999813	0.00000000	-58.97515000	12.08784000
34.69999812	0.00000000	-63.20743000	21.42593000
34.89999810	0.00000000	-63.29355000	24.07111000
35.09999809	0.00000000	-59.85482000	19.05143000
35.29999808	0.00000000	-54.45374000	7.16043300
35.49999807	0.00000000	-47.90231000	-7.84940900
35.69999806	0.00000000	-42.17519000	-22.57628000
35.89999805	0.00000000	-39.05635000	-34.14124000
36.09999803	0.00000000	-39.01329000	-39.90526000
36.29999802	0.00000000	-41.70767000	-38.41658000
36.49999801	0.00000000	-46.32135000	-30.38263000
36.69999800	0.00000000	-51.71013000	-18.48548000
36.89999799	0.00000000	-56.27460000	-5.75787400
37.09999797	0.00000000	-58.59990000	4.65059000
37.29999796	0.00000000	-57.90477000	10.41462000
37.49999795	0.00000000	-55.20423000	10.03937000
37.69999794	0.00000000	-51.34104000	3.58636800
37.89999793	0.00000000	-46.69045000	-6.36072800
38.09999791	0.00000000	-42.87032000	-16.71998000
38.29999790	0.00000000	-40.50196000	-24.76009000
38.49999789	0.00000000	-40.12672000	-27.82972000
38.69999788	0.00000000	-41.66461000	-25.22145000
38.89999787	0.00000000	-44.78346000	-18.35015000
39.09999786	0.00000000	-49.01575000	-9.47342500
39.29999784	0.00000000	-53.24803000	-0.68897630
39.49999783	0.00000000	-56.36687000	5.39493100
39.69999782	0.00000000	-57.94783000	6.13927100
39.89999781	0.00000000	-57.94783000	1.58710600
40.09999780	0.00000000	-56.36687000	-6.86515700
40.29999778	0.00000000	-53.24803000	-16.81225000
40.49999777	0.00000000	-49.01575000	-25.26452000
40.69999776	0.00000000	-44.78346000	-29.87205000
40.89999775	0.00000000	-41.66461000	-29.45374000
41.09999774	0.00000000	-40.08366000	-23.68971000
41.29999772	0.00000000	-40.08366000	-14.11786000
41.49999771	0.00000000	-41.62155000	-3.75861200
41.69999770	0.00000000	-44.36515000	4.69365100
41.89999769	0.00000000	-47.85310000	8.92593500
42.09999768	0.00000000	-51.71013000	7.81250000
42.29999767	0.00000000	-54.78592000	2.09768700
42.49999765	0.00000000	-56.36687000	-6.36072800
42.69999764	0.00000000	-56.40993000	-15.23130000
42.89999763	0.00000000	-55.24729000	-22.57628000
43.09999762	0.00000000	-53.29109000	-26.80241000
43.29999761	0.00000000	-50.59670000	-26.80241000
43.49999759	0.00000000	-47.94537000	-22.66240000
43.69999758	0.00000000	-46.32135000	-16.16018000
43.89999757	0.00000000	-45.47859000	-9.60875900
44.09999756	0.00000000	-44.74040000	-4.12770700
44.29999755	0.00000000	-44.74040000	-0.64591530
44.49999753	0.00000000	-45.43553000	0.51673230
44.69999752	0.00000000	-45.81078000	-1.02116100
44.89999751	0.00000000	-45.85384000	-4.82898600
45.09999750	0.00000000	-45.89690000	-9.43036400
45.29999749	0.00000000	-46.32135000	-13.69956000
45.49999748	0.00000000	-47.57013000	-16.76919000
45.69999746	0.00000000	-49.90157000	-17.97490000
45.89999745	0.00000000	-53.34030000	-17.23056000
46.09999744	0.00000000	-56.40993000	-15.36663000
46.29999743	0.00000000	-58.40920000	-13.00443000
46.49999742	0.00000000	-59.48573000	-10.67298000
46.69999740	0.00000000	-58.59990000	-8.35383800
46.89999739	0.00000000	-54.74286000	-6.82209600
47.09999738	0.00000000	-48.97269000	-6.40378900
47.29999737	0.00000000	-42.73499000	-6.82209600
47.49999736	0.00000000	-36.96481000	-8.35383800
47.69999734	0.00000000	-33.15083000	-10.62992000
47.89999733	0.00000000	-32.81865000	-12.58612000
48.09999732	0.00000000	-36.31274000	-14.16092000
48.29999731	0.00000000	-43.28863000	-15.32357000
48.49999730	0.00000000	-52.13459000	-15.64960000
48.69999729	0.00000000	-60.59916000	-14.85605000
48.89999727	0.00000000	-66.37549000	-12.53691000
49.09999726	0.00000000	-67.95644000	-9.47342500
49.29999725	0.00000000	-65.20669000	-6.40378900
49.49999724	0.00000000	-58.64296000	-4.08464600
49.69999723	0.00000000	-49.39099000	-3.33415300
49.89999721	0.00000000	-40.12672000	-4.12770700
50.09999720	0.00000000	-32.77559000	-6.82209600
50.29999719	0.00000000	-28.96161000	-10.67298000
50.49999718	0.00000000	-30.12426000	-14.53617000
50.69999717	0.00000000	-35.89444000	-17.97490000
50.89999715	0.00000000	-44.74040000	-19.50664000
51.09999714	0.00000000	-54.36761000	-18.76845000
51.29999713	0.00000000	-62.04478000	-16.43701000
51.49999712	0.00000000	-65.90797000	-12.53691000
51.69999711	0.00000000	-64.78838000	-7.93553100
51.89999710	0.00000000	-59.48573000	-3.70939900
52.09999708	0.00000000	-52.08538000	-1.01501000
52.29999707	0.00000000	-44.03297000	-0.63976370
52.49999706	0.00000000	-37.15551000	-2.54675200
52.69999705	0.00000000	-34.44881000	-6.40378900
52.89999704	0.00000000	-35.85138000	-11.00517000
53.09999702	0.00000000	-40.17593000	-15.23130000
53.29999701	0.00000000	-46.69045000	-17.92569000
53.49999700	0.00000000	-53.94316000	-18.35015000
53.69999699	0.00000000	-58.92593000	-16.85531000
53.89999698	0.00000000	-60.55610000	-14.16092000
54.09999696	0.00000000	-59.01821000	-11.09744000
54.29999695	0.00000000	-54.78592000	-8.40305000
54.49999694	0.00000000	-49.01575000	-6.86515700
54.69999693	0.00000000	-43.28863000	-6.82209600
54.89999692	0.00000000	-39.48080000	-7.98474400
55.09999691	0.00000000	-39.01329000	-9.89173200
55.29999689	0.00000000	-41.28937000	-12.16781000
55.49999688	0.00000000	-45.15871000	-13.65650000
55.69999687	0.00000000	-50.12918000	-13.65650000
55.89999686	0.00000000	-54.36761000	-12.16781000
56.09999685	0.00000000	-56.69291000	-9.89173200
56.29999683	0.00000000	-57.10506000	-7.98474400
56.49999682	0.00000000	-55.16117000	-6.86515700
56.69999681	0.00000000	-51.71013000	-7.28346400
56.89999680	0.00000000	-47.47785000	-9.60875900
57.09999679	0.00000000	-43.66388000	-13.00443000
57.29999677	0.00000000	-41.70767000	-16.48622000
57.49999676	0.00000000	-41.66461000	-18.71924000
57.69999675	0.00000000	-43.24557000	-19.13140000
57.89999674	0.00000000	-46.27214000	-17.14444000
58.09999673	0.00000000	-49.71087000	-13.28125000
58.29999672	0.00000000	-52.04232000	-7.89247000
58.49999670	0.00000000	-53.24803000	-2.55290300
58.69999669	0.00000000	-53.20496000	0.89197830
58.89999668	0.00000000	-51.71013000	1.63016700
59.09999667	0.00000000	-49.43405000	-1.06422200
59.29999666	0.00000000	-47.52707000	-6.44685000
59.49999664	0.00000000	-46.32135000	-13.00443000
59.69999663	0.00000000	-45.94611000	-19.55585000
59.89999662	0.00000000	-46.32135000	-24.15723000
60.09999661	0.00000000	-47.47785000	-25.68897000
60.29999660	0.00000000	-48.97269000	-23.73892000
60.49999658	0.00000000	-50.12918000	-18.30093000
60.69999657	0.00000000	-50.50443000	-10.62992000
60.89999656	0.00000000	-50.12918000	-2.54675200
61.09999655	0.00000000	-48.97269000	3.58636800
61.29999654	0.00000000	-47.47785000	6.27460600
61.49999653	0.00000000	-46.32135000	4.69365100
61.69999651	0.00000000	-45.94611000	-1.02116100
61.89999650	0.00000000	-46.32135000	-9.09817800
62.09999649	0.00000000	-47.47785000	-17.18750000
62.29999648	0.00000000	-49.01575000	-23.78199000
62.49999647	0.00000000	-50.59670000	-27.22072000
62.69999645	0.00000000	-52.13459000	-26.84547000
62.89999644	0.00000000	-53.24803000	-22.61934000
63.09999643	0.00000000	-53.20496000	-15.69882000
63.29999642	0.00000000	-51.66707000	-7.93553100
63.49999641	0.00000000	-49.01575000	-0.64591530
63.69999639	0.00000000	-46.32135000	4.36761800
63.89999638	0.00000000	-44.36515000	5.53641700
64.09999637	0.00000000	-43.20251000	3.25418300
64.29999636	0.00000000	-43.24557000	-2.12844500
64.49999635	0.00000000	-44.78346000	-9.05511800
64.69999634	0.00000000	-47.43479000	-15.60654000
64.89999632	0.00000000	-50.12918000	-20.71235000
65.09999631	0.00000000	-52.08538000	-23.41289000
65.29999630	0.00000000	-53.24803000	-23.82505000
65.49999629	0.00000000	-53.20496000	-21.50590000
65.69999628	0.00000000	-51.71013000	-17.27362000
65.89999626	0.00000000	-49.43405000	-12.25394000
66.09999625	0.00000000	-47.47785000	-7.19734200
66.29999624	0.00000000	-45.94611000	-3.33415300
66.49999623	0.00000000	-45.20177000	-0.97194880
66.69999622	0.00000000	-45.94611000	-0.55364170
66.89999620	0.00000000	-47.43479000	-1.66707700
67.09999619	0.00000000	-49.01575000	-3.61712600
67.29999618	0.00000000	-50.50443000	-6.36072800
67.49999617	0.00000000	-51.24877000	-9.51648500
67.69999616	0.00000000	-50.46136000	-13.00443000
67.89999615	0.00000000	-48.59744000	-16.48622000
68.09999613	0.00000000	-46.27214000	-18.81152000
68.29999612	0.00000000	-44.36515000	-20.01722000
68.49999611	0.00000000	-43.24557000	-19.97416000
68.69999610	0.00000000	-43.66388000	-18.39321000
68.89999609	0.00000000	-45.98917000	-15.27436000
69.09999607	0.00000000	-49.39099000	-11.00517000
69.29999606	0.00000000	-52.92200000	-6.40378900
69.49999605	0.00000000	-55.57948000	-2.50369100
69.69999604	0.00000000	-57.10506000	-0.17839570
69.89999603	0.00000000	-56.27460000	0.55979330
70.09999601	0.00000000	-53.24803000	-1.02116100
70.29999600	0.00000000	-48.97269000	-4.87204700
70.49999599	0.00000000	-44.31594000	-9.89173200
70.69999598	0.00000000	-40.08366000	-15.28051000
70.89999597	0.00000000	-37.43233000	-19.50664000
71.09999596	0.00000000	-37.43233000	-21.46284000
71.29999594	0.00000000	-40.12672000	-21.08760000
71.49999593	0.00000000	-44.74040000	-18.39321000
71.69999592	0.00000000	-50.17839000	-14.16708000
71.89999591	0.00000000	-55.20423000	-9.51648500
72.09999590	0.00000000	-59.06127000	-5.29035400
72.29999588	0.00000000	-60.55610000	-2.59596400
72.49999587	0.00000000	-59.06127000	-2.17150600
72.69999586	0.00000000	-55.20423000	-3.66633800
72.89999585	0.00000000	-50.17839000	-6.36072800
73.09999584	0.00000000	-44.74040000	-9.42421200
73.29999582	0.00000000	-40.12672000	-12.11860000
73.49999581	0.00000000	-37.43233000	-13.69956000
73.69999580	0.00000000	-37.43233000	-14.11786000
73.89999579	0.00000000	-40.08366000	-13.69956000
74.09999578	0.00000000	-44.31594000	-12.21087000
74.29999577	0.00000000	-48.97269000	-10.35310000
74.49999575	0.00000000	-53.20496000	-9.60875900
74.69999574	0.00000000	-55.89936000	-9.93479300
74.89999573	0.00000000	-56.36687000	-11.09744000
75.09999572	0.00000000	-55.24729000	-12.62918000
75.29999571	0.00000000	-53.24803000	-14.07480000
75.49999569	0.00000000	-50.17839000	-14.43775000
75.69999568	0.00000000	-46.78272000	-12.91215000
75.89999567	0.00000000	-44.78346000	-10.58686000
76.09999566	0.00000000	-43.94069000	-7.47416300
76.29999565	0.00000000	-43.57775000	-4.08464600
76.49999563	0.00000000	-44.36515000	-2.17150600
76.69999562	0.00000000	-45.85384000	-2.17150600
76.89999561	0.00000000	-47.39173000	-4.12770700
77.09999560	0.00000000	-48.50517000	-7.98474400
77.29999559	0.00000000	-48.54823000	-12.62918000
77.49999558	0.00000000	-47.85310000	-17.27362000
77.69999556	0.00000000	-47.52707000	-21.08760000
77.89999555	0.00000000	-47.85310000	-22.57628000
78.09999554	0.00000000	-48.64050000	-21.03838000
78.29999553	0.00000000	-49.43405000	-16.81225000
78.49999552	0.00000000	-50.59670000	-11.04823000
78.69999550	0.00000000	-51.66707000	-5.24729300
78.89999549	0.00000000	-51.66707000	-0.59670270
79.09999548	0.00000000	-50.50443000	2.09153500
79.29999547	0.00000000	-48.59744000	2.09153500
79.49999546	0.00000000	-46.27214000	-0.59670270
79.69999544	0.00000000	-44.36515000	-5.24729300
79.89999543	0.00000000	-43.20251000	-11.00517000
80.09999542	0.00000000	-43.20251000	-16.39395000
80.29999541	0.00000000	-44.36515000	-19.92495000
80.49999540	0.00000000	-46.32135000	-21.50590000
80.69999539	0.00000000	-49.01575000	-21.13066000
80.89999537	0.00000000	-51.71013000	-18.81152000
81.09999536	0.00000000	-53.62328000	-15.32357000
81.29999535	0.00000000	-54.36761000	-11.04823000
81.49999534	0.00000000	-53.20496000	-6.77903500
81.69999533	0.00000000	-50.59670000	-3.33415300
81.89999531	0.00000000	-47.85310000	-1.34719500
82.09999530	0.00000000	-45.52165000	-1.29183100
82.29999529	0.00000000	-43.57775000	-2.08538400
82.49999528	0.00000000	-42.82726000	-4.08464600
82.69999527	0.00000000	-43.20251000	-7.51722400
82.89999525	0.00000000	-44.74040000	-11.00517000
83.09999524	0.00000000	-47.01648000	-14.21014000
83.29999523	0.00000000	-48.92347000	-17.27977000
83.49999522	0.00000000	-50.12918000	-19.55585000
83.69999521	0.00000000	-50.55364000	-19.93110000
83.89999520	0.00000000	-50.59670000	-18.43627000
84.09999518	0.00000000	-50.55364000	-15.69882000
84.29999517	0.00000000	-50.12918000	-12.16166000
84.49999516	0.00000000	-49.05881000	-7.89247000
84.69999515	0.00000000	-48.27140000	-3.70939900
84.89999514	0.00000000	-48.22219000	-1.01501000
85.09999512	0.00000000	-47.81004000	-0.59670270
85.29999511	0.00000000	-47.43479000	-2.12844500
85.49999510	0.00000000	-47.01648000	-5.24729300
85.69999509	0.00000000	-46.27214000	-9.51648500
85.89999508	0.00000000	-45.89690000	-14.16708000
86.09999506	0.00000000	-45.85384000	-18.39321000
86.29999505	0.00000000	-45.89690000	-21.03838000
86.49999504	0.00000000	-46.32135000	-21.08760000
86.69999503	0.00000000	-47.47785000	-18.76845000
86.89999502	0.00000000	-49.01575000	-14.90526000
87.09999501	0.00000000	-50.55364000	-9.84867000
87.29999499	0.00000000	-51.66707000	-4.91510800
87.49999498	0.00000000	-51.66707000	-1.39025600
87.69999497	0.00000000	-50.50443000	-0.27066930
87.89999496	0.00000000	-48.59744000	-1.39025600
88.09999495	0.00000000	-46.32135000	-4.87204700
88.29999493	0.00000000	-44.78346000	-9.47342500
88.49999492	0.00000000	-44.31594000	-14.11786000
88.69999491	0.00000000	-44.31594000	-17.97490000
88.89999490	0.00000000	-44.78346000	-19.88189000
89.09999489	0.00000000	-46.32135000	-19.46358000
89.29999487	0.00000000	-48.54823000	-16.39395000
89.49999486	0.00000000	-50.12918000	-11.42347000
89.69999485	0.00000000	-50.92888000	-6.44685000
89.89999484	0.00000000	-51.29183000	-2.54675200
90.09999483	0.00000000	-50.55364000	-0.68897630
90.29999482	0.00000000	-49.43405000	-1.43946800
90.49999480	0.00000000	-48.59744000	-4.91510800
90.69999479	0.00000000	-47.43479000	-9.84867000
90.89999478	0.00000000	-46.32135000	-14.85605000
91.09999477	0.00000000	-45.89690000	-18.35015000
91.29999476	0.00000000	-45.89690000	-19.88189000
91.49999474	0.00000000	-46.27214000	-19.08834000
91.69999473	0.00000000	-47.01648000	-15.64960000
91.89999472	0.00000000	-47.39173000	-11.04823000
92.09999471	0.00000000	-47.43479000	-6.44685000
92.29999470	0.00000000	-47.43479000	-3.01427100
92.49999468	0.00000000	-47.47785000	-2.22071800
92.69999467	0.00000000	-47.85310000	-3.75246000
92.89999466	0.00000000	-48.64050000	-7.19734200
93.09999465	0.00000000	-49.39099000	-11.79257000
93.29999464	0.00000000	-50.17839000	-15.60654000
93.49999463	0.00000000	-50.55364000	-17.97490000
93.69999461	0.00000000	-50.55364000	-18.30093000
93.89999460	0.00000000	-50.12918000	-16.39395000
94.09999459	0.00000000	-48.92347000	-12.58612000
94.29999458	0.00000000	-47.01648000	-8.35998900
94.49999457	0.00000000	-44.74040000	-4.87204700
94.69999455	0.00000000	-43.20251000	-2.59596400
94.89999454	0.00000000	-42.78420000	-2.63902500
95.09999453	0.00000000	-43.20251000	-5.24729300
95.29999452	0.00000000	-44.78346000	-9.09817800
95.49999451	0.00000000	-47.47785000	-12.91215000
95.69999449	0.00000000	-50.55364000	-16.01870000
95.89999448	0.00000000	-53.24803000	-17.14444000
96.09999447	0.00000000	-54.78592000	-16.43701000
96.29999446	0.00000000	-54.78592000	-14.11786000
96.49999445	0.00000000	-53.29109000	-11.04823000
96.69999444	0.00000000	-50.87967000	-7.93553100
96.89999442	0.00000000	-47.75467000	-5.29035400
97.09999441	0.00000000	-43.52854000	-4.12770700
97.29999440	0.00000000	-40.12672000	-4.87204700
97.49999439	0.00000000	-38.54576000	-6.77903500
97.69999438	0.00000000	-38.92101000	-9.47342500
97.89999436	0.00000000	-41.24631000	-12.11860000
98.09999435	0.00000000	-44.69119000	-13.69956000
98.29999434	0.00000000	-48.59744000	-14.11786000
98.49999433	0.00000000	-52.08538000	-13.74262000
98.69999432	0.00000000	-54.82898000	-12.58612000
98.89999430	0.00000000	-56.32381000	-11.09744000
99.09999429	0.00000000	-55.94857000	-9.89173200
99.29999428	0.00000000	-53.62328000	-9.14124000
99.49999427	0.00000000	-50.17839000	-8.72908400
99.69999426	0.00000000	-46.27214000	-9.09817800
99.89999425	0.00000000	-42.82726000	-9.43036400
100.09999423	0.00000000	-40.50196000	-9.47342500
100.29999422	0.00000000	-40.08366000	-9.43036400
100.49999421	0.00000000	-41.20325000	-9.05511800
100.69999420	0.00000000	-43.15945000	-8.35998900
100.89999419	0.00000000	-45.89690000	-8.40305000
101.09999417	0.00000000	-48.97269000	-9.51648500
101.29999416	0.00000000	-51.71013000	-11.04823000
101.49999415	0.00000000	-53.62328000	-12.62918000
101.69999414	0.00000000	-54.41068000	-14.11786000
101.89999413	0.00000000	-53.62328000	-14.85605000
102.09999411	0.00000000	-51.75935000	-14.11786000
102.29999410	0.00000000	-49.39099000	-12.62918000
102.49999409	0.00000000	-47.05954000	-11.00517000
102.69999408	0.00000000	-44.74040000	-9.05511800
102.89999407	0.00000000	-43.20251000	-6.77903500
103.09999406	0.00000000	-42.78420000	-5.29035400
103.29999404	0.00000000	-43.20251000	-5.29035400
103.49999403	0.00000000	-44.74040000	-6.82209600
103.69999402	0.00000000	-47.01648000	-9.47342500
103.89999401	0.00000000	-48.97269000	-12.16781000
104.09999400	0.00000000	-50.55364000	-14.16092000
104.29999398	0.00000000	-51.66707000	-15.69882000
104.49999397	0.00000000	-51.71013000	-16.39395000
104.69999396	0.00000000	-50.92888000	-15.23130000
104.89999395	0.00000000	-49.76009000	-12.58612000
105.09999394	0.00000000	-47.85310000	-9.51648500
105.29999392	0.00000000	-46.32135000	-6.82209600
105.49999391	0.00000000	-45.52165000	-5.29035400
105.69999390	0.00000000	-45.10950000	-5.24729300
105.89999389	0.00000000	-45.52165000	-6.40378900
106.09999388	0.00000000	-46.27214000	-8.31077700
106.29999387	0.00000000	-47.43479000	-10.62992000
106.49999385	0.00000000	-48.54823000	-12.53691000
106.69999384	0.00000000	-48.97269000	-13.69956000
106.89999383	0.00000000	-48.97269000	-13.69956000
107.09999382	0.00000000	-48.59744000	-12.53691000
107.29999381	0.00000000	-47.76698000	-10.67298000
107.49999379	0.00000000	-46.68430000	-8.72908400
107.69999378	0.00000000	-45.53395000	-7.60949800
107.89999377	0.00000000	-45.57086000	-7.14812900
108.09999376	0.00000000	-46.22908000	-7.60949800
108.29999375	0.00000000	-47.05954000	-8.72908400
108.49999374	0.00000000	-47.85310000	-10.62992000
108.69999372	0.00000000	-49.01575000	-12.16166000
108.89999371	0.00000000	-50.08612000	-12.96137000
109.09999370	0.00000000	-50.08612000	-13.32431000
109.29999369	0.00000000	-49.01575000	-12.53691000
109.49999368	0.00000000	-47.85310000	-11.04823000
109.69999366	0.00000000	-47.01648000	-9.47342500
109.89999365	0.00000000	-45.85384000	-7.93553100
110.09999364	0.00000000	-44.78346000	-6.77903500
110.29999363	0.00000000	-44.74040000	-6.40378900
110.49999362	0.00000000	-45.52165000	-6.82209600
110.69999360	0.00000000	-46.64739000	-8.35383800
110.89999359	0.00000000	-48.17913000	-10.58686000
111.09999358	0.00000000	-48.92347000	-12.16166000
111.29999357	0.00000000	-49.01575000	-13.00443000
111.49999356	0.00000000	-49.01575000	-13.74262000
111.69999355	0.00000000	-48.97269000	-13.69956000
111.89999353	0.00000000	-48.54823000	-12.58612000
112.09999352	0.00000000	-47.43479000	-11.04823000
112.29999351	0.00000000	-46.32135000	-9.55954600
112.49999350	0.00000000	-45.89690000	-8.72908400
112.69999349	0.00000000	-45.89690000	-8.72293300
112.89999347	0.00000000	-46.27214000	-8.68602300
113.09999346	0.00000000	-47.01648000	-9.09817800
113.29999345	0.00000000	-47.39173000	-9.43036400
113.49999344	0.00000000	-47.47785000	-9.51648500
113.69999343	0.00000000	-47.81004000	-9.89173200
113.89999341	0.00000000	-48.17913000	-10.62992000
114.09999340	0.00000000	-47.81004000	-11.00517000
114.29999339	0.00000000	-47.47785000	-11.04823000
114.49999338	0.00000000	-47.43479000	-11.04823000
114.69999337	0.00000000	-47.43479000	-11.04823000
114.89999336	0.00000000	-47.43479000	-11.04823000
115.09999334	0.00000000	-47.43479000	-11.04823000
115.29999333	0.00000000	-47.43479000	-11.04823000
115.49999332	0.00000000	-47.43479000	-11.04823000
115.69999331	0.00000000	-47.43479000	-11.00517000
115.89999330	0.00000000	-47.43479000	-10.62992000
116.09999328	0.00000000	-47.47785000	-9.89173200
116.29999327	0.00000000	-47.81004000	-9.47342500
116.49999326	0.00000000	-48.22219000	-9.05511800
116.69999325	0.00000000	-48.22834000	-8.31077700
116.89999324	0.00000000	-48.59744000	-7.98474400
117.09999322	0.00000000	-48.54823000	-8.35998900
117.29999321	0.00000000	-47.81004000	-9.47342500
117.49999320	0.00000000	-47.05954000	-10.58686000
117.69999319	0.00000000	-46.27214000	-11.04823000
117.89999318	0.00000000	-45.89690000	-11.46653000
118.09999317	0.00000000	-45.85384000	-12.16166000
118.29999315	0.00000000	-45.89690000	-12.16166000
118.49999314	0.00000000	-46.27214000	-11.42347000
118.69999313	0.00000000	-47.05954000	-10.67298000
118.89999312	0.00000000	-47.85310000	-9.89173200
119.09999311	0.00000000	-48.97269000	-9.47342500
119.29999309	0.00000000	-49.71087000	-9.05511800
119.49999308	0.00000000	-49.39099000	-8.31077700
119.69999307	0.00000000	-49.01575000	-7.93553100
119.89999306	0.00000000	-48.54823000	-7.93553100
120.09999305	0.00000000	-47.39173000	-8.31077700
120.29999303	0.00000000	-45.89690000	-9.05511800
120.49999302	0.00000000	-44.74040000	-9.47342500
120.69999301	0.00000000	-44.31594000	-9.89173200
120.89999300	0.00000000	-44.31594000	-10.62992000
121.09999299	0.00000000	-44.74040000	-11.00517000
121.29999298	0.00000000	-45.89690000	-11.04823000
121.49999296	0.00000000	-47.39173000	-11.04823000
121.69999295	0.00000000	-48.59744000	-11.04823000
121.89999294	0.00000000	-49.39099000	-11.00517000
122.09999293	0.00000000	-50.12918000	-10.62992000
122.29999292	0.00000000	-50.12918000	-9.89173200
122.49999290	0.00000000	-49.39099000	-9.47342500
122.69999289	0.00000000	-48.59744000	-9.05511800
122.89999288	0.00000000	-47.43479000	-8.31077700
123.09999287	0.00000000	-46.27214000	-7.98474400
123.29999286	0.00000000	-45.47859000	-8.31077700
123.49999284	0.00000000	-44.74040000	-9.09817800
123.69999283	0.00000000	-44.74040000	-9.84867000
123.89999282	0.00000000	-45.47859000	-10.62992000
124.09999281	0.00000000	-46.22908000	-11.00517000
124.29999280	0.00000000	-47.01648000	-11.04823000
124.49999279	0.00000000	-47.43479000	-11.04823000
124.69999277	0.00000000	-47.85310000	-11.04823000
124.89999276	0.00000000	-48.59744000	-11.04823000
125.09999275	0.00000000	-48.97269000	-11.00517000
125.29999274	0.00000000	-49.01575000	-10.62992000
125.49999273	0.00000000	-48.97269000	-9.89173200
125.69999271	0.00000000	-48.59744000	-9.51648500
125.89999270	0.00000000	-47.81004000	-9.47342500
126.09999269	0.00000000	-47.05954000	-9.47342500
126.29999268	0.00000000	-46.27214000	-9.51648500
126.49999267	0.00000000	-45.89690000	-9.89173200
126.69999265	0.00000000	-45.85384000	-10.62992000
126.89999264	0.00000000	-45.85384000	-11.00517000
127.09999263	0.00000000	-45.89690000	-11.04823000
127.29999262	0.00000000	-46.32135000	-11.04823000
127.49999261	0.00000000	-47.43479000	-11.04823000
127.69999260	0.00000000	-48.59744000	-11.04823000
127.89999258	0.00000000	-49.34793000	-11.00517000
128.09999257	0.00000000	-49.71087000	-10.62992000
128.29999256	0.00000000	-48.97269000	-9.89173200
128.49999255	0.00000000	-47.85310000	-9.51648500
128.69999254	0.00000000	-47.01648000	-9.47342500
128.89999252	0.00000000	-45.85384000	-9.47342500
129.09999251	0.00000000	-44.78346000	-9.51648500
129.29999250	0.00000000	-44.74040000	-9.89173200
129.49999249	0.00000000	-45.47859000	-10.62992000
129.69999248	0.00000000	-46.22908000	-11.00517000
129.89999246	0.00000000	-47.05954000	-11.04823000
130.09999245	0.00000000	-47.81004000	-11.04823000
130.29999244	0.00000000	-48.59744000	-11.00517000
130.49999243	0.00000000	-48.92347000	-10.62992000
130.69999242	0.00000000	-48.59744000	-9.89173200
130.89999241	0.00000000	-47.81004000	-9.51648500
131.09999239	0.00000000	-47.05954000	-9.47342500
131.29999238	0.00000000	-46.22908000	-9.47342500
131.49999237	0.00000000	-45.52165000	-9.47342500
131.69999236	0.00000000	-45.10950000	-9.51648500
131.89999235	0.00000000	-45.52165000	-9.89173200
132.09999233	0.00000000	-46.22908000	-10.62992000
132.29999232	0.00000000	-47.01648000	-11.00517000
132.49999231	0.00000000	-47.39173000	-11.04823000
132.69999230	0.00000000	-47.43479000	-11.00517000
132.89999229	0.00000000	-47.43479000	-10.62992000
133.09999227	0.00000000	-47.43479000	-9.84867000
133.29999226	0.00000000	-47.39173000	-9.09817800
133.49999225	0.00000000	-47.05954000	-8.31077700
133.69999224	0.00000000	-46.64739000	-7.93553100
133.89999223	0.00000000	-46.68430000	-7.89247000
134.09999222	0.00000000	-46.64739000	-7.93553100
134.29999220	0.00000000	-47.05954000	-8.35998900
134.49999219	0.00000000	-47.39173000	-9.47342500
134.69999218	0.00000000	-47.43479000	-10.62992000
134.89999217	0.00000000	-47.43479000	-11.42347000
135.09999216	0.00000000	-47.39173000	-12.16166000
135.29999214	0.00000000	-47.01648000	-12.16166000
135.49999213	0.00000000	-46.27214000	-11.42347000
135.69999212	0.00000000	-45.89690000	-10.67298000
135.89999211	0.00000000	-45.89690000	-9.84867000
136.09999210	0.00000000	-46.27214000	-9.09817800
136.29999208	0.00000000	-47.05954000	-8.31077700
136.49999207	0.00000000	-47.76698000	-7.93553100
136.69999206	0.00000000	-48.17913000	-7.93553100
136.89999205	0.00000000	-47.81004000	-8.31077700
137.09999204	0.00000000	-47.47785000	-9.05511800
137.29999203	0.00000000	-47.39173000	-9.47342500
137.49999201	0.00000000	-47.01648000	-9.89173200
137.69999200	0.00000000	-46.27214000	-10.67298000
137.89999199	0.00000000	-45.89690000	-11.38041000
138.09999198	0.00000000	-45.85384000	-11.79257000
138.29999197	0.00000000	-45.89690000	-11.46653000
138.49999195	0.00000000	-46.27214000	-11.46653000
138.69999194	0.00000000	-47.05954000	-11.79257000
138.89999193	0.00000000	-47.81004000	-11.38041000
139.09999192	0.00000000	-48.59744000	-10.67298000
139.29999191	0.00000000	-48.97269000	-9.89173200
139.49999189	0.00000000	-48.92347000	-9.47342500
139.69999188	0.00000000	-48.22219000	-9.09817800
139.89999187	0.00000000	-47.06569000	-8.72908400
140.09999186	0.00000000	-46.68430000	-9.14124000
140.29999185	0.00000000	-46.22908000	-9.84867000
140.49999184	0.00000000	-45.89690000	-10.67298000
140.69999182	0.00000000	-45.89690000	-11.42347000
140.89999181	0.00000000	-46.27214000	-12.21087000
141.09999180	0.00000000	-47.01648000	-12.58612000
141.29999179	0.00000000	-47.39173000	-12.58612000
141.49999178	0.00000000	-47.43479000	-12.16166000
141.69999176	0.00000000	-47.43479000	-11.04823000
141.89999175	0.00000000	-47.43479000	-9.89173200
142.09999174	0.00000000	-47.39173000	-9.09817800
142.29999173	0.00000000	-47.01648000	-8.31077700
142.49999172	0.00000000	-46.27214000	-7.93553100
142.69999170	0.00000000	-45.89690000	-7.93553100
142.89999169	0.00000000	-45.85384000	-8.35998900
143.09999168	0.00000000	-45.89690000	-9.47342500
143.29999167	0.00000000	-46.27214000	-10.62992000
143.49999166	0.00000000	-47.01648000	-11.38041000
143.69999165	0.00000000	-47.39173000	-11.79257000
143.89999163	0.00000000	-47.43479000	-11.42347000
144.09999162	0.00000000	-47.39173000	-11.04823000
144.29999161	0.00000000	-47.01648000	-10.62992000
144.49999160	0.00000000	-46.27214000	-9.84867000
144.69999159	0.00000000	-45.89690000	-9.09817800
144.89999157	0.00000000	-45.85384000	-8.31077700
145.09999156	0.00000000	-45.85384000	-7.93553100
145.29999155	0.00000000	-45.89690000	-7.89247000
145.49999154	0.00000000	-46.27214000	-7.93553100
145.69999153	0.00000000	-47.01648000	-8.35998900
145.89999151	0.00000000	-47.39173000	-9.47342500
146.09999150	0.00000000	-47.43479000	-10.58686000
146.29999149	0.00000000	-47.43479000	-11.00517000
146.49999148	0.00000000	-47.39173000	-11.04823000
146.69999147	0.00000000	-47.01648000	-11.00517000
146.89999146	0.00000000	-46.27214000	-10.62992000
147.09999144	0.00000000	-45.89690000	-9.89173200
147.29999143	0.00000000	-45.85384000	-9.51648500
147.49999142	0.00000000	-45.85384000	-9.43036400
147.69999141	0.00000000	-45.89690000	-9.05511800
147.89999140	0.00000000	-46.27214000	-8.35998900
148.09999138	0.00000000	-47.01648000	-8.35998900
148.29999137	0.00000000	-47.39173000	-9.05511800
148.49999136	0.00000000	-47.43479000	-9.43036400
148.69999135	0.00000000	-47.39173000	-9.51648500
148.89999134	0.00000000	-47.05954000	-9.89173200
149.09999132	0.00000000	-46.64739000	-10.62992000
149.29999131	0.00000000	-46.64124000	-11.00517000
149.49999130	0.00000000	-46.22908000	-11.00517000
149.69999129	0.00000000	-45.89690000	-10.62992000
149.89999128	0.00000000	-45.85384000	-9.89173200
150.09999127	0.00000000	-45.85384000	-9.51648500
150.29999125	0.00000000	-45.85384000	-9.47342500
150.49999124	0.00000000	-45.89690000	-9.47342500
150.69999123	0.00000000	-46.27214000	-9.47342500
150.89999122	0.00000000	-47.01648000	-9.47342500
151.09999121	0.00000000	-47.39173000	-9.47342500
151.29999119	0.00000000	-47.43479000	-9.51648500
151.49999118	0.00000000	-47.43479000	-9.89173200
151.69999117	0.00000000	-47.43479000	-10.58686000
151.89999116	0.00000000	-47.39173000	-10.58686000
152.09999115	0.00000000	-47.01648000	-9.89173200
152.29999113	0.00000000	-46.27214000	-9.51648500
152.49999112	0.00000000	-45.89690000	-9.47342500
152.69999111	0.00000000	-45.85384000	-9.47342500
152.89999110	0.00000000	-45.85384000	-9.47342500
153.09999109	0.00000000	-45.85384000	-9.47342500
153.29999108	0.00000000	-45.85384000	-9.47342500
153.49999106	0.00000000	-45.89690000	-9.47342500
153.69999105	0.00000000	-46.27214000	-9.47342500
153.89999104	0.00000000	-47.01648000	-9.47342500
154.09999103	0.00000000	-47.39173000	-9.47342500
154.29999102	0.00000000	-47.43479000	-9.47342500
154.49999100	0.00000000	-47.43479000	-9.47342500
154.69999099	0.00000000	-47.39173000	-9.47342500
154.89999098	0.00000000	-47.01648000	-9.47342500
155.09999097	0.00000000	-46.27214000	-9.47342500
155.29999096	0.00000000	-45.89690000	-9.47342500
155.49999094	0.00000000	-45.85384000	-9.51648500
155.69999093	0.00000000	-45.85384000	-9.84867000
155.89999092	0.00000000	-45.85384000	-10.21161000
156.09999091	0.00000000	-45.85384000	-9.84867000
156.29999090	0.00000000	-45.85384000	-9.51648500
156.49999089	0.00000000	-45.89690000	-9.47342500
156.69999087	0.00000000	-46.27214000	-9.47342500
156.89999086	0.00000000	-47.01648000	-9.47342500
157.09999085	0.00000000	-47.39173000	-9.47342500
157.29999084	0.00000000	-47.43479000	-9.43036400
157.49999083	0.00000000	-47.43479000	-9.09817800
157.69999081	0.00000000	-47.43479000	-8.72908400
157.89999080	0.00000000	-47.39173000	-9.09817800
158.09999079	0.00000000	-47.01648000	-9.47342500
158.29999078	0.00000000	-46.27214000	-9.89173200
158.49999077	0.00000000	-45.89690000	-10.58686000
158.69999075	0.00000000	-45.85384000	-10.62992000
158.89999074	0.00000000	-45.85384000	-10.26698000
159.09999073	0.00000000	-45.85384000	-10.25467000
159.29999072	0.00000000	-45.85384000	-9.84867000
159.49999071	0.00000000	-45.85384000	-9.51648500
159.69999070	0.00000000	-45.89690000	-9.43036400
159.89999068	0.00000000	-46.27214000	-9.05511800
160.09999067	0.00000000	-47.01648000	-8.35998900
160.29999066	0.00000000	-47.39173000	-8.35998900
160.49999065	0.00000000	-47.43479000	-9.05511800
160.69999064	0.00000000	-47.43479000	-9.43036400
160.89999062	0.00000000	-47.39173000	-9.47342500
161.09999061	0.00000000	-47.01648000	-9.51648500
161.29999060	0.00000000	-46.27214000	-9.89173200
161.49999059	0.00000000	-45.89690000	-10.58686000
161.69999058	0.00000000	-45.85384000	-10.58686000
161.89999056	0.00000000	-45.85384000	-9.89173200
162.09999055	0.00000000	-45.85384000	-9.51648500
162.29999054	0.00000000	-45.85384000	-9.47342500
162.49999053	0.00000000	-45.85384000	-9.47342500
162.69999052	0.00000000	-45.85384000	-9.47342500
162.89999051	0.00000000	-45.89690000	-9.47342500
163.09999049	0.00000000	-46.27214000	-9.47342500
163.29999048	0.00000000	-47.01648000	-9.47342500
163.49999047	0.00000000	-47.39173000	-9.47342500
163.69999046	0.00000000	-47.43479000	-9.47342500
163.89999045	0.00000000	-47.43479000	-9.47342500
164.09999043	0.00000000	-47.39173000	-9.47342500
164.29999042	0.00000000	-47.01648000	-9.47342500
164.49999041	0.00000000	-46.27214000	-9.51648500
164.69999040	0.00000000	-45.89690000	-9.84867000
164.89999039	0.00000000	-45.85384000	-10.21161000
165.09999037	0.00000000	-45.85384000	-9.84867000
165.29999036	0.00000000	-45.85384000	-9.51648500
165.49999035	0.00000000	-45.85384000	-9.47342500
165.69999034	0.00000000	-45.85384000	-9.47342500
165.89999033	0.00000000	-45.85384000	-9.47342500
166.09999032	0.00000000	-45.85384000	-9.47342500
166.29999030	0.00000000	-45.89690000	-9.47342500
166.49999029	0.00000000	-46.27214000	-9.47342500
166.69999028	0.00000000	-47.01648000	-9.47342500
166.89999027	0.00000000	-47.34252000	-9.47342500
167.09999026	0.00000000	-47.01648000	-9.47342500
167.29999024	0.00000000	-46.27214000	-9.47342500
167.49999023	0.00000000	-45.89690000	-9.47342500
167.69999022	0.00000000	-45.85384000	-9.47342500
167.89999021	0.00000000	-45.85384000	-9.47342500
168.09999020	0.00000000	-45.85384000	-9.47342500
168.29999018	0.00000000	-45.85384000	-9.47342500
168.49999017	0.00000000	-45.85384000	-9.47342500
168.69999016	0.00000000	-45.85384000	-9.47342500
168.89999015	0.00000000	-45.85384000	-9.47342500
169.09999014	0.00000000	-45.85384000	-9.47342500
169.29999013	0.00000000	-45.89690000	-9.47342500
169.49999011	0.00000000	-46.27214000	-9.47342500
169.69999010	0.00000000	-47.01648000	-9.47342500
169.89999009	0.00000000	-47.34252000	-9.47342500
170.09999008	0.00000000	-47.01648000	-9.47342500
170.29999007	0.00000000	-46.27214000	-9.47342500
170.49999005	0.00000000	-45.89690000	-9.47342500
170.69999004	0.00000000	-45.85384000	-9.47342500
170.89999003	0.00000000	-45.85384000	-9.47342500
171.09999002	0.00000000	-45.85384000	-9.47342500
171.29999001	0.00000000	-45.89690000	-9.51648500
171.49998999	0.00000000	-46.18602000	-9.84867000
171.69998998	0.00000000	-46.22293000	-10.21161000
171.89998997	0.00000000	-45.48474000	-9.84867000
172.09998996	0.00000000	-45.52165000	-9.51648500
172.29998995	0.00000000	-45.81078000	-9.47342500
172.49998994	0.00000000	-45.85384000	-9.47342500
172.69998992	0.00000000	-45.85384000	-9.47342500
172.89998991	0.00000000	-45.85384000	-9.47342500
173.09998990	0.00000000	-45.85384000	-9.47342500
173.29998989	0.00000000	-45.85384000	-9.47342500
173.49998988	0.00000000	-45.85384000	-9.47342500
173.69998986	0.00000000	-45.85384000	-9.47342500
173.89998985	0.00000000	-45.85384000	-9.47342500
174.09998984	0.00000000	-45.85384000	-9.47342500
174.29998983	0.00000000	-45.85384000	-9.47342500
174.49998982	0.00000000	-45.85384000	-9.47342500
174.69998980	0.00000000	-45.85384000	-9.47342500
174.89998979	0.00000000	-45.85384000	-9.47342500
175.09998978	0.00000000	-45.85384000	-9.47342500
175.29998977	0.00000000	-45.85384000	-9.47342500
175.49998976	0.00000000	-45.85384000	-9.47342500
175.69998975	0.00000000	-45.85384000	-9.47342500
175.89998973	0.00000000	-45.85384000	-9.47342500
176.09998972	0.00000000	-45.85384000	-9.47342500
176.29998971	0.00000000	-45.85384000	-9.47342500
176.49998970	0.00000000	-45.85384000	-9.47342500
176.69998969	0.00000000	-45.85384000	-9.47342500
176.89998967	0.00000000	-45.85384000	-9.47342500
177.09998966	0.00000000	-45.85384000	-9.47342500
177.29998965	0.00000000	-45.85384000	-9.47342500
177.49998964	0.00000000	-45.85384000	-9.47342500
177.69998963	0.00000000	-45.85384000	-9.47342500
177.89998961	0.00000000	-45.85384000	-9.47342500
178.09998960	0.00000000	-45.85384000	-9.47342500
178.29998959	0.00000000	-45.85384000	-9.47342500
178.49998958	0.00000000	-45.85384000	-9.47342500
178.69998957	0.00000000	-45.85384000	-9.47342500
178.89998956	0.00000000	-45.85384000	-9.43036400
179.09998954	0.00000000	-45.85384000	-9.09817800
179.29998953	0.00000000	-45.85384000	-8.72908400
179.49998952	0.00000000	-45.85384000	-9.09817800
179.69998951	0.00000000	-45.85384000	-9.43036400
179.89998950	0.00000000	-45.85384000	-9.47342500
180.09998948	0.00000000	-45.85384000	-9.47342500
180.29998947	0.00000000	-45.85384000	-9.47342500
180.49998946	0.00000000	-45.85384000	-9.47342500
180.69998945	0.00000000	-45.85384000	-9.47342500
180.89998944	0.00000000	-45.85384000	-9.47342500
181.09998942	0.00000000	-45.85384000	-9.47342500
181.29998941	0.00000000	-45.85384000	-9.47342500
181.49998940	0.00000000	-45.85384000	-9.47342500
181.69998939	0.00000000	-45.85384000	-9.47342500
181.89998938	0.00000000	-45.85384000	-9.47342500
182.09998937	0.00000000	-45.85384000	-9.47342500
182.29998935	0.00000000	-45.85384000	-9.47342500
182.49998934	0.00000000	-45.85384000	-9.47342500
182.69998933	0.00000000	-45.85384000	-9.47342500
182.89998932	0.00000000	-45.85384000	-9.47342500
183.09998931	0.00000000	-45.85384000	-9.47342500
183.29998929	0.00000000	-45.85384000	-9.47342500
183.49998928	0.00000000	-45.85384000	-9.47342500
183.69998927	0.00000000	-45.85384000	-9.47342500
183.89998926	0.00000000	-45.85384000	-9.47342500
184.09998925	0.00000000	-45.85384000	-9.47342500
184.29998923	0.00000000	-45.85384000	-9.43036400
184.49998922	0.00000000	-45.85384000	-9.05511800
184.69998921	0.00000000	-45.85384000	-8.31077700
184.89998920	0.00000000	-45.85384000	-7.93553100
185.09998919	0.00000000	-45.85384000	-7.89247000
185.29998918	0.00000000	-45.85384000	-7.89247000
185.49998916	0.00000000	-45.85384000	-7.93553100
185.69998915	0.00000000	-45.85384000	-8.31077700
185.89998914	0.00000000	-45.81078000	-9.05511800
186.09998913	0.00000000	-45.47859000	-9.47342500
186.29998912	0.00000000	-45.10950000	-9.89173200
186.49998910	0.00000000	-45.47859000	-10.62992000
186.69998909	0.00000000	-45.81078000	-10.95595000
186.89998908	0.00000000	-45.85384000	-10.62992000
187.09998907	0.00000000	-45.85384000	-9.89173200
187.29998906	0.00000000	-45.85384000	-9.47342500
187.49998904	0.00000000	-45.85384000	-9.09817800
187.69998903	0.00000000	-45.85384000	-8.72908400
187.89998902	0.00000000	-45.85384000	-9.05511800
188.09998901	0.00000000	-45.85384000	-9.05511800
188.29998900	0.00000000	-45.85384000	-8.72908400
188.49998899	0.00000000	-45.85384000	-9.09817800
188.69998897	0.00000000	-45.85384000	-9.43036400
188.89998896	0.00000000	-45.81078000	-9.47342500
189.09998895	0.00000000	-45.43553000	-9.47342500
189.29998894	0.00000000	-44.69119000	-9.47342500
189.49998893	0.00000000	-44.36515000	-9.47342500
189.69998891	0.00000000	-44.69119000	-9.47342500
189.89998890	0.00000000	-45.43553000	-9.47342500
190.09998889	0.00000000	-45.81078000	-9.47342500
190.29998888	0.00000000	-45.85384000	-9.47342500
190.49998887	0.00000000	-45.85384000	-9.47342500
190.69998885	0.00000000	-45.85384000	-9.47342500
190.89998884	0.00000000	-45.85384000	-9.47342500
191.09998883	0.00000000	-45.85384000	-9.47342500
191.29998882	0.00000000	-45.81078000	-9.47342500
191.49998881	0.00000000	-45.43553000	-9.47342500
191.69998880	0.00000000	-44.69119000	-9.47342500
191.89998878	0.00000000	-44.31594000	-9.47342500
192.09998877	0.00000000	-44.27288000	-9.47342500
192.29998876	0.00000000	-44.31594000	-9.47342500
192.49998875	0.00000000	-44.69119000	-9.47342500
192.69998874	0.00000000	-45.43553000	-9.47342500
192.89998872	0.00000000	-45.81078000	-9.47342500
193.09998871	0.00000000	-45.85384000	-9.47342500
193.29998870	0.00000000	-45.85384000	-9.47342500
193.49998869	0.00000000	-45.85384000	-9.47342500
193.69998868	0.00000000	-45.85384000	-9.43036400
193.89998866	0.00000000	-45.85384000	-9.09817800
194.09998865	0.00000000	-45.85384000	-8.72908400
194.29998864	0.00000000	-45.85384000	-9.09817800
194.49998863	0.00000000	-45.85384000	-9.43036400
194.69998862	0.00000000	-45.81078000	-9.43036400
194.89998861	0.00000000	-45.47859000	-9.09817800
195.09998859	0.00000000	-45.10950000	-8.72908400
195.29998858	0.00000000	-45.47859000	-9.09817800
195.49998857	0.00000000	-45.81078000	-9.43036400
195.69998856	0.00000000	-45.85384000	-9.47342500
195.89998855	0.00000000	-45.85384000	-9.47342500
196.09998853	0.00000000	-45.85384000	-9.47342500
