Time	Channel A	Channel B	Channel C
(us)	(V)	(mV)	(mV)

-4.59999956	0.00000000	-60.03937000	-14.21014000
-4.39999957	0.00000000	-59.70718000	-14.21014000
-4.19999958	0.00000000	-59.33809000	-14.21014000
-3.99999959	0.00000000	-59.70718000	-14.21014000
-3.79999960	0.00000000	-60.03937000	-14.21014000
-3.59999962	0.00000000	-60.03937000	-14.16708000
-3.39999963	0.00000000	-59.70718000	-13.83489000
-3.19999964	0.00000000	-59.33809000	-13.46580000
-2.99999965	0.00000000	-59.70718000	-13.83489000
-2.79999966	0.00000000	-60.03937000	-14.16708000
-2.59999968	0.00000000	-60.08243000	-14.21014000
-2.39999969	0.00000000	-60.08243000	-14.21014000
-2.19999970	0.00000000	-60.08243000	-14.21014000
-1.99999971	0.00000000	-60.08243000	-14.21014000
-1.79999972	0.00000000	-60.08243000	-14.21014000
-1.59999973	0.00000000	-60.08243000	-14.21014000
-1.39999975	0.00000000	-60.08243000	-14.21014000
-1.19999976	0.00000000	-60.08243000	-14.21014000
-0.99999977	0.00000000	-60.08243000	-14.21014000
-0.79999978	0.00000000	-60.08243000	-14.21014000
-0.59999979	0.00000000	-60.08243000	-14.21014000
-0.39999981	0.00000000	-60.08243000	-14.21014000
-0.19999982	0.47736220	-60.03937000	-14.21014000
0.00000017	0.79601380	-59.70718000	-14.21014000
0.20000016	0.95533960	-59.33809000	-14.16708000
0.40000015	0.95533960	-59.66412000	-13.79183000
0.60000013	0.63668800	-59.66412000	-13.09670000
0.80000012	0.00000000	-59.29502000	-13.04749000
1.00000011	-0.95533960	-59.28888000	-13.41658000
1.20000010	-1.91129400	-58.91978000	-13.42274000
1.40000009	-2.54859700	-58.91978000	-13.79183000
1.60000008	-2.70792300	-59.24582000	-13.74262000
1.80000006	-2.07062000	-58.91978000	-13.04749000
2.00000005	-0.63668800	-58.91978000	-12.67224000
2.20000004	1.43331700	-59.28888000	-12.62918000
2.40000003	3.50393700	-59.29502000	-12.67224000
2.60000002	4.93786900	-59.70718000	-13.04749000
2.80000000	5.25652100	-60.03937000	-13.79183000
2.99999999	4.30056600	-60.08243000	-14.16708000
3.19999998	1.75196900	-60.03937000	-14.21014000
3.39999997	-1.43331700	-59.70718000	-14.21014000
3.59999996	-4.77854300	-59.29502000	-14.16708000
3.79999994	-7.16781500	-59.28888000	-13.79183000
3.99999993	-7.96444400	-58.87672000	-13.04749000
4.19999992	-6.69045300	-58.54454000	-12.67224000
4.39999991	-3.50393700	-58.50147000	-12.62918000
4.59999990	0.63668800	-58.50147000	-12.62918000
4.79999989	5.09719500	-58.50147000	-12.62918000
4.99999987	8.28309500	-58.54454000	-12.67224000
5.19999986	9.39837600	-58.91978000	-13.04749000
5.39999985	8.28309500	-59.66412000	-13.79183000
5.59999984	5.09719500	-60.03937000	-14.16708000
5.79999983	0.47736220	-60.08243000	-14.21014000
5.99999981	-4.30056600	-60.03937000	-14.16708000
6.19999980	-7.80511800	-59.66412000	-13.79183000
6.39999979	-9.39837600	-58.91978000	-13.04749000
6.59999978	-8.60174700	-58.54454000	-12.67224000
6.79999977	-5.73449800	-58.50147000	-12.62918000
6.99999975	-1.59264300	-58.50147000	-12.62918000
7.19999974	2.70792300	-58.54454000	-12.67224000
7.39999973	6.05315000	-58.87672000	-13.04749000
7.59999972	7.64579200	-59.28888000	-13.79183000
7.79999971	7.32714100	-59.25196000	-14.16708000
7.99999970	5.09719500	-59.33194000	-14.21014000
8.19999968	2.07062000	-59.29502000	-14.21014000
8.39999967	-1.11466500	-59.66412000	-14.16708000
8.59999966	-3.82258900	-59.66412000	-13.79183000
8.79999965	-5.09719500	-59.29502000	-13.04749000
8.99999964	-4.93786900	-59.28888000	-12.67224000
9.19999962	-3.66326300	-58.87672000	-12.62918000
9.39999961	-1.91129400	-58.54454000	-12.62918000
9.59999960	0.15871060	-58.54454000	-12.67224000
9.79999959	1.59264300	-58.87672000	-13.04749000
9.99999958	2.38927200	-59.24582000	-13.74262000
10.19999956	2.54859700	-58.87672000	-13.74262000
10.39999955	1.91129400	-58.54454000	-13.09670000
10.59999954	1.11466500	-58.50147000	-13.09670000
10.79999953	0.15871060	-58.50147000	-13.79183000
10.99999952	-0.47736220	-58.54454000	-14.11786000
11.19999951	-0.79601380	-58.87672000	-13.83489000
11.39999949	-0.95533960	-59.24582000	-13.42274000
11.59999948	-0.95533960	-58.87672000	-13.45964000
11.79999947	-0.63668800	-58.54454000	-13.42274000
11.99999946	-0.31803640	-58.50147000	-13.79183000
12.19999945	-0.15871060	-58.54454000	-13.79183000
12.39999943	-0.15871060	-58.87672000	-13.42274000
12.59999942	0.00000000	-59.28888000	-13.45964000
12.79999941	0.00000000	-59.29502000	-13.42274000
12.99999940	0.15871060	-59.66412000	-13.83489000
13.19999939	0.15871060	-59.61491000	-14.16708000
13.39999937	0.15871060	-58.91978000	-14.21014000
13.59999936	0.00000000	-58.54454000	-14.21014000
13.79999935	0.00000000	-58.50147000	-14.16708000
13.99999934	0.00000000	-58.50147000	-13.83489000
14.19999933	-0.15871060	-58.54454000	-13.42274000
14.39999932	-0.15871060	-58.87672000	-13.41658000
14.59999930	-0.15871060	-59.24582000	-13.00443000
14.79999929	0.00000000	-58.87672000	-12.67224000
14.99999928	0.00000000	-58.54454000	-12.67224000
15.19999927	0.00000000	-58.54454000	-13.04749000
15.39999926	0.00000000	-58.91978000	-13.79183000
15.59999924	0.00000000	-59.66412000	-14.16708000
15.79999923	0.00000000	-60.03937000	-14.16708000
15.99999922	0.00000000	-60.03937000	-13.79183000
16.19999921	0.00000000	-59.70718000	-13.09670000
16.39999920	-0.15871060	-59.29502000	-13.09670000
16.59999919	0.00000000	-59.28888000	-13.74262000
16.79999917	-0.15871060	-58.87672000	-13.79183000
16.99999916	0.00000000	-58.50147000	-13.46580000
17.19999915	0.00000000	-58.08316000	-13.83489000
17.39999914	0.00000000	-57.33883000	-14.11786000
17.59999913	0.00000000	-57.01279000	-13.83489000
17.79999911	0.00000000	-57.33883000	-13.42274000
17.99999910	0.00000000	-58.12622000	-13.45964000
18.19999909	0.00000000	-58.91978000	-13.37967000
18.39999908	0.00000000	-60.12549000	-13.45964000
18.59999907	0.00000000	-61.66338000	-13.42274000
18.79999905	-0.15871060	-63.20127000	-13.79183000
18.99999904	0.00000000	-64.27164000	-13.79183000
19.19999903	0.00000000	-63.85334000	-13.42274000
19.39999902	0.00000000	-61.57111000	-13.41658000
19.59999901	0.00000000	-58.45841000	-13.04749000
19.79999900	0.00000000	-54.92125000	-13.09670000
19.99999898	0.00000000	-51.06422000	-13.74262000
20.19999897	0.00000000	-48.08071000	-13.74262000
20.39999896	0.00000000	-47.33637000	-13.09670000
20.59999895	0.00000000	-49.70472000	-13.09670000
20.79999894	0.00000000	-54.73056000	-13.74262000
20.99999892	0.00000000	-61.75566000	-13.74262000
21.19999891	0.00000000	-69.43897000	-13.04749000
21.39999890	0.00000000	-75.99655000	-12.67224000
21.59999889	0.00000000	-79.39838000	-12.67224000
21.79999888	0.00000000	-78.60482000	-13.04749000
21.99999886	0.00000000	-73.07455000	-13.79183000
22.19999885	0.00000000	-63.38583000	-14.16708000
22.39999884	0.00000000	-50.97194000	-14.21014000
22.59999883	0.00000000	-38.68110000	-14.16708000
22.79999882	0.00000000	-29.47219000	-13.79183000
22.99999881	0.00000000	-26.48868000	-13.04749000
23.19999879	0.00000000	-31.13927000	-12.62918000
23.39999878	0.00000000	-42.82111000	-12.21087000
23.59999877	0.00000000	-59.43036000	-11.46653000
23.79999876	0.00000000	-77.57751000	-11.09129000
23.99999875	0.00000000	-92.60580000	-11.09129000
24.19999873	0.00000000	-101.03350000	-11.46653000
24.39999872	0.00000000	-100.19070000	-12.29700000
24.59999871	0.00000000	-89.30856000	-13.46580000
24.79999870	0.00000000	-70.78616000	-15.40969000
24.99999869	0.00000000	-48.36368000	-17.27362000
25.19999867	0.00000000	-27.51599000	-18.47933000
25.39999866	0.00000000	-12.85679000	-18.81152000
25.59999865	0.00000000	-7.92937900	-18.06102000
25.79999864	0.00000000	-14.94833000	-16.07406000
25.99999863	0.00000000	-32.63410000	-13.32431000
26.19999862	0.00000000	-56.58833000	-9.43036400
26.39999860	0.00000000	-80.93011000	-5.29035400
26.59999859	0.00000000	-100.65820000	-2.59596400
26.79999858	0.00000000	-111.03590000	-2.22071800
26.99999857	0.00000000	-109.49800000	-4.17076700
27.19999856	0.00000000	-96.37672000	-8.48917200
27.39999854	0.00000000	-74.78469000	-14.72072000
27.59999853	0.00000000	-50.07997000	-22.05955000
27.79999852	0.00000000	-28.02657000	-28.93701000
27.99999851	0.00000000	-13.32431000	-33.12008000
28.19999850	0.00000000	-9.04281500	-33.07701000
28.39999848	0.00000000	-15.93258000	-28.42643000
28.59999847	0.00000000	-31.74827000	-19.88189000
28.79999846	0.00000000	-52.64517000	-9.05511800
28.99999845	0.00000000	-74.28026000	2.18380900
29.19999844	0.00000000	-91.67692000	11.34350000
29.39999843	0.00000000	-101.03350000	15.93873000
29.59999841	0.00000000	-101.07650000	13.94562000
29.79999840	0.00000000	-92.23055000	5.81323800
29.99999839	0.00000000	-76.83316000	-7.33267600
30.19999838	0.00000000	-59.05511000	-22.75467000
30.39999837	0.00000000	-42.72884000	-36.65108000
30.59999835	0.00000000	-30.67790000	-46.31520000
30.79999834	0.00000000	-24.85851000	-49.33562000
30.99999833	0.00000000	-26.39640000	-44.69119000
31.19999832	0.00000000	-34.81791000	-33.07701000
31.39999831	0.00000000	-47.52091000	-16.86147000
31.59999829	0.00000000	-61.15280000	0.51673230
31.79999828	0.00000000	-73.57898000	15.19439000
31.99999827	0.00000000	-82.78789000	24.07111000
32.19999826	0.00000000	-85.94980000	25.23376000
32.39999825	0.00000000	-82.93553000	18.26402000
32.59999824	0.00000000	-75.62130000	4.78592500
32.79999822	0.00000000	-65.15748000	-12.26009000
32.99999821	0.00000000	-54.35531000	-29.26919000
33.19999820	0.00000000	-45.38017000	-43.20251000
33.39999819	0.00000000	-39.60999000	-50.87352000
33.59999818	0.00000000	-38.45349000	-50.54134000
33.79999816	0.00000000	-42.26747000	-42.41511000
33.99999815	0.00000000	-49.52633000	-28.51870000
34.19999814	0.00000000	-58.03395000	-11.55881000
34.39999813	0.00000000	-65.76648000	4.27534400
34.59999812	0.00000000	-71.20448000	15.52657000
34.79999810	0.00000000	-73.11761000	20.58317000
34.99999809	0.00000000	-71.25368000	18.22096000
35.19999808	0.00000000	-66.27091000	9.01205700
35.39999807	0.00000000	-60.12549000	-4.87204700
35.59999806	0.00000000	-54.31225000	-19.88189000
35.79999805	0.00000000	-50.07997000	-32.65871000
35.99999803	0.00000000	-48.54207000	-40.37278000
36.19999802	0.00000000	-50.03691000	-41.52928000
36.39999801	0.00000000	-53.89394000	-35.81446000
36.59999800	0.00000000	-58.87672000	-25.08612000
36.79999799	0.00000000	-63.89641000	-12.76452000
36.99999797	0.00000000	-67.30437000	-1.57480300
37.19999796	0.00000000	-68.13484000	5.72096400
37.39999795	0.00000000	-66.22785000	7.30191900
37.59999794	0.00000000	-62.77681000	3.11884800
37.79999793	0.00000000	-58.45841000	-5.29035400
37.99999791	0.00000000	-53.89394000	-15.28051000
38.19999790	0.00000000	-50.41215000	-24.10802000
38.39999789	0.00000000	-49.24335000	-29.45374000
38.59999788	0.00000000	-49.98769000	-29.45374000
38.79999787	0.00000000	-52.73130000	-24.10802000
38.99999786	0.00000000	-56.96358000	-15.32357000
39.19999784	0.00000000	-61.57111000	-5.75172200
39.39999783	0.00000000	-65.47736000	1.49483300
39.59999782	0.00000000	-67.81496000	4.18922200
39.79999781	0.00000000	-68.60236000	1.49483300
39.99999780	0.00000000	-67.39050000	-5.75172200
40.19999778	0.00000000	-64.36392000	-15.36663000
40.39999777	0.00000000	-60.45767000	-24.57554000
40.59999776	0.00000000	-56.50221000	-31.07775000
40.79999775	0.00000000	-52.26993000	-32.56643000
40.99999774	0.00000000	-48.87426000	-28.42643000
41.19999772	0.00000000	-48.08071000	-20.34941000
41.39999771	0.00000000	-49.52633000	-10.72219000
41.59999770	0.00000000	-52.26993000	-1.48253000
41.79999769	0.00000000	-55.80708000	4.60752900
41.99999768	0.00000000	-60.03937000	5.81323800
42.19999767	0.00000000	-63.89641000	2.00541300
42.39999765	0.00000000	-66.22785000	-5.29035400
42.59999764	0.00000000	-67.05831000	-14.11786000
42.79999763	0.00000000	-66.27091000	-22.20103000
42.99999762	0.00000000	-64.35777000	-27.22072000
43.19999761	0.00000000	-61.62032000	-28.47564000
43.39999759	0.00000000	-58.54454000	-26.15034000
43.59999758	0.00000000	-55.85014000	-21.17372000
43.79999757	0.00000000	-54.26919000	-14.62844000
43.99999756	0.00000000	-53.85088000	-8.48917200
44.19999755	0.00000000	-54.17691000	-4.21998000
44.39999753	0.00000000	-54.92125000	-2.63902500
44.59999752	0.00000000	-55.33957000	-3.75246000
44.79999751	0.00000000	-55.75787000	-6.77903500
44.99999750	0.00000000	-56.50221000	-10.62992000
45.19999749	0.00000000	-56.92052000	-14.16092000
45.39999748	0.00000000	-57.38804000	-17.23056000
45.59999746	0.00000000	-58.59375000	-19.18061000
45.79999745	0.00000000	-60.54995000	-19.18676000
45.99999744	0.00000000	-63.24434000	-18.06102000
46.19999743	0.00000000	-65.89567000	-15.74188000
46.39999742	0.00000000	-67.39050000	-13.09055000
46.59999740	0.00000000	-66.97219000	-11.09744000
46.79999739	0.00000000	-64.22859000	-9.55954600
46.99999738	0.00000000	-59.57185000	-8.77829600
47.19999737	0.00000000	-53.75861000	-9.19045200
47.39999736	0.00000000	-47.98843000	-10.31004000
47.59999734	0.00000000	-43.79921000	-12.30315000
47.79999733	0.00000000	-42.64272000	-14.58538000
47.99999732	0.00000000	-45.00492000	-16.90453000
48.19999731	0.00000000	-50.45521000	-18.39321000
48.39999730	0.00000000	-58.55069000	-18.43627000
48.59999729	0.00000000	-66.97219000	-17.27362000
48.79999727	0.00000000	-73.20988000	-15.32357000
48.99999726	0.00000000	-76.32258000	-12.58612000
49.19999725	0.00000000	-75.81815000	-9.51648500
49.39999724	0.00000000	-70.78616000	-6.86515700
49.59999723	0.00000000	-61.95251000	-5.75172200
49.79999721	0.00000000	-52.35605000	-6.86515700
49.99999720	0.00000000	-44.22367000	-9.51648500
50.19999719	0.00000000	-39.60999000	-12.62918000
50.39999718	0.00000000	-39.56693000	-15.78494000
50.59999717	0.00000000	-43.84842000	-18.85458000
50.79999715	0.00000000	-51.56865000	-21.13066000
50.99999714	0.00000000	-61.15280000	-21.46284000
51.19999713	0.00000000	-69.62352000	-19.54970000
51.39999712	0.00000000	-74.65550000	-15.74188000
51.59999711	0.00000000	-75.44291000	-11.51575000
51.79999710	0.00000000	-71.57972000	-7.98474400
51.99999708	0.00000000	-64.31471000	-5.29035400
52.19999707	0.00000000	-55.85014000	-4.17691900
52.39999706	0.00000000	-48.54207000	-5.33341500
52.59999705	0.00000000	-44.30979000	-8.35998900
52.79999704	0.00000000	-44.30979000	-12.21087000
52.99999702	0.00000000	-48.49901000	-15.69882000
53.19999701	0.00000000	-55.38263000	-18.39321000
53.39999700	0.00000000	-62.69069000	-19.55585000
53.59999699	0.00000000	-68.46087000	-18.81152000
53.79999698	0.00000000	-71.16142000	-16.90453000
53.99999696	0.00000000	-70.04182000	-14.21014000
54.19999695	0.00000000	-65.80955000	-11.55881000
54.39999694	0.00000000	-59.66412000	-9.98400600
54.59999693	0.00000000	-53.14960000	-9.56569900
54.79999692	0.00000000	-48.54207000	-9.98400600
54.99999691	0.00000000	-46.96112000	-11.51575000
55.19999689	0.00000000	-48.49901000	-13.74262000
55.39999688	0.00000000	-52.73130000	-15.23130000
55.59999687	0.00000000	-58.45841000	-15.27436000
55.79999686	0.00000000	-63.85334000	-14.11786000
55.99999685	0.00000000	-67.34743000	-12.25394000
56.19999683	0.00000000	-68.51008000	-10.31004000
56.39999682	0.00000000	-66.97219000	-9.23351300
56.59999681	0.00000000	-63.15822000	-9.23966500
56.79999680	0.00000000	-58.54454000	-11.18356000
56.99999679	0.00000000	-54.26919000	-14.21014000
57.19999677	0.00000000	-51.19340000	-17.32283000
57.39999676	0.00000000	-50.03691000	-19.97416000
57.59999675	0.00000000	-51.19340000	-21.08760000
57.79999674	0.00000000	-54.22613000	-19.92495000
57.99999673	0.00000000	-58.03395000	-16.81225000
58.19999672	0.00000000	-61.15280000	-12.21087000
58.39999670	0.00000000	-63.10900000	-7.19734200
58.59999669	0.00000000	-63.89641000	-3.37721400
58.79999668	0.00000000	-63.10900000	-1.43331700
58.99999667	0.00000000	-61.24508000	-2.26377900
59.19999666	0.00000000	-58.91978000	-5.75172200
59.39999664	0.00000000	-57.01279000	-11.55881000
59.59999663	0.00000000	-55.80708000	-18.43627000
59.79999662	0.00000000	-55.43184000	-24.20029000
59.99999661	0.00000000	-55.80708000	-27.26993000
60.19999660	0.00000000	-56.92052000	-26.84547000
60.39999658	0.00000000	-58.08316000	-22.61934000
60.59999657	0.00000000	-58.83366000	-15.74188000
60.79999656	0.00000000	-59.24582000	-8.40305000
60.99999655	0.00000000	-58.87672000	-2.22071800
61.19999654	0.00000000	-58.50147000	1.63016700
61.39999653	0.00000000	-58.08316000	1.95620100
61.59999651	0.00000000	-57.33883000	-1.48253000
61.79999650	0.00000000	-57.01279000	-8.07086500
61.99999649	0.00000000	-57.33883000	-16.11712000
62.19999648	0.00000000	-58.12622000	-23.82505000
62.39999647	0.00000000	-58.91978000	-28.80167000
62.59999645	0.00000000	-60.08243000	-30.00738000
62.79999644	0.00000000	-61.15280000	-27.31299000
62.99999643	0.00000000	-61.15280000	-21.50590000
63.19999642	0.00000000	-60.03937000	-13.79183000
63.39999641	0.00000000	-58.50147000	-5.75787400
63.59999639	0.00000000	-56.92052000	0.04921259
63.79999638	0.00000000	-55.38263000	2.42372000
63.99999637	0.00000000	-54.31225000	1.63016700
64.19999636	0.00000000	-54.64444000	-2.59596400
64.39999635	0.00000000	-56.17002000	-9.09817800
64.59999634	0.00000000	-57.71407000	-15.64960000
64.79999632	0.00000000	-59.66412000	-21.13066000
64.99999631	0.00000000	-61.15280000	-24.61860000
65.19999630	0.00000000	-61.57111000	-25.78125000
65.39999629	0.00000000	-61.19586000	-24.24335000
65.59999628	0.00000000	-60.03937000	-20.43553000
65.79999626	0.00000000	-58.50147000	-15.78494000
65.99999625	0.00000000	-56.96358000	-11.09129000
66.19999624	0.00000000	-55.85014000	-6.86515700
66.39999623	0.00000000	-55.85014000	-4.12770700
66.59999622	0.00000000	-56.96358000	-3.29109200
66.79999620	0.00000000	-58.50147000	-3.66633800
66.99999619	0.00000000	-60.03937000	-5.24729300
67.19999618	0.00000000	-61.15280000	-7.93553100
67.39999617	0.00000000	-61.15280000	-11.04823000
67.59999616	0.00000000	-59.99015000	-14.21014000
67.79999615	0.00000000	-58.03395000	-17.32283000
67.99999613	0.00000000	-55.38263000	-20.01722000
68.19999612	0.00000000	-53.10654000	-21.59203000
68.39999611	0.00000000	-52.31299000	-21.96727000
68.59999610	0.00000000	-52.73130000	-21.17372000
68.79999609	0.00000000	-54.73056000	-18.81152000
68.99999607	0.00000000	-58.54454000	-15.32357000
69.19999606	0.00000000	-62.73376000	-11.04823000
69.39999605	0.00000000	-65.85260000	-6.82209600
69.59999604	0.00000000	-67.39050000	-3.70939900
69.79999603	0.00000000	-66.97219000	-2.17150600
69.99999601	0.00000000	-64.22859000	-2.59596400
70.19999600	0.00000000	-59.61491000	-5.33341500
70.39999599	0.00000000	-54.22613000	-9.93479300
70.59999598	0.00000000	-49.56939000	-15.36663000
70.79999597	0.00000000	-46.49975000	-20.34941000
70.99999596	0.00000000	-45.75541000	-23.82505000
71.19999594	0.00000000	-48.08071000	-24.61860000
71.39999593	0.00000000	-52.68823000	-23.08686000
71.59999592	0.00000000	-58.50147000	-19.59892000
71.79999591	0.00000000	-64.31471000	-14.62844000
71.99999590	0.00000000	-68.92839000	-9.98400600
72.19999588	0.00000000	-71.20448000	-6.48991100
72.39999587	0.00000000	-70.09104000	-4.54601300
72.59999586	0.00000000	-66.27091000	-4.95816900
72.79999585	0.00000000	-61.19586000	-7.19734200
72.99999584	0.00000000	-55.38263000	-10.62992000
73.19999582	0.00000000	-50.03691000	-13.69956000
73.39999581	0.00000000	-46.91806000	-15.69882000
73.59999580	0.00000000	-46.49975000	-16.85531000
73.79999579	0.00000000	-48.40674000	-16.85531000
73.99999578	0.00000000	-52.31299000	-15.74188000
74.19999577	0.00000000	-57.29576000	-14.25320000
74.39999575	0.00000000	-62.31545000	-13.09670000
74.59999574	0.00000000	-65.76033000	-12.72146000
74.79999573	0.00000000	-67.01525000	-13.09670000
74.99999572	0.00000000	-66.22785000	-14.21014000
75.19999571	0.00000000	-63.93946000	-15.32357000
75.39999569	0.00000000	-60.45767000	-15.69267000
75.59999568	0.00000000	-57.01279000	-15.27436000
75.79999567	0.00000000	-54.26919000	-13.69956000
75.99999566	0.00000000	-52.73130000	-11.00517000
76.19999565	0.00000000	-52.68823000	-7.98474400
76.39999563	0.00000000	-53.80167000	-5.70866100
76.59999562	0.00000000	-55.33957000	-5.33341500
76.79999561	0.00000000	-56.87746000	-6.86515700
76.99999560	0.00000000	-58.03395000	-9.98400600
77.19999559	0.00000000	-58.45841000	-14.21014000
77.39999558	0.00000000	-58.50147000	-18.47933000
77.59999556	0.00000000	-58.50147000	-21.92421000
77.79999555	0.00000000	-58.50147000	-23.82505000
77.99999554	0.00000000	-58.54454000	-22.99459000
78.19999553	0.00000000	-58.91978000	-19.55585000
78.39999552	0.00000000	-59.66412000	-14.16708000
78.59999550	0.00000000	-60.03937000	-8.40305000
78.79999549	0.00000000	-60.03937000	-3.75246000
78.99999548	0.00000000	-59.57185000	-1.06422200
79.19999547	0.00000000	-58.03395000	-1.06422200
79.39999546	0.00000000	-55.75787000	-3.70939900
79.59999544	0.00000000	-53.85088000	-7.93553100
79.79999543	0.00000000	-52.68823000	-12.62918000
79.99999542	0.00000000	-52.68823000	-17.27362000
80.19999541	0.00000000	-53.85088000	-21.13066000
80.39999540	0.00000000	-55.80708000	-23.03765000
80.59999539	0.00000000	-58.50147000	-22.71161000
80.79999537	0.00000000	-61.15280000	-20.39247000
80.99999536	0.00000000	-62.73376000	-16.94759000
81.19999535	0.00000000	-63.10900000	-13.04749000
81.39999534	0.00000000	-62.35851000	-9.55954600
81.59999533	0.00000000	-60.41461000	-6.82209600
81.79999531	0.00000000	-58.12622000	-5.29035400
81.99999530	0.00000000	-55.75787000	-5.24729300
82.19999529	0.00000000	-53.89394000	-6.40378900
82.39999528	0.00000000	-53.10654000	-8.31077700
82.59999527	0.00000000	-53.85088000	-10.67298000
82.79999525	0.00000000	-55.33957000	-13.04749000
82.99999524	0.00000000	-56.92052000	-15.78494000
83.19999523	0.00000000	-58.50147000	-18.43627000
83.39999522	0.00000000	-59.99015000	-20.01722000
83.59999521	0.00000000	-60.77756000	-20.39247000
83.79999520	0.00000000	-60.41461000	-19.59892000
83.99999518	0.00000000	-59.70718000	-17.27977000
84.19999517	0.00000000	-58.87672000	-14.16092000
84.39999516	0.00000000	-58.12622000	-10.67298000
84.59999515	0.00000000	-57.33883000	-7.19734200
84.79999514	0.00000000	-56.96358000	-4.87204700
84.99999512	0.00000000	-56.92052000	-3.70939900
85.19999511	0.00000000	-56.92052000	-4.17076700
85.39999510	0.00000000	-56.92052000	-6.86515700
85.59999509	0.00000000	-56.92052000	-11.09129000
85.79999508	0.00000000	-56.92052000	-15.69882000
85.99999506	0.00000000	-56.92052000	-19.59892000
86.19999505	0.00000000	-56.96358000	-21.92421000
86.39999504	0.00000000	-57.33883000	-22.66240000
86.59999503	0.00000000	-58.12622000	-21.08760000
86.79999502	0.00000000	-58.91978000	-17.27362000
86.99999501	0.00000000	-60.08243000	-12.62918000
87.19999499	0.00000000	-61.15280000	-7.98474400
87.39999498	0.00000000	-61.15280000	-4.17076700
87.59999497	0.00000000	-60.03937000	-2.63902500
87.79999496	0.00000000	-58.50147000	-3.75246000
87.99999495	0.00000000	-56.92052000	-6.86515700
88.19999493	0.00000000	-55.38263000	-11.46653000
88.39999492	0.00000000	-54.26919000	-16.48622000
88.59999491	0.00000000	-54.22613000	-20.30020000
88.79999490	0.00000000	-54.96432000	-22.24409000
88.99999489	0.00000000	-55.80708000	-21.46284000
89.19999487	0.00000000	-57.33883000	-18.43627000
89.39999486	0.00000000	-59.19660000	-14.16708000
89.59999485	0.00000000	-59.99015000	-9.56569900
89.79999484	0.00000000	-60.08243000	-5.70866100
89.99999483	0.00000000	-60.03937000	-3.84473400
90.19999482	0.00000000	-59.61491000	-4.54601300
90.39999480	0.00000000	-58.50147000	-7.65255800
90.59999479	0.00000000	-57.33883000	-11.88484000
90.79999478	0.00000000	-56.54527000	-16.89837000
90.99999477	0.00000000	-55.80708000	-21.03838000
91.19999476	0.00000000	-55.80708000	-22.61934000
91.39999474	0.00000000	-56.50221000	-21.46284000
91.59999473	0.00000000	-56.87746000	-18.01796000
91.79999472	0.00000000	-56.92052000	-13.04749000
91.99999471	0.00000000	-56.92052000	-8.40305000
92.19999470	0.00000000	-56.92052000	-4.95816900
92.39999468	0.00000000	-56.92052000	-3.43257800
92.59999467	0.00000000	-56.96358000	-4.95816900
92.79999466	0.00000000	-57.33883000	-8.35998900
92.99999465	0.00000000	-58.12622000	-12.67224000
93.19999464	0.00000000	-58.87672000	-17.23056000
93.39999463	0.00000000	-59.66412000	-20.66314000
93.59999461	0.00000000	-59.99015000	-21.41363000
93.79999460	0.00000000	-59.66412000	-19.54970000
93.99999459	0.00000000	-58.83366000	-15.74188000
94.19999458	0.00000000	-57.66486000	-11.51575000
94.39999457	0.00000000	-55.71481000	-8.02780400
94.59999455	0.00000000	-53.85088000	-5.70866100
94.79999454	0.00000000	-52.68823000	-5.37647600
94.99999453	0.00000000	-52.68823000	-7.28346400
95.19999452	0.00000000	-53.85088000	-11.09129000
95.39999451	0.00000000	-55.80708000	-15.27436000
95.59999449	0.00000000	-58.54454000	-18.39321000
95.79999448	0.00000000	-61.62032000	-19.93110000
95.99999447	0.00000000	-64.27164000	-19.55585000
96.19999446	0.00000000	-65.38509000	-17.27977000
96.39999445	0.00000000	-64.27164000	-14.21014000
96.59999444	0.00000000	-61.62032000	-11.09744000
96.79999442	0.00000000	-58.45841000	-8.44611200
96.99999441	0.00000000	-54.96432000	-7.28346400
97.19999440	0.00000000	-51.52559000	-8.02780400
97.39999439	0.00000000	-49.56939000	-9.89173200
97.59999438	0.00000000	-49.15108000	-12.21087000
97.79999436	0.00000000	-49.98769000	-14.11786000
97.99999435	0.00000000	-52.73130000	-15.32357000
98.19999434	0.00000000	-56.92052000	-15.69267000
98.39999433	0.00000000	-61.15280000	-15.36663000
98.59999432	0.00000000	-64.27164000	-14.58538000
98.79999430	0.00000000	-65.85260000	-13.79183000
98.99999429	0.00000000	-65.85260000	-12.62918000
99.19999428	0.00000000	-64.27164000	-11.51575000
99.39999427	0.00000000	-61.19586000	-11.14050000
99.59999426	0.00000000	-57.33883000	-11.42347000
99.79999425	0.00000000	-53.85088000	-11.79257000
99.99999423	0.00000000	-51.10728000	-11.38041000
100.19999422	0.00000000	-49.61245000	-10.67298000
100.39999421	0.00000000	-49.98769000	-9.89173200
100.59999420	0.00000000	-52.26993000	-9.56569900
100.79999419	0.00000000	-55.33957000	-9.93479300
100.99999417	0.00000000	-58.45841000	-11.09744000
101.19999416	0.00000000	-61.15280000	-12.62918000
101.39999415	0.00000000	-62.73376000	-14.21014000
101.59999414	0.00000000	-63.15207000	-15.74188000
101.79999413	0.00000000	-62.77681000	-16.85531000
101.99999411	0.00000000	-61.57111000	-16.85531000
102.19999410	0.00000000	-59.66412000	-15.69882000
102.39999409	0.00000000	-57.29576000	-13.74262000
102.59999408	0.00000000	-55.00738000	-11.04823000
102.79999407	0.00000000	-53.06348000	-8.40305000
102.99999406	0.00000000	-52.31299000	-6.82209600
103.19999404	0.00000000	-52.64517000	-6.44685000
103.39999403	0.00000000	-53.85088000	-7.28346400
103.59999402	0.00000000	-55.75787000	-9.98400600
103.79999401	0.00000000	-58.08316000	-13.74262000
103.99999400	0.00000000	-59.99015000	-16.85531000
104.19999398	0.00000000	-61.19586000	-18.81152000
104.39999397	0.00000000	-61.57111000	-19.55585000
104.59999396	0.00000000	-61.15280000	-18.39321000
104.79999395	0.00000000	-59.66412000	-15.74188000
104.99999394	0.00000000	-57.75713000	-12.67224000
105.19999392	0.00000000	-56.54527000	-9.93479300
105.39999391	0.00000000	-55.38263000	-8.02780400
105.59999390	0.00000000	-54.64444000	-7.24040300
105.79999389	0.00000000	-55.00738000	-8.02780400
105.99999388	0.00000000	-55.75787000	-9.89173200
106.19999387	0.00000000	-56.92052000	-12.21087000
106.39999385	0.00000000	-58.08316000	-14.16092000
106.59999384	0.00000000	-58.83366000	-15.69882000
106.79999383	0.00000000	-59.19660000	-16.43701000
106.99999382	0.00000000	-58.45841000	-15.69882000
107.19999381	0.00000000	-57.33883000	-14.16092000
107.39999379	0.00000000	-56.54527000	-12.25394000
107.59999378	0.00000000	-55.75787000	-10.35310000
107.79999377	0.00000000	-55.43184000	-9.56569900
107.99999376	0.00000000	-55.75787000	-9.56569900
108.19999375	0.00000000	-56.54527000	-10.35310000
108.39999374	0.00000000	-57.33883000	-12.25394000
108.59999372	0.00000000	-58.50147000	-14.16092000
108.79999371	0.00000000	-59.61491000	-15.69882000
108.99999370	0.00000000	-59.99015000	-16.43701000
109.19999369	0.00000000	-59.61491000	-15.69882000
109.39999368	0.00000000	-58.45841000	-14.21014000
109.59999366	0.00000000	-56.96358000	-12.62918000
109.79999365	0.00000000	-55.80708000	-11.09744000
109.99999364	0.00000000	-55.38263000	-9.93479300
110.19999363	0.00000000	-55.38263000	-9.56569900
110.39999362	0.00000000	-55.75787000	-9.93479300
110.59999360	0.00000000	-56.54527000	-11.09744000
110.79999359	0.00000000	-57.29576000	-12.62918000
110.99999358	0.00000000	-58.12622000	-14.16092000
111.19999357	0.00000000	-58.83366000	-15.32357000
111.39999356	0.00000000	-59.24582000	-15.69267000
111.59999355	0.00000000	-58.87672000	-15.36663000
111.79999353	0.00000000	-58.50147000	-14.58538000
111.99999352	0.00000000	-58.08316000	-13.79183000
112.19999351	0.00000000	-57.29576000	-12.62918000
112.39999350	0.00000000	-56.54527000	-11.51575000
112.59999349	0.00000000	-55.75787000	-11.09129000
112.79999347	0.00000000	-55.43184000	-11.04823000
112.99999346	0.00000000	-55.75787000	-11.04823000
113.19999345	0.00000000	-56.50221000	-11.09129000
113.39999344	0.00000000	-56.87746000	-11.46653000
113.59999343	0.00000000	-56.92052000	-12.21087000
113.79999341	0.00000000	-56.92052000	-12.58612000
113.99999340	0.00000000	-56.92052000	-12.62918000
114.19999339	0.00000000	-56.92052000	-12.62918000
114.39999338	0.00000000	-56.92052000	-12.67224000
114.59999337	0.00000000	-56.92052000	-13.00443000
114.79999336	0.00000000	-56.92052000	-13.41658000
114.99999334	0.00000000	-56.92052000	-13.42274000
115.19999333	0.00000000	-56.92052000	-13.83489000
115.39999332	0.00000000	-56.92052000	-14.11786000
115.59999331	0.00000000	-56.92052000	-13.74262000
115.79999330	0.00000000	-56.92052000	-12.62918000
115.99999328	0.00000000	-56.92052000	-11.51575000
116.19999327	0.00000000	-56.96358000	-11.09129000
116.39999326	0.00000000	-57.33883000	-11.04823000
116.59999325	0.00000000	-58.03395000	-11.04823000
116.79999324	0.00000000	-58.08316000	-11.04823000
116.99999322	0.00000000	-57.71407000	-11.09129000
117.19999321	0.00000000	-57.70792000	-11.51575000
117.39999320	0.00000000	-57.25270000	-12.62918000
117.59999319	0.00000000	-56.54527000	-13.79183000
117.79999318	0.00000000	-55.75787000	-14.58538000
117.99999317	0.00000000	-55.38263000	-15.32357000
118.19999315	0.00000000	-55.38263000	-15.32357000
118.39999314	0.00000000	-55.75787000	-14.58538000
118.59999313	0.00000000	-56.54527000	-13.83489000
118.79999312	0.00000000	-57.33883000	-13.00443000
118.99999311	0.00000000	-58.50147000	-12.25394000
119.19999309	0.00000000	-59.61491000	-11.46653000
119.39999308	0.00000000	-59.99015000	-11.09129000
119.59999307	0.00000000	-59.66412000	-11.04823000
119.79999306	0.00000000	-58.87672000	-11.09129000
119.99999305	0.00000000	-58.08316000	-11.46653000
120.19999303	0.00000000	-56.87746000	-12.25394000
120.39999302	0.00000000	-55.38263000	-13.00443000
120.59999301	0.00000000	-54.22613000	-13.79183000
120.79999300	0.00000000	-53.85088000	-14.16708000
120.99999299	0.00000000	-54.22613000	-14.21014000
121.19999298	0.00000000	-55.38263000	-14.21014000
121.39999296	0.00000000	-56.87746000	-14.21014000
121.59999295	0.00000000	-58.08316000	-14.16708000
121.79999294	0.00000000	-58.87672000	-13.79183000
121.99999293	0.00000000	-59.66412000	-13.04749000
122.19999292	0.00000000	-59.99015000	-12.62918000
122.39999290	0.00000000	-59.66412000	-12.21087000
122.59999289	0.00000000	-58.87672000	-11.46653000
122.79999288	0.00000000	-58.08316000	-11.09129000
122.99999287	0.00000000	-56.92052000	-11.04823000
123.19999286	0.00000000	-55.80708000	-11.09129000
123.39999284	0.00000000	-55.38263000	-11.46653000
123.59999283	0.00000000	-55.33957000	-12.21087000
123.79999282	0.00000000	-55.33957000	-12.62918000
123.99999281	0.00000000	-55.38263000	-13.04749000
124.19999280	0.00000000	-55.75787000	-13.79183000
124.39999279	0.00000000	-56.54527000	-14.16708000
124.59999277	0.00000000	-57.29576000	-14.16708000
124.79999276	0.00000000	-58.12622000	-13.79183000
124.99999275	0.00000000	-58.83366000	-13.04749000
125.19999274	0.00000000	-59.24582000	-12.62918000
125.39999273	0.00000000	-58.87672000	-12.21087000
125.59999271	0.00000000	-58.50147000	-11.46653000
125.79999270	0.00000000	-58.03395000	-11.09129000
125.99999269	0.00000000	-56.92052000	-11.04823000
126.19999268	0.00000000	-55.75787000	-11.04823000
126.39999267	0.00000000	-55.00738000	-11.09129000
126.59999265	0.00000000	-54.59522000	-11.46653000
126.79999264	0.00000000	-55.00738000	-12.21087000
126.99999263	0.00000000	-55.71481000	-12.62918000
127.19999262	0.00000000	-56.54527000	-13.04749000
127.39999261	0.00000000	-57.33883000	-13.79183000
127.59999260	0.00000000	-58.50147000	-14.11786000
127.79999258	0.00000000	-59.57185000	-13.79183000
127.99999257	0.00000000	-59.61491000	-13.04749000
128.19999256	0.00000000	-58.87672000	-12.62918000
128.39999255	0.00000000	-58.08316000	-12.21087000
128.59999254	0.00000000	-56.92052000	-11.51575000
128.79999252	0.00000000	-55.80708000	-11.51575000
128.99999251	0.00000000	-55.38263000	-12.21087000
129.19999250	0.00000000	-55.33957000	-12.58612000
129.39999249	0.00000000	-55.38263000	-12.67224000
129.59999248	0.00000000	-55.80708000	-13.00443000
129.79999246	0.00000000	-56.92052000	-13.37352000
129.99999245	0.00000000	-58.03395000	-13.00443000
130.19999244	0.00000000	-58.45841000	-12.67224000
130.39999243	0.00000000	-58.50147000	-12.62918000
130.59999242	0.00000000	-58.45841000	-12.58612000
130.79999241	0.00000000	-58.08316000	-12.25394000
130.99999239	0.00000000	-57.29576000	-11.88484000
131.19999238	0.00000000	-56.54527000	-12.25394000
131.39999237	0.00000000	-55.75787000	-12.58612000
131.59999236	0.00000000	-55.38263000	-12.62918000
131.79999235	0.00000000	-55.38263000	-12.67224000
131.99999233	0.00000000	-55.75787000	-13.04749000
132.19999232	0.00000000	-56.50221000	-13.79183000
132.39999231	0.00000000	-56.92052000	-14.11786000
132.59999230	0.00000000	-57.33883000	-13.79183000
132.79999229	0.00000000	-58.08316000	-13.04749000
132.99999227	0.00000000	-58.40920000	-12.62918000
133.19999226	0.00000000	-58.08316000	-12.21087000
133.39999225	0.00000000	-57.33883000	-11.46653000
133.59999224	0.00000000	-56.96358000	-11.09129000
133.79999223	0.00000000	-56.92052000	-11.09129000
133.99999222	0.00000000	-56.92052000	-11.46653000
134.19999220	0.00000000	-56.92052000	-12.21087000
134.39999219	0.00000000	-56.92052000	-12.62918000
134.59999218	0.00000000	-56.92052000	-13.04749000
134.79999217	0.00000000	-56.92052000	-13.79183000
134.99999216	0.00000000	-56.87746000	-14.16708000
135.19999214	0.00000000	-56.54527000	-14.21014000
135.39999213	0.00000000	-56.17618000	-14.16708000
135.59999212	0.00000000	-56.54527000	-13.79183000
135.79999211	0.00000000	-56.87746000	-13.00443000
135.99999210	0.00000000	-56.96358000	-12.25394000
136.19999208	0.00000000	-57.33883000	-11.46653000
136.39999207	0.00000000	-58.08316000	-11.09129000
136.59999206	0.00000000	-58.45841000	-11.09129000
136.79999205	0.00000000	-58.45841000	-11.46653000
136.99999204	0.00000000	-58.03395000	-12.21087000
137.19999203	0.00000000	-56.96358000	-12.58612000
137.39999201	0.00000000	-56.17618000	-12.67224000
137.59999200	0.00000000	-56.12696000	-13.04749000
137.79999199	0.00000000	-55.71481000	-13.79183000
137.99999198	0.00000000	-55.38263000	-14.16708000
138.19999197	0.00000000	-55.38263000	-14.16708000
138.39999195	0.00000000	-55.75787000	-13.79183000
138.59999194	0.00000000	-56.54527000	-13.04749000
138.79999193	0.00000000	-57.29576000	-12.62918000
138.99999192	0.00000000	-58.08316000	-12.21087000
139.19999191	0.00000000	-58.40920000	-11.46653000
139.39999189	0.00000000	-58.08316000	-11.09129000
139.59999188	0.00000000	-57.33883000	-11.04823000
139.79999187	0.00000000	-56.92052000	-11.04823000
139.99999186	0.00000000	-56.50221000	-11.09129000
140.19999185	0.00000000	-55.75787000	-11.46653000
140.39999184	0.00000000	-55.43184000	-12.25394000
140.59999182	0.00000000	-55.75787000	-13.00443000
140.79999181	0.00000000	-56.50221000	-13.79183000
140.99999180	0.00000000	-56.87746000	-14.16708000
141.19999179	0.00000000	-56.92052000	-14.16708000
141.39999178	0.00000000	-56.92052000	-13.79183000
141.59999176	0.00000000	-56.92052000	-13.04749000
141.79999175	0.00000000	-56.92052000	-12.62918000
141.99999174	0.00000000	-56.92052000	-12.21087000
142.19999173	0.00000000	-56.92052000	-11.46653000
142.39999172	0.00000000	-56.87746000	-11.09129000
142.59999170	0.00000000	-56.54527000	-11.04823000
142.79999169	0.00000000	-56.17618000	-11.09129000
142.99999168	0.00000000	-56.54527000	-11.51575000
143.19999167	0.00000000	-56.87746000	-12.62918000
143.39999166	0.00000000	-56.92052000	-13.79183000
143.59999165	0.00000000	-56.92052000	-14.53617000
143.79999163	0.00000000	-56.92052000	-14.94833000
143.99999162	0.00000000	-56.92052000	-14.53617000
144.19999161	0.00000000	-56.92052000	-13.83489000
144.39999160	0.00000000	-56.87746000	-13.00443000
144.59999159	0.00000000	-56.50221000	-12.25394000
144.79999157	0.00000000	-55.75787000	-11.46653000
144.99999156	0.00000000	-55.43184000	-11.09129000
145.19999155	0.00000000	-55.75787000	-11.04823000
145.39999154	0.00000000	-56.50221000	-11.09129000
145.59999153	0.00000000	-56.87746000	-11.46653000
145.79999151	0.00000000	-56.92052000	-12.25394000
145.99999150	0.00000000	-56.92052000	-13.00443000
146.19999149	0.00000000	-56.92052000	-13.79183000
146.39999148	0.00000000	-56.92052000	-14.16708000
146.59999147	0.00000000	-56.92052000	-14.16708000
146.79999146	0.00000000	-56.87746000	-13.79183000
146.99999144	0.00000000	-56.50221000	-13.04749000
147.19999143	0.00000000	-55.75787000	-12.62918000
147.39999142	0.00000000	-55.38263000	-12.21087000
147.59999141	0.00000000	-55.38263000	-11.46653000
147.79999140	0.00000000	-55.75787000	-11.09129000
147.99999138	0.00000000	-56.50221000	-11.04823000
148.19999137	0.00000000	-56.87746000	-11.09129000
148.39999136	0.00000000	-56.92052000	-11.46653000
148.59999135	0.00000000	-56.92052000	-12.21087000
148.79999134	0.00000000	-56.92052000	-12.58612000
148.99999132	0.00000000	-56.92052000	-12.67224000
149.19999131	0.00000000	-56.87746000	-13.00443000
149.39999130	0.00000000	-56.50221000	-13.37352000
149.59999129	0.00000000	-55.75787000	-13.00443000
149.79999128	0.00000000	-55.38263000	-12.62918000
149.99999127	0.00000000	-55.33957000	-12.25394000
150.19999125	0.00000000	-55.33957000	-11.84178000
150.39999124	0.00000000	-55.38263000	-11.83563000
150.59999123	0.00000000	-55.75787000	-11.42347000
150.79999122	0.00000000	-56.50221000	-11.14050000
150.99999121	0.00000000	-56.87746000	-11.46653000
151.19999119	0.00000000	-56.92052000	-12.21087000
151.39999118	0.00000000	-56.92052000	-12.58612000
151.59999117	0.00000000	-56.92052000	-12.62918000
151.79999116	0.00000000	-56.92052000	-12.62918000
151.99999115	0.00000000	-56.92052000	-12.62918000
152.19999113	0.00000000	-56.92052000	-12.67224000
152.39999112	0.00000000	-56.87746000	-13.00443000
152.59999111	0.00000000	-56.50221000	-13.37352000
152.79999110	0.00000000	-55.75787000	-13.00443000
152.99999109	0.00000000	-55.38263000	-12.67224000
153.19999108	0.00000000	-55.38263000	-12.62918000
153.39999106	0.00000000	-55.75787000	-12.58612000
153.59999105	0.00000000	-56.50221000	-12.21087000
153.79999104	0.00000000	-56.87746000	-11.46653000
153.99999103	0.00000000	-56.96358000	-11.14050000
154.19999102	0.00000000	-57.29576000	-11.46653000
154.39999100	0.00000000	-57.70792000	-12.21087000
154.59999099	0.00000000	-57.67101000	-12.58612000
154.79999098	0.00000000	-57.70792000	-12.62918000
154.99999097	0.00000000	-57.25270000	-12.62918000
155.19999096	0.00000000	-56.54527000	-12.62918000
155.39999094	0.00000000	-55.75787000	-12.62918000
155.59999093	0.00000000	-55.38263000	-12.62918000
155.79999092	0.00000000	-55.33957000	-12.62918000
155.99999091	0.00000000	-55.33957000	-12.62918000
156.19999090	0.00000000	-55.33957000	-12.58612000
156.39999089	0.00000000	-55.38263000	-12.21087000
156.59999087	0.00000000	-55.75787000	-11.46653000
156.79999086	0.00000000	-56.50221000	-11.09129000
156.99999085	0.00000000	-56.87746000	-11.04823000
157.19999084	0.00000000	-56.92052000	-11.04823000
157.39999083	0.00000000	-56.92052000	-11.09129000
157.59999081	0.00000000	-56.92052000	-11.46653000
157.79999080	0.00000000	-56.92052000	-12.25394000
157.99999079	0.00000000	-56.87746000	-12.96137000
158.19999078	0.00000000	-56.50221000	-13.37352000
158.39999077	0.00000000	-55.75787000	-13.00443000
158.59999075	0.00000000	-55.38263000	-12.67224000
158.79999074	0.00000000	-55.38263000	-12.62918000
158.99999073	0.00000000	-55.71481000	-12.58612000
159.19999072	0.00000000	-56.12696000	-12.21087000
159.39999071	0.00000000	-56.13312000	-11.46653000
159.59999070	0.00000000	-56.54527000	-11.09129000
159.79999068	0.00000000	-56.87746000	-11.04823000
159.99999067	0.00000000	-56.87746000	-11.04823000
160.19999066	0.00000000	-56.54527000	-11.04823000
160.39999065	0.00000000	-56.17618000	-11.09129000
160.59999064	0.00000000	-56.54527000	-11.46653000
160.79999062	0.00000000	-56.87746000	-12.21087000
160.99999061	0.00000000	-56.92052000	-12.58612000
161.19999060	0.00000000	-56.92052000	-12.62918000
161.39999059	0.00000000	-56.87746000	-12.62918000
161.59999058	0.00000000	-56.50221000	-12.62918000
161.79999056	0.00000000	-55.75787000	-12.62918000
161.99999055	0.00000000	-55.38263000	-12.62918000
162.19999054	0.00000000	-55.33957000	-12.62918000
162.39999053	0.00000000	-55.38263000	-12.58612000
162.59999052	0.00000000	-55.75787000	-12.21087000
162.79999051	0.00000000	-56.50221000	-11.46653000
162.99999049	0.00000000	-56.87746000	-11.09129000
163.19999048	0.00000000	-56.92052000	-11.09129000
163.39999047	0.00000000	-56.92052000	-11.46653000
163.59999046	0.00000000	-56.92052000	-12.21087000
163.79999045	0.00000000	-56.92052000	-12.58612000
163.99999043	0.00000000	-56.92052000	-12.62918000
164.19999042	0.00000000	-56.92052000	-12.62918000
164.39999041	0.00000000	-56.87746000	-12.62918000
164.59999040	0.00000000	-56.50221000	-12.62918000
164.79999039	0.00000000	-55.75787000	-12.62918000
164.99999037	0.00000000	-55.38263000	-12.62918000
165.19999036	0.00000000	-55.33957000	-12.62918000
165.39999035	0.00000000	-55.33957000	-12.62918000
165.59999034	0.00000000	-55.38263000	-12.58612000
165.79999033	0.00000000	-55.75787000	-12.25394000
165.99999032	0.00000000	-56.50221000	-11.88484000
166.19999030	0.00000000	-56.87746000	-12.25394000
166.39999029	0.00000000	-56.92052000	-12.58612000
166.59999028	0.00000000	-56.92052000	-12.62918000
166.79999027	0.00000000	-56.92052000	-12.62918000
166.99999026	0.00000000	-56.92052000	-12.62918000
167.19999024	0.00000000	-56.87746000	-12.62918000
167.39999023	0.00000000	-56.50221000	-12.62918000
167.59999022	0.00000000	-55.75787000	-12.62918000
167.79999021	0.00000000	-55.43184000	-12.62918000
167.99999020	0.00000000	-55.71481000	-12.62918000
168.19999018	0.00000000	-56.08390000	-12.62918000
168.39999017	0.00000000	-55.71481000	-12.62918000
168.59999016	0.00000000	-55.43184000	-12.62918000
168.79999015	0.00000000	-55.75787000	-12.62918000
168.99999014	0.00000000	-56.45300000	-12.62918000
169.19999013	0.00000000	-56.50221000	-12.62918000
169.39999011	0.00000000	-56.17618000	-12.62918000
169.59999010	0.00000000	-56.54527000	-12.62918000
169.79999009	0.00000000	-56.87746000	-12.62918000
169.99999008	0.00000000	-56.92052000	-12.62918000
170.19999007	0.00000000	-56.87746000	-12.62918000
170.39999005	0.00000000	-56.54527000	-12.62918000
170.59999004	0.00000000	-56.13312000	-12.62918000
170.79999003	0.00000000	-56.12696000	-12.62918000
170.99999002	0.00000000	-55.71481000	-12.62918000
171.19999001	0.00000000	-55.43184000	-12.62918000
171.39998999	0.00000000	-55.71481000	-12.62918000
171.59998998	0.00000000	-56.08390000	-12.62918000
171.79998997	0.00000000	-55.71481000	-12.62918000
171.99998996	0.00000000	-55.38263000	-12.58612000
172.19998995	0.00000000	-55.33957000	-12.21087000
172.39998994	0.00000000	-55.38263000	-11.51575000
172.59998992	0.00000000	-55.75787000	-11.46653000
172.79998991	0.00000000	-56.45300000	-11.83563000
172.99998990	0.00000000	-56.50221000	-11.79872000
173.19998989	0.00000000	-56.17618000	-11.87869000
173.39998988	0.00000000	-56.54527000	-11.84178000
173.59998986	0.00000000	-56.82825000	-12.25394000
173.79998985	0.00000000	-56.50221000	-12.58612000
173.99998984	0.00000000	-55.80708000	-12.62918000
174.19998983	0.00000000	-55.75787000	-12.62918000
174.39998982	0.00000000	-56.08390000	-12.62918000
174.59998980	0.00000000	-55.75787000	-12.62918000
174.79998979	0.00000000	-55.80708000	-12.62918000
174.99998978	0.00000000	-56.50221000	-12.62918000
175.19998977	0.00000000	-56.87746000	-12.62918000
175.39998976	0.00000000	-56.92052000	-12.62918000
175.59998975	0.00000000	-56.92052000	-12.62918000
175.79998973	0.00000000	-56.87746000	-12.62918000
175.99998972	0.00000000	-56.50221000	-12.62918000
176.19998971	0.00000000	-55.75787000	-12.62918000
176.39998970	0.00000000	-55.38263000	-12.62918000
176.59998969	0.00000000	-55.33957000	-12.62918000
176.79998967	0.00000000	-55.38263000	-12.58612000
176.99998966	0.00000000	-55.71481000	-12.25394000
177.19998965	0.00000000	-56.08390000	-11.88484000
177.39998964	0.00000000	-55.71481000	-12.25394000
177.59998963	0.00000000	-55.38263000	-12.53691000
177.79998961	0.00000000	-55.38263000	-12.25394000
177.99998960	0.00000000	-55.71481000	-11.88484000
178.19998959	0.00000000	-56.08390000	-12.21087000
178.39998958	0.00000000	-55.75787000	-12.16166000
178.59998957	0.00000000	-55.75787000	-11.46653000
178.79998956	0.00000000	-56.08390000	-11.09129000
178.99998954	0.00000000	-55.71481000	-11.04823000
179.19998953	0.00000000	-55.38263000	-11.04823000
179.39998952	0.00000000	-55.33957000	-11.09129000
179.59998951	0.00000000	-55.33957000	-11.46653000
179.79998950	0.00000000	-55.33957000	-12.21087000
179.99998948	0.00000000	-55.33957000	-12.58612000
180.19998947	0.00000000	-55.33957000	-12.62918000
180.39998946	0.00000000	-55.33957000	-12.62918000
180.59998945	0.00000000	-55.38263000	-12.58612000
180.79998944	0.00000000	-55.71481000	-12.25394000
180.99998942	0.00000000	-56.08390000	-11.88484000
181.19998941	0.00000000	-55.75787000	-12.21087000
181.39998940	0.00000000	-55.75787000	-12.16166000
181.59998939	0.00000000	-56.08390000	-11.46653000
181.79998938	0.00000000	-55.71481000	-11.14050000
181.99998937	0.00000000	-55.38263000	-11.46653000
182.19998935	0.00000000	-55.33957000	-12.16166000
182.39998934	0.00000000	-55.33957000	-12.21087000
182.59998933	0.00000000	-55.33957000	-11.88484000
182.79998932	0.00000000	-55.33957000	-12.25394000
182.99998931	0.00000000	-55.33957000	-12.58612000
183.19998929	0.00000000	-55.33957000	-12.62918000
183.39998928	0.00000000	-55.33957000	-12.62918000
183.59998927	0.00000000	-55.33957000	-12.62918000
183.79998926	0.00000000	-55.33957000	-12.62918000
183.99998925	0.00000000	-55.38263000	-12.58612000
184.19998923	0.00000000	-55.75787000	-12.25394000
184.39998922	0.00000000	-56.50221000	-11.84178000
184.59998921	0.00000000	-56.82825000	-11.83563000
184.79998920	0.00000000	-56.54527000	-11.46653000
184.99998919	0.00000000	-56.13312000	-11.46653000
185.19998918	0.00000000	-56.12696000	-11.83563000
185.39998916	0.00000000	-55.71481000	-11.84178000
185.59998915	0.00000000	-55.38263000	-12.25394000
185.79998914	0.00000000	-55.33957000	-12.62918000
185.99998913	0.00000000	-55.33957000	-13.04749000
186.19998912	0.00000000	-55.33957000	-13.74262000
186.39998910	0.00000000	-55.33957000	-13.74262000
186.59998909	0.00000000	-55.38263000	-13.04749000
186.79998908	0.00000000	-55.75787000	-12.67224000
186.99998907	0.00000000	-56.50221000	-12.58612000
187.19998906	0.00000000	-56.87746000	-12.21087000
187.39998904	0.00000000	-56.92052000	-11.46653000
187.59998903	0.00000000	-56.92052000	-11.09129000
187.79998902	0.00000000	-56.87746000	-11.04823000
187.99998901	0.00000000	-56.50221000	-11.09129000
188.19998900	0.00000000	-55.75787000	-11.46653000
188.39998899	0.00000000	-55.38263000	-12.21087000
188.59998897	0.00000000	-55.33957000	-12.58612000
188.79998896	0.00000000	-55.33957000	-12.62918000
188.99998895	0.00000000	-55.33957000	-12.62918000
189.19998894	0.00000000	-55.33957000	-12.62918000
189.39998893	0.00000000	-55.33957000	-12.62918000
189.59998891	0.00000000	-55.33957000	-12.62918000
189.79998890	0.00000000	-55.33957000	-12.58612000
189.99998889	0.00000000	-55.33957000	-12.21087000
190.19998888	0.00000000	-55.38263000	-11.51575000
190.39998887	0.00000000	-55.71481000	-11.46653000
190.59998885	0.00000000	-56.08390000	-11.79257000
190.79998884	0.00000000	-55.71481000	-11.42347000
190.99998883	0.00000000	-55.38263000	-11.09129000
191.19998882	0.00000000	-55.33957000	-11.04823000
191.39998881	0.00000000	-55.33957000	-11.09129000
191.59998880	0.00000000	-55.33957000	-11.46653000
191.79998878	0.00000000	-55.33957000	-12.21087000
191.99998877	0.00000000	-55.33957000	-12.58612000
192.19998876	0.00000000	-55.33957000	-12.62918000
192.39998875	0.00000000	-55.33957000	-12.62918000
192.59998874	0.00000000	-55.33957000	-12.62918000
192.79998872	0.00000000	-55.33957000	-12.62918000
192.99998871	0.00000000	-55.33957000	-12.62918000
193.19998870	0.00000000	-55.33957000	-12.62918000
193.39998869	0.00000000	-55.33957000	-12.58612000
193.59998868	0.00000000	-55.33957000	-12.21087000
193.79998866	0.00000000	-55.33957000	-11.46653000
193.99998865	0.00000000	-55.33957000	-11.09129000
194.19998864	0.00000000	-55.33957000	-11.09129000
194.39998863	0.00000000	-55.33957000	-11.42347000
194.59998862	0.00000000	-55.33957000	-11.83563000
194.79998861	0.00000000	-55.33957000	-11.84178000
194.99998859	0.00000000	-55.33957000	-12.25394000
195.19998858	0.00000000	-55.33957000	-12.58612000
195.39998857	0.00000000	-55.33957000	-12.62918000
195.59998856	0.00000000	-55.33957000	-12.62918000
195.79998855	0.00000000	-55.33957000	-12.62918000
195.99998853	0.00000000	-55.33957000	-12.62918000
