Time	Channel A	Channel B	Channel C
(us)	(V)	(mV)	(mV)

-4.59999956	0.00000000	-94.86958000	-30.00123000
-4.39999957	0.00000000	-94.91264000	-30.00123000
-4.19999958	0.00000000	-95.24483000	-30.00123000
-3.99999959	0.00000000	-95.61392000	-30.00123000
-3.79999960	0.00000000	-95.28789000	-30.00123000
-3.59999962	0.00000000	-95.28789000	-30.00123000
-3.39999963	0.00000000	-95.61392000	-30.00123000
-3.19999964	0.00000000	-95.28789000	-30.00123000
-2.99999965	0.00000000	-95.28789000	-30.00123000
-2.79999966	0.00000000	-95.61392000	-30.00123000
-2.59999968	0.00000000	-95.24483000	-30.00123000
-2.39999969	0.00000000	-94.91264000	-30.00123000
-2.19999970	0.00000000	-94.86958000	-30.00123000
-1.99999971	0.00000000	-94.86958000	-30.00123000
-1.79999972	0.00000000	-94.86958000	-30.00123000
-1.59999973	0.00000000	-94.86958000	-30.00123000
-1.39999975	0.00000000	-94.91264000	-30.00123000
-1.19999976	0.00000000	-95.24483000	-30.00123000
-0.99999977	0.00000000	-95.61392000	-30.00123000
-0.79999978	0.00000000	-95.24483000	-30.00123000
-0.59999979	0.00000000	-94.91264000	-30.00123000
-0.39999981	0.15871060	-94.86958000	-30.00123000
-0.19999982	0.47736220	-94.91264000	-30.00123000
0.00000017	0.79601380	-95.24483000	-30.00123000
0.20000016	0.95533960	-95.61392000	-30.00123000
0.40000015	0.95533960	-95.24483000	-30.00123000
0.60000013	0.47736220	-94.91264000	-30.00123000
0.80000012	-0.15871060	-94.86958000	-30.00123000
1.00000011	-1.11466500	-94.86958000	-30.00123000
1.20000010	-2.07062000	-94.86958000	-30.00123000
1.40000009	-2.70792300	-94.86958000	-30.00123000
1.60000008	-2.70792300	-94.91264000	-30.00123000
1.80000006	-1.75196900	-95.24483000	-30.00123000
2.00000005	-0.15871060	-95.61392000	-30.00123000
2.20000004	1.91129400	-95.24483000	-30.00123000
2.40000003	3.98191400	-94.96185000	-30.00123000
2.60000002	5.25652100	-95.28789000	-30.04429000
2.80000000	5.25652100	-95.98302000	-30.37647000
2.99999999	3.82258900	-96.03223000	-30.73942000
3.19999998	0.95533960	-95.66313000	-30.41954000
3.39999997	-2.38927200	-95.65698000	-30.41954000
3.59999996	-5.57517200	-95.24483000	-30.73942000
3.79999994	-7.64579200	-94.91264000	-30.32726000
3.99999993	-7.80511800	-94.86958000	-29.66904000
4.19999992	-6.05315000	-94.86958000	-29.21383000
4.39999991	-2.54859700	-94.91264000	-29.25074000
4.59999990	1.91129400	-95.24483000	-29.21383000
4.79999989	6.05315000	-95.65698000	-29.66904000
4.99999987	8.76107300	-95.66313000	-30.37647000
5.19999986	9.39837600	-96.07529000	-31.15772000
5.39999985	7.64579200	-96.40748000	-31.48376000
5.59999984	3.98191400	-96.40748000	-31.20078000
5.79999983	-0.79601380	-96.03223000	-30.79478000
5.99999981	-5.25652100	-95.28789000	-30.78248000
6.19999980	-8.44242100	-94.91264000	-30.32726000
6.39999979	-9.39837600	-94.86958000	-29.66904000
6.59999978	-8.12377000	-94.86958000	-29.21383000
6.79999977	-4.77854300	-94.86958000	-29.20767000
6.99999975	-0.63668800	-94.86958000	-28.83858000
7.19999974	3.66326300	-94.91264000	-28.88779000
7.39999973	6.69045300	-95.24483000	-29.58292000
7.59999972	7.80511800	-95.65698000	-29.95817000
7.79999971	7.00848900	-95.62007000	-30.00123000
7.99999970	4.61921700	-95.65698000	-30.00123000
8.19999968	1.27399100	-95.24483000	-30.00123000
8.39999967	-1.91129400	-94.91264000	-30.00123000
8.59999966	-4.14124000	-94.91264000	-30.00123000
8.79999965	-5.25652100	-95.24483000	-30.00123000
8.99999964	-4.77854300	-95.61392000	-30.00123000
9.19999962	-3.34522600	-95.24483000	-30.00123000
9.39999961	-1.43331700	-94.91264000	-30.00123000
9.59999960	0.47736220	-94.86958000	-30.00123000
9.79999959	1.91129400	-94.86958000	-30.00123000
9.99999958	2.54859700	-94.86958000	-30.00123000
10.19999956	2.38927200	-94.86958000	-30.00123000
10.39999955	1.75196900	-94.86958000	-30.00123000
10.59999954	0.79601380	-94.86958000	-30.00123000
10.79999953	0.00000000	-94.86958000	-30.00123000
10.99999952	-0.63668800	-94.86958000	-30.00123000
11.19999951	-0.95533960	-94.86958000	-30.00123000
11.39999949	-0.95533960	-94.86958000	-30.00123000
11.59999948	-0.79601380	-94.86958000	-29.95817000
11.79999947	-0.63668800	-94.86958000	-29.62598000
11.99999946	-0.15871060	-94.86958000	-29.25689000
12.19999945	-0.15871060	-94.86958000	-29.62598000
12.39999943	-0.15871060	-94.86958000	-29.95817000
12.59999942	0.00000000	-94.86958000	-30.00123000
12.79999941	0.00000000	-94.86958000	-30.00123000
12.99999940	0.00000000	-94.86958000	-30.00123000
13.19999939	0.00000000	-94.86958000	-30.00123000
13.39999937	0.00000000	-94.86958000	-30.00123000
13.59999936	0.00000000	-94.86958000	-30.00123000
13.79999935	0.00000000	-94.86958000	-30.00123000
13.99999934	-0.15871060	-94.86958000	-30.00123000
14.19999933	-0.15871060	-94.86958000	-30.00123000
14.39999932	-0.15871060	-94.91264000	-30.00123000
14.59999930	-0.15871060	-95.24483000	-30.00123000
14.79999929	0.00000000	-95.61392000	-30.00123000
14.99999928	0.00000000	-95.24483000	-30.00123000
15.19999927	0.00000000	-94.91264000	-30.00123000
15.39999926	0.00000000	-94.86958000	-30.00123000
15.59999924	0.00000000	-94.86958000	-30.00123000
15.79999923	0.00000000	-94.86958000	-30.00123000
15.99999922	0.00000000	-94.86958000	-30.00123000
16.19999921	0.00000000	-94.86958000	-30.00123000
16.39999920	-0.15871060	-94.86958000	-30.00123000
16.59999919	-0.15871060	-94.86958000	-30.00123000
16.79999917	-0.15871060	-94.82652000	-30.00123000
16.99999916	0.00000000	-94.45127000	-30.00123000
17.19999915	0.00000000	-93.70693000	-30.00123000
17.39999914	0.00000000	-93.33169000	-30.00123000
17.59999913	0.00000000	-93.33169000	-30.00123000
17.79999911	0.00000000	-93.70693000	-30.00123000
17.99999910	0.00000000	-94.53739000	-30.00123000
18.19999909	0.00000000	-95.70620000	-30.00123000
18.39999908	0.00000000	-97.65624000	-30.00123000
18.59999907	0.00000000	-99.52632000	-30.00123000
18.79999905	0.00000000	-100.68900000	-30.00123000
18.99999904	0.00000000	-100.68900000	-30.00123000
19.19999903	0.00000000	-99.47710000	-30.00123000
19.39999902	0.00000000	-97.14566000	-30.00123000
19.59999901	0.00000000	-93.62081000	-30.00123000
19.79999900	0.00000000	-89.79453000	-30.00123000
19.99999898	0.00000000	-86.26968000	-30.00123000
20.19999897	0.00000000	-84.03050000	-30.00123000
20.39999896	0.00000000	-83.70448000	-30.00123000
20.59999895	0.00000000	-86.49113000	-30.00123000
20.79999894	0.00000000	-92.26131000	-30.00123000
20.99999892	-0.15871060	-99.61245000	-30.00123000
21.19999891	0.00000000	-107.01280000	-30.00123000
21.39999890	0.00000000	-113.15820000	-30.00123000
21.59999889	0.00000000	-116.50470000	-30.00123000
21.79999888	0.00000000	-114.88070000	-30.00123000
21.99999886	0.00000000	-107.90480000	-30.00123000
22.19999885	0.00000000	-97.05954000	-30.00123000
22.39999884	0.00000000	-84.27042000	-30.00123000
22.59999883	0.00000000	-72.35482000	-30.00123000
22.79999882	0.00000000	-64.30241000	-30.00123000
22.99999881	0.00000000	-62.85679000	-29.95817000
23.19999879	0.00000000	-69.08833000	-29.58292000
23.39999878	0.00000000	-82.25885000	-28.83858000
23.59999877	0.00000000	-99.66166000	-28.46333000
23.79999876	0.00000000	-117.39050000	-28.42027000
23.99999875	0.00000000	-131.29920000	-28.42027000
24.19999873	0.00000000	-137.77680000	-28.46333000
24.39999872	0.00000000	-134.97780000	-28.88779000
24.59999871	0.00000000	-122.18870000	-30.04429000
24.79999870	0.00000000	-102.13460000	-31.57603000
24.99999869	0.00000000	-79.70595000	-33.11393000
25.19999867	0.00000000	-59.65182000	-34.27042000
25.39999866	0.00000000	-46.94882000	-34.60261000
25.59999865	0.00000000	-45.08489000	-33.80905000
25.79999864	0.00000000	-54.71825000	-31.48991000
25.99999863	0.00000000	-74.07111000	-28.37721000
26.19999862	0.00000000	-98.36368000	-24.84621000
26.39999860	0.00000000	-122.27480000	-21.03838000
26.59999859	0.00000000	-139.72070000	-18.38706000
26.79999858	0.00000000	-147.08410000	-18.05487000
26.99999857	0.00000000	-143.53470000	-20.38632000
27.19999856	0.00000000	-128.42030000	-25.48597000
27.39999854	0.00000000	-105.33960000	-32.36959000
27.59999853	0.00000000	-80.30265000	-39.79454000
27.79999852	0.00000000	-59.37500000	-45.89690000
27.99999851	0.00000000	-47.36097000	-49.74163000
28.19999850	0.00000000	-45.74311000	-49.19414000
28.39999848	0.00000000	-54.99508000	-43.79921000
28.59999847	0.00000000	-72.35482000	-34.09203000
28.79999846	0.00000000	-93.66387000	-22.19488000
28.99999845	0.00000000	-114.88070000	-10.99901000
29.19999844	0.00000000	-130.69640000	-3.28494100
29.39999843	0.00000000	-137.40160000	-0.59055110
29.59999841	0.00000000	-134.79330000	-3.74630900
29.79999840	0.00000000	-124.36640000	-12.70915000
29.99999839	0.00000000	-108.50150000	-26.27953000
30.19999838	0.00000000	-90.72958000	-42.03371000
30.39999837	0.00000000	-74.86466000	-55.87475000
30.59999835	0.00000000	-64.34547000	-64.01328000
30.79999834	0.00000000	-60.76525000	-65.16978000
30.99999833	0.00000000	-63.88410000	-58.90133000
31.19999832	0.00000000	-73.14838000	-45.79847000
31.39999831	0.00000000	-86.63877000	-28.79552000
31.59999829	0.00000000	-100.55360000	-11.78642000
31.79999828	0.00000000	-112.22930000	2.10383800
31.99999827	0.00000000	-119.62350000	9.39345400
32.19999826	0.00000000	-121.57970000	8.28001900
32.39999825	0.00000000	-118.08560000	-0.59670270
32.59999824	0.00000000	-109.62110000	-15.27436000
32.79999822	0.00000000	-98.44980000	-32.69562000
32.99999821	0.00000000	-87.61073000	-49.32948000
33.19999820	0.00000000	-79.05388000	-62.05708000
33.39999819	0.00000000	-74.39714000	-67.82111000
33.59999818	0.00000000	-74.39714000	-65.16978000
33.79999816	0.00000000	-79.01083000	-55.18577000
33.99999815	0.00000000	-87.05708000	-40.50196000
34.19999814	0.00000000	-95.89690000	-24.19414000
34.39999813	0.00000000	-103.29720000	-9.17814900
34.59999812	0.00000000	-107.94780000	1.26107300
34.79999810	0.00000000	-109.15350000	4.37992100
34.99999809	0.00000000	-106.83440000	0.56594490
35.19999808	0.00000000	-101.85160000	-9.55339400
35.39999807	0.00000000	-95.28789000	-24.15108000
35.59999806	0.00000000	-89.19168000	-39.53002000
35.79999805	0.00000000	-85.28543000	-51.51329000
35.99999803	0.00000000	-84.49187000	-57.73868000
36.19999802	0.00000000	-86.40501000	-57.32037000
36.39999801	0.00000000	-90.63730000	-50.06767000
36.59999800	0.00000000	-95.98917000	-38.17667000
36.79999799	0.00000000	-100.59670000	-25.48597000
36.99999797	0.00000000	-103.34030000	-14.66535000
37.19999796	0.00000000	-103.71550000	-8.52608300
37.39999795	0.00000000	-101.80240000	-8.48302100
37.59999794	0.00000000	-97.94537000	-14.20399000
37.79999793	0.00000000	-93.33169000	-23.77584000
37.99999791	0.00000000	-89.05634000	-34.14124000
38.19999790	0.00000000	-85.98056000	-42.59350000
38.39999789	0.00000000	-84.82406000	-46.77657000
38.59999788	0.00000000	-85.98056000	-45.28789000
38.79999787	0.00000000	-89.05634000	-38.78568000
38.99999786	0.00000000	-93.33169000	-29.62598000
39.19999784	0.00000000	-97.94537000	-20.42938000
39.39999783	0.00000000	-101.80240000	-14.29011000
39.59999782	0.00000000	-103.76480000	-12.75836000
39.79999781	0.00000000	-103.80780000	-16.24631000
39.99999780	0.00000000	-102.22690000	-24.28026000
40.19999778	0.00000000	-99.10187000	-34.22736000
40.39999777	0.00000000	-94.86958000	-43.01181000
40.59999776	0.00000000	-90.59423000	-48.02534000
40.79999775	0.00000000	-87.10014000	-47.66240000
40.99999774	0.00000000	-84.77485000	-42.68578000
41.19999772	0.00000000	-84.39960000	-34.18430000
41.39999771	0.00000000	-85.93749000	-24.23720000
41.59999770	0.00000000	-89.01328000	-15.78494000
41.79999769	0.00000000	-92.91338000	-11.13435000
41.99999768	0.00000000	-96.78272000	-11.09129000
42.19999767	0.00000000	-100.31370000	-15.31742000
42.39999765	0.00000000	-102.60210000	-22.65625000
42.59999764	0.00000000	-103.38950000	-31.48991000
42.79999763	0.00000000	-102.22690000	-39.53002000
42.99999762	0.00000000	-99.56938000	-44.17446000
43.19999761	0.00000000	-96.49360000	-44.63582000
43.39999759	0.00000000	-93.75615000	-41.56618000
43.59999758	0.00000000	-91.75073000	-35.85138000
43.79999757	0.00000000	-90.21899000	-29.29995000
43.99999756	0.00000000	-89.47465000	-23.90502000
44.19999755	0.00000000	-90.16978000	-20.38632000
44.39999753	0.00000000	-91.24016000	-19.59276000
44.59999752	0.00000000	-91.66460000	-21.08145000
44.79999751	0.00000000	-91.70767000	-24.15108000
44.99999750	0.00000000	-91.75073000	-28.00197000
45.19999749	0.00000000	-92.17519000	-31.48991000
45.39999748	0.00000000	-93.38090000	-34.18430000
45.59999746	0.00000000	-95.28789000	-35.38385000
45.79999745	0.00000000	-97.65624000	-35.02091000
45.99999744	0.00000000	-99.98769000	-33.85211000
46.19999743	0.00000000	-102.31300000	-31.53297000
46.39999742	0.00000000	-103.76480000	-28.88164000
46.59999740	0.00000000	-103.29720000	-26.93159000
46.79999739	0.00000000	-100.17840000	-25.72589000
46.99999738	0.00000000	-94.78345000	-25.35679000
47.19999737	0.00000000	-88.63803000	-25.72589000
47.39999736	0.00000000	-83.19389000	-26.93159000
47.59999734	0.00000000	-79.74902000	-28.83858000
47.79999733	0.00000000	-79.01083000	-31.15772000
47.99999732	0.00000000	-81.79749000	-33.06471000
48.19999731	0.00000000	-87.93675000	-34.22736000
48.39999730	0.00000000	-96.07529000	-34.22736000
48.59999729	0.00000000	-104.18310000	-33.06471000
48.79999727	0.00000000	-110.69140000	-31.11466000
48.99999726	0.00000000	-113.34280000	-28.37721000
49.19999725	0.00000000	-111.06670000	-25.35064000
49.39999724	0.00000000	-104.87820000	-23.07455000
49.59999723	0.00000000	-95.98917000	-22.65625000
49.79999721	0.00000000	-86.40501000	-23.77584000
49.99999720	0.00000000	-79.05388000	-25.77510000
50.19999719	0.00000000	-75.55979000	-28.88779000
50.39999718	0.00000000	-76.35335000	-32.68946000
50.59999717	0.00000000	-81.79749000	-35.75910000
50.79999715	0.00000000	-90.59423000	-37.34006000
50.99999714	0.00000000	-100.17840000	-37.29700000
51.19999713	0.00000000	-107.52950000	-35.34079000
51.39999712	0.00000000	-111.02360000	-31.53297000
51.59999711	0.00000000	-110.27310000	-27.30684000
51.79999710	0.00000000	-105.25340000	-23.81890000
51.99999708	0.00000000	-97.61318000	-21.49975000
52.19999707	0.00000000	-89.51771000	-21.12451000
52.39999706	0.00000000	-83.32922000	-22.65625000
52.59999705	0.00000000	-80.25959000	-25.72589000
52.79999704	0.00000000	-81.05315000	-29.58292000
52.99999702	0.00000000	-86.02977000	-33.02165000
53.19999701	0.00000000	-93.24557000	-35.38385000
53.39999700	0.00000000	-100.17840000	-36.13435000
53.59999699	0.00000000	-104.83510000	-35.38385000
53.79999698	0.00000000	-106.41610000	-33.06471000
53.99999696	0.00000000	-104.83510000	-30.04429000
54.19999695	0.00000000	-100.22150000	-27.30684000
54.39999694	0.00000000	-93.70693000	-25.39985000
54.59999693	0.00000000	-87.61073000	-24.65551000
54.79999692	0.00000000	-83.70448000	-25.77510000
54.99999691	0.00000000	-82.95399000	-28.00197000
55.19999689	0.00000000	-85.24236000	-29.90895000
55.39999688	0.00000000	-90.21899000	-31.11466000
55.59999687	0.00000000	-95.93995000	-31.44069000
55.79999686	0.00000000	-100.59670000	-30.69636000
55.99999685	0.00000000	-103.29720000	-28.79552000
56.19999683	0.00000000	-103.34030000	-26.93159000
56.39999682	0.00000000	-101.02120000	-25.77510000
56.59999681	0.00000000	-97.19488000	-25.81816000
56.79999680	0.00000000	-92.54428000	-27.34990000
56.99999679	0.00000000	-88.72416000	-30.08735000
57.19999677	0.00000000	-86.35580000	-33.48917000
57.39999676	0.00000000	-85.98056000	-36.50344000
57.59999675	0.00000000	-87.51845000	-37.24778000
57.79999674	0.00000000	-90.59423000	-35.71604000
57.99999673	0.00000000	-94.40206000	-32.22810000
58.19999672	0.00000000	-97.47784000	-27.21457000
58.39999670	0.00000000	-99.05880000	-22.23794000
58.59999669	0.00000000	-99.10187000	-18.38090000
58.79999668	0.00000000	-97.98843000	-16.94144000
58.99999667	0.00000000	-96.40748000	-18.84842000
59.19999666	0.00000000	-94.45127000	-23.81890000
59.39999664	0.00000000	-92.21825000	-30.00123000
59.59999663	0.00000000	-91.01255000	-36.17741000
59.79999662	0.00000000	-91.00024000	-41.14788000
59.99999661	0.00000000	-91.33858000	-43.05487000
60.19999660	0.00000000	-92.53813000	-41.52312000
60.39999658	0.00000000	-93.62081000	-36.87869000
60.59999657	0.00000000	-94.45127000	-29.90895000
60.79999656	0.00000000	-94.77731000	-22.23794000
60.99999655	0.00000000	-94.45127000	-15.73573000
61.19999654	0.00000000	-93.66387000	-12.66609000
61.39999653	0.00000000	-92.95644000	-13.77953000
61.59999651	0.00000000	-92.54428000	-18.38706000
61.79999650	0.00000000	-92.91338000	-25.35064000
61.99999649	0.00000000	-93.28863000	-33.07087000
62.19999648	0.00000000	-93.75615000	-39.99138000
62.39999647	0.00000000	-94.86958000	-44.21752000
62.59999645	0.00000000	-95.98302000	-44.63582000
62.79999644	0.00000000	-96.35826000	-41.52312000
62.99999643	0.00000000	-95.98302000	-35.38385000
63.19999642	0.00000000	-94.82652000	-27.67593000
63.39999641	0.00000000	-93.28863000	-20.74926000
63.59999639	0.00000000	-91.75073000	-15.69267000
63.79999638	0.00000000	-90.59423000	-13.78568000
63.99999637	0.00000000	-90.21899000	-15.31742000
64.19999636	0.00000000	-90.59423000	-19.91880000
64.39999635	0.00000000	-91.79995000	-26.46407000
64.59999634	0.00000000	-93.66387000	-33.02165000
64.79999632	0.00000000	-95.61392000	-38.45349000
64.99999631	0.00000000	-96.78272000	-41.56618000
65.19999630	0.00000000	-97.52091000	-41.99065000
65.39999629	0.00000000	-97.10260000	-40.07751000
65.59999628	0.00000000	-95.24483000	-36.22662000
65.79999626	0.00000000	-93.38090000	-31.57603000
65.99999625	0.00000000	-92.17519000	-26.93159000
66.19999624	0.00000000	-91.79995000	-23.03149000
66.39999623	0.00000000	-92.17519000	-20.70620000
66.59999622	0.00000000	-93.33169000	-19.87574000
66.79999620	0.00000000	-94.86958000	-20.66314000
66.99999619	0.00000000	-96.35826000	-22.57013000
67.19999618	0.00000000	-97.10260000	-25.30758000
67.39999617	0.00000000	-96.35826000	-28.42027000
67.59999616	0.00000000	-94.82652000	-31.57603000
67.79999615	0.00000000	-92.87032000	-34.64567000
67.99999613	0.00000000	-90.54502000	-37.01402000
68.19999612	0.00000000	-88.68110000	-38.13361000
68.39999611	0.00000000	-87.89370000	-38.12746000
68.59999610	0.00000000	-88.77337000	-36.17741000
68.79999609	0.00000000	-91.43085000	-33.11393000
68.99999607	0.00000000	-95.65698000	-29.53371000
69.19999606	0.00000000	-99.47710000	-25.26452000
69.39999605	0.00000000	-102.22690000	-21.08145000
69.59999604	0.00000000	-103.34030000	-18.38706000
69.79999603	0.00000000	-102.13460000	-17.96260000
69.99999601	0.00000000	-98.68356000	-19.50049000
70.19999600	0.00000000	-93.66387000	-22.65625000
70.39999599	0.00000000	-88.63803000	-27.30684000
70.59999598	0.00000000	-84.35654000	-32.68946000
70.79999597	0.00000000	-81.70521000	-37.29700000
70.99999596	0.00000000	-81.74828000	-39.99138000
71.19999594	0.00000000	-84.82406000	-40.03444000
71.39999593	0.00000000	-90.21899000	-37.71530000
71.59999592	0.00000000	-96.40748000	-33.85211000
71.79999591	0.00000000	-102.17770000	-28.79552000
71.99999590	0.00000000	-106.04080000	-23.86196000
72.19999588	0.00000000	-106.83440000	-20.33710000
72.39999587	0.00000000	-104.92120000	-19.16830000
72.59999586	0.00000000	-100.64590000	-19.91880000
72.79999585	0.00000000	-94.86958000	-22.61319000
72.99999584	0.00000000	-89.05634000	-26.37795000
73.19999582	0.00000000	-84.39960000	-29.49065000
73.39999581	0.00000000	-81.70521000	-31.44069000
73.59999580	0.00000000	-81.70521000	-32.27116000
73.79999579	0.00000000	-84.39960000	-31.90822000
73.99999578	0.00000000	-89.01328000	-31.15772000
74.19999577	0.00000000	-94.40206000	-30.00123000
74.39999575	0.00000000	-99.01575000	-28.88779000
74.59999574	0.00000000	-101.75930000	-28.51255000
74.79999573	0.00000000	-102.17770000	-28.88779000
74.99999572	0.00000000	-100.68900000	-30.00123000
75.19999571	0.00000000	-97.98843000	-31.11466000
75.39999569	0.00000000	-94.86958000	-31.48376000
75.59999568	0.00000000	-91.79995000	-31.06545000
75.79999567	0.00000000	-89.47465000	-29.49065000
75.99999566	0.00000000	-88.68110000	-26.79626000
76.19999565	0.00000000	-89.01328000	-23.77584000
76.39999563	0.00000000	-90.16978000	-21.49975000
76.59999562	0.00000000	-91.70767000	-21.16757000
76.79999561	0.00000000	-93.19635000	-23.07455000
76.99999560	0.00000000	-94.03297000	-26.93159000
77.19999559	0.00000000	-94.03912000	-31.53297000
77.39999558	0.00000000	-94.07603000	-35.80217000
77.59999556	0.00000000	-93.66387000	-38.87795000
77.79999555	0.00000000	-93.38090000	-39.99138000
77.99999554	0.00000000	-93.70693000	-38.41043000
78.19999553	0.00000000	-94.49434000	-34.22736000
78.39999552	0.00000000	-95.24483000	-28.83858000
78.59999550	0.00000000	-95.98302000	-23.77584000
78.79999549	0.00000000	-95.93995000	-19.54355000
78.99999548	0.00000000	-94.82652000	-17.26747000
79.19999547	0.00000000	-93.24557000	-18.01181000
79.39999546	0.00000000	-91.33242000	-21.03838000
79.59999544	0.00000000	-89.43159000	-25.35679000
79.79999543	0.00000000	-88.63803000	-30.37647000
79.99999542	0.00000000	-88.63803000	-35.38385000
80.19999541	0.00000000	-89.47465000	-38.82874000
80.39999540	0.00000000	-91.79995000	-40.03444000
80.59999539	0.00000000	-94.82652000	-38.87795000
80.79999537	0.00000000	-97.52091000	-35.85138000
80.99999536	0.00000000	-99.05880000	-31.95128000
81.19999535	0.00000000	-99.10187000	-28.08809000
81.39999534	0.00000000	-97.93922000	-24.56324000
81.59999533	0.00000000	-95.98302000	-22.23794000
81.79999531	0.00000000	-93.28863000	-21.03838000
81.99999530	0.00000000	-90.63730000	-21.03838000
82.19999529	0.00000000	-89.05634000	-22.19488000
82.39999528	0.00000000	-88.63803000	-24.14493000
82.59999527	0.00000000	-89.05634000	-26.88853000
82.79999525	0.00000000	-90.59423000	-30.00123000
82.99999524	0.00000000	-92.87032000	-33.06471000
83.19999523	0.00000000	-94.77731000	-35.43307000
83.39999522	0.00000000	-95.98302000	-36.59571000
83.59999521	0.00000000	-96.35826000	-36.96481000
83.79999520	0.00000000	-95.98302000	-35.75910000
83.99999518	0.00000000	-94.86958000	-33.06471000
84.19999517	0.00000000	-93.75615000	-29.58292000
84.39999516	0.00000000	-93.28863000	-25.72589000
84.59999515	0.00000000	-92.91338000	-22.61319000
84.79999514	0.00000000	-92.54428000	-20.66314000
84.99999512	0.00000000	-92.87032000	-19.91880000
85.19999511	0.00000000	-92.82111000	-21.12451000
85.39999510	0.00000000	-92.12598000	-24.19414000
85.59999509	0.00000000	-91.75073000	-28.42027000
85.79999508	0.00000000	-91.70767000	-32.68946000
85.99999506	0.00000000	-91.70767000	-36.17741000
86.19999505	0.00000000	-91.75073000	-38.45349000
86.39999504	0.00000000	-92.17519000	-38.45349000
86.59999503	0.00000000	-93.33169000	-36.13435000
86.79999502	0.00000000	-94.82652000	-32.32037000
86.99999501	0.00000000	-95.98302000	-27.63287000
87.19999499	0.00000000	-96.35826000	-23.40059000
87.39999498	0.00000000	-95.98302000	-19.91880000
87.59999497	0.00000000	-94.82652000	-18.47318000
87.79999496	0.00000000	-93.28863000	-19.96186000
87.99999495	0.00000000	-91.75073000	-23.81890000
88.19999493	0.00000000	-90.59423000	-28.75246000
88.39999492	0.00000000	-90.16978000	-33.43381000
88.59999491	0.00000000	-90.16978000	-36.50959000
88.79999490	0.00000000	-90.59423000	-38.03519000
88.99999489	0.00000000	-91.75073000	-36.82948000
89.19999487	0.00000000	-93.28863000	-33.06471000
89.39999486	0.00000000	-94.82652000	-28.42027000
89.59999485	0.00000000	-95.98302000	-23.81890000
89.79999484	0.00000000	-96.35826000	-20.33710000
89.99999483	0.00000000	-95.98302000	-19.21752000
90.19999482	0.00000000	-94.82652000	-20.33710000
90.39999480	0.00000000	-93.33169000	-23.86196000
90.59999479	0.00000000	-92.17519000	-28.79552000
90.79999478	0.00000000	-91.75073000	-33.80905000
90.99999477	0.00000000	-91.70767000	-37.25394000
91.19999476	0.00000000	-91.70767000	-38.41043000
91.39999474	0.00000000	-91.75073000	-36.87869000
91.59999473	0.00000000	-92.12598000	-33.02165000
91.79999472	0.00000000	-92.82111000	-28.04503000
91.99999471	0.00000000	-92.87032000	-23.07455000
92.19999470	0.00000000	-92.54428000	-20.01107000
92.39999468	0.00000000	-92.91338000	-19.59276000
92.59999467	0.00000000	-93.24557000	-21.49975000
92.79999466	0.00000000	-93.33169000	-25.35679000
92.99999465	0.00000000	-93.70693000	-29.95817000
93.19999464	0.00000000	-94.49434000	-34.18430000
93.39999463	0.00000000	-95.24483000	-36.87869000
93.59999461	0.00000000	-95.98302000	-37.24778000
93.79999460	0.00000000	-95.93995000	-35.34079000
93.99999459	0.00000000	-94.77731000	-31.48376000
94.19999458	0.00000000	-92.87032000	-26.93159000
94.39999457	0.00000000	-90.54502000	-23.07455000
94.59999455	0.00000000	-88.63803000	-21.16757000
94.79999454	0.00000000	-87.47539000	-21.54281000
94.99999453	0.00000000	-87.51845000	-24.19414000
95.19999452	0.00000000	-89.05634000	-28.00197000
95.39999451	0.00000000	-91.75073000	-31.48991000
95.59999449	0.00000000	-94.82652000	-34.22736000
95.79999448	0.00000000	-97.56396000	-35.71604000
95.99999447	0.00000000	-99.47710000	-35.34079000
96.19999446	0.00000000	-100.22150000	-33.02165000
96.39999445	0.00000000	-99.05880000	-29.62598000
96.59999444	0.00000000	-96.35826000	-26.14419000
96.79999442	0.00000000	-92.87032000	-23.86196000
96.99999441	0.00000000	-89.01328000	-23.03149000
97.19999440	0.00000000	-85.93749000	-23.81890000
97.39999439	0.00000000	-84.35654000	-25.72589000
97.59999438	0.00000000	-84.39960000	-28.37721000
97.79999436	0.00000000	-86.31274000	-30.69636000
97.99999435	0.00000000	-89.79453000	-31.85900000
98.19999434	0.00000000	-93.66387000	-32.27116000
98.39999433	0.00000000	-97.57012000	-31.48991000
98.59999432	0.00000000	-100.59670000	-30.04429000
98.79999430	0.00000000	-101.80860000	-28.88779000
98.99999429	0.00000000	-101.02120000	-28.46333000
99.19999428	0.00000000	-98.73277000	-28.42027000
99.39999427	0.00000000	-95.20176000	-28.37721000
99.59999426	0.00000000	-91.37549000	-28.00197000
99.79999425	0.00000000	-87.85063000	-27.25763000
99.99999423	0.00000000	-85.56225000	-26.88238000
100.19999422	0.00000000	-84.73178000	-26.79626000
100.39999421	0.00000000	-85.56225000	-26.46407000
100.59999420	0.00000000	-87.80142000	-26.10113000
100.79999419	0.00000000	-90.91412000	-26.51329000
100.99999417	0.00000000	-93.66387000	-27.25763000
101.19999416	0.00000000	-96.40748000	-28.46333000
101.39999415	0.00000000	-98.68356000	-30.00123000
101.59999414	0.00000000	-99.43405000	-31.53297000
101.79999413	0.00000000	-98.72662000	-32.64640000
101.99999411	0.00000000	-96.78272000	-32.60334000
102.19999410	0.00000000	-94.45127000	-31.11466000
102.39999409	0.00000000	-91.70767000	-28.74631000
102.59999408	0.00000000	-89.05634000	-26.08883000
102.79999407	0.00000000	-87.47539000	-23.40674000
102.99999406	0.00000000	-87.05708000	-22.28100000
103.19999404	0.00000000	-87.47539000	-22.61319000
103.39999403	0.00000000	-89.01328000	-24.19414000
103.59999402	0.00000000	-91.28937000	-26.88853000
103.79999401	0.00000000	-93.24557000	-29.95201000
103.99999400	0.00000000	-94.82652000	-32.64640000
104.19999398	0.00000000	-95.98302000	-34.18430000
104.39999397	0.00000000	-96.35826000	-34.22736000
104.59999396	0.00000000	-95.98302000	-33.06471000
104.79999395	0.00000000	-94.82652000	-31.11466000
104.99999394	0.00000000	-93.28863000	-28.42027000
105.19999392	0.00000000	-91.75073000	-25.72589000
105.39999391	0.00000000	-90.59423000	-23.81890000
105.59999390	0.00000000	-90.21899000	-23.07455000
105.79999389	0.00000000	-90.54502000	-24.19414000
105.99999388	0.00000000	-91.33242000	-26.46407000
106.19999387	0.00000000	-92.08292000	-28.74631000
106.39999385	0.00000000	-92.91338000	-30.73942000
106.59999384	0.00000000	-93.66387000	-31.85900000
106.79999383	0.00000000	-94.40206000	-32.27116000
106.99999382	0.00000000	-94.35899000	-31.44069000
107.19999381	0.00000000	-93.28863000	-29.58292000
107.39999379	0.00000000	-92.12598000	-27.30684000
107.59999378	0.00000000	-91.33242000	-25.77510000
107.79999377	0.00000000	-90.59423000	-25.35679000
107.99999376	0.00000000	-90.63730000	-25.72589000
108.19999375	0.00000000	-91.70767000	-26.88853000
108.39999374	0.00000000	-92.82111000	-28.37721000
108.59999372	0.00000000	-93.28863000	-29.58292000
108.79999371	0.00000000	-93.70693000	-30.37647000
108.99999370	0.00000000	-94.40206000	-31.11466000
109.19999369	0.00000000	-94.35899000	-31.06545000
109.39999368	0.00000000	-93.28863000	-29.90895000
109.59999366	0.00000000	-92.12598000	-28.04503000
109.79999365	0.00000000	-91.33242000	-26.14419000
109.99999364	0.00000000	-90.54502000	-25.35679000
110.19999363	0.00000000	-90.21899000	-25.30758000
110.39999362	0.00000000	-90.59423000	-25.72589000
110.59999360	0.00000000	-91.70767000	-26.88853000
110.79999359	0.00000000	-92.87032000	-28.42027000
110.99999358	0.00000000	-93.66387000	-29.95201000
111.19999357	0.00000000	-94.45127000	-31.11466000
111.39999356	0.00000000	-94.77731000	-31.48376000
111.59999355	0.00000000	-94.45127000	-31.15772000
111.79999353	0.00000000	-93.66387000	-30.37647000
111.99999352	0.00000000	-92.91338000	-29.58292000
112.19999351	0.00000000	-92.12598000	-28.42027000
112.39999350	0.00000000	-91.75073000	-27.30684000
112.59999349	0.00000000	-91.70767000	-26.88238000
112.79999347	0.00000000	-91.70767000	-26.83932000
112.99999346	0.00000000	-91.75073000	-26.88238000
113.19999345	0.00000000	-92.12598000	-27.25763000
113.39999344	0.00000000	-92.87032000	-28.00197000
113.59999343	0.00000000	-93.24557000	-28.37721000
113.79999341	0.00000000	-93.28863000	-28.42027000
113.99999340	0.00000000	-93.28863000	-28.46333000
114.19999339	0.00000000	-93.28863000	-28.83858000
114.39999338	0.00000000	-93.28863000	-29.58292000
114.59999337	0.00000000	-93.24557000	-29.95817000
114.79999336	0.00000000	-92.87032000	-30.00123000
114.99999334	0.00000000	-92.12598000	-30.00123000
115.19999333	0.00000000	-91.75073000	-29.95817000
115.39999332	0.00000000	-91.70767000	-29.58292000
115.59999331	0.00000000	-91.70767000	-28.79552000
115.79999330	0.00000000	-91.70767000	-28.04503000
115.99999328	0.00000000	-91.75073000	-27.25763000
116.19999327	0.00000000	-92.12598000	-26.88238000
116.39999326	0.00000000	-92.87032000	-26.83932000
116.59999325	0.00000000	-93.24557000	-26.83932000
116.79999324	0.00000000	-93.28863000	-26.88238000
116.99999322	0.00000000	-93.24557000	-27.25763000
117.19999321	0.00000000	-92.87032000	-28.04503000
117.39999320	0.00000000	-92.08292000	-28.79552000
117.59999319	0.00000000	-91.33242000	-29.58292000
117.79999318	0.00000000	-90.54502000	-29.95817000
117.99999317	0.00000000	-90.16978000	-30.00123000
118.19999315	0.00000000	-90.16978000	-29.95817000
118.39999314	0.00000000	-90.63730000	-29.58292000
118.59999313	0.00000000	-92.08292000	-28.79552000
118.79999312	0.00000000	-93.60851000	-28.04503000
118.99999311	0.00000000	-94.03912000	-27.21457000
119.19999309	0.00000000	-94.49434000	-26.51329000
119.39999308	0.00000000	-94.77731000	-26.10113000
119.59999307	0.00000000	-94.45127000	-26.46407000
119.79999306	0.00000000	-93.66387000	-26.79626000
119.99999305	0.00000000	-92.87032000	-26.88238000
120.19999303	0.00000000	-91.66460000	-27.25763000
120.39999302	0.00000000	-90.16978000	-28.00197000
120.59999301	0.00000000	-89.01328000	-28.37721000
120.79999300	0.00000000	-88.63803000	-28.46333000
120.99999299	0.00000000	-89.01328000	-28.79552000
121.19999298	0.00000000	-90.16978000	-29.16461000
121.39999296	0.00000000	-91.70767000	-28.79552000
121.59999295	0.00000000	-93.24557000	-28.46333000
121.79999294	0.00000000	-94.40206000	-28.42027000
121.99999293	0.00000000	-94.82652000	-28.37721000
122.19999292	0.00000000	-94.82652000	-28.00197000
122.39999290	0.00000000	-94.45127000	-27.25763000
122.59999289	0.00000000	-93.66387000	-26.88238000
122.79999288	0.00000000	-92.87032000	-26.83932000
122.99999287	0.00000000	-91.70767000	-26.83932000
123.19999286	0.00000000	-90.59423000	-26.88238000
123.39999284	0.00000000	-90.16978000	-27.25763000
123.59999283	0.00000000	-90.12672000	-28.00197000
123.79999282	0.00000000	-90.12672000	-28.42027000
123.99999281	0.00000000	-90.21899000	-28.83858000
124.19999280	0.00000000	-90.96333000	-29.58292000
124.39999279	0.00000000	-92.45201000	-29.95817000
124.59999277	0.00000000	-93.24557000	-29.95817000
124.79999276	0.00000000	-93.70693000	-29.58292000
124.99999275	0.00000000	-94.40206000	-28.83858000
125.19999274	0.00000000	-94.45127000	-28.42027000
125.39999273	0.00000000	-94.08218000	-28.00197000
125.59999271	0.00000000	-94.03297000	-27.25763000
125.79999270	0.00000000	-93.24557000	-26.93159000
125.99999269	0.00000000	-92.12598000	-27.21457000
126.19999268	0.00000000	-91.33242000	-27.62672000
126.39999267	0.00000000	-90.54502000	-27.63287000
126.59999265	0.00000000	-90.16978000	-28.04503000
126.79999264	0.00000000	-90.16978000	-28.42027000
126.99999263	0.00000000	-90.54502000	-28.83858000
127.19999262	0.00000000	-91.33242000	-29.58292000
127.39999261	0.00000000	-92.12598000	-29.90895000
127.59999260	0.00000000	-93.28863000	-29.58292000
127.79999258	0.00000000	-94.40206000	-28.83858000
127.99999257	0.00000000	-94.77731000	-28.46333000
128.19999256	0.00000000	-94.40206000	-28.42027000
128.39999255	0.00000000	-93.28863000	-28.42027000
128.59999254	0.00000000	-92.12598000	-28.42027000
128.79999252	0.00000000	-91.33242000	-28.37721000
128.99999251	0.00000000	-90.54502000	-28.04503000
129.19999250	0.00000000	-90.21899000	-27.67593000
129.39999249	0.00000000	-90.54502000	-28.04503000
129.59999248	0.00000000	-91.33242000	-28.37721000
129.79999246	0.00000000	-92.08292000	-28.42027000
129.99999245	0.00000000	-92.87032000	-28.42027000
130.19999244	0.00000000	-93.24557000	-28.42027000
130.39999243	0.00000000	-93.28863000	-28.42027000
130.59999242	0.00000000	-93.24557000	-28.37721000
130.79999241	0.00000000	-92.87032000	-28.04503000
130.99999239	0.00000000	-92.08292000	-27.67593000
131.19999238	0.00000000	-91.33242000	-28.00197000
131.39999237	0.00000000	-90.54502000	-28.00197000
131.59999236	0.00000000	-90.21899000	-27.67593000
131.79999235	0.00000000	-90.54502000	-28.04503000
131.99999233	0.00000000	-91.28937000	-28.42027000
132.19999232	0.00000000	-91.70767000	-28.79552000
132.39999231	0.00000000	-92.12598000	-29.16461000
132.59999230	0.00000000	-92.82111000	-28.79552000
132.79999229	0.00000000	-92.82111000	-28.42027000
132.99999227	0.00000000	-92.12598000	-28.00197000
133.19999226	0.00000000	-91.75073000	-27.25763000
133.39999225	0.00000000	-91.75073000	-26.88238000
133.59999224	0.00000000	-92.08292000	-26.79626000
133.79999223	0.00000000	-92.45201000	-26.46407000
133.99999222	0.00000000	-92.08292000	-26.14419000
134.19999220	0.00000000	-91.75073000	-26.88853000
134.39999219	0.00000000	-91.70767000	-27.95275000
134.59999218	0.00000000	-91.70767000	-28.42027000
134.79999217	0.00000000	-91.70767000	-28.83858000
134.99999216	0.00000000	-91.66460000	-29.58292000
135.19999214	0.00000000	-91.28937000	-29.90895000
135.39999213	0.00000000	-90.59423000	-29.58292000
135.59999212	0.00000000	-90.59423000	-28.79552000
135.79999211	0.00000000	-91.28937000	-28.04503000
135.99999210	0.00000000	-91.70767000	-27.25763000
136.19999208	0.00000000	-92.08292000	-26.88238000
136.39999207	0.00000000	-92.49507000	-26.83932000
136.59999206	0.00000000	-92.50123000	-26.83932000
136.79999205	0.00000000	-92.87032000	-26.83932000
136.99999204	0.00000000	-92.82111000	-26.88238000
137.19999203	0.00000000	-92.08292000	-27.25763000
137.39999201	0.00000000	-91.28937000	-28.00197000
137.59999200	0.00000000	-90.16978000	-28.42027000
137.79999199	0.00000000	-89.43159000	-28.83858000
137.99999198	0.00000000	-89.79453000	-29.58292000
138.19999197	0.00000000	-90.50197000	-29.90895000
138.39999195	0.00000000	-91.28937000	-29.58292000
138.59999194	0.00000000	-91.70767000	-28.79552000
138.79999193	0.00000000	-92.12598000	-28.04503000
138.99999192	0.00000000	-92.87032000	-27.25763000
139.19999191	0.00000000	-93.19635000	-26.88238000
139.39999189	0.00000000	-92.87032000	-26.83932000
139.59999188	0.00000000	-92.12598000	-26.83932000
139.79999187	0.00000000	-91.70767000	-26.83932000
139.99999186	0.00000000	-91.28937000	-26.88238000
140.19999185	0.00000000	-90.54502000	-27.25763000
140.39999184	0.00000000	-90.21899000	-28.04503000
140.59999182	0.00000000	-90.54502000	-28.79552000
140.79999181	0.00000000	-91.28937000	-29.58292000
140.99999180	0.00000000	-91.66460000	-29.95817000
141.19999179	0.00000000	-91.70767000	-29.95817000
141.39999178	0.00000000	-91.70767000	-29.53371000
141.59999176	0.00000000	-91.70767000	-28.42027000
141.79999175	0.00000000	-91.70767000	-27.30684000
141.99999174	0.00000000	-91.70767000	-26.83932000
142.19999173	0.00000000	-91.66460000	-26.42101000
142.39999172	0.00000000	-91.33242000	-25.72589000
142.59999170	0.00000000	-90.96333000	-25.72589000
142.79999169	0.00000000	-91.33242000	-26.46407000
142.99999168	0.00000000	-91.66460000	-27.25763000
143.19999167	0.00000000	-91.75073000	-28.42027000
143.39999166	0.00000000	-92.08292000	-29.53371000
143.59999165	0.00000000	-92.45201000	-29.95817000
143.79999163	0.00000000	-92.08292000	-29.95817000
143.99999162	0.00000000	-91.75073000	-29.58292000
144.19999161	0.00000000	-91.66460000	-28.83858000
144.39999160	0.00000000	-91.28937000	-28.42027000
144.59999159	0.00000000	-90.54502000	-28.00197000
144.79999157	0.00000000	-90.21899000	-27.25763000
144.99999156	0.00000000	-90.54502000	-26.88238000
145.19999155	0.00000000	-91.28937000	-26.83932000
145.39999154	0.00000000	-91.66460000	-26.88238000
145.59999153	0.00000000	-91.70767000	-27.25763000
145.79999151	0.00000000	-91.70767000	-28.00197000
145.99999150	0.00000000	-91.70767000	-28.37721000
146.19999149	0.00000000	-91.70767000	-28.42027000
146.39999148	0.00000000	-91.70767000	-28.42027000
146.59999147	0.00000000	-91.70767000	-28.42027000
146.79999146	0.00000000	-91.66460000	-28.42027000
146.99999144	0.00000000	-91.28937000	-28.37721000
147.19999143	0.00000000	-90.54502000	-28.00197000
147.39999142	0.00000000	-90.21899000	-27.25763000
147.59999141	0.00000000	-90.54502000	-26.88238000
147.79999140	0.00000000	-91.28937000	-26.83932000
147.99999138	0.00000000	-91.66460000	-26.83932000
148.19999137	0.00000000	-91.70767000	-26.83932000
148.39999136	0.00000000	-91.70767000	-26.88238000
148.59999135	0.00000000	-91.70767000	-27.25763000
148.79999134	0.00000000	-91.70767000	-28.00197000
148.99999132	0.00000000	-91.66460000	-28.37721000
149.19999131	0.00000000	-91.28937000	-28.42027000
149.39999130	0.00000000	-90.54502000	-28.42027000
149.59999129	0.00000000	-90.16978000	-28.42027000
149.79999128	0.00000000	-90.12672000	-28.37721000
149.99999127	0.00000000	-90.12672000	-28.00197000
150.19999125	0.00000000	-90.12672000	-27.25763000
150.39999124	0.00000000	-90.16978000	-26.88238000
150.59999123	0.00000000	-90.54502000	-26.83932000
150.79999122	0.00000000	-91.28937000	-26.83932000
150.99999121	0.00000000	-91.66460000	-26.83932000
151.19999119	0.00000000	-91.70767000	-26.83932000
151.39999118	0.00000000	-91.70767000	-26.88238000
151.59999117	0.00000000	-91.70767000	-27.25763000
151.79999116	0.00000000	-91.70767000	-28.00197000
151.99999115	0.00000000	-91.66460000	-28.37721000
152.19999113	0.00000000	-91.28937000	-28.42027000
152.39999112	0.00000000	-90.54502000	-28.42027000
152.59999111	0.00000000	-90.16978000	-28.42027000
152.79999110	0.00000000	-90.12672000	-28.37721000
152.99999109	0.00000000	-90.12672000	-28.00197000
153.19999108	0.00000000	-90.16978000	-27.25763000
153.39999106	0.00000000	-90.54502000	-26.88238000
153.59999105	0.00000000	-91.28937000	-26.83932000
153.79999104	0.00000000	-91.66460000	-26.83932000
153.99999103	0.00000000	-91.70767000	-26.83932000
154.19999102	0.00000000	-91.70767000	-26.83932000
154.39999100	0.00000000	-91.70767000	-26.83932000
154.59999099	0.00000000	-91.70767000	-26.88238000
154.79999098	0.00000000	-91.70767000	-27.25763000
154.99999097	0.00000000	-91.70767000	-28.00197000
155.19999096	0.00000000	-91.66460000	-28.37721000
155.39999094	0.00000000	-91.28937000	-28.42027000
155.59999093	0.00000000	-90.54502000	-28.42027000
155.79999092	0.00000000	-90.21899000	-28.42027000
155.99999091	0.00000000	-90.50197000	-28.37721000
156.19999090	0.00000000	-90.91412000	-28.00197000
156.39999089	0.00000000	-90.92027000	-27.25763000
156.59999087	0.00000000	-91.33242000	-26.88238000
156.79999086	0.00000000	-91.66460000	-26.83932000
156.99999085	0.00000000	-91.70767000	-26.83932000
157.19999084	0.00000000	-91.70767000	-26.83932000
157.39999083	0.00000000	-91.70767000	-26.83932000
157.59999081	0.00000000	-91.70767000	-26.88238000
157.79999080	0.00000000	-91.66460000	-27.25763000
157.99999079	0.00000000	-91.28937000	-28.00197000
158.19999078	0.00000000	-90.54502000	-28.37721000
158.39999077	0.00000000	-90.16978000	-28.42027000
158.59999075	0.00000000	-90.12672000	-28.42027000
158.79999074	0.00000000	-90.12672000	-28.42027000
158.99999073	0.00000000	-90.12672000	-28.37721000
159.19999072	0.00000000	-90.16978000	-28.00197000
159.39999071	0.00000000	-90.54502000	-27.25763000
159.59999070	0.00000000	-91.28937000	-26.88238000
159.79999068	0.00000000	-91.66460000	-26.83932000
159.99999067	0.00000000	-91.70767000	-26.83932000
160.19999066	0.00000000	-91.70767000	-26.83932000
160.39999065	0.00000000	-91.70767000	-26.83932000
160.59999064	0.00000000	-91.70767000	-26.88238000
160.79999062	0.00000000	-91.70767000	-27.25763000
160.99999061	0.00000000	-91.66460000	-28.00197000
161.19999060	0.00000000	-91.28937000	-28.37721000
161.39999059	0.00000000	-90.54502000	-28.42027000
161.59999058	0.00000000	-90.16978000	-28.42027000
161.79999056	0.00000000	-90.12672000	-28.37721000
161.99999055	0.00000000	-90.12672000	-28.00197000
162.19999054	0.00000000	-90.12672000	-27.25763000
162.39999053	0.00000000	-90.12672000	-26.88238000
162.59999052	0.00000000	-90.16978000	-26.83932000
162.79999051	0.00000000	-90.54502000	-26.83932000
162.99999049	0.00000000	-91.28937000	-26.83932000
163.19999048	0.00000000	-91.66460000	-26.83932000
163.39999047	0.00000000	-91.70767000	-26.88238000
163.59999046	0.00000000	-91.70767000	-27.25763000
163.79999045	0.00000000	-91.70767000	-28.00197000
163.99999043	0.00000000	-91.66460000	-28.37721000
164.19999042	0.00000000	-91.28937000	-28.42027000
164.39999041	0.00000000	-90.54502000	-28.42027000
164.59999040	0.00000000	-90.12672000	-28.37721000
164.79999039	0.00000000	-89.75147000	-28.04503000
164.99999037	0.00000000	-89.33932000	-27.63287000
165.19999036	0.00000000	-89.37623000	-27.66978000
165.39999035	0.00000000	-89.33932000	-27.58981000
165.59999034	0.00000000	-89.79453000	-27.62672000
165.79999033	0.00000000	-90.45890000	-27.21457000
165.99999032	0.00000000	-90.91412000	-26.88238000
166.19999030	0.00000000	-90.92027000	-26.83932000
166.39999029	0.00000000	-91.33242000	-26.83932000
166.59999028	0.00000000	-91.66460000	-26.83932000
166.79999027	0.00000000	-91.66460000	-26.88238000
166.99999026	0.00000000	-91.28937000	-27.21457000
167.19999024	0.00000000	-90.54502000	-27.62672000
167.39999023	0.00000000	-90.16978000	-27.63287000
167.59999022	0.00000000	-90.12672000	-28.00197000
167.79999021	0.00000000	-90.12672000	-27.95275000
167.99999020	0.00000000	-90.12672000	-27.25763000
168.19999018	0.00000000	-90.12672000	-26.88238000
168.39999017	0.00000000	-90.12672000	-26.83932000
168.59999016	0.00000000	-90.12672000	-26.83932000
168.79999015	0.00000000	-90.12672000	-26.88238000
168.99999014	0.00000000	-90.12672000	-27.21457000
169.19999013	0.00000000	-90.12672000	-27.58366000
169.39999011	0.00000000	-90.16978000	-27.25763000
169.59999010	0.00000000	-90.54502000	-27.30684000
169.79999009	0.00000000	-91.24016000	-28.00197000
169.99999008	0.00000000	-91.24016000	-28.37721000
170.19999007	0.00000000	-90.54502000	-28.37721000
170.39999005	0.00000000	-90.16978000	-28.00197000
170.59999004	0.00000000	-90.12672000	-27.25763000
170.79999003	0.00000000	-90.12672000	-26.93159000
170.99999002	0.00000000	-90.12672000	-27.25763000
171.19999001	0.00000000	-90.12672000	-28.00197000
171.39998999	0.00000000	-90.12672000	-28.32800000
171.59998998	0.00000000	-90.12672000	-28.04503000
171.79998997	0.00000000	-90.16978000	-27.63287000
171.99998996	0.00000000	-90.50197000	-27.66978000
172.19998995	0.00000000	-90.87106000	-27.63287000
172.39998994	0.00000000	-90.54502000	-28.04503000
172.59998992	0.00000000	-90.59423000	-28.32800000
172.79998991	0.00000000	-91.28937000	-28.04503000
172.99998990	0.00000000	-91.61539000	-27.67593000
173.19998989	0.00000000	-91.28937000	-28.00197000
173.39998988	0.00000000	-90.54502000	-28.00197000
173.59998986	0.00000000	-90.16978000	-27.67593000
173.79998985	0.00000000	-90.12672000	-28.04503000
173.99998984	0.00000000	-90.12672000	-28.37721000
174.19998983	0.00000000	-90.12672000	-28.42027000
174.39998982	0.00000000	-90.12672000	-28.42027000
174.59998980	0.00000000	-90.12672000	-28.42027000
174.79998979	0.00000000	-90.12672000	-28.37721000
174.99998978	0.00000000	-90.12672000	-28.04503000
175.19998977	0.00000000	-90.16978000	-27.67593000
175.39998976	0.00000000	-90.50197000	-28.00197000
175.59998975	0.00000000	-90.87106000	-27.95275000
175.79998973	0.00000000	-90.50197000	-27.25763000
175.99998972	0.00000000	-90.16978000	-26.88238000
176.19998971	0.00000000	-90.12672000	-26.83932000
176.39998970	0.00000000	-90.12672000	-26.83932000
176.59998969	0.00000000	-90.12672000	-26.83932000
176.79998967	0.00000000	-90.12672000	-26.83932000
176.99998966	0.00000000	-90.12672000	-26.88238000
177.19998965	0.00000000	-90.12672000	-27.21457000
177.39998964	0.00000000	-90.12672000	-27.58366000
177.59998963	0.00000000	-90.12672000	-27.21457000
177.79998961	0.00000000	-90.16978000	-26.88238000
177.99998960	0.00000000	-90.50197000	-26.88238000
178.19998959	0.00000000	-90.87106000	-27.21457000
178.39998958	0.00000000	-90.50197000	-27.58366000
178.59998957	0.00000000	-90.16978000	-27.21457000
178.79998956	0.00000000	-90.12672000	-26.88238000
178.99998954	0.00000000	-90.12672000	-26.83932000
179.19998953	0.00000000	-90.12672000	-26.83932000
179.39998952	0.00000000	-90.12672000	-26.83932000
179.59998951	0.00000000	-90.12672000	-26.83932000
179.79998950	0.00000000	-90.12672000	-26.88238000
179.99998948	0.00000000	-90.12672000	-27.21457000
180.19998947	0.00000000	-90.12672000	-27.62672000
180.39998946	0.00000000	-90.12672000	-27.58981000
180.59998945	0.00000000	-90.12672000	-27.62672000
180.79998944	0.00000000	-90.12672000	-27.21457000
180.99998942	0.00000000	-90.12672000	-26.88238000
181.19998941	0.00000000	-90.12672000	-26.83932000
181.39998940	0.00000000	-90.12672000	-26.83932000
181.59998939	0.00000000	-90.16978000	-26.83932000
181.79998938	0.00000000	-90.50197000	-26.83932000
181.99998937	0.00000000	-90.87106000	-26.83932000
182.19998935	0.00000000	-90.50197000	-26.83932000
182.39998934	0.00000000	-90.16978000	-26.83932000
182.59998933	0.00000000	-90.12672000	-26.83932000
182.79998932	0.00000000	-90.12672000	-26.88238000
182.99998931	0.00000000	-90.12672000	-27.25763000
183.19998929	0.00000000	-90.12672000	-27.95275000
183.39998928	0.00000000	-90.12672000	-28.00197000
183.59998927	0.00000000	-90.12672000	-27.63287000
183.79998926	0.00000000	-90.12672000	-27.62672000
183.99998925	0.00000000	-90.12672000	-27.21457000
184.19998923	0.00000000	-90.12672000	-26.88238000
184.39998922	0.00000000	-90.12672000	-26.83932000
184.59998921	0.00000000	-90.12672000	-26.83932000
184.79998920	0.00000000	-90.12672000	-26.83932000
184.99998919	0.00000000	-90.12672000	-26.83932000
185.19998918	0.00000000	-90.12672000	-26.88238000
185.39998916	0.00000000	-90.12672000	-27.21457000
185.59998915	0.00000000	-90.12672000	-27.62672000
185.79998914	0.00000000	-90.12672000	-27.63287000
185.99998913	0.00000000	-90.12672000	-28.04503000
186.19998912	0.00000000	-90.12672000	-28.37721000
186.39998910	0.00000000	-90.12672000	-28.42027000
186.59998909	0.00000000	-90.12672000	-28.37721000
186.79998908	0.00000000	-90.12672000	-28.00197000
186.99998907	0.00000000	-90.12672000	-27.25763000
187.19998906	0.00000000	-90.12672000	-26.88238000
187.39998904	-0.15871060	-90.12672000	-26.83932000
187.59998903	0.00000000	-90.12672000	-26.83932000
187.79998902	0.00000000	-90.12672000	-26.83932000
187.99998901	0.00000000	-90.12672000	-26.83932000
188.19998900	0.00000000	-90.12672000	-26.83932000
188.39998899	0.00000000	-90.12672000	-26.88238000
188.59998897	0.00000000	-90.12672000	-27.25763000
188.79998896	0.00000000	-90.12672000	-28.00197000
188.99998895	0.00000000	-90.12672000	-28.37721000
189.19998894	0.00000000	-90.12672000	-28.42027000
189.39998893	0.00000000	-90.12672000	-28.42027000
189.59998891	0.00000000	-90.16978000	-28.42027000
189.79998890	0.00000000	-90.50197000	-28.37721000
189.99998889	0.00000000	-90.87106000	-28.00197000
190.19998888	0.00000000	-90.50197000	-27.25763000
190.39998887	0.00000000	-90.16978000	-26.88238000
190.59998885	0.00000000	-90.12672000	-26.83932000
190.79998884	0.00000000	-90.12672000	-26.83932000
190.99998883	0.00000000	-90.12672000	-26.83932000
191.19998882	0.00000000	-90.12672000	-26.83932000
191.39998881	0.00000000	-90.12672000	-26.83932000
191.59998880	0.00000000	-90.12672000	-26.83932000
191.79998878	0.00000000	-90.12672000	-26.88238000
191.99998877	0.00000000	-90.12672000	-27.21457000
192.19998876	0.00000000	-90.12672000	-27.58366000
192.39998875	0.00000000	-90.12672000	-27.25763000
192.59998874	0.00000000	-90.12672000	-27.25763000
192.79998872	0.00000000	-90.12672000	-27.58366000
192.99998871	0.00000000	-90.12672000	-27.21457000
193.19998870	0.00000000	-90.12672000	-26.88238000
193.39998869	0.00000000	-90.12672000	-26.83932000
193.59998868	0.00000000	-90.12672000	-26.83932000
193.79998866	0.00000000	-90.12672000	-26.83932000
193.99998865	0.00000000	-90.12672000	-26.83932000
194.19998864	0.00000000	-90.12672000	-26.83932000
194.39998863	0.00000000	-90.12672000	-26.83932000
194.59998862	0.00000000	-90.12672000	-26.83932000
194.79998861	0.00000000	-90.12672000	-26.83932000
194.99998859	0.00000000	-90.12672000	-26.83932000
195.19998858	0.00000000	-90.12672000	-26.83932000
195.39998857	0.00000000	-90.12672000	-26.83932000
195.59998856	0.00000000	-90.12672000	-26.83932000
195.79998855	0.00000000	-90.12672000	-26.83932000
195.99998853	0.00000000	-90.12672000	-26.83932000
