Time	Channel A	Channel B	Channel C
(us)	(V)	(mV)	(mV)

-4.49999956	0.00000000	-66.40624000	-16.57849000
-4.29999957	0.00000000	-66.40624000	-16.99065000
-4.09999958	0.00000000	-66.40624000	-17.32283000
-3.89999959	0.00000000	-66.40624000	-17.32283000
-3.69999960	0.00000000	-66.40624000	-16.94759000
-3.49999962	0.00000000	-66.40624000	-16.20325000
-3.29999963	0.00000000	-66.40624000	-15.82800000
-3.09999964	0.00000000	-66.40624000	-15.82800000
-2.89999965	0.00000000	-66.40624000	-16.16018000
-2.69999966	0.00000000	-66.40624000	-16.57234000
-2.49999968	0.00000000	-66.40624000	-16.53543000
-2.29999969	0.00000000	-66.40624000	-16.57234000
-2.09999970	0.00000000	-66.40624000	-16.16018000
-1.89999971	0.00000000	-66.40624000	-15.82800000
-1.69999972	0.00000000	-66.40624000	-15.78494000
-1.49999973	0.00000000	-66.40624000	-15.78494000
-1.29999975	0.00000000	-66.40624000	-15.78494000
-1.09999976	0.00000000	-66.40624000	-15.78494000
-0.89999977	0.00000000	-66.40624000	-15.78494000
-0.69999978	0.00000000	-66.40624000	-15.78494000
-0.49999979	0.00000000	-66.40624000	-15.78494000
-0.29999981	0.31803640	-66.40624000	-15.78494000
-0.09999982	0.63668800	-66.40624000	-15.82800000
0.10000017	0.95533960	-66.40624000	-16.20325000
0.30000016	0.95533960	-66.40624000	-16.94759000
0.50000015	0.79601380	-66.40624000	-17.32283000
0.70000013	0.15871060	-66.40624000	-17.32283000
0.90000012	-0.79601380	-66.40624000	-16.94759000
1.10000011	-1.75196900	-66.40624000	-16.20325000
1.30000010	-2.54859700	-66.40624000	-15.82800000
1.50000009	-2.70792300	-66.40624000	-15.78494000
1.70000008	-2.22994600	-66.44931000	-15.78494000
1.90000006	-0.95533960	-66.78149000	-15.78494000
2.10000005	0.95533960	-67.15059000	-15.82800000
2.30000004	3.02657500	-66.78149000	-16.20325000
2.50000003	4.77854300	-66.44931000	-16.94759000
2.70000002	5.41584600	-66.40624000	-17.32283000
2.90000000	4.45989200	-66.40624000	-17.36589000
3.09999999	2.22994600	-66.40624000	-17.36589000
3.29999998	-0.79601380	-66.40624000	-17.32283000
3.49999997	-4.14124000	-66.40624000	-16.94759000
3.69999996	-6.84916400	-66.40624000	-16.20325000
3.89999994	-7.96444400	-66.40624000	-15.82800000
4.09999993	-7.00848900	-66.40624000	-15.78494000
4.29999992	-4.30056600	-66.40624000	-15.78494000
4.49999991	-0.15871060	-66.40624000	-15.78494000
4.69999990	4.30056600	-66.40624000	-15.78494000
4.89999989	7.80511800	-66.40624000	-15.78494000
5.09999987	9.39837600	-66.40624000	-15.82800000
5.29999986	8.76107300	-66.40624000	-16.20325000
5.49999985	5.89382400	-66.40624000	-16.94759000
5.69999984	1.27399100	-66.40624000	-17.27362000
5.89999983	-3.50393700	-66.40624000	-16.99065000
6.09999981	-7.32714100	-66.40624000	-16.57849000
6.29999980	-9.39837600	-66.40624000	-16.52928000
6.49999979	-9.07972400	-66.40624000	-15.78494000
6.69999978	-6.53112700	-66.40624000	-15.08981000
6.89999977	-2.38927200	-66.40624000	-15.40969000
7.09999975	1.91129400	-66.40624000	-15.74188000
7.29999974	5.57517200	-66.40624000	-15.78494000
7.49999973	7.48646600	-66.40624000	-15.82800000
7.69999972	7.48646600	-66.40624000	-16.16018000
7.89999971	5.73449800	-66.40624000	-16.52928000
8.09999970	2.70792300	-66.40624000	-16.20325000
8.29999968	-0.63668800	-66.40624000	-16.20325000
8.49999967	-3.34522600	-66.40624000	-16.52928000
8.69999966	-4.93786900	-66.40624000	-16.16018000
8.89999965	-5.09719500	-66.40624000	-15.82800000
9.09999964	-3.98191400	-66.40624000	-15.78494000
9.29999962	-2.22994600	-66.40624000	-15.78494000
9.49999961	-0.31803640	-66.40624000	-15.78494000
9.69999960	1.43331700	-66.40624000	-15.82800000
9.89999959	2.38927200	-66.40624000	-16.16018000
10.09999958	2.54859700	-66.40624000	-16.57234000
10.29999956	2.07062000	-66.40624000	-16.57849000
10.49999955	1.27399100	-66.40624000	-16.99065000
10.69999954	0.31803640	-66.40624000	-17.32283000
10.89999953	-0.31803640	-66.40624000	-17.32283000
11.09999952	-0.79601380	-66.40624000	-16.99065000
11.29999951	-0.95533960	-66.40624000	-16.62155000
11.49999949	-0.95533960	-66.40624000	-16.99065000
11.69999948	-0.63668800	-66.40624000	-17.27362000
11.89999947	-0.31803640	-66.36318000	-16.94759000
12.09999946	-0.15871060	-66.03100000	-16.25246000
12.29999945	-0.15871060	-65.66190000	-16.20325000
12.49999943	0.00000000	-66.03100000	-16.52928000
12.69999942	0.00000000	-66.36318000	-16.16018000
12.89999941	0.00000000	-66.40624000	-15.82800000
13.09999940	0.15871060	-66.40624000	-15.78494000
13.29999939	0.15871060	-66.36318000	-15.78494000
13.49999937	0.00000000	-66.03100000	-15.78494000
13.69999936	0.00000000	-65.66190000	-15.78494000
13.89999935	0.00000000	-66.03100000	-15.78494000
14.09999934	-0.15871060	-66.36318000	-15.82800000
14.29999933	-0.15871060	-66.40624000	-16.16018000
14.49999932	-0.15871060	-66.40624000	-16.57234000
14.69999930	-0.15871060	-66.40624000	-16.57849000
14.89999929	0.00000000	-66.40624000	-16.94759000
15.09999928	0.00000000	-66.40624000	-16.89837000
15.29999927	0.00000000	-66.40624000	-16.20325000
15.49999926	0.00000000	-66.40624000	-15.82800000
15.69999924	0.00000000	-66.40624000	-15.78494000
15.89999923	0.00000000	-66.40624000	-15.78494000
16.09999922	0.00000000	-66.40624000	-15.78494000
16.29999921	-0.15871060	-66.40624000	-15.78494000
16.49999920	0.00000000	-66.40624000	-15.78494000
16.69999919	-0.15871060	-66.36318000	-15.78494000
16.89999917	0.00000000	-65.98794000	-15.78494000
17.09999916	0.00000000	-65.24360000	-15.78494000
17.29999915	0.00000000	-64.86835000	-15.78494000
17.49999914	0.00000000	-64.82529000	-15.78494000
17.69999913	0.00000000	-64.86835000	-15.78494000
17.89999911	0.00000000	-65.29281000	-15.78494000
18.09999910	0.00000000	-66.45546000	-15.78494000
18.29999909	0.00000000	-67.99335000	-15.78494000
18.49999908	0.00000000	-69.57431000	-15.78494000
18.69999907	0.00000000	-71.06299000	-15.78494000
18.89999905	0.00000000	-71.80733000	-15.78494000
19.09999904	0.00000000	-71.01993000	-15.78494000
19.29999903	0.00000000	-69.10678000	-15.78494000
19.49999902	0.00000000	-66.32012000	-15.78494000
19.69999901	0.00000000	-62.82603000	-15.78494000
19.89999900	0.00000000	-58.96899000	-15.78494000
20.09999898	0.00000000	-55.93627000	-15.82800000
20.29999897	0.00000000	-54.82283000	-16.16018000
20.49999896	0.00000000	-56.40379000	-16.52928000
20.69999895	0.00000000	-60.67913000	-16.16018000
20.89999894	0.00000000	-66.91682000	-15.87721000
21.09999892	0.00000000	-74.31717000	-16.16018000
21.29999891	0.00000000	-81.57603000	-16.52928000
21.49999890	0.00000000	-86.50959000	-16.16018000
21.69999889	0.00000000	-86.83562000	-15.87721000
21.89999888	0.00000000	-82.18504000	-16.20325000
22.09999886	0.00000000	-73.20374000	-16.94759000
22.29999885	0.00000000	-61.20201000	-17.27362000
22.49999884	0.00000000	-48.49901000	-16.94759000
22.69999883	0.00000000	-38.53961000	-16.20325000
22.89999882	0.00000000	-34.35039000	-15.82800000
23.09999881	0.00000000	-37.46924000	-15.78494000
23.29999879	0.00000000	-47.60704000	-15.78494000
23.49999878	0.00000000	-63.10285000	-15.74188000
23.69999877	0.00000000	-81.24384000	-15.36663000
23.89999876	0.00000000	-97.39788000	-14.62844000
24.09999875	0.00000000	-107.40030000	-14.30241000
24.29999873	0.00000000	-108.47690000	-14.67150000
24.49999872	0.00000000	-99.53863000	-15.83415000
24.69999871	0.00000000	-82.14198000	-17.36589000
24.89999870	0.00000000	-60.13164000	-18.94685000
25.09999869	0.00000000	-38.49655000	-20.47859000
25.29999867	0.00000000	-22.29946000	-21.59203000
25.49999866	0.00000000	-15.41585000	-21.54897000
25.69999865	0.00000000	-20.10950000	-19.97416000
25.89999864	0.00000000	-35.93135000	-16.90453000
26.09999863	0.00000000	-59.05511000	-13.00443000
26.29999862	0.00000000	-83.80905000	-9.14124000
26.49999860	0.00000000	-104.70590000	-5.70866100
26.69999859	0.00000000	-117.40280000	-4.26304100
26.89999858	0.00000000	-118.52240000	-5.80093500
27.09999857	0.00000000	-107.35730000	-10.07013000
27.29999856	0.00000000	-86.92790000	-16.29552000
27.49999854	0.00000000	-62.21702000	-23.63435000
27.69999853	0.00000000	-39.05019000	-30.56102000
27.89999852	0.00000000	-22.76698000	-35.16240000
28.09999851	0.00000000	-16.52928000	-36.27584000
28.29999850	0.00000000	-21.13681000	-33.07701000
28.49999848	0.00000000	-35.42076000	-25.31373000
28.69999847	0.00000000	-55.85014000	-14.16092000
28.89999846	0.00000000	-77.52829000	-2.55290300
29.09999845	0.00000000	-95.72465000	7.11737200
29.29999844	0.00000000	-106.98200000	13.19513000
29.49999843	0.00000000	-108.93820000	13.05979000
29.69999841	0.00000000	-101.67940000	5.77017700
29.89999840	0.00000000	-87.39542000	-6.95743000
30.09999839	0.00000000	-69.61736000	-22.05955000
30.29999838	0.00000000	-52.17150000	-36.74335000
30.49999837	0.00000000	-38.63189000	-47.89616000
30.69999835	0.00000000	-31.60679000	-52.49754000
30.89999834	0.00000000	-32.30191000	-49.37868000
31.09999833	0.00000000	-39.60999000	-38.92716000
31.29999832	0.00000000	-51.61786000	-23.08686000
31.49999831	0.00000000	-65.89567000	-5.33341500
31.69999829	0.00000000	-79.06618000	10.45768000
31.89999828	0.00000000	-88.41658000	20.54011000
32.09999827	0.00000000	-92.69807000	22.87155000
32.29999826	0.00000000	-91.20325000	17.47047000
32.49999825	0.00000000	-84.65182000	5.07504900
32.69999824	0.00000000	-74.96924000	-11.51575000
32.89999822	0.00000000	-63.75492000	-28.93701000
33.09999821	0.00000000	-53.75246000	-43.62082000
33.29999820	0.00000000	-47.51476000	-52.49754000
33.49999819	0.00000000	-45.89075000	-53.65403000
33.69999818	0.00000000	-48.59129000	-46.73351000
33.89999816	0.00000000	-54.77977000	-33.63066000
34.09999815	0.00000000	-63.24434000	-17.41511000
34.29999814	0.00000000	-71.71505000	-1.52559000
34.49999813	0.00000000	-77.90354000	10.83292000
34.69999812	0.00000000	-80.64714000	17.42741000
34.89999810	0.00000000	-79.48450000	16.64001000
35.09999809	0.00000000	-74.92618000	8.92593500
35.29999808	0.00000000	-68.41166000	-4.17691900
35.49999807	0.00000000	-62.21702000	-19.55585000
35.69999806	0.00000000	-57.56643000	-33.07701000
35.89999805	0.00000000	-55.24114000	-41.99680000
36.09999803	0.00000000	-56.02854000	-44.69119000
36.29999802	0.00000000	-59.47342000	-40.45890000
36.49999801	0.00000000	-64.82529000	-30.51181000
36.69999800	0.00000000	-70.17716000	-17.83341000
36.89999799	0.00000000	-73.72047000	-5.88705700
37.09999797	0.00000000	-75.25220000	2.56520700
37.29999796	0.00000000	-74.45866000	5.30265700
37.49999795	0.00000000	-71.01993000	1.91314000
37.69999794	0.00000000	-66.40624000	-5.75172200
37.89999793	0.00000000	-61.75566000	-15.74188000
38.09999791	0.00000000	-57.94168000	-25.31373000
38.29999790	0.00000000	-56.36073000	-31.45300000
38.49999789	0.00000000	-57.09892000	-32.60949000
38.69999788	0.00000000	-59.43036000	-28.38337000
38.89999787	0.00000000	-63.33661000	-20.01722000
39.09999786	0.00000000	-67.94415000	-10.44537000
39.29999784	0.00000000	-72.18258000	-2.77436000
39.49999783	0.00000000	-74.87697000	1.03346500
39.69999782	0.00000000	-75.34448000	-0.50442900
39.89999781	0.00000000	-74.18184000	-7.00049200
40.09999780	0.00000000	-71.80733000	-16.20325000
40.29999778	0.00000000	-67.94415000	-25.77510000
40.49999777	0.00000000	-63.71186000	-32.65256000
40.69999776	0.00000000	-60.17470000	-34.60876000
40.89999775	0.00000000	-57.43110000	-31.58218000
41.09999774	0.00000000	-55.93627000	-24.61860000
41.29999772	0.00000000	-56.31151000	-15.36663000
41.49999771	0.00000000	-58.63681000	-5.80093500
41.69999770	0.00000000	-62.13090000	1.07652500
41.89999769	0.00000000	-66.40624000	3.02657500
42.09999768	0.00000000	-70.64468000	0.00615157
42.29999767	0.00000000	-73.72047000	-6.86515700
42.49999765	0.00000000	-74.92618000	-15.32357000
42.69999764	0.00000000	-74.18184000	-23.08686000
42.89999763	0.00000000	-72.26870000	-28.84473000
43.09999762	0.00000000	-69.52509000	-31.17003000
43.29999761	0.00000000	-66.45546000	-29.31225000
43.49999759	0.00000000	-63.75492000	-24.75394000
43.69999758	0.00000000	-62.13090000	-18.90379000
43.89999757	0.00000000	-61.33120000	-12.76452000
44.09999756	0.00000000	-60.91904000	-7.75098400
44.29999755	0.00000000	-61.33120000	-5.42568800
44.49999753	0.00000000	-62.03863000	-5.75172200
44.69999752	0.00000000	-62.82603000	-8.40305000
44.89999751	0.00000000	-63.24434000	-12.25394000
45.09999750	0.00000000	-63.71186000	-16.11712000
45.29999749	0.00000000	-64.86835000	-19.64198000
45.49999748	0.00000000	-66.45546000	-21.92421000
45.69999746	0.00000000	-68.45472000	-22.75467000
45.89999745	0.00000000	-71.15526000	-21.96727000
46.09999744	0.00000000	-73.80659000	-20.06029000
46.29999743	0.00000000	-75.34448000	-17.36589000
46.49999742	0.00000000	-75.30142000	-14.67150000
46.69999740	0.00000000	-73.34522000	-12.76452000
46.89999739	0.00000000	-69.39591000	-11.93405000
47.09999738	0.00000000	-63.94562000	-12.34621000
47.29999737	0.00000000	-57.43110000	-13.46580000
47.49999736	0.00000000	-52.12844000	-15.40969000
47.69999734	0.00000000	-50.17224000	-17.32283000
47.89999733	0.00000000	-51.70398000	-18.94685000
48.09999732	0.00000000	-56.44685000	-20.43553000
48.29999731	0.00000000	-64.13016000	-21.17372000
48.49999730	0.00000000	-72.96382000	-20.39247000
48.69999729	0.00000000	-79.90896000	-18.47933000
48.89999727	0.00000000	-83.80905000	-15.74188000
49.09999726	0.00000000	-83.76598000	-12.67224000
49.29999725	0.00000000	-79.48450000	-10.02707000
49.49999724	0.00000000	-71.75812000	-8.86441900
49.69999723	0.00000000	-62.13090000	-9.60875900
49.89999721	0.00000000	-53.28493000	-11.51575000
50.09999720	0.00000000	-47.51476000	-14.29626000
50.29999719	0.00000000	-46.35826000	-17.78420000
50.49999718	0.00000000	-50.21530000	-21.59203000
50.69999717	0.00000000	-57.84941000	-24.24335000
50.89999715	0.00000000	-67.10752000	-24.66781000
51.09999714	0.00000000	-75.25220000	-23.12992000
51.29999713	0.00000000	-81.02238000	-20.01722000
51.49999712	0.00000000	-82.88017000	-15.78494000
51.69999711	0.00000000	-79.44143000	-11.55881000
51.89999710	0.00000000	-72.22563000	-8.44611200
52.09999708	0.00000000	-63.75492000	-6.90821800
52.29999707	0.00000000	-56.40379000	-7.33267600
52.49999706	0.00000000	-51.79626000	-9.98400600
52.69999705	0.00000000	-51.00885000	-13.83489000
52.89999704	0.00000000	-54.44759000	-17.69808000
53.09999702	0.00000000	-60.54995000	-21.17372000
53.29999701	0.00000000	-67.52583000	-23.03765000
53.49999700	0.00000000	-73.67126000	-22.71161000
53.69999699	0.00000000	-77.48523000	-20.43553000
53.89999698	0.00000000	-77.48523000	-17.41511000
54.09999696	0.00000000	-73.72047000	-14.67150000
54.29999695	0.00000000	-67.94415000	-12.76452000
54.49999694	0.00000000	-61.79872000	-11.97711000
54.69999693	0.00000000	-56.82209000	-12.72146000
54.89999692	0.00000000	-54.86589000	-14.21014000
55.09999691	0.00000000	-55.98548000	-15.78494000
55.29999689	0.00000000	-59.47342000	-17.32283000
55.49999688	0.00000000	-64.82529000	-18.39321000
55.69999687	0.00000000	-70.17716000	-18.01796000
55.89999686	0.00000000	-73.67126000	-16.16018000
56.09999685	0.00000000	-74.87697000	-14.25320000
56.29999683	0.00000000	-73.72047000	-12.72146000
56.49999682	0.00000000	-70.60162000	-12.02018000
56.69999681	0.00000000	-65.98794000	-13.18282000
56.89999680	0.00000000	-61.05437000	-15.87721000
57.09999679	0.00000000	-57.98474000	-19.32210000
57.29999677	0.00000000	-57.47416000	-22.75467000
57.49999676	0.00000000	-58.63681000	-24.61860000
57.69999675	0.00000000	-60.96825000	-24.24335000
57.89999674	0.00000000	-64.45004000	-21.50590000
58.09999673	0.00000000	-67.85802000	-16.89837000
58.29999672	0.00000000	-70.22637000	-11.51575000
58.49999670	0.00000000	-71.01993000	-6.90821800
58.69999669	0.00000000	-70.64468000	-4.26304100
58.89999668	0.00000000	-69.10678000	-4.68134800
59.09999667	0.00000000	-66.82455000	-8.48917200
59.29999666	0.00000000	-64.86835000	-14.25320000
59.49999664	0.00000000	-63.33661000	-20.47859000
59.69999663	0.00000000	-62.54921000	-26.24262000
59.89999662	0.00000000	-62.91216000	-30.00738000
60.09999661	0.00000000	-63.66264000	-30.00738000
60.29999660	0.00000000	-64.82529000	-26.19955000
60.49999658	0.00000000	-65.93873000	-20.01722000
60.69999657	0.00000000	-66.36318000	-12.67840000
60.89999656	0.00000000	-66.36318000	-5.75172200
61.09999655	0.00000000	-65.98794000	-1.15034400
61.29999654	0.00000000	-65.20053000	0.00615157
61.49999653	0.00000000	-64.49311000	-2.73129900
61.69999651	0.00000000	-64.08095000	-8.90747900
61.89999650	0.00000000	-64.49311000	-17.32283000
62.09999649	0.00000000	-65.24360000	-25.35679000
62.29999648	0.00000000	-66.40624000	-30.42569000
62.49999647	0.00000000	-67.52583000	-32.00049000
62.69999645	0.00000000	-67.95029000	-30.09350000
62.89999644	0.00000000	-67.95029000	-25.03691000
63.09999643	0.00000000	-67.48277000	-18.11024000
63.29999642	0.00000000	-65.94488000	-10.35925000
63.49999641	0.00000000	-63.71186000	-3.89394600
63.69999639	0.00000000	-62.17396000	-0.36909450
63.89999638	0.00000000	-61.75566000	-0.73203740
64.09999637	0.00000000	-62.13090000	-4.17691900
64.29999636	0.00000000	-63.28740000	-9.98400600
64.49999635	0.00000000	-64.82529000	-16.90453000
64.69999634	0.00000000	-66.40624000	-23.08686000
64.89999632	0.00000000	-67.94415000	-27.35605000
65.09999631	0.00000000	-69.02066000	-28.93701000
65.29999630	0.00000000	-68.68848000	-27.82357000
65.49999629	0.00000000	-67.15674000	-24.71087000
65.69999628	0.00000000	-65.65575000	-20.06029000
65.89999626	0.00000000	-64.08095000	-14.67766000
66.09999625	0.00000000	-63.33661000	-10.07013000
66.29999624	0.00000000	-63.28740000	-7.28346400
66.49999623	0.00000000	-63.71186000	-6.44685000
66.69999622	0.00000000	-64.91756000	-6.77903500
66.89999620	0.00000000	-66.78149000	-8.02780400
67.09999619	0.00000000	-68.64542000	-10.35310000
67.29999618	0.00000000	-69.02066000	-13.83489000
67.49999617	0.00000000	-67.90108000	-17.32283000
67.69999616	0.00000000	-65.94488000	-20.47859000
67.89999615	0.00000000	-63.24434000	-23.17298000
68.09999613	0.00000000	-60.59301000	-24.75394000
68.29999612	0.00000000	-59.09818000	-25.12918000
68.49999611	0.00000000	-59.47342000	-24.33563000
68.69999610	0.00000000	-61.79872000	-21.96727000
68.89999609	0.00000000	-65.24360000	-18.47933000
69.09999607	0.00000000	-69.15600000	-14.21014000
69.29999606	0.00000000	-72.60088000	-9.98400600
69.49999605	0.00000000	-74.87697000	-6.86515700
69.69999604	0.00000000	-74.83390000	-5.33341500
69.89999603	0.00000000	-72.18258000	-5.70866100
70.09999601	0.00000000	-67.90108000	-8.07086500
70.29999600	0.00000000	-62.86909000	-11.97711000
70.49999599	0.00000000	-57.84941000	-17.36589000
70.69999598	0.00000000	-54.40452000	-22.71161000
70.89999597	0.00000000	-53.24187000	-26.19955000
71.09999596	0.00000000	-54.82283000	-27.39911000
71.29999594	0.00000000	-59.05511000	-26.24262000
71.49999593	0.00000000	-64.82529000	-23.12992000
71.69999592	0.00000000	-70.64468000	-18.52854000
71.89999591	0.00000000	-75.30142000	-13.51501000
72.09999590	0.00000000	-77.99581000	-9.65182000
72.29999588	0.00000000	-77.95275000	-7.33267600
72.49999587	0.00000000	-74.87697000	-7.33267600
72.69999586	0.00000000	-69.52509000	-9.51648500
72.89999585	0.00000000	-63.71186000	-12.25394000
73.09999584	0.00000000	-58.63681000	-15.00369000
73.29999582	0.00000000	-54.77977000	-18.06717000
73.49999581	0.00000000	-53.28493000	-19.93110000
73.69999580	0.00000000	-54.77977000	-20.01722000
73.89999579	0.00000000	-58.63681000	-18.90379000
74.09999578	0.00000000	-63.66264000	-17.36589000
74.29999577	0.00000000	-69.02066000	-15.87721000
74.49999575	0.00000000	-72.87770000	-15.13902000
74.69999574	0.00000000	-74.13878000	-15.83415000
74.89999573	0.00000000	-73.76353000	-16.94759000
75.09999572	0.00000000	-71.80733000	-17.74114000
75.29999571	0.00000000	-68.36859000	-18.47933000
75.49999569	0.00000000	-64.91756000	-18.39321000
75.69999568	0.00000000	-62.17396000	-16.85531000
75.89999567	0.00000000	-60.59301000	-14.16092000
76.09999566	0.00000000	-60.21776000	-11.14050000
76.29999565	0.00000000	-60.96825000	-8.82135800
76.49999563	0.00000000	-62.82603000	-8.07086500
76.69999562	0.00000000	-64.35777000	-8.86441900
76.89999561	0.00000000	-65.20053000	-11.64493000
77.09999560	0.00000000	-65.98794000	-16.20325000
77.29999559	0.00000000	-66.31397000	-21.17372000
77.49999558	0.00000000	-66.03100000	-24.66166000
77.69999556	0.00000000	-65.66190000	-26.24262000
77.89999555	0.00000000	-66.03100000	-25.82431000
78.09999554	0.00000000	-66.40624000	-23.08686000
78.29999553	0.00000000	-66.82455000	-18.47933000
78.49999552	0.00000000	-67.57505000	-13.09670000
78.69999550	0.00000000	-67.90108000	-8.44611200
78.89999549	0.00000000	-67.52583000	-5.33341500
79.09999548	0.00000000	-66.32012000	-4.21998000
79.29999547	0.00000000	-64.40699000	-5.75172200
79.49999546	0.00000000	-62.13090000	-9.60875900
79.69999544	0.00000000	-60.59301000	-14.62844000
79.89999543	0.00000000	-60.17470000	-20.01722000
80.09999542	0.00000000	-60.59301000	-24.24335000
80.29999541	0.00000000	-62.17396000	-26.24262000
80.49999540	0.00000000	-64.87450000	-26.24262000
80.69999539	0.00000000	-67.90108000	-24.33563000
80.89999537	0.00000000	-70.22637000	-20.85384000
81.09999536	0.00000000	-70.97687000	-16.99065000
81.29999535	0.00000000	-70.26943000	-13.09670000
81.49999534	0.00000000	-68.31938000	-9.98400600
81.69999533	0.00000000	-65.98794000	-8.02780400
81.89999531	0.00000000	-63.24434000	-7.24040300
82.09999530	0.00000000	-60.63607000	-8.02780400
82.29999529	0.00000000	-59.47342000	-9.93479300
82.49999528	0.00000000	-60.17470000	-12.67224000
82.69999527	0.00000000	-61.66338000	-15.74188000
82.89999525	0.00000000	-63.28740000	-18.47933000
83.09999524	0.00000000	-65.20053000	-20.47859000
83.29999523	0.00000000	-67.10752000	-22.05955000
83.49999522	0.00000000	-67.90108000	-23.12992000
83.69999521	0.00000000	-67.95029000	-22.71161000
83.89999520	0.00000000	-67.52583000	-20.43553000
84.09999518	0.00000000	-66.40624000	-17.36589000
84.29999517	0.00000000	-65.29281000	-14.21014000
84.49999516	0.00000000	-64.86835000	-11.09744000
84.69999515	0.00000000	-64.82529000	-8.40305000
84.89999514	0.00000000	-64.82529000	-6.90821800
85.09999512	0.00000000	-64.78223000	-7.28346400
85.29999511	0.00000000	-64.40699000	-9.60875900
85.49999510	0.00000000	-63.66264000	-13.09670000
85.69999509	0.00000000	-63.24434000	-17.36589000
85.89999508	0.00000000	-62.86909000	-21.59203000
86.09999506	0.00000000	-62.54921000	-24.66166000
86.29999505	0.00000000	-63.33661000	-25.82431000
86.49999504	0.00000000	-64.78223000	-24.66166000
86.69999503	0.00000000	-65.98794000	-21.54897000
86.89999502	0.00000000	-66.78149000	-16.89837000
87.09999501	0.00000000	-67.57505000	-11.55881000
87.29999499	0.00000000	-67.90108000	-7.37573800
87.49999498	0.00000000	-67.52583000	-5.75172200
87.69999497	0.00000000	-66.36318000	-6.53912400
87.89999496	0.00000000	-64.82529000	-9.23966500
88.09999495	0.00000000	-63.28740000	-13.87795000
88.29999493	0.00000000	-62.13090000	-18.81152000
88.49999492	0.00000000	-61.75566000	-22.71161000
88.69999491	0.00000000	-62.13090000	-24.66781000
88.89999490	0.00000000	-63.28740000	-24.61860000
89.09999489	0.00000000	-64.82529000	-22.29331000
89.29999487	0.00000000	-66.36318000	-17.69808000
89.49999486	0.00000000	-67.52583000	-12.72146000
89.69999485	0.00000000	-67.90108000	-8.44611200
89.89999484	0.00000000	-67.57505000	-5.80093500
90.09999483	0.00000000	-66.78149000	-5.84399600
90.29999482	0.00000000	-65.98794000	-8.86441900
90.49999480	0.00000000	-64.82529000	-13.83489000
90.69999479	0.00000000	-63.71186000	-18.81152000
90.89999478	0.00000000	-63.28740000	-22.71161000
91.09999477	0.00000000	-63.28740000	-24.61860000
91.29999476	0.00000000	-63.66264000	-24.24335000
91.49999474	0.00000000	-64.40699000	-21.50590000
91.69999473	0.00000000	-64.78223000	-16.94759000
91.89999472	0.00000000	-64.82529000	-11.93405000
92.09999471	0.00000000	-64.82529000	-8.11392700
92.29999470	0.00000000	-64.82529000	-6.17002900
92.49999468	0.00000000	-64.82529000	-7.00049200
92.69999467	0.00000000	-64.86835000	-10.40231000
92.89999466	0.00000000	-65.24360000	-15.36663000
93.09999465	0.00000000	-66.03100000	-19.97416000
93.29999464	0.00000000	-66.78149000	-23.08686000
93.49999463	0.00000000	-67.52583000	-24.24335000
93.69999461	0.00000000	-67.48277000	-23.08686000
93.89999460	0.00000000	-66.36318000	-20.01722000
94.09999459	0.00000000	-64.78223000	-15.78494000
94.29999458	0.00000000	-62.86909000	-11.55881000
94.49999457	0.00000000	-60.91904000	-8.53223400
94.69999455	0.00000000	-59.79945000	-7.75098400
94.89999454	0.00000000	-59.38730000	-9.65182000
95.09999453	0.00000000	-60.21776000	-13.04749000
95.29999452	0.00000000	-62.13090000	-16.94759000
95.49999451	0.00000000	-64.87450000	-20.39247000
95.69999449	0.00000000	-67.94415000	-22.71161000
95.89999448	0.00000000	-70.64468000	-23.03765000
96.09999447	0.00000000	-72.13951000	-21.17372000
96.29999446	0.00000000	-71.76427000	-17.74114000
96.49999445	0.00000000	-69.48203000	-14.29626000
96.69999444	0.00000000	-66.36318000	-11.55881000
96.89999442	0.00000000	-62.86909000	-10.07013000
97.09999441	0.00000000	-59.38730000	-10.40231000
97.29999440	0.00000000	-57.09892000	-12.30315000
97.49999439	0.00000000	-56.31151000	-14.58538000
97.69999438	0.00000000	-57.47416000	-16.90453000
97.89999436	0.00000000	-60.17470000	-18.43627000
98.09999435	0.00000000	-63.66264000	-18.85458000
98.29999434	0.00000000	-67.57505000	-18.52854000
98.49999433	0.00000000	-71.01993000	-17.74114000
98.69999432	0.00000000	-73.29601000	-16.94759000
98.89999430	0.00000000	-73.34522000	-15.78494000
99.09999429	0.00000000	-71.43823000	-14.67150000
99.29999428	0.00000000	-68.68848000	-14.25320000
99.49999427	0.00000000	-64.82529000	-14.25320000
99.69999426	0.00000000	-61.01131000	-14.58538000
99.89999425	0.00000000	-58.63681000	-14.90526000
100.09999423	0.00000000	-57.43110000	-14.16092000
100.29999422	0.00000000	-57.43110000	-13.09670000
100.49999421	0.00000000	-58.63681000	-12.67224000
100.69999420	0.00000000	-60.96825000	-12.72146000
100.89999419	0.00000000	-64.40699000	-13.50886000
101.09999417	0.00000000	-67.48277000	-15.40969000
101.29999416	0.00000000	-69.48203000	-17.32283000
101.49999415	0.00000000	-70.64468000	-18.90379000
101.69999414	0.00000000	-70.64468000	-20.06029000
101.89999413	0.00000000	-69.48203000	-20.39247000
102.09999411	0.00000000	-67.57505000	-19.59892000
102.29999410	0.00000000	-65.20053000	-17.27977000
102.49999409	0.00000000	-62.86909000	-14.25320000
102.69999408	0.00000000	-60.59301000	-11.51575000
102.89999407	0.00000000	-59.43036000	-9.60875900
103.09999406	0.00000000	-59.75024000	-8.86441900
103.29999404	0.00000000	-60.54995000	-10.02707000
103.49999403	0.00000000	-62.13090000	-12.67224000
103.69999402	0.00000000	-64.40699000	-15.78494000
103.89999401	0.00000000	-66.36318000	-18.85458000
104.09999400	0.00000000	-67.94415000	-21.17372000
104.29999398	0.00000000	-69.06373000	-21.92421000
104.49999397	0.00000000	-69.06373000	-21.17372000
104.69999396	0.00000000	-67.94415000	-18.85458000
104.89999395	0.00000000	-66.40624000	-15.83415000
105.09999394	0.00000000	-64.82529000	-13.09055000
105.29999392	0.00000000	-63.28740000	-11.14050000
105.49999391	0.00000000	-62.13090000	-10.02707000
105.69999390	0.00000000	-61.75566000	-10.40231000
105.89999389	0.00000000	-62.13090000	-12.30315000
106.09999388	0.00000000	-63.28740000	-14.58538000
106.29999387	0.00000000	-64.78223000	-16.94759000
106.49999385	0.00000000	-65.93873000	-18.81152000
106.69999384	0.00000000	-66.31397000	-19.59892000
106.89999383	0.00000000	-65.98794000	-18.85458000
107.09999382	0.00000000	-65.20053000	-17.36589000
107.29999381	0.00000000	-64.45004000	-15.78494000
107.49999379	0.00000000	-63.66264000	-14.25320000
107.69999378	0.00000000	-63.28740000	-13.09670000
107.89999377	0.00000000	-63.28740000	-12.72146000
108.09999376	0.00000000	-63.71186000	-13.13976000
108.29999375	0.00000000	-64.78223000	-14.62844000
108.49999374	0.00000000	-65.56963000	-16.52928000
108.69999372	0.00000000	-65.61884000	-17.69808000
108.89999371	0.00000000	-66.03100000	-18.47933000
109.09999370	0.00000000	-66.31397000	-18.43627000
109.29999369	0.00000000	-65.93873000	-17.32283000
109.49999368	0.00000000	-64.78223000	-15.78494000
109.69999366	0.00000000	-63.28740000	-14.25320000
109.89999365	0.00000000	-62.13090000	-13.09670000
110.09999364	0.00000000	-61.75566000	-12.67224000
110.29999363	0.00000000	-62.13090000	-12.67224000
110.49999362	0.00000000	-63.24434000	-13.13976000
110.69999360	0.00000000	-64.40699000	-14.62844000
110.89999359	0.00000000	-65.20053000	-16.52928000
111.09999358	0.00000000	-65.98794000	-17.69808000
111.29999357	0.00000000	-66.31397000	-18.47933000
111.49999356	0.00000000	-65.98794000	-18.47933000
111.69999355	0.00000000	-65.24360000	-17.74114000
111.89999353	0.00000000	-64.82529000	-16.94759000
112.09999352	0.00000000	-64.40699000	-15.78494000
112.29999351	0.00000000	-63.66264000	-14.67150000
112.49999350	0.00000000	-63.28740000	-14.25320000
112.69999349	0.00000000	-63.24434000	-14.21014000
112.89999347	0.00000000	-63.28740000	-14.21014000
113.09999346	0.00000000	-63.66264000	-14.25320000
113.29999345	0.00000000	-64.40699000	-14.62844000
113.49999344	0.00000000	-64.78223000	-15.36663000
113.69999343	0.00000000	-64.82529000	-15.74188000
113.89999341	0.00000000	-64.82529000	-15.78494000
114.09999340	0.00000000	-64.82529000	-15.78494000
114.29999339	0.00000000	-64.82529000	-15.82800000
114.49999338	0.00000000	-64.82529000	-16.16018000
114.69999337	0.00000000	-64.82529000	-16.52928000
114.89999336	0.00000000	-64.82529000	-16.16018000
115.09999334	0.00000000	-64.78223000	-15.82800000
115.29999333	0.00000000	-64.40699000	-15.78494000
115.49999332	0.00000000	-63.71186000	-15.78494000
115.69999331	0.00000000	-63.71186000	-15.74188000
115.89999330	0.00000000	-64.40699000	-15.36663000
116.09999328	0.00000000	-64.78223000	-14.62844000
116.29999327	0.00000000	-64.82529000	-14.25320000
116.49999326	0.00000000	-64.82529000	-14.21014000
116.69999325	0.00000000	-64.82529000	-14.25320000
116.89999324	0.00000000	-64.82529000	-14.62844000
117.09999322	0.00000000	-64.78223000	-15.40969000
117.29999321	0.00000000	-64.40699000	-16.16018000
117.49999320	0.00000000	-63.66264000	-16.94759000
117.69999319	0.00000000	-63.28740000	-17.32283000
117.89999318	0.00000000	-63.24434000	-17.36589000
118.09999317	0.00000000	-63.24434000	-17.36589000
118.29999315	0.00000000	-63.28740000	-17.32283000
118.49999314	0.00000000	-63.66264000	-16.89837000
118.69999313	0.00000000	-64.45004000	-15.78494000
118.89999312	0.00000000	-65.20053000	-14.67150000
119.09999311	0.00000000	-65.98794000	-14.21014000
119.29999309	0.00000000	-66.36318000	-13.83489000
119.49999308	0.00000000	-66.36318000	-13.46580000
119.69999307	0.00000000	-65.93873000	-13.83489000
119.89999306	0.00000000	-64.82529000	-14.21014000
120.09999305	0.00000000	-63.66264000	-14.62844000
120.29999303	0.00000000	-62.82603000	-15.36663000
120.49999302	0.00000000	-61.70644000	-15.74188000
120.69999301	0.00000000	-60.96825000	-15.78494000
120.89999300	0.00000000	-61.33120000	-15.78494000
121.09999299	0.00000000	-62.08169000	-15.78494000
121.29999298	0.00000000	-63.28740000	-15.78494000
121.49999296	0.00000000	-64.78223000	-15.78494000
121.69999295	0.00000000	-65.98794000	-15.74188000
121.89999294	0.00000000	-66.73843000	-15.36663000
122.09999293	0.00000000	-67.15059000	-14.62844000
122.29999292	0.00000000	-66.73843000	-14.25320000
122.49999290	0.00000000	-65.98794000	-14.16708000
122.69999289	0.00000000	-64.78223000	-13.79183000
122.89999288	0.00000000	-63.28740000	-13.09670000
123.09999287	0.00000000	-62.13090000	-13.09670000
123.29999286	0.00000000	-61.70644000	-13.83489000
123.49999284	0.00000000	-61.66338000	-14.58538000
123.69999283	0.00000000	-61.70644000	-15.36663000
123.89999282	0.00000000	-62.08169000	-15.78494000
124.09999281	0.00000000	-62.86909000	-16.16018000
124.29999280	0.00000000	-63.61958000	-16.52928000
124.49999279	0.00000000	-64.45004000	-16.16018000
124.69999277	0.00000000	-65.20053000	-15.82800000
124.89999276	0.00000000	-65.98794000	-15.78494000
125.09999275	0.00000000	-66.36318000	-15.74188000
125.29999274	0.00000000	-66.36318000	-15.36663000
125.49999273	0.00000000	-65.98794000	-14.62844000
125.69999271	0.00000000	-65.20053000	-14.25320000
125.89999270	0.00000000	-64.45004000	-14.21014000
126.09999269	0.00000000	-63.61958000	-14.25320000
126.29999268	0.00000000	-62.86909000	-14.58538000
126.49999267	0.00000000	-62.08169000	-14.99139000
126.69999265	0.00000000	-61.75566000	-15.00369000
126.89999264	0.00000000	-62.13090000	-15.40969000
127.09999263	0.00000000	-63.28740000	-15.78494000
127.29999262	0.00000000	-64.78223000	-16.20325000
127.49999261	0.00000000	-65.93873000	-16.89837000
127.69999260	0.00000000	-66.36318000	-16.89837000
127.89999258	0.00000000	-66.40624000	-16.20325000
128.09999257	0.00000000	-66.36318000	-15.82800000
128.29999256	0.00000000	-65.93873000	-15.78494000
128.49999255	0.00000000	-64.82529000	-15.74188000
128.69999254	0.00000000	-63.66264000	-15.36663000
128.89999252	0.00000000	-62.86909000	-14.67150000
129.09999251	0.00000000	-62.13090000	-14.67150000
129.29999250	0.00000000	-62.13090000	-15.36663000
129.49999249	0.00000000	-62.86909000	-15.74188000
129.69999248	0.00000000	-63.66264000	-15.78494000
129.89999246	0.00000000	-64.82529000	-15.78494000
130.09999245	0.00000000	-65.93873000	-15.78494000
130.29999244	0.00000000	-66.31397000	-15.78494000
130.49999243	0.00000000	-65.98794000	-15.74188000
130.69999242	0.00000000	-65.20053000	-15.40969000
130.89999241	0.00000000	-64.45004000	-15.00369000
131.09999239	0.00000000	-63.66264000	-14.99139000
131.29999238	0.00000000	-63.24434000	-14.62844000
131.49999237	0.00000000	-62.82603000	-14.67150000
131.69999236	0.00000000	-62.13090000	-15.36663000
131.89999235	0.00000000	-62.13090000	-15.74188000
132.09999233	0.00000000	-62.86909000	-15.78494000
132.29999232	0.00000000	-63.61958000	-15.78494000
132.49999231	0.00000000	-64.40699000	-15.78494000
132.69999230	0.00000000	-64.78223000	-15.74188000
132.89999229	0.00000000	-64.78223000	-15.36663000
133.09999227	0.00000000	-64.45004000	-14.62844000
133.29999226	0.00000000	-64.03790000	-14.25320000
133.49999225	0.00000000	-64.03174000	-14.16708000
133.69999224	0.00000000	-63.61958000	-13.83489000
133.89999223	0.00000000	-63.33661000	-13.51501000
134.09999222	0.00000000	-63.61958000	-14.25320000
134.29999220	0.00000000	-63.98867000	-15.32357000
134.49999219	0.00000000	-63.61958000	-15.78494000
134.69999218	0.00000000	-63.28740000	-16.20325000
134.89999217	0.00000000	-63.20127000	-16.89837000
135.09999216	0.00000000	-62.86909000	-16.89837000
135.29999214	0.00000000	-62.50000000	-16.20325000
135.49999213	0.00000000	-62.86909000	-15.78494000
135.69999212	0.00000000	-63.20127000	-15.36663000
135.89999211	0.00000000	-63.28740000	-14.62844000
136.09999210	0.00000000	-63.71186000	-14.25320000
136.29999208	0.00000000	-64.78223000	-14.21014000
136.49999207	0.00000000	-65.52042000	-14.21014000
136.69999206	0.00000000	-65.20053000	-14.21014000
136.89999205	0.00000000	-64.82529000	-14.25320000
137.09999204	0.00000000	-64.40699000	-14.62844000
137.29999203	0.00000000	-63.61958000	-15.36663000
137.49999201	0.00000000	-62.86909000	-15.78494000
137.69999200	0.00000000	-62.08169000	-16.20325000
137.89999199	0.00000000	-61.75566000	-16.94759000
138.09999198	0.00000000	-62.08169000	-17.32283000
138.29999197	0.00000000	-62.86909000	-17.32283000
138.49999195	0.00000000	-63.61958000	-16.94759000
138.69999194	0.00000000	-64.40699000	-16.20325000
138.89999193	0.00000000	-64.78223000	-15.78494000
139.09999192	0.00000000	-64.82529000	-15.36663000
139.29999191	0.00000000	-64.78223000	-14.62844000
139.49999189	0.00000000	-64.40699000	-14.25320000
139.69999188	0.00000000	-63.66264000	-14.21014000
139.89999187	0.00000000	-63.28740000	-14.25320000
140.09999186	0.00000000	-63.24434000	-14.62844000
140.29999185	0.00000000	-63.24434000	-15.40969000
140.49999184	0.00000000	-63.24434000	-16.16018000
140.69999182	0.00000000	-63.24434000	-16.94759000
140.89999181	0.00000000	-63.28740000	-17.32283000
141.09999180	0.00000000	-63.66264000	-17.32283000
141.29999179	0.00000000	-64.40699000	-16.94759000
141.49999178	0.00000000	-64.78223000	-16.16018000
141.69999176	0.00000000	-64.78223000	-15.40969000
141.89999175	0.00000000	-64.40699000	-14.58538000
142.09999174	0.00000000	-63.66264000	-13.83489000
142.29999173	0.00000000	-63.28740000	-13.09670000
142.49999172	0.00000000	-63.24434000	-13.09670000
142.69999170	0.00000000	-63.24434000	-13.83489000
142.89999169	0.00000000	-63.24434000	-14.58538000
143.09999168	0.00000000	-63.28740000	-15.40969000
143.29999167	0.00000000	-63.66264000	-16.16018000
143.49999166	0.00000000	-64.40699000	-16.94759000
143.69999165	0.00000000	-64.73302000	-17.32283000
143.89999163	0.00000000	-64.40699000	-17.32283000
144.09999162	0.00000000	-63.66264000	-16.89837000
144.29999161	0.00000000	-63.28740000	-15.78494000
144.49999160	0.00000000	-63.24434000	-14.67150000
144.69999159	0.00000000	-63.24434000	-14.21014000
144.89999157	0.00000000	-63.24434000	-13.83489000
145.09999156	0.00000000	-63.24434000	-13.46580000
145.29999155	0.00000000	-63.24434000	-13.87795000
145.49999154	0.00000000	-63.28740000	-14.58538000
145.69999153	0.00000000	-63.66264000	-15.36663000
145.89999151	0.00000000	-64.40699000	-15.78494000
146.09999150	0.00000000	-64.78223000	-16.20325000
146.29999149	0.00000000	-64.78223000	-16.89837000
146.49999148	0.00000000	-64.40699000	-16.89837000
146.69999147	0.00000000	-63.66264000	-16.20325000
146.89999146	0.00000000	-63.28740000	-15.82800000
147.09999144	0.00000000	-63.24434000	-15.74188000
147.29999143	0.00000000	-63.24434000	-15.32357000
147.49999142	0.00000000	-63.24434000	-14.25320000
147.69999141	0.00000000	-63.28740000	-13.51501000
147.89999140	0.00000000	-63.66264000	-13.83489000
148.09999138	0.00000000	-64.40699000	-14.21014000
148.29999137	0.00000000	-64.78223000	-14.58538000
148.49999136	0.00000000	-64.82529000	-14.99139000
148.69999135	0.00000000	-64.78223000	-15.00369000
148.89999134	0.00000000	-64.40699000	-15.40969000
149.09999132	0.00000000	-63.66264000	-15.74188000
149.29999131	0.00000000	-63.28740000	-15.78494000
149.49999130	0.00000000	-63.24434000	-15.78494000
149.69999129	0.00000000	-63.24434000	-15.78494000
149.89999128	0.00000000	-63.24434000	-15.74188000
150.09999127	0.00000000	-63.24434000	-15.36663000
150.29999125	0.00000000	-63.24434000	-14.62844000
150.49999124	0.00000000	-63.24434000	-14.25320000
150.69999123	0.00000000	-63.28740000	-14.21014000
150.89999122	0.00000000	-63.66264000	-14.21014000
151.09999121	0.00000000	-64.40699000	-14.25320000
151.29999119	0.00000000	-64.78223000	-14.62844000
151.49999118	0.00000000	-64.78223000	-15.36663000
151.69999117	0.00000000	-64.40699000	-15.74188000
151.89999116	0.00000000	-63.66264000	-15.78494000
152.09999115	0.00000000	-63.28740000	-15.78494000
152.29999113	0.00000000	-63.24434000	-15.78494000
152.49999112	0.00000000	-63.24434000	-15.78494000
152.69999111	0.00000000	-63.24434000	-15.74188000
152.89999110	0.00000000	-63.24434000	-15.36663000
153.09999109	0.00000000	-63.24434000	-14.62844000
153.29999108	0.00000000	-63.24434000	-14.25320000
153.49999106	0.00000000	-63.28740000	-14.21014000
153.69999105	0.00000000	-63.66264000	-14.21014000
153.89999104	0.00000000	-64.40699000	-14.21014000
154.09999103	0.00000000	-64.78223000	-14.21014000
154.29999102	0.00000000	-64.82529000	-14.25320000
154.49999100	0.00000000	-64.78223000	-14.62844000
154.69999099	0.00000000	-64.40699000	-15.36663000
154.89999098	0.00000000	-63.66264000	-15.74188000
155.09999097	0.00000000	-63.28740000	-15.78494000
155.29999096	0.00000000	-63.20127000	-15.78494000
155.49999094	0.00000000	-62.82603000	-15.78494000
155.69999093	0.00000000	-62.13090000	-15.78494000
155.89999092	0.00000000	-62.13090000	-15.78494000
156.09999091	0.00000000	-62.82603000	-15.74188000
156.29999090	0.00000000	-63.24434000	-15.36663000
156.49999089	0.00000000	-63.66264000	-14.62844000
156.69999087	0.00000000	-64.40699000	-14.25320000
156.89999086	0.00000000	-64.78223000	-14.21014000
157.09999085	0.00000000	-64.82529000	-14.21014000
157.29999084	0.00000000	-64.78223000	-14.21014000
157.49999083	0.00000000	-64.40699000	-14.25320000
157.69999081	0.00000000	-63.66264000	-14.62844000
157.89999080	0.00000000	-63.24434000	-15.36663000
158.09999079	0.00000000	-62.82603000	-15.74188000
158.29999078	0.00000000	-62.13090000	-15.78494000
158.49999077	0.00000000	-62.13090000	-15.78494000
158.69999075	0.00000000	-62.82603000	-15.78494000
158.89999074	0.00000000	-63.20127000	-15.74188000
159.09999073	0.00000000	-63.24434000	-15.36663000
159.29999072	0.00000000	-63.24434000	-14.62844000
159.49999071	0.00000000	-63.24434000	-14.25320000
159.69999070	0.00000000	-63.28740000	-14.21014000
159.89999068	0.00000000	-63.61958000	-14.21014000
160.09999067	0.00000000	-63.98867000	-14.21014000
160.29999066	0.00000000	-63.66264000	-14.25320000
160.49999065	0.00000000	-63.66264000	-14.62844000
160.69999064	0.00000000	-63.98867000	-15.36663000
160.89999062	0.00000000	-63.61958000	-15.74188000
161.09999061	0.00000000	-63.28740000	-15.78494000
161.29999060	0.00000000	-63.24434000	-15.78494000
161.49999059	0.00000000	-63.24434000	-15.78494000
161.69999058	0.00000000	-63.24434000	-15.78494000
161.89999056	0.00000000	-63.24434000	-15.74188000
162.09999055	0.00000000	-63.24434000	-15.36663000
162.29999054	0.00000000	-63.24434000	-14.62844000
162.49999053	0.00000000	-63.24434000	-14.25320000
162.69999052	0.00000000	-63.24434000	-14.21014000
162.89999051	0.00000000	-63.24434000	-14.21014000
163.09999049	0.00000000	-63.24434000	-14.25320000
163.29999048	0.00000000	-63.24434000	-14.58538000
163.49999047	0.00000000	-63.33661000	-14.99139000
163.69999046	0.00000000	-63.99483000	-15.00369000
163.89999045	0.00000000	-64.72686000	-15.40969000
164.09999043	0.00000000	-63.99483000	-15.74188000
164.29999042	0.00000000	-63.33661000	-15.78494000
164.49999041	0.00000000	-63.24434000	-15.78494000
164.69999040	0.00000000	-63.24434000	-15.78494000
164.89999039	0.00000000	-63.24434000	-15.78494000
165.09999037	0.00000000	-63.24434000	-15.78494000
165.29999036	0.00000000	-63.24434000	-15.74188000
165.49999035	0.00000000	-63.24434000	-15.40969000
165.69999034	0.00000000	-63.24434000	-15.04675000
165.89999033	0.00000000	-63.24434000	-15.36663000
166.09999032	0.00000000	-63.28740000	-15.36663000
166.29999030	0.00000000	-63.66264000	-15.00369000
166.49999029	0.00000000	-64.40699000	-15.04060000
166.69999028	0.00000000	-64.73302000	-15.00369000
166.89999027	0.00000000	-64.40699000	-15.40969000
167.09999026	0.00000000	-63.66264000	-15.74188000
167.29999024	0.00000000	-63.28740000	-15.78494000
167.49999023	0.00000000	-63.24434000	-15.78494000
167.69999022	0.00000000	-63.24434000	-15.74188000
167.89999021	0.00000000	-63.24434000	-15.36663000
168.09999020	0.00000000	-63.24434000	-14.62844000
168.29999018	0.00000000	-63.24434000	-14.25320000
168.49999017	0.00000000	-63.24434000	-14.21014000
168.69999016	0.00000000	-63.24434000	-14.21014000
168.89999015	0.00000000	-63.24434000	-14.21014000
169.09999014	0.00000000	-63.24434000	-14.21014000
169.29999013	0.00000000	-63.24434000	-14.21014000
169.49999011	0.00000000	-63.24434000	-14.21014000
169.69999010	0.00000000	-63.24434000	-14.21014000
169.89999009	0.00000000	-63.24434000	-14.21014000
170.09999008	0.00000000	-63.24434000	-14.21014000
170.29999007	0.00000000	-63.24434000	-14.21014000
170.49999005	0.00000000	-63.24434000	-14.21014000
170.69999004	0.00000000	-63.24434000	-14.21014000
170.89999003	0.00000000	-63.24434000	-14.21014000
171.09999002	0.00000000	-63.24434000	-14.21014000
171.29999001	0.00000000	-63.24434000	-14.25320000
171.49998999	0.00000000	-63.24434000	-14.62844000
171.69998998	0.00000000	-63.24434000	-15.36663000
171.89998997	0.00000000	-63.24434000	-15.74188000
172.09998996	0.00000000	-63.24434000	-15.74188000
172.29998995	0.00000000	-63.24434000	-15.36663000
172.49998994	0.00000000	-63.24434000	-14.62844000
172.69998992	0.00000000	-63.24434000	-14.30241000
172.89998991	0.00000000	-63.24434000	-14.58538000
173.09998990	0.00000000	-63.24434000	-14.99139000
173.29998989	0.00000000	-63.24434000	-15.00369000
173.49998988	0.00000000	-63.24434000	-15.40969000
173.69998986	0.00000000	-63.24434000	-15.74188000
173.89998985	0.00000000	-63.24434000	-15.78494000
174.09998984	0.00000000	-63.24434000	-15.78494000
174.29998983	0.00000000	-63.24434000	-15.74188000
174.49998982	0.00000000	-63.24434000	-15.40969000
174.69998980	0.00000000	-63.24434000	-15.04675000
174.89998979	0.00000000	-63.24434000	-15.40969000
175.09998978	0.00000000	-63.24434000	-15.74188000
175.29998977	0.00000000	-63.24434000	-15.74188000
175.49998976	0.00000000	-63.24434000	-15.40969000
175.69998975	0.00000000	-63.24434000	-15.04675000
175.89998973	0.00000000	-63.24434000	-15.40969000
176.09998972	0.00000000	-63.24434000	-15.74188000
176.29998971	0.00000000	-63.24434000	-15.78494000
176.49998970	0.00000000	-63.24434000	-15.78494000
176.69998969	0.00000000	-63.24434000	-15.74188000
176.89998967	0.00000000	-63.24434000	-15.40969000
177.09998966	0.00000000	-63.24434000	-15.00369000
177.29998965	0.00000000	-63.24434000	-15.04060000
177.49998964	0.00000000	-63.24434000	-15.00369000
177.69998963	0.00000000	-63.24434000	-15.40969000
177.89998961	0.00000000	-63.24434000	-15.74188000
178.09998960	0.00000000	-63.24434000	-15.78494000
178.29998959	0.00000000	-63.24434000	-15.74188000
178.49998958	0.00000000	-63.24434000	-15.36663000
178.69998957	0.00000000	-63.24434000	-14.62844000
178.89998956	0.00000000	-63.24434000	-14.25320000
179.09998954	0.00000000	-63.24434000	-14.21014000
179.29998953	0.00000000	-63.24434000	-14.21014000
179.49998952	0.00000000	-63.28740000	-14.21014000
179.69998951	0.00000000	-63.61958000	-14.25320000
179.89998950	0.00000000	-63.98867000	-14.62844000
180.09998948	0.00000000	-63.61958000	-15.36663000
180.29998947	0.00000000	-63.28740000	-15.74188000
180.49998946	0.00000000	-63.24434000	-15.78494000
180.69998945	0.00000000	-63.24434000	-15.74188000
180.89998944	0.00000000	-63.24434000	-15.36663000
181.09998942	0.00000000	-63.24434000	-14.62844000
181.29998941	0.00000000	-63.24434000	-14.25320000
181.49998940	0.00000000	-63.24434000	-14.21014000
181.69998939	0.00000000	-63.24434000	-14.21014000
181.89998938	0.00000000	-63.24434000	-14.21014000
182.09998937	0.00000000	-63.24434000	-14.21014000
182.29998935	0.00000000	-63.24434000	-14.25320000
182.49998934	0.00000000	-63.24434000	-14.62844000
182.69998933	0.00000000	-63.24434000	-15.36663000
182.89998932	0.00000000	-63.24434000	-15.74188000
183.09998931	0.00000000	-63.24434000	-15.78494000
183.29998929	0.00000000	-63.24434000	-15.78494000
183.49998928	0.00000000	-63.24434000	-15.74188000
183.69998927	0.00000000	-63.24434000	-15.36663000
183.89998926	0.00000000	-63.24434000	-14.62844000
184.09998925	0.00000000	-63.24434000	-14.25320000
184.29998923	0.00000000	-63.24434000	-14.21014000
184.49998922	0.00000000	-63.24434000	-14.21014000
184.69998921	0.00000000	-63.24434000	-14.21014000
184.89998920	0.00000000	-63.24434000	-14.21014000
185.09998919	0.00000000	-63.24434000	-14.21014000
185.29998918	0.00000000	-63.24434000	-14.25320000
185.49998916	0.00000000	-63.24434000	-14.62844000
185.69998915	0.00000000	-63.20127000	-15.36663000
185.89998914	0.00000000	-62.86909000	-15.74188000
186.09998913	0.00000000	-62.50000000	-15.78494000
186.29998912	0.00000000	-62.86909000	-15.78494000
186.49998910	0.00000000	-63.20127000	-15.78494000
186.69998909	0.00000000	-63.24434000	-15.78494000
186.89998908	0.00000000	-63.24434000	-15.74188000
187.09998907	0.00000000	-63.24434000	-15.36663000
187.29998906	0.00000000	-63.24434000	-14.62844000
187.49998904	0.00000000	-63.24434000	-14.25320000
187.69998903	0.00000000	-63.24434000	-14.21014000
187.89998902	0.00000000	-63.24434000	-14.21014000
188.09998901	0.00000000	-63.24434000	-14.21014000
188.29998900	0.00000000	-63.24434000	-14.25320000
188.49998899	0.00000000	-63.20127000	-14.62844000
188.69998897	0.00000000	-62.82603000	-15.36663000
188.89998896	0.00000000	-62.08169000	-15.74188000
189.09998895	0.00000000	-61.75566000	-15.78494000
189.29998894	0.00000000	-62.08169000	-15.78494000
189.49998893	0.00000000	-62.82603000	-15.78494000
189.69998891	0.00000000	-63.20127000	-15.74188000
189.89998890	0.00000000	-63.24434000	-15.36663000
190.09998889	0.00000000	-63.24434000	-14.62844000
190.29998888	0.00000000	-63.24434000	-14.30241000
190.49998887	0.00000000	-63.24434000	-14.58538000
190.69998885	0.00000000	-63.24434000	-14.94833000
190.89998884	0.00000000	-63.24434000	-14.58538000
191.09998883	0.00000000	-63.20127000	-14.25320000
191.29998882	0.00000000	-62.82603000	-14.25320000
191.49998881	0.00000000	-62.08169000	-14.58538000
191.69998880	0.00000000	-61.70644000	-14.94833000
191.89998878	0.00000000	-61.66338000	-14.62844000
192.09998877	0.00000000	-61.70644000	-14.67150000
192.29998876	0.00000000	-62.08169000	-15.32357000
192.49998875	0.00000000	-62.82603000	-15.36663000
192.69998874	0.00000000	-63.20127000	-15.00369000
192.89998872	0.00000000	-63.24434000	-15.04060000
193.09998871	0.00000000	-63.24434000	-14.95448000
193.29998870	0.00000000	-63.24434000	-14.99139000
193.49998869	0.00000000	-63.24434000	-14.58538000
193.69998868	0.00000000	-63.24434000	-14.25320000
193.89998866	0.00000000	-63.24434000	-14.21014000
194.09998865	0.00000000	-63.20127000	-14.21014000
194.29998864	0.00000000	-62.82603000	-14.25320000
194.49998863	0.00000000	-62.13090000	-14.58538000
194.69998862	0.00000000	-62.13090000	-14.94833000
194.89998861	0.00000000	-62.82603000	-14.62844000
195.09998859	0.00000000	-63.15207000	-14.62844000
195.29998858	0.00000000	-62.86909000	-14.99139000
195.49998857	0.00000000	-62.45694000	-14.95448000
195.69998856	0.00000000	-62.49385000	-15.04060000
195.89998855	0.00000000	-62.45694000	-15.00369000
196.09998853	0.00000000	-62.86909000	-15.36663000
