Time	Channel A	Channel B	Channel C
(us)	(V)	(mV)	(mV)

-4.49999956	0.00000000	-9.48572700	-9.47342500
-4.29999957	0.00000000	-9.48572700	-9.47342500
-4.09999958	0.00000000	-9.44266700	-9.43036400
-3.89999959	0.00000000	-9.11048200	-9.05511800
-3.69999960	0.00000000	-8.74138700	-8.35998900
-3.49999962	0.00000000	-9.11048200	-8.35998900
-3.29999963	0.00000000	-9.44266700	-9.05511800
-3.09999964	0.00000000	-9.48572700	-9.43036400
-2.89999965	0.00000000	-9.48572700	-9.47342500
-2.69999966	0.00000000	-9.48572700	-9.43036400
-2.49999968	0.00000000	-9.48572700	-9.09817800
-2.29999969	0.00000000	-9.48572700	-8.72908400
-2.09999970	0.00000000	-9.48572700	-9.09817800
-1.89999971	0.00000000	-9.48572700	-9.43036400
-1.69999972	0.00000000	-9.48572700	-9.47342500
-1.49999973	0.00000000	-9.48572700	-9.47342500
-1.29999975	0.00000000	-9.48572700	-9.47342500
-1.09999976	0.00000000	-9.48572700	-9.47342500
-0.89999977	0.00000000	-9.48572700	-9.47342500
-0.69999978	0.00000000	-9.48572700	-9.47342500
-0.49999979	0.00000000	-9.48572700	-9.43036400
-0.29999981	0.31803640	-9.48572700	-9.09817800
-0.09999982	0.63668800	-9.48572700	-8.72908400
0.10000017	0.95533960	-9.48572700	-9.09817800
0.30000016	0.95533960	-9.48572700	-9.43036400
0.50000015	0.95533960	-9.48572700	-9.47342500
0.70000013	0.47736220	-9.48572700	-9.47342500
0.90000012	-0.31803640	-9.48572700	-9.47342500
1.10000011	-1.43331700	-9.48572700	-9.47342500
1.30000010	-2.22994600	-9.48572700	-9.47342500
1.50000009	-2.70792300	-9.48572700	-9.43036400
1.70000008	-2.54859700	-9.48572700	-9.05511800
1.90000006	-1.59264300	-9.48572700	-8.31077700
2.10000005	0.31803640	-9.48572700	-7.98474400
2.30000004	2.38927200	-9.48572700	-8.31077700
2.50000003	4.30056600	-9.48572700	-9.05511800
2.70000002	5.25652100	-9.48572700	-9.43036400
2.90000000	5.09719500	-9.48572700	-9.47342500
3.09999999	3.18590100	-9.48572700	-9.47342500
3.29999998	0.31803640	-9.48572700	-9.43036400
3.49999997	-3.18590100	-9.48572700	-9.05511800
3.69999996	-6.05315000	-9.44266700	-8.31077700
3.89999994	-7.80511800	-9.11048200	-7.93553100
4.09999993	-7.64579200	-8.69832600	-7.89247000
4.29999992	-5.41584600	-8.73523500	-7.89247000
4.49999991	-1.59264300	-8.69832600	-7.93553100
4.69999990	2.70792300	-9.11048200	-8.31077700
4.89999989	6.69045300	-9.44266700	-9.05511800
5.09999987	9.07972400	-9.48572700	-9.43036400
5.29999986	9.23905000	-9.48572700	-9.47342500
5.49999985	7.00848900	-9.48572700	-9.47342500
5.69999984	3.02657500	-9.48572700	-9.47342500
5.89999983	-1.75196900	-9.48572700	-9.47342500
6.09999981	-6.05315000	-9.48572700	-9.47342500
6.29999980	-8.92039900	-9.48572700	-9.43036400
6.49999979	-9.39837600	-9.48572700	-9.05511800
6.69999978	-7.64579200	-9.48572700	-8.31077700
6.89999977	-3.98191400	-9.48572700	-7.93553100
7.09999975	0.31803640	-9.48572700	-7.93553100
7.29999974	4.45989200	-9.48572700	-8.31077700
7.49999973	7.00848900	-9.48572700	-9.05511800
7.69999972	7.80511800	-9.48572700	-9.43036400
7.89999971	6.53112700	-9.48572700	-9.47342500
8.09999970	3.82258900	-9.48572700	-9.47342500
8.29999968	0.47736220	-9.48572700	-9.47342500
8.49999967	-2.54859700	-9.48572700	-9.47342500
8.69999966	-4.45989200	-9.48572700	-9.47342500
8.89999965	-5.25652100	-9.48572700	-9.47342500
9.09999964	-4.61921700	-9.48572700	-9.47342500
9.29999962	-2.86724900	-9.48572700	-9.47342500
9.49999961	-0.95533960	-9.48572700	-9.47342500
9.69999960	0.79601380	-9.48572700	-9.47342500
9.89999959	2.07062000	-9.48572700	-9.47342500
10.09999958	2.54859700	-9.48572700	-9.47342500
10.29999956	2.22994600	-9.48572700	-9.47342500
10.49999955	1.59264300	-9.48572700	-9.47342500
10.69999954	0.63668800	-9.48572700	-9.43036400
10.89999953	-0.15871060	-9.48572700	-9.09817800
11.09999952	-0.79601380	-9.48572700	-8.72908400
11.29999951	-0.95533960	-9.48572700	-9.14124000
11.49999949	-0.95533960	-9.48572700	-9.75639700
11.69999948	-0.79601380	-9.48572700	-9.79330600
11.89999947	-0.47736220	-9.48572700	-8.72908400
12.09999946	-0.15871060	-9.48572700	-8.40305000
12.29999945	-0.15871060	-9.48572700	-9.05511800
12.49999943	-0.15871060	-9.48572700	-9.43036400
12.69999942	0.00000000	-9.48572700	-9.47342500
12.89999941	0.00000000	-9.48572700	-9.47342500
13.09999940	0.00000000	-9.48572700	-9.47342500
13.29999939	0.15871060	-9.48572700	-9.47342500
13.49999937	0.00000000	-9.48572700	-9.47342500
13.69999936	0.00000000	-9.48572700	-9.47342500
13.89999935	-0.15871060	-9.48572700	-9.47342500
14.09999934	-0.15871060	-9.48572700	-9.43036400
14.29999933	-0.15871060	-9.48572700	-9.09817800
14.49999932	0.00000000	-9.48572700	-8.72908400
14.69999930	-0.15871060	-9.48572700	-9.09817800
14.89999929	0.00000000	-9.48572700	-9.43036400
15.09999928	0.00000000	-9.48572700	-9.47342500
15.29999927	0.00000000	-9.48572700	-9.47342500
15.49999926	0.00000000	-9.48572700	-9.47342500
15.69999924	0.00000000	-9.48572700	-9.47342500
15.89999923	0.00000000	-9.48572700	-9.47342500
16.09999922	0.00000000	-9.48572700	-9.47342500
16.29999921	0.00000000	-9.48572700	-9.47342500
16.49999920	-0.15871060	-9.48572700	-9.47342500
16.69999919	-0.15871060	-9.44266700	-9.47342500
16.89999917	0.00000000	-9.06742000	-9.47342500
17.09999916	0.00000000	-8.32308000	-9.47342500
17.29999915	0.00000000	-7.94783400	-9.47342500
17.49999914	0.00000000	-7.90477300	-9.47342500
17.69999913	0.00000000	-7.94783400	-9.47342500
17.89999911	0.00000000	-8.37229300	-9.47342500
18.09999910	0.00000000	-9.52879000	-9.47342500
18.29999909	0.00000000	-11.06668000	-9.47342500
18.49999908	0.00000000	-12.60458000	-9.47342500
18.69999907	0.00000000	-13.81028000	-9.47342500
18.89999905	0.00000000	-14.56078000	-9.47342500
19.09999904	0.00000000	-14.88066000	-9.43036400
19.29999903	0.00000000	-13.67495000	-9.09817800
19.49999902	0.00000000	-10.97441000	-8.72908400
19.69999901	0.00000000	-7.43725300	-9.09817800
19.89999900	0.00000000	-3.20497000	-9.43036400
20.09999898	0.00000000	0.60900590	-9.47342500
20.29999897	0.00000000	2.51599400	-9.43036400
20.49999896	0.00000000	2.09768700	-9.09817800
20.69999895	0.00000000	-1.06422200	-8.72908400
20.89999894	0.00000000	-6.92052100	-9.09817800
21.09999892	0.00000000	-14.64690000	-9.43036400
21.29999891	0.00000000	-22.74237000	-9.47342500
21.49999890	0.00000000	-28.83858000	-9.47342500
21.69999889	0.00000000	-31.11466000	-9.47342500
21.89999888	0.00000000	-28.32800000	-9.47342500
22.09999886	0.00000000	-20.55856000	-9.47342500
22.29999885	0.00000000	-8.93208600	-9.47342500
22.49999884	0.00000000	4.14616100	-9.47342500
22.69999883	0.00000000	15.30512000	-9.47342500
22.89999882	0.00000000	21.45054000	-9.43036400
23.09999881	0.00000000	21.03223000	-9.05511800
23.29999879	0.00000000	13.58883000	-8.31077700
23.49999878	-0.15871060	0.00615157	-7.93553100
23.69999877	0.00000000	-17.39050000	-7.89247000
23.89999876	0.00000000	-34.75024000	-7.89247000
24.09999875	0.00000000	-47.77928000	-7.89247000
24.29999873	0.00000000	-52.70669000	-7.93553100
24.49999872	0.00000000	-47.26870000	-8.35998900
24.69999871	0.00000000	-32.56643000	-9.51648500
24.89999870	0.00000000	-11.67569000	-11.04823000
25.09999869	0.00000000	11.07283000	-12.58612000
25.29999867	0.00000000	29.96432000	-13.74262000
25.49999866	0.00000000	40.34203000	-14.07480000
25.69999865	0.00000000	39.54847000	-13.23819000
25.89999864	0.00000000	27.17766000	-10.53765000
26.09999863	0.00000000	6.32997000	-6.68676100
26.29999862	0.00000000	-18.41781000	-2.82972400
26.49999860	0.00000000	-41.59080000	0.64591530
26.69999859	0.00000000	-57.78174000	2.50984200
26.89999858	0.00000000	-63.13361000	2.14074800
27.09999857	0.00000000	-55.87475000	-0.68897630
27.29999856	0.00000000	-38.15206000	-6.12696800
27.49999854	0.00000000	-14.92987000	-13.83489000
27.69999853	0.00000000	9.44881800	-21.50590000
27.89999852	0.00000000	29.45374000	-27.31299000
28.09999851	0.00000000	39.92372000	-29.91511000
28.29999850	0.00000000	38.85334000	-27.96506000
28.49999848	0.00000000	27.31299000	-21.32751000
28.69999847	0.00000000	8.42150500	-11.28199000
28.89999846	0.00000000	-13.25664000	0.69512790
29.09999845	0.00000000	-32.98474000	11.42962000
29.29999844	0.00000000	-46.98573000	18.39936000
29.49999843	0.00000000	-52.42987000	19.88804000
29.69999841	0.00000000	-48.98499000	15.19439000
29.89999840	0.00000000	-37.40157000	4.74286400
30.09999839	0.00000000	-20.41708000	-9.56569900
30.29999838	0.00000000	-2.26993100	-24.61860000
30.49999837	0.00000000	13.21358000	-37.34621000
30.69999835	0.00000000	22.57013000	-44.59892000
30.89999834	0.00000000	24.61245000	-44.22367000
31.09999833	0.00000000	19.96186000	-36.09744000
31.29999832	0.00000000	9.53494100	-22.15797000
31.49999831	0.00000000	-4.32455700	-4.77977300
31.69999829	0.00000000	-17.90723000	12.17397000
31.89999828	0.00000000	-28.79552000	24.53248000
32.09999827	0.00000000	-35.40231000	29.97047000
32.29999826	0.00000000	-36.14665000	27.27608000
32.49999825	0.00000000	-31.16388000	17.24286000
32.69999824	0.00000000	-21.57972000	2.14074800
32.89999822	0.00000000	-10.41462000	-15.28051000
33.09999821	0.00000000	-0.64591530	-31.49606000
33.29999820	0.00000000	6.74827700	-43.06717000
33.49999819	0.00000000	10.56225000	-47.34252000
33.69999818	0.00000000	9.44881800	-43.48548000
33.89999816	0.00000000	4.09694900	-32.70177000
34.09999815	0.00000000	-3.62942900	-17.23056000
34.29999814	0.00000000	-12.13706000	-0.59670270
34.49999813	0.00000000	-19.44513000	14.08095000
34.69999812	0.00000000	-23.72047000	23.69586000
34.89999810	0.00000000	-24.13878000	25.65207000
35.09999809	0.00000000	-21.06914000	19.93110000
35.29999808	0.00000000	-15.29897000	8.36614100
35.49999807	0.00000000	-8.41535400	-6.31151500
35.69999806	0.00000000	-2.64517700	-20.95226000
35.89999805	0.00000000	0.51673230	-32.14813000
36.09999803	0.00000000	0.89197830	-37.16781000
36.29999802	0.00000000	-1.43946800	-35.30389000
36.49999801	0.00000000	-6.41609200	-27.22072000
36.69999800	0.00000000	-12.09400000	-15.32357000
36.89999799	0.00000000	-16.36934000	-2.63902500
37.09999797	0.00000000	-18.32554000	7.35113100
37.29999796	0.00000000	-17.99951000	12.03863000
37.49999795	0.00000000	-15.63115000	10.92520000
37.69999794	0.00000000	-11.81102000	4.78592500
37.89999793	0.00000000	-7.16043300	-4.82898600
38.09999791	0.00000000	-3.34030500	-15.14518000
38.29999790	0.00000000	-0.97194880	-23.17913000
38.49999789	0.00000000	-0.59670270	-26.24877000
38.69999788	0.00000000	-2.13459600	-23.60359000
38.89999787	0.00000000	-5.25344500	-16.35089000
39.09999786	0.00000000	-9.48572700	-6.77903500
39.29999784	0.00000000	-13.76107000	2.00541300
39.49999783	0.00000000	-17.21210000	7.39419200
39.69999782	0.00000000	-19.15600000	7.76943800
39.89999781	0.00000000	-18.79306000	3.16806100
40.09999780	0.00000000	-16.87992000	-5.29035400
40.29999778	0.00000000	-13.71801000	-15.23130000
40.49999777	0.00000000	-9.48572700	-23.64665000
40.69999776	0.00000000	-5.21038300	-27.87278000
40.89999775	0.00000000	-1.75935000	-26.75935000
41.09999774	0.00000000	0.23375980	-20.99532000
41.29999772	0.00000000	0.19685040	-12.11860000
41.49999771	0.00000000	-1.34719500	-2.17765700
41.69999770	0.00000000	-4.83513700	5.85629900
41.89999769	0.00000000	-9.01820900	9.38730200
42.09999768	0.00000000	-12.60458000	8.27386800
42.29999767	0.00000000	-15.71727000	3.25418300
42.49999765	0.00000000	-17.99951000	-4.82898600
42.69999764	0.00000000	-18.37475000	-13.61343000
42.89999763	0.00000000	-16.87992000	-20.57702000
43.09999762	0.00000000	-14.18553000	-24.06496000
43.29999761	0.00000000	-11.10974000	-23.73892000
43.49999759	0.00000000	-8.37229300	-19.93110000
43.69999758	0.00000000	-6.41609200	-14.16708000
43.89999757	0.00000000	-5.21038300	-7.98474400
44.09999756	0.00000000	-4.83513700	-2.59596400
44.29999755	0.00000000	-5.21038300	0.51673230
44.49999753	0.00000000	-6.32381900	0.93503930
44.69999752	0.00000000	-7.43725300	-0.92888770
44.89999751	0.00000000	-7.86171200	-4.40452700
45.09999750	0.00000000	-7.94783400	-8.22465500
45.29999749	0.00000000	-8.37229300	-11.74951000
45.49999748	0.00000000	-9.57800100	-14.03174000
45.69999746	0.00000000	-11.48499000	-14.85605000
45.89999745	0.00000000	-13.85334000	-14.11786000
46.09999744	0.00000000	-16.14173000	-12.58612000
46.29999743	0.00000000	-18.08563000	-10.62992000
46.49999742	0.00000000	-18.74385000	-8.31077700
46.69999740	0.00000000	-17.57505000	-6.40378900
46.89999739	0.00000000	-14.05020000	-5.24729300
47.09999738	0.00000000	-9.01820900	-5.19808000
47.29999737	0.00000000	-3.20497000	-5.98548200
47.49999736	0.00000000	2.14074800	-7.14812900
47.69999734	0.00000000	5.21653500	-9.09817800
47.89999733	0.00000000	5.16732200	-11.00517000
48.09999732	0.00000000	1.63016700	-12.58612000
48.29999731	0.00000000	-5.29650500	-13.69956000
48.49999730	0.00000000	-13.76107000	-13.65650000
48.69999729	0.00000000	-21.48745000	-12.11860000
48.89999727	0.00000000	-26.88238000	-9.47342500
49.09999726	0.00000000	-28.37721000	-6.72982200
49.29999725	0.00000000	-25.30143000	-4.40452700
49.49999724	0.00000000	-18.32554000	-2.50369100
49.69999723	0.00000000	-9.11048200	-2.17150600
49.89999721	0.00000000	0.14148620	-3.66633800
50.09999720	0.00000000	6.70521600	-6.40378900
50.29999719	0.00000000	9.40575800	-9.89173200
50.49999718	0.00000000	7.44955700	-13.69956000
50.69999717	0.00000000	0.93503930	-16.39395000
50.89999715	0.00000000	-7.90477300	-17.18750000
51.09999714	0.00000000	-16.79380000	-16.39395000
51.29999713	0.00000000	-23.72047000	-13.69956000
51.49999712	0.00000000	-26.79626000	-9.84867000
51.69999711	0.00000000	-25.25836000	-5.98548200
51.89999710	0.00000000	-19.53125000	-2.50369100
52.09999708	0.00000000	-11.44193000	-0.59670270
52.29999707	0.00000000	-3.38951800	-0.59670270
52.49999706	0.00000000	2.79281500	-2.50369100
52.69999705	0.00000000	5.03198800	-5.98548200
52.89999704	0.00000000	2.84202700	-9.79945900
53.09999702	0.00000000	-2.92199800	-13.28125000
53.29999701	0.00000000	-9.81791200	-15.23130000
53.49999700	0.00000000	-16.41855000	-15.64960000
53.69999699	0.00000000	-20.97687000	-14.85605000
53.89999698	0.00000000	-22.13952000	-12.53691000
54.09999696	0.00000000	-19.48819000	-9.51648500
54.29999695	0.00000000	-14.13632000	-6.82209600
54.49999694	0.00000000	-7.99704600	-5.29035400
54.69999693	0.00000000	-2.60211600	-5.29035400
54.89999692	0.00000000	0.47367120	-6.72982200
55.09999691	0.00000000	0.51673230	-8.63681000
55.29999689	0.00000000	-2.17765700	-9.79945900
55.49999688	0.00000000	-6.79133800	-10.58686000
55.69999687	0.00000000	-12.13706000	-10.53765000
55.89999686	0.00000000	-16.41855000	-9.42421200
56.09999685	0.00000000	-18.74385000	-7.89247000
56.29999683	0.00000000	-19.11294000	-6.36072800
56.49999682	0.00000000	-16.74459000	-5.29035400
56.69999681	0.00000000	-12.22933000	-5.70866100
56.89999680	0.00000000	-7.25270600	-7.98474400
57.09999679	0.00000000	-3.75861200	-11.04823000
57.29999677	0.00000000	-2.13459600	-14.11786000
57.49999676	0.00000000	-2.17765700	-16.39395000
57.69999675	0.00000000	-4.09079700	-16.71998000
57.89999674	0.00000000	-7.52952700	-14.81299000
58.09999673	0.00000000	-10.97441000	-10.95595000
58.29999672	0.00000000	-13.67495000	-6.31151500
58.49999670	0.00000000	-14.83760000	-1.66707700
58.69999669	0.00000000	-14.13632000	2.09768700
58.89999668	0.00000000	-12.64764000	3.16190900
59.09999667	0.00000000	-11.02362000	0.51673230
59.29999666	0.00000000	-9.11048200	-4.87204700
59.49999664	0.00000000	-7.20964500	-11.42347000
59.69999663	0.00000000	-6.45915300	-17.97490000
59.89999662	0.00000000	-6.79133800	-22.53322000
60.09999661	0.00000000	-7.90477300	-23.68971000
60.29999660	0.00000000	-9.06742000	-20.99532000
60.49999658	0.00000000	-9.86097400	-15.23130000
60.69999657	0.00000000	-10.59916000	-7.89247000
60.89999656	0.00000000	-10.59916000	-0.59670270
61.09999655	0.00000000	-9.90403500	4.78592500
61.29999654	0.00000000	-9.48572700	6.73597400
61.49999653	0.00000000	-9.06742000	5.16117100
61.69999651	0.00000000	-8.37229300	0.14148620
61.89999650	0.00000000	-8.41535400	-7.56643700
62.09999649	0.00000000	-9.48572700	-15.60654000
62.29999648	0.00000000	-10.64838000	-22.20103000
62.49999647	0.00000000	-11.44193000	-25.63976000
62.69999645	0.00000000	-12.22933000	-25.27067000
62.89999644	0.00000000	-12.55536000	-21.03838000
63.09999643	0.00000000	-12.18012000	-14.11786000
63.29999642	0.00000000	-10.97441000	-6.40378900
63.49999641	0.00000000	-9.11048200	0.55979330
63.69999639	0.00000000	-7.20964500	5.16117100
63.89999638	0.00000000	-6.41609200	6.36687900
64.09999637	0.00000000	-6.36687900	4.04773600
64.29999636	0.00000000	-6.79133800	-0.92888770
64.49999635	0.00000000	-7.94783400	-7.51722400
64.69999634	0.00000000	-9.48572700	-14.07480000
64.89999632	0.00000000	-11.02362000	-19.46358000
65.09999631	0.00000000	-12.18012000	-22.15797000
65.29999630	0.00000000	-12.55536000	-21.50590000
65.49999629	0.00000000	-12.18012000	-18.81152000
65.69999628	0.00000000	-11.02362000	-14.90526000
65.89999626	0.00000000	-9.48572700	-9.89173200
66.09999625	0.00000000	-7.99704600	-5.29035400
66.29999624	0.00000000	-7.25270600	-2.08538400
66.49999623	0.00000000	-7.99704600	-0.13533460
66.69999622	0.00000000	-9.48572700	0.60285430
66.89999620	0.00000000	-11.02362000	-0.51058070
67.09999619	0.00000000	-12.18012000	-2.82972400
67.29999618	0.00000000	-12.55536000	-5.57332700
67.49999617	0.00000000	-12.09400000	-9.05511800
67.69999616	0.00000000	-10.23007000	-12.16781000
67.89999615	0.00000000	-7.58489100	-14.58538000
68.09999613	0.00000000	-5.99163300	-16.85531000
68.29999612	0.00000000	-4.78592500	-18.01796000
68.49999611	0.00000000	-4.13385800	-17.60581000
68.69999610	0.00000000	-5.29650500	-16.06176000
68.89999609	0.00000000	-7.99704600	-12.91215000
69.09999607	0.00000000	-11.48499000	-9.05511800
69.29999606	0.00000000	-15.34203000	-4.77977300
69.49999605	0.00000000	-18.37475000	-0.92888770
69.69999604	0.00000000	-19.48819000	1.39640700
69.89999603	0.00000000	-17.95029000	2.13459600
70.09999601	0.00000000	-14.09326000	0.55979330
70.29999600	0.00000000	-9.06742000	-3.29109200
70.49999599	0.00000000	-3.67249000	-8.31077700
70.69999598	0.00000000	0.55979330	-13.69956000
70.89999597	0.00000000	2.47293300	-17.93184000
71.09999596	0.00000000	1.67938000	-19.88189000
71.29999594	0.00000000	-2.17765700	-19.50664000
71.49999593	0.00000000	-7.90477300	-16.81225000
71.69999592	0.00000000	-13.76107000	-12.58612000
71.89999591	0.00000000	-18.79306000	-7.93553100
72.09999590	0.00000000	-22.23179000	-3.66633800
72.29999588	0.00000000	-22.60704000	-0.64591530
72.49999587	0.00000000	-19.95571000	0.18454720
72.69999586	0.00000000	-15.29897000	-1.33489200
72.89999585	0.00000000	-9.48572700	-3.99237200
73.09999584	0.00000000	-3.71555100	-7.47416300
73.29999582	0.00000000	0.51673230	-10.53765000
73.49999581	0.00000000	2.09768700	-12.49385000
73.69999580	0.00000000	0.98425190	-13.28125000
73.89999579	0.00000000	-2.09153500	-12.53691000
74.09999578	0.00000000	-6.36687900	-11.04823000
74.29999577	0.00000000	-11.02362000	-9.51648500
74.49999575	0.00000000	-15.25591000	-8.40305000
74.69999574	0.00000000	-17.95029000	-8.40305000
74.89999573	0.00000000	-18.37475000	-9.47342500
75.09999572	0.00000000	-16.87992000	-10.62992000
75.29999571	0.00000000	-14.13632000	-11.38041000
75.49999569	0.00000000	-10.69144000	-11.70029000
75.69999568	0.00000000	-7.25270600	-10.49459000
75.89999567	0.00000000	-5.29650500	-7.89247000
76.09999566	0.00000000	-4.83513700	-5.19808000
76.29999565	0.00000000	-5.21038300	-3.19881900
76.49999563	0.00000000	-6.36687900	-1.71013800
76.69999562	0.00000000	-7.90477300	-1.43331700
76.89999561	0.00000000	-9.44266700	-3.75246000
77.09999560	0.00000000	-10.59916000	-7.93553100
77.29999559	0.00000000	-11.02362000	-12.58612000
77.49999558	0.00000000	-11.06668000	-16.81225000
77.69999556	0.00000000	-11.06668000	-19.50664000
77.89999555	0.00000000	-11.06668000	-19.88189000
78.09999554	0.00000000	-11.10974000	-17.93184000
78.29999553	0.00000000	-11.48499000	-13.65650000
78.49999552	0.00000000	-12.22933000	-7.93553100
78.69999550	0.00000000	-12.55536000	-2.55290300
78.89999549	0.00000000	-12.18012000	0.97810030
79.09999548	0.00000000	-10.97441000	2.50984200
79.29999547	0.00000000	-9.06742000	1.72244100
79.49999546	0.00000000	-6.79133800	-1.71013800
79.69999544	0.00000000	-5.25344500	-6.31151500
79.89999543	0.00000000	-4.83513700	-11.00517000
80.09999542	0.00000000	-5.25344500	-15.27436000
80.29999541	0.00000000	-6.83439900	-18.35015000
80.49999540	0.00000000	-9.48572700	-19.50664000
80.69999539	0.00000000	-12.18012000	-18.35015000
80.89999537	0.00000000	-14.13632000	-15.32357000
81.09999536	0.00000000	-15.29897000	-11.42347000
81.29999535	0.00000000	-15.25591000	-7.56028500
81.49999534	0.00000000	-13.71801000	-4.03543200
81.69999533	0.00000000	-11.06668000	-1.75319900
81.89999531	0.00000000	-8.37229300	-0.87967510
82.09999530	0.00000000	-6.41609200	-1.29183100
82.29999529	0.00000000	-5.25344500	-2.46063000
82.49999528	0.00000000	-5.25344500	-4.82283400
82.69999527	0.00000000	-6.36687900	-7.89247000
82.89999525	0.00000000	-7.94783400	-11.00517000
83.09999524	0.00000000	-9.86097400	-13.74262000
83.29999523	0.00000000	-11.76181000	-15.69882000
83.49999522	0.00000000	-12.55536000	-16.85531000
83.69999521	0.00000000	-12.60458000	-16.81225000
83.89999520	0.00000000	-12.22933000	-15.27436000
84.09999518	0.00000000	-11.44193000	-12.53691000
84.29999517	0.00000000	-10.69144000	-9.05511800
84.49999516	0.00000000	-9.90403500	-5.19808000
84.69999515	0.00000000	-9.52879000	-2.12844500
84.89999514	0.00000000	-9.48572700	-0.55364170
85.09999512	0.00000000	-9.48572700	-0.55364170
85.29999511	0.00000000	-9.48572700	-2.12844500
85.49999510	0.00000000	-9.44266700	-5.24729300
85.69999509	0.00000000	-9.06742000	-9.47342500
85.89999508	0.00000000	-8.32308000	-13.69956000
86.09999506	0.00000000	-7.94783400	-16.81225000
86.29999505	0.00000000	-7.94783400	-18.35015000
86.49999504	0.00000000	-8.37229300	-17.92569000
86.69999503	0.00000000	-9.52879000	-15.23130000
86.89999502	0.00000000	-11.02362000	-11.00517000
87.09999501	0.00000000	-12.18012000	-6.35457700
87.29999499	0.00000000	-12.60458000	-2.12844500
87.49999498	0.00000000	-12.60458000	0.51673230
87.69999497	0.00000000	-12.13706000	0.55979330
87.89999496	0.00000000	-10.59916000	-1.71013800
88.09999495	0.00000000	-8.37229300	-5.24729300
88.29999493	0.00000000	-6.83439900	-9.89173200
88.49999492	0.00000000	-6.41609200	-14.81299000
88.69999491	0.00000000	-6.79133800	-17.88263000
88.89999490	0.00000000	-7.94783400	-18.35015000
89.09999489	0.00000000	-9.48572700	-16.76919000
89.29999487	0.00000000	-11.02362000	-13.28125000
89.49999486	0.00000000	-12.22933000	-8.31077700
89.69999485	0.00000000	-12.97982000	-3.70939900
89.89999484	0.00000000	-13.34276000	-0.59670270
90.09999483	0.00000000	-12.55536000	0.51673230
90.29999482	0.00000000	-11.10974000	-1.06422200
90.49999480	0.00000000	-9.90403500	-5.24729300
90.69999479	0.00000000	-9.15354300	-10.58686000
90.89999478	0.00000000	-8.69832600	-15.18824000
91.09999477	0.00000000	-8.69217500	-17.92569000
91.29999476	0.00000000	-8.32308000	-18.30093000
91.49999474	0.00000000	-8.37229300	-16.35089000
91.69999473	0.00000000	-9.06742000	-12.11860000
91.89999472	0.00000000	-9.44266700	-6.77903500
92.09999471	0.00000000	-9.48572700	-2.17765700
92.29999470	0.00000000	-9.48572700	0.51673230
92.49999468	0.00000000	-9.48572700	0.51673230
92.69999467	0.00000000	-9.52879000	-2.17765700
92.89999466	0.00000000	-9.95324800	-6.72982200
93.09999465	0.00000000	-11.06668000	-11.74336000
93.29999464	0.00000000	-12.18012000	-15.60654000
93.49999463	0.00000000	-12.60458000	-17.92569000
93.69999461	0.00000000	-12.60458000	-17.88263000
93.89999460	0.00000000	-12.18012000	-15.18824000
94.09999459	0.00000000	-10.97441000	-10.62992000
94.29999458	0.00000000	-9.06742000	-5.66560000
94.49999457	0.00000000	-6.79133800	-2.22071800
94.69999455	0.00000000	-5.25344500	-1.01501000
94.89999454	0.00000000	-4.83513700	-2.12844500
95.09999453	0.00000000	-5.25344500	-4.82283400
95.29999452	0.00000000	-6.83439900	-8.31077700
95.49999451	0.00000000	-9.52879000	-12.16166000
95.69999449	0.00000000	-12.60458000	-15.18824000
95.89999448	0.00000000	-15.29897000	-16.34473000
96.09999447	0.00000000	-16.83686000	-15.23130000
96.29999446	0.00000000	-16.83686000	-12.58612000
96.49999445	0.00000000	-15.29897000	-9.47342500
96.69999444	0.00000000	-12.55536000	-6.40378900
96.89999442	0.00000000	-9.06742000	-4.12770700
97.09999441	0.00000000	-5.21038300	-3.70939900
97.29999440	0.00000000	-2.17765700	-4.82283400
97.49999439	0.00000000	-0.97194880	-6.72982200
97.69999438	0.00000000	-1.75935000	-9.05511800
97.89999436	0.00000000	-4.04773600	-10.96211000
98.09999435	0.00000000	-7.57258800	-12.16166000
98.29999434	0.00000000	-11.44193000	-12.53691000
98.49999433	0.00000000	-15.29897000	-12.16166000
98.69999432	0.00000000	-17.99951000	-11.04823000
98.89999430	0.00000000	-18.79306000	-9.89173200
99.09999429	0.00000000	-17.99951000	-9.09817800
99.29999428	0.00000000	-15.29897000	-8.31077700
99.49999427	0.00000000	-11.48499000	-7.98474400
99.69999426	0.00000000	-7.94783400	-8.26771600
99.89999425	0.00000000	-4.83513700	-8.63681000
100.09999423	0.00000000	-2.55290300	-8.22465500
100.29999422	0.00000000	-2.13459600	-7.51722400
100.49999421	0.00000000	-3.29724400	-6.72982200
100.69999420	0.00000000	-5.57947800	-6.40378900
100.89999419	0.00000000	-8.69217500	-6.77903500
101.09999417	0.00000000	-11.39887000	-7.93553100
101.29999416	0.00000000	-13.81028000	-9.51648500
101.49999415	0.00000000	-15.67421000	-11.42347000
101.69999414	0.00000000	-16.46161000	-13.32431000
101.89999413	0.00000000	-15.67421000	-14.07480000
102.09999411	0.00000000	-13.81028000	-13.69956000
102.29999410	0.00000000	-11.44193000	-12.11860000
102.49999409	0.00000000	-9.11048200	-9.42421200
102.69999408	0.00000000	-6.79133800	-6.36072800
102.89999407	0.00000000	-5.25344500	-3.70939900
103.09999406	0.00000000	-4.87819900	-2.54675200
103.29999404	0.00000000	-5.62869100	-3.29109200
103.49999403	0.00000000	-7.52952700	-5.19808000
103.69999402	0.00000000	-9.44266700	-7.93553100
103.89999401	0.00000000	-11.06668000	-11.00517000
104.09999400	0.00000000	-12.60458000	-13.69956000
104.29999398	0.00000000	-13.76107000	-15.23130000
104.49999397	0.00000000	-14.13632000	-15.23130000
104.69999396	0.00000000	-13.71801000	-13.69956000
104.89999395	0.00000000	-12.18012000	-11.00517000
105.09999394	0.00000000	-9.95324800	-7.93553100
105.29999392	0.00000000	-8.37229300	-5.24729300
105.49999391	0.00000000	-7.57258800	-3.70939900
105.69999390	0.00000000	-7.16043300	-3.70939900
105.89999389	0.00000000	-7.57258800	-5.19808000
106.09999388	0.00000000	-8.32308000	-7.51722400
106.29999387	0.00000000	-9.52879000	-9.79945900
106.49999385	0.00000000	-11.02362000	-11.74951000
106.69999384	0.00000000	-12.13706000	-12.53691000
106.89999383	0.00000000	-12.18012000	-12.53691000
107.09999382	0.00000000	-11.44193000	-11.74951000
107.29999381	0.00000000	-10.64838000	-9.84867000
107.49999379	0.00000000	-9.48572700	-7.93553100
107.69999378	0.00000000	-8.41535400	-6.40378900
107.89999377	0.00000000	-8.37229300	-5.66560000
108.09999376	0.00000000	-9.11048200	-6.40378900
108.29999375	0.00000000	-9.86097400	-7.89247000
108.49999374	0.00000000	-10.69144000	-9.47342500
108.69999372	0.00000000	-11.44193000	-11.00517000
108.89999371	0.00000000	-12.18012000	-12.11860000
109.09999370	0.00000000	-12.18012000	-12.11860000
109.29999369	0.00000000	-11.44193000	-11.00517000
109.49999368	0.00000000	-10.64838000	-9.47342500
109.69999366	0.00000000	-9.48572700	-7.89247000
109.89999365	0.00000000	-8.37229300	-6.40378900
110.09999364	0.00000000	-7.94783400	-5.61638700
110.29999363	0.00000000	-7.94783400	-5.98548200
110.49999362	0.00000000	-8.37229300	-6.72982200
110.69999360	0.00000000	-9.48572700	-7.93553100
110.89999359	0.00000000	-10.64838000	-9.47342500
111.09999358	0.00000000	-11.44193000	-11.00517000
111.29999357	0.00000000	-12.18012000	-12.11860000
111.49999356	0.00000000	-12.18012000	-12.16166000
111.69999355	0.00000000	-11.44193000	-11.42347000
111.89999353	0.00000000	-10.69144000	-10.62992000
112.09999352	0.00000000	-9.90403500	-9.47342500
112.29999351	0.00000000	-9.52879000	-8.35998900
112.49999350	0.00000000	-9.44266700	-7.89247000
112.69999349	0.00000000	-9.11048200	-7.51722400
112.89999347	0.00000000	-8.74138700	-7.14812900
113.09999346	0.00000000	-9.15354300	-7.56028500
113.29999345	0.00000000	-9.86097400	-8.26771600
113.49999344	0.00000000	-10.64838000	-9.05511800
113.69999343	0.00000000	-10.97441000	-9.43036400
113.89999341	0.00000000	-10.64838000	-9.47342500
114.09999340	0.00000000	-9.95324800	-9.47342500
114.29999339	0.00000000	-9.90403500	-9.51648500
114.49999338	0.00000000	-10.23007000	-9.89173200
114.69999337	0.00000000	-9.86097400	-10.62992000
114.89999336	0.00000000	-9.52879000	-11.00517000
115.09999334	0.00000000	-9.48572700	-11.00517000
115.29999333	0.00000000	-9.48572700	-10.62992000
115.49999332	0.00000000	-9.48572700	-9.89173200
115.69999331	0.00000000	-9.48572700	-9.47342500
115.89999330	0.00000000	-9.52879000	-9.05511800
116.09999328	0.00000000	-9.90403500	-8.26771600
116.29999327	0.00000000	-10.64838000	-7.51722400
116.49999326	0.00000000	-11.02362000	-6.72982200
116.69999325	0.00000000	-11.06668000	-6.40378900
116.89999324	0.00000000	-11.02362000	-6.77903500
117.09999322	0.00000000	-10.64838000	-7.89247000
117.29999321	0.00000000	-9.90403500	-9.05511800
117.49999320	0.00000000	-9.48572700	-9.84867000
117.69999319	0.00000000	-9.06742000	-10.62992000
117.89999318	0.00000000	-8.32308000	-11.00517000
118.09999317	0.00000000	-7.94783400	-11.04823000
118.29999315	0.00000000	-7.94783400	-11.00517000
118.49999314	0.00000000	-8.37229300	-10.58686000
118.69999313	0.00000000	-9.48572700	-9.47342500
118.89999312	0.00000000	-10.64838000	-8.35998900
119.09999311	0.00000000	-11.44193000	-7.89247000
119.29999309	0.00000000	-12.22933000	-7.51722400
119.49999308	0.00000000	-12.55536000	-7.14812900
119.69999307	0.00000000	-12.22933000	-7.51722400
119.89999306	0.00000000	-11.39887000	-7.84940900
120.09999305	0.00000000	-10.27313000	-7.93553100
120.29999303	0.00000000	-8.69832600	-8.31077700
120.49999302	0.00000000	-7.57258800	-9.05511800
120.69999301	0.00000000	-6.79133800	-9.47342500
120.89999300	0.00000000	-6.79133800	-9.89173200
121.09999299	0.00000000	-7.52952700	-10.58686000
121.29999298	0.00000000	-8.32308000	-10.58686000
121.49999296	0.00000000	-9.52879000	-9.89173200
121.69999295	0.00000000	-11.02362000	-9.51648500
121.89999294	0.00000000	-12.22933000	-9.43036400
122.09999293	0.00000000	-12.97982000	-9.05511800
122.29999292	0.00000000	-13.34276000	-8.31077700
122.49999290	0.00000000	-12.60458000	-7.93553100
122.69999289	0.00000000	-11.48499000	-7.89247000
122.89999288	0.00000000	-10.69144000	-7.89247000
123.09999287	0.00000000	-9.86097400	-7.89247000
123.29999286	0.00000000	-9.11048200	-7.93553100
123.49999284	0.00000000	-8.32308000	-8.31077700
123.69999283	0.00000000	-7.94783400	-9.05511800
123.89999282	0.00000000	-7.94783400	-9.43036400
124.09999281	0.00000000	-8.32308000	-9.47342500
124.29999280	0.00000000	-9.11048200	-9.51648500
124.49999279	0.00000000	-9.86097400	-9.84867000
124.69999277	0.00000000	-10.69144000	-10.21161000
124.89999276	0.00000000	-11.44193000	-9.84867000
125.09999275	0.00000000	-12.22933000	-9.47342500
125.29999274	0.00000000	-12.55536000	-9.05511800
125.49999273	0.00000000	-12.22933000	-8.31077700
125.69999271	0.00000000	-11.44193000	-7.93553100
125.89999270	0.00000000	-10.64838000	-7.89247000
126.09999269	0.00000000	-9.48572700	-7.89247000
126.29999268	0.00000000	-8.37229300	-7.89247000
126.49999267	0.00000000	-7.94783400	-7.93553100
126.69999265	0.00000000	-7.90477300	-8.31077700
126.89999264	0.00000000	-7.94783400	-9.05511800
127.09999263	0.00000000	-8.37229300	-9.43036400
127.29999262	0.00000000	-9.52879000	-9.47342500
127.49999261	0.00000000	-11.02362000	-9.47342500
127.69999260	0.00000000	-12.18012000	-9.47342500
127.89999258	0.00000000	-12.60458000	-9.47342500
128.09999257	0.00000000	-12.60458000	-9.47342500
128.29999256	0.00000000	-12.18012000	-9.43036400
128.49999255	0.00000000	-11.06668000	-9.05511800
128.69999254	0.00000000	-9.90403500	-8.35998900
128.89999252	0.00000000	-9.11048200	-8.31077700
129.09999251	0.00000000	-8.32308000	-8.67987200
129.29999250	0.00000000	-7.99704600	-8.68602300
129.49999249	0.00000000	-8.37229300	-9.09817800
129.69999248	0.00000000	-9.48572700	-9.43036400
129.89999246	0.00000000	-10.64838000	-9.47342500
130.09999245	0.00000000	-11.44193000	-9.47342500
130.29999244	0.00000000	-12.22933000	-9.47342500
130.49999243	0.00000000	-12.55536000	-9.43036400
130.69999242	0.00000000	-12.18012000	-9.05511800
130.89999241	0.00000000	-11.06668000	-8.35998900
131.09999239	0.00000000	-9.90403500	-8.31077700
131.29999238	0.00000000	-9.11048200	-8.67987200
131.49999237	0.00000000	-8.32308000	-8.68602300
131.69999236	0.00000000	-8.04010800	-9.14124000
131.89999235	0.00000000	-8.69832600	-9.84867000
132.09999233	0.00000000	-9.85482200	-10.62992000
132.29999232	0.00000000	-10.23622000	-10.95595000
132.49999231	0.00000000	-10.69144000	-10.62992000
132.69999230	0.00000000	-11.02362000	-9.89173200
132.89999229	0.00000000	-11.02362000	-9.47342500
133.09999227	0.00000000	-10.64838000	-9.05511800
133.29999226	0.00000000	-9.90403500	-8.31077700
133.49999225	0.00000000	-9.57800100	-7.93553100
133.69999224	0.00000000	-9.86097400	-7.89247000
133.89999223	0.00000000	-10.27313000	-7.89247000
134.09999222	0.00000000	-10.23622000	-7.93553100
134.29999220	0.00000000	-10.27313000	-8.31077700
134.49999219	0.00000000	-9.86097400	-9.09817800
134.69999218	0.00000000	-9.52879000	-9.84867000
134.89999217	0.00000000	-9.48572700	-10.62992000
135.09999216	0.00000000	-9.48572700	-11.00517000
135.29999214	0.00000000	-9.48572700	-11.00517000
135.49999213	0.00000000	-9.48572700	-10.58686000
135.69999212	0.00000000	-9.48572700	-9.47342500
135.89999211	0.00000000	-9.52879000	-8.35998900
136.09999210	0.00000000	-9.90403500	-7.93553100
136.29999208	0.00000000	-10.64838000	-7.89247000
136.49999207	0.00000000	-11.02362000	-7.89247000
136.69999206	0.00000000	-11.06668000	-7.89247000
136.89999205	0.00000000	-11.06668000	-7.93553100
137.09999204	0.00000000	-11.02362000	-8.31077700
137.29999203	0.00000000	-10.64838000	-9.05511800
137.49999201	0.00000000	-9.86097400	-9.47342500
137.69999200	0.00000000	-9.11048200	-9.89173200
137.89999199	0.00000000	-8.37229300	-10.62992000
138.09999198	0.00000000	-8.37229300	-11.00517000
138.29999197	0.00000000	-9.06742000	-11.00517000
138.49999195	0.00000000	-9.48572700	-10.62992000
138.69999194	0.00000000	-9.90403500	-9.89173200
138.89999193	0.00000000	-10.64838000	-9.47342500
139.09999192	0.00000000	-11.02362000	-9.05511800
139.29999191	0.00000000	-11.06668000	-8.31077700
139.49999189	0.00000000	-11.02362000	-7.93553100
139.69999188	0.00000000	-10.64838000	-7.89247000
139.89999187	0.00000000	-9.90403500	-7.89247000
140.09999186	0.00000000	-9.52879000	-7.93553100
140.29999185	0.00000000	-9.48572700	-8.31077700
140.49999184	0.00000000	-9.48572700	-9.09817800
140.69999182	0.00000000	-9.52879000	-9.84867000
140.89999181	0.00000000	-9.90403500	-10.62992000
141.09999180	0.00000000	-10.64838000	-11.00517000
141.29999179	0.00000000	-11.02362000	-11.00517000
141.49999178	0.00000000	-11.06668000	-10.62992000
141.69999176	0.00000000	-11.02362000	-9.84867000
141.89999175	0.00000000	-10.64838000	-9.05511800
142.09999174	0.00000000	-9.90403500	-7.93553100
142.29999173	0.00000000	-9.52879000	-7.19734200
142.49999172	0.00000000	-9.48572700	-7.51722400
142.69999170	0.00000000	-9.48572700	-7.84940900
142.89999169	0.00000000	-9.48572700	-7.93553100
143.09999168	0.00000000	-9.52879000	-8.35998900
143.29999167	0.00000000	-9.90403500	-9.47342500
143.49999166	0.00000000	-10.64838000	-10.58686000
143.69999165	0.00000000	-11.02362000	-11.00517000
143.89999163	0.00000000	-11.02362000	-11.04823000
144.09999162	0.00000000	-10.64838000	-11.00517000
144.29999161	0.00000000	-9.90403500	-10.58686000
144.49999160	0.00000000	-9.52879000	-9.47342500
144.69999159	0.00000000	-9.48572700	-8.35998900
144.89999157	0.00000000	-9.48572700	-7.93553100
145.09999156	0.00000000	-9.48572700	-7.89247000
145.29999155	0.00000000	-9.48572700	-7.89247000
145.49999154	0.00000000	-9.52879000	-7.93553100
145.69999153	0.00000000	-9.90403500	-8.31077700
145.89999151	0.00000000	-10.64838000	-9.09817800
146.09999150	0.00000000	-11.02362000	-9.84867000
146.29999149	0.00000000	-11.06668000	-10.62992000
146.49999148	0.00000000	-11.02362000	-11.00517000
146.69999147	0.00000000	-10.64838000	-11.00517000
146.89999146	0.00000000	-9.90403500	-10.62992000
147.09999144	0.00000000	-9.52879000	-9.89173200
147.29999143	0.00000000	-9.48572700	-9.47342500
147.49999142	0.00000000	-9.48572700	-9.05511800
147.69999141	0.00000000	-9.52879000	-8.31077700
147.89999140	0.00000000	-9.90403500	-7.98474400
148.09999138	0.00000000	-10.64838000	-8.26771600
148.29999137	0.00000000	-10.97441000	-8.67987200
148.49999136	0.00000000	-10.69144000	-8.68602300
148.69999135	0.00000000	-10.32234000	-9.09817800
148.89999134	0.00000000	-10.69144000	-9.47342500
149.09999132	0.00000000	-10.97441000	-9.84867000
149.29999131	0.00000000	-10.64838000	-10.21161000
149.49999130	0.00000000	-9.90403500	-9.84867000
149.69999129	0.00000000	-9.52879000	-9.51648500
149.89999128	0.00000000	-9.48572700	-9.43036400
150.09999127	0.00000000	-9.48572700	-9.05511800
150.29999125	0.00000000	-9.48572700	-8.31077700
150.49999124	0.00000000	-9.52879000	-7.93553100
150.69999123	0.00000000	-9.90403500	-7.89247000
150.89999122	0.00000000	-10.64838000	-7.93553100
151.09999121	0.00000000	-11.02362000	-8.31077700
151.29999119	0.00000000	-11.06668000	-9.05511800
151.49999118	0.00000000	-11.06668000	-9.43036400
151.69999117	0.00000000	-11.06668000	-9.47342500
151.89999116	0.00000000	-11.02362000	-9.47342500
152.09999115	0.00000000	-10.64838000	-9.47342500
152.29999113	0.00000000	-9.90403500	-9.47342500
152.49999112	0.00000000	-9.52879000	-9.47342500
152.69999111	0.00000000	-9.48572700	-9.47342500
152.89999110	0.00000000	-9.48572700	-9.47342500
153.09999109	0.00000000	-9.48572700	-9.47342500
153.29999108	0.00000000	-9.48572700	-9.47342500
153.49999106	0.00000000	-9.52879000	-9.43036400
153.69999105	0.00000000	-9.90403500	-9.05511800
153.89999104	0.00000000	-10.64838000	-8.31077700
154.09999103	0.00000000	-11.02362000	-7.98474400
154.29999102	0.00000000	-11.06668000	-8.31077700
154.49999100	0.00000000	-11.06668000	-9.00590400
154.69999099	0.00000000	-11.06668000	-9.05511800
154.89999098	0.00000000	-11.02362000	-8.72908400
155.09999097	0.00000000	-10.64838000	-9.09817800
155.29999096	0.00000000	-9.90403500	-9.43036400
155.49999094	0.00000000	-9.52879000	-9.47342500
155.69999093	0.00000000	-9.48572700	-9.47342500
155.89999092	0.00000000	-9.48572700	-9.47342500
156.09999091	0.00000000	-9.48572700	-9.47342500
156.29999090	0.00000000	-9.52879000	-9.43036400
156.49999089	0.00000000	-9.90403500	-9.05511800
156.69999087	0.00000000	-10.64838000	-8.31077700
156.89999086	0.00000000	-11.02362000	-7.93553100
157.09999085	0.00000000	-11.06668000	-7.93553100
157.29999084	0.00000000	-11.06668000	-8.26771600
157.49999083	0.00000000	-11.06668000	-8.67987200
157.69999081	0.00000000	-11.06668000	-8.68602300
157.89999080	0.00000000	-11.02362000	-9.14124000
158.09999079	0.00000000	-10.64838000	-9.84867000
158.29999078	0.00000000	-9.90403500	-10.58686000
158.49999077	0.00000000	-9.52879000	-10.58686000
158.69999075	0.00000000	-9.48572700	-9.89173200
158.89999074	0.00000000	-9.48572700	-9.51648500
159.09999073	0.00000000	-9.48572700	-9.47342500
159.29999072	0.00000000	-9.52879000	-9.43036400
159.49999071	0.00000000	-9.90403500	-9.05511800
159.69999070	0.00000000	-10.64838000	-8.31077700
159.89999068	0.00000000	-11.02362000	-7.93553100
160.09999067	0.00000000	-11.06668000	-7.93553100
160.29999066	0.00000000	-11.06668000	-8.31077700
160.49999065	0.00000000	-11.06668000	-9.05511800
160.69999064	0.00000000	-11.06668000	-9.43036400
160.89999062	0.00000000	-11.06668000	-9.47342500
161.09999061	0.00000000	-11.02362000	-9.47342500
161.29999060	0.00000000	-10.64838000	-9.47342500
161.49999059	0.00000000	-9.90403500	-9.47342500
161.69999058	0.00000000	-9.52879000	-9.47342500
161.89999056	0.00000000	-9.48572700	-9.47342500
162.09999055	0.00000000	-9.48572700	-9.47342500
162.29999054	0.00000000	-9.48572700	-9.47342500
162.49999053	0.00000000	-9.48572700	-9.43036400
162.69999052	0.00000000	-9.52879000	-9.05511800
162.89999051	0.00000000	-9.90403500	-8.35998900
163.09999049	0.00000000	-10.64838000	-8.35998900
163.29999048	0.00000000	-11.02362000	-9.05511800
163.49999047	0.00000000	-11.06668000	-9.38115100
163.69999046	0.00000000	-11.06668000	-9.09817800
163.89999045	0.00000000	-11.06668000	-8.72908400
164.09999043	0.00000000	-11.06668000	-9.09817800
164.29999042	0.00000000	-11.06668000	-9.43036400
164.49999041	0.00000000	-11.02362000	-9.47342500
164.69999040	0.00000000	-10.64838000	-9.47342500
164.89999039	0.00000000	-9.90403500	-9.47342500
165.09999037	0.00000000	-9.52879000	-9.47342500
165.29999036	0.00000000	-9.48572700	-9.47342500
165.49999035	0.00000000	-9.48572700	-9.47342500
165.69999034	0.00000000	-9.48572700	-9.47342500
165.89999033	0.00000000	-9.52879000	-9.47342500
166.09999032	0.00000000	-9.90403500	-9.47342500
166.29999030	0.00000000	-10.64838000	-9.47342500
166.49999029	0.00000000	-11.02362000	-9.47342500
166.69999028	0.00000000	-11.06668000	-9.47342500
166.89999027	0.00000000	-11.06668000	-9.47342500
167.09999026	0.00000000	-11.06668000	-9.47342500
167.29999024	0.00000000	-11.06668000	-9.47342500
167.49999023	0.00000000	-11.02362000	-9.47342500
167.69999022	0.00000000	-10.64838000	-9.47342500
167.89999021	0.00000000	-9.90403500	-9.47342500
168.09999020	0.00000000	-9.52879000	-9.47342500
168.29999018	0.00000000	-9.48572700	-9.47342500
168.49999017	0.00000000	-9.48572700	-9.47342500
168.69999016	0.00000000	-9.52879000	-9.47342500
168.89999015	0.00000000	-9.90403500	-9.47342500
169.09999014	0.00000000	-10.64838000	-9.47342500
169.29999013	0.00000000	-11.02362000	-9.47342500
169.49999011	0.00000000	-11.06668000	-9.47342500
169.69999010	0.00000000	-11.06668000	-9.47342500
169.89999009	0.00000000	-11.06668000	-9.47342500
170.09999008	0.00000000	-11.02362000	-9.47342500
170.29999007	0.00000000	-10.69144000	-9.47342500
170.49999005	0.00000000	-10.32234000	-9.47342500
170.69999004	0.00000000	-10.69144000	-9.47342500
170.89999003	0.00000000	-10.97441000	-9.47342500
171.09999002	0.00000000	-10.69144000	-9.47342500
171.29999001	0.00000000	-10.32234000	-9.47342500
171.49998999	0.00000000	-10.69144000	-9.47342500
171.69998998	0.00000000	-10.97441000	-9.47342500
171.89998997	0.00000000	-10.64838000	-9.47342500
172.09998996	0.00000000	-9.95324800	-9.47342500
172.29998995	0.00000000	-9.95324800	-9.47342500
172.49998994	0.00000000	-10.64838000	-9.47342500
172.69998992	0.00000000	-11.02362000	-9.47342500
172.89998991	0.00000000	-11.06668000	-9.47342500
173.09998990	0.00000000	-11.06668000	-9.47342500
173.29998989	0.00000000	-11.06668000	-9.47342500
173.49998988	0.00000000	-11.06668000	-9.43036400
173.69998986	0.00000000	-11.06668000	-9.09817800
173.89998985	0.00000000	-11.02362000	-8.72908400
174.09998984	0.00000000	-10.69144000	-9.09817800
174.29998983	0.00000000	-10.27928000	-9.43036400
174.49998982	0.00000000	-10.31619000	-9.47342500
174.69998980	0.00000000	-10.27928000	-9.47342500
174.89998979	0.00000000	-10.69144000	-9.47342500
175.09998978	0.00000000	-11.02362000	-9.47342500
175.29998977	0.00000000	-11.06668000	-9.47342500
175.49998976	0.00000000	-11.06668000	-9.47342500
175.69998975	0.00000000	-11.06668000	-9.47342500
175.89998973	0.00000000	-11.06668000	-9.47342500
176.09998972	0.00000000	-11.06668000	-9.47342500
176.29998971	0.00000000	-11.02362000	-9.47342500
176.49998970	0.00000000	-10.69144000	-9.47342500
176.69998969	0.00000000	-10.32234000	-9.47342500
176.89998967	0.00000000	-10.69144000	-9.47342500
177.09998966	0.00000000	-10.97441000	-9.47342500
177.29998965	0.00000000	-10.69144000	-9.47342500
177.49998964	0.00000000	-10.32234000	-9.47342500
177.69998963	0.00000000	-10.69144000	-9.47342500
177.89998961	0.00000000	-11.02362000	-9.47342500
178.09998960	0.00000000	-11.06668000	-9.47342500
178.29998959	0.00000000	-11.06668000	-9.47342500
178.49998958	0.00000000	-11.06668000	-9.47342500
178.69998957	0.00000000	-11.02362000	-9.47342500
178.89998956	0.00000000	-10.69144000	-9.43036400
179.09998954	0.00000000	-10.27928000	-9.09817800
179.29998953	0.00000000	-10.31619000	-8.72908400
179.49998952	0.00000000	-10.27928000	-9.09817800
179.69998951	0.00000000	-10.69144000	-9.43036400
179.89998950	0.00000000	-11.02362000	-9.47342500
180.09998948	0.00000000	-11.06668000	-9.47342500
180.29998947	0.00000000	-11.06668000	-9.47342500
180.49998946	0.00000000	-11.06668000	-9.47342500
180.69998945	0.00000000	-11.06668000	-9.47342500
180.89998944	0.00000000	-11.06668000	-9.47342500
181.09998942	0.00000000	-11.06668000	-9.47342500
181.29998941	0.00000000	-11.06668000	-9.47342500
181.49998940	0.00000000	-11.06668000	-9.43036400
181.69998939	0.00000000	-11.06668000	-9.09817800
181.89998938	0.00000000	-11.06668000	-8.72908400
182.09998937	0.00000000	-11.06668000	-9.09817800
182.29998935	0.00000000	-11.06668000	-9.43036400
182.49998934	0.00000000	-11.06668000	-9.47342500
182.69998933	0.00000000	-11.06668000	-9.47342500
182.89998932	0.00000000	-11.06668000	-9.47342500
183.09998931	0.00000000	-11.06668000	-9.47342500
183.29998929	0.00000000	-11.06668000	-9.51648500
183.49998928	0.00000000	-11.06668000	-9.89173200
183.69998927	0.00000000	-11.06668000	-10.58686000
183.89998926	0.00000000	-11.06668000	-10.58686000
184.09998925	0.00000000	-11.06668000	-9.89173200
184.29998923	0.00000000	-11.06668000	-9.51648500
184.49998922	0.00000000	-11.06668000	-9.47342500
184.69998921	0.00000000	-11.06668000	-9.47342500
184.89998920	0.00000000	-11.06668000	-9.47342500
185.09998919	0.00000000	-11.06668000	-9.47342500
185.29998918	0.00000000	-11.06668000	-9.47342500
185.49998916	0.00000000	-11.06668000	-9.47342500
185.69998915	0.00000000	-11.06668000	-9.51648500
185.89998914	0.00000000	-11.06668000	-9.89173200
186.09998913	0.00000000	-11.06668000	-10.62992000
186.29998912	0.00000000	-11.06668000	-11.00517000
186.49998910	0.00000000	-11.06668000	-11.00517000
186.69998909	0.00000000	-11.06668000	-10.62992000
186.89998908	0.00000000	-11.10974000	-9.93479300
187.09998907	0.00000000	-11.44193000	-9.89173200
187.29998906	0.00000000	-11.81102000	-10.21161000
187.49998904	0.00000000	-11.48499000	-9.84867000
187.69998903	0.00000000	-11.48499000	-9.51648500
187.89998902	0.00000000	-11.81102000	-9.47342500
188.09998901	0.00000000	-11.44193000	-9.47342500
188.29998900	0.00000000	-11.10974000	-9.51648500
188.49998899	0.00000000	-11.06668000	-9.89173200
188.69998897	0.00000000	-11.06668000	-10.62992000
188.89998896	0.00000000	-11.06668000	-11.00517000
189.09998895	0.00000000	-11.06668000	-11.04823000
189.29998894	0.00000000	-11.06668000	-11.04823000
189.49998893	0.00000000	-11.06668000	-11.04823000
189.69998891	0.00000000	-11.06668000	-11.00517000
189.89998890	0.00000000	-11.06668000	-10.67298000
190.09998889	0.00000000	-11.06668000	-10.26698000
190.29998888	0.00000000	-11.06668000	-10.25467000
190.49998887	0.00000000	-11.06668000	-9.84867000
190.69998885	0.00000000	-11.06668000	-9.51648500
190.89998884	0.00000000	-11.06668000	-9.47342500
191.09998883	0.00000000	-11.06668000	-9.47342500
191.29998882	0.00000000	-11.06668000	-9.47342500
191.49998881	0.00000000	-11.06668000	-9.47342500
191.69998880	0.00000000	-11.06668000	-9.47342500
191.89998878	0.00000000	-11.06668000	-9.51648500
192.09998877	0.00000000	-11.06668000	-9.89173200
192.29998876	0.00000000	-11.06668000	-10.62992000
192.49998875	0.00000000	-11.06668000	-11.00517000
192.69998874	0.00000000	-11.06668000	-11.04823000
192.89998872	0.00000000	-11.06668000	-11.04823000
193.09998871	0.00000000	-11.10974000	-11.00517000
193.29998870	0.00000000	-11.44193000	-10.62992000
193.49998869	0.00000000	-11.81102000	-9.89173200
193.69998868	0.00000000	-11.44193000	-9.51648500
193.89998866	0.00000000	-11.10974000	-9.47342500
194.09998865	0.00000000	-11.06668000	-9.47342500
194.29998864	0.00000000	-11.06668000	-9.47342500
194.49998863	0.00000000	-11.06668000	-9.47342500
194.69998862	0.00000000	-11.06668000	-9.47342500
194.89998861	0.00000000	-11.06668000	-9.47342500
195.09998859	0.00000000	-11.06668000	-9.47342500
195.29998858	0.00000000	-11.06668000	-9.51648500
195.49998857	0.00000000	-11.06668000	-9.84867000
195.69998856	0.00000000	-11.06668000	-10.21161000
195.89998855	0.00000000	-11.06668000	-9.89173200
196.09998853	0.00000000	-11.10974000	-9.93479300
