Time	Channel A	Channel B	Channel C
(us)	(V)	(mV)	(mV)

-4.59999956	0.00000000	-72.73621000	-18.94685000
-4.39999957	0.00000000	-72.73621000	-18.94685000
-4.19999958	0.00000000	-72.73621000	-18.94685000
-3.99999959	0.00000000	-72.73621000	-18.94685000
-3.79999960	0.00000000	-72.73621000	-18.94685000
-3.59999962	0.00000000	-72.73621000	-18.94685000
-3.39999963	0.00000000	-72.73621000	-18.94685000
-3.19999964	0.00000000	-72.73621000	-18.94685000
-2.99999965	0.00000000	-72.73621000	-18.94685000
-2.79999966	0.00000000	-72.73621000	-18.94685000
-2.59999968	0.00000000	-72.73621000	-18.94685000
-2.39999969	0.00000000	-72.73621000	-18.94685000
-2.19999970	0.00000000	-72.73621000	-18.94685000
-1.99999971	0.00000000	-72.73621000	-18.94685000
-1.79999972	0.00000000	-72.73621000	-18.94685000
-1.59999973	0.00000000	-72.73621000	-18.94685000
-1.39999975	0.00000000	-72.73621000	-18.94685000
-1.19999976	0.00000000	-72.73621000	-18.94685000
-0.99999977	0.00000000	-72.73621000	-18.94685000
-0.79999978	0.00000000	-72.73621000	-18.94685000
-0.59999979	0.00000000	-72.73621000	-18.94685000
-0.39999981	0.15871060	-72.73621000	-18.94685000
-0.19999982	0.63668800	-72.73621000	-18.94685000
0.00000017	0.79601380	-72.73621000	-18.94685000
0.20000016	0.95533960	-72.73621000	-18.94685000
0.40000015	0.95533960	-72.73621000	-18.94685000
0.60000013	0.47736220	-72.73621000	-18.94685000
0.80000012	-0.15871060	-72.73621000	-18.94685000
1.00000011	-1.27399100	-72.73621000	-18.94685000
1.20000010	-2.07062000	-72.73621000	-18.94685000
1.40000009	-2.70792300	-72.73621000	-18.94685000
1.60000008	-2.70792300	-72.73621000	-18.94685000
1.80000006	-1.75196900	-72.69316000	-18.94685000
2.00000005	0.00000000	-72.36097000	-18.94685000
2.20000004	2.07062000	-71.99188000	-18.94685000
2.40000003	3.98191400	-72.36097000	-18.94685000
2.60000002	5.25652100	-72.69316000	-18.94685000
2.80000000	5.09719500	-72.73621000	-18.94685000
2.99999999	3.66326300	-72.73621000	-18.98991000
3.19999998	0.95533960	-72.73621000	-19.32210000
3.39999997	-2.38927200	-72.73621000	-19.69119000
3.59999996	-5.57517200	-72.73621000	-19.32210000
3.79999994	-7.64579200	-72.73621000	-18.98991000
3.99999993	-7.80511800	-72.73621000	-18.94685000
4.19999992	-5.89382400	-72.73621000	-18.94685000
4.39999991	-2.38927200	-72.73621000	-18.94685000
4.59999990	2.07062000	-72.73621000	-18.94685000
4.79999989	6.21247500	-72.73621000	-18.94685000
4.99999987	8.92039900	-72.73621000	-18.94685000
5.19999986	9.39837600	-72.73621000	-18.98991000
5.39999985	7.64579200	-72.73621000	-19.36516000
5.59999984	3.82258900	-72.73621000	-20.06029000
5.79999983	-0.95533960	-72.73621000	-20.06029000
5.99999981	-5.41584600	-72.73621000	-19.36516000
6.19999980	-8.60174700	-72.69316000	-18.98991000
6.39999979	-9.55770200	-72.36097000	-18.94685000
6.59999978	-7.96444400	-71.99188000	-18.94685000
6.79999977	-4.61921700	-72.36097000	-18.94685000
6.99999975	-0.31803640	-72.69316000	-18.94685000
7.19999974	3.82258900	-72.73621000	-18.94685000
7.39999973	6.69045300	-72.73621000	-18.94685000
7.59999972	7.80511800	-72.73621000	-18.94685000
7.79999971	6.84916400	-72.73621000	-18.94685000
7.99999970	4.30056600	-72.73621000	-18.94685000
8.19999968	1.11466500	-72.73621000	-18.94685000
8.39999967	-2.07062000	-72.73621000	-18.94685000
8.59999966	-4.30056600	-72.73621000	-18.94685000
8.79999965	-5.25652100	-72.73621000	-18.94685000
8.99999964	-4.77854300	-72.73621000	-18.94685000
9.19999962	-3.34522600	-72.73621000	-18.94685000
9.39999961	-1.27399100	-72.73621000	-18.94685000
9.59999960	0.63668800	-72.73621000	-18.94685000
9.79999959	1.91129400	-72.73621000	-18.94685000
9.99999958	2.54859700	-72.73621000	-18.94685000
10.19999956	2.38927200	-72.73621000	-18.94685000
10.39999955	1.75196900	-72.73621000	-18.94685000
10.59999954	0.79601380	-72.73621000	-18.94685000
10.79999953	0.00000000	-72.73621000	-18.94685000
10.99999952	-0.63668800	-72.73621000	-18.94685000
11.19999951	-0.95533960	-72.73621000	-18.94685000
11.39999949	-0.95533960	-72.73621000	-18.94685000
11.59999948	-0.79601380	-72.73621000	-18.94685000
11.79999947	-0.47736220	-72.73621000	-18.94685000
11.99999946	-0.31803640	-72.73621000	-18.94685000
12.19999945	-0.15871060	-72.73621000	-18.94685000
12.39999943	-0.15871060	-72.73621000	-18.94685000
12.59999942	0.00000000	-72.73621000	-18.94685000
12.79999941	0.00000000	-72.73621000	-18.94685000
12.99999940	0.15871060	-72.73621000	-18.94685000
13.19999939	0.15871060	-72.73621000	-18.94685000
13.39999937	0.00000000	-72.73621000	-18.94685000
13.59999936	0.00000000	-72.73621000	-18.94685000
13.79999935	0.00000000	-72.73621000	-18.94685000
13.99999934	-0.15871060	-72.73621000	-18.94685000
14.19999933	-0.15871060	-72.73621000	-18.94685000
14.39999932	-0.15871060	-72.73621000	-18.94685000
14.59999930	0.00000000	-72.73621000	-18.94685000
14.79999929	0.00000000	-72.73621000	-18.94685000
14.99999928	0.00000000	-72.73621000	-18.94685000
15.19999927	0.00000000	-72.69316000	-18.94685000
15.39999926	0.00000000	-72.36097000	-18.94685000
15.59999924	0.00000000	-71.99188000	-18.90379000
15.79999923	0.00000000	-72.36097000	-18.57160000
15.99999922	0.00000000	-72.69316000	-18.15945000
16.19999921	0.00000000	-72.73621000	-18.19636000
16.39999920	-0.15871060	-72.69316000	-18.15945000
16.59999919	0.00000000	-72.31791000	-18.57160000
16.79999917	-0.15871060	-71.57356000	-18.90379000
16.99999916	0.00000000	-71.19833000	-18.94685000
17.19999915	0.00000000	-71.11221000	-18.94685000
17.39999914	0.00000000	-70.78001000	-18.94685000
17.59999913	0.00000000	-70.41092000	-18.94685000
17.79999911	0.00000000	-70.82307000	-18.94685000
17.99999910	0.00000000	-71.57356000	-18.94685000
18.19999909	0.00000000	-72.77928000	-18.94685000
18.39999908	0.00000000	-74.31717000	-18.94685000
18.59999907	0.00000000	-75.85506000	-18.94685000
18.79999905	0.00000000	-77.01156000	-18.94685000
18.99999904	0.00000000	-77.34374000	-18.94685000
19.19999903	0.00000000	-76.55019000	-18.94685000
19.39999902	0.00000000	-74.18184000	-18.94685000
19.59999901	0.00000000	-70.73695000	-18.94685000
19.79999900	0.00000000	-66.82455000	-18.94685000
19.99999898	0.00000000	-63.37967000	-18.94685000
20.19999897	0.00000000	-61.10359000	-18.94685000
20.39999896	0.00000000	-61.14665000	-18.94685000
20.59999895	0.00000000	-63.93332000	-18.94685000
20.79999894	0.00000000	-69.38361000	-18.94685000
20.99999892	0.00000000	-77.10384000	-18.98991000
21.19999891	0.00000000	-84.78715000	-19.32210000
21.39999890	0.00000000	-90.60039000	-19.73425000
21.59999889	0.00000000	-93.20866000	-19.69734000
21.79999888	0.00000000	-91.20325000	-19.73425000
21.99999886	0.00000000	-84.18430000	-19.32210000
22.19999885	0.00000000	-73.33907000	-18.98991000
22.39999884	0.00000000	-60.59301000	-18.94685000
22.59999883	0.00000000	-49.05265000	-18.94685000
22.79999882	0.00000000	-41.75073000	-18.94685000
22.99999881	0.00000000	-40.67421000	-18.94685000
23.19999879	0.00000000	-46.95497000	-18.90379000
23.39999878	0.00000000	-60.11934000	-18.52854000
23.59999877	0.00000000	-77.52214000	-17.78420000
23.79999876	0.00000000	-95.25098000	-17.40895000
23.99999875	0.00000000	-109.11660000	-17.36589000
24.19999873	0.00000000	-115.21900000	-17.40895000
24.39999872	0.00000000	-111.68180000	-17.83341000
24.59999871	0.00000000	-98.51746000	-18.98991000
24.79999870	0.00000000	-78.41412000	-20.52780000
24.99999869	0.00000000	-55.98548000	-22.10261000
25.19999867	0.00000000	-35.93135000	-23.59129000
25.39999866	0.00000000	-23.27141000	-24.33563000
25.59999865	0.00000000	-21.78272000	-23.50517000
25.79999864	0.00000000	-32.20350000	-21.17372000
25.99999863	0.00000000	-52.25763000	-17.32283000
26.19999862	0.00000000	-76.96850000	-13.09670000
26.39999860	0.00000000	-100.55980000	-9.60875900
26.59999859	0.00000000	-117.96260000	-7.33267600
26.79999858	0.00000000	-125.26450000	-7.37573800
26.99999857	0.00000000	-120.61390000	-10.11319000
27.19999856	0.00000000	-104.79210000	-15.18209000
27.39999854	0.00000000	-81.66830000	-22.15182000
27.59999853	0.00000000	-56.91437000	-29.49065000
27.79999852	0.00000000	-36.01747000	-35.62377000
27.99999851	0.00000000	-23.27141000	-39.01944000
28.19999850	0.00000000	-21.73966000	-37.81373000
28.39999848	0.00000000	-31.69906000	-32.00664000
28.59999847	0.00000000	-50.17224000	-22.66240000
28.79999846	0.00000000	-72.18258000	-11.09744000
28.99999845	0.00000000	-92.74113000	0.04921259
29.19999844	0.00000000	-107.86790000	7.76328700
29.39999843	0.00000000	-114.84370000	10.41462000
29.59999841	0.00000000	-112.19240000	6.88361200
29.79999840	0.00000000	-101.07040000	-2.81742100
29.99999839	0.00000000	-84.83022000	-16.71383000
30.19999838	0.00000000	-67.00910000	-32.18504000
30.39999837	0.00000000	-51.14419000	-45.62008000
30.59999835	0.00000000	-40.67421000	-53.74631000
30.79999834	0.00000000	-37.46924000	-54.49680000
30.99999833	0.00000000	-41.32628000	-47.89616000
31.19999832	0.00000000	-50.96579000	-34.74409000
31.39999831	0.00000000	-64.49925000	-17.74114000
31.59999829	0.00000000	-78.41412000	-0.73203740
31.79999828	0.00000000	-90.08981000	13.15207000
31.99999827	0.00000000	-97.44094000	20.44783000
32.19999826	0.00000000	-99.02189000	19.33440000
32.39999825	0.00000000	-94.83266000	10.41462000
32.59999824	0.00000000	-86.31889000	-4.63828700
32.79999822	0.00000000	-75.47981000	-22.75467000
32.99999821	0.00000000	-64.30856000	-39.39468000
33.19999820	0.00000000	-55.79478000	-51.42716000
33.39999819	0.00000000	-51.83932000	-56.81594000
33.59999818	0.00000000	-52.21457000	-54.12155000
33.79999816	0.00000000	-56.87131000	-44.13140000
33.99999815	0.00000000	-64.91756000	-29.40452000
34.19999814	0.00000000	-73.76353000	-12.80758000
34.39999813	0.00000000	-81.15772000	2.28223400
34.59999812	0.00000000	-85.80831000	12.27854000
34.79999810	0.00000000	-86.97095000	15.42815000
34.99999809	0.00000000	-84.27657000	10.78986000
35.19999808	0.00000000	-78.54945000	0.04921259
35.39999807	0.00000000	-71.61663000	-14.25935000
35.59999806	0.00000000	-65.47121000	-28.89395000
35.79999805	0.00000000	-61.61417000	-40.50812000
35.99999803	0.00000000	-61.18971000	-46.69045000
36.19999802	0.00000000	-63.79798000	-46.31520000
36.39999801	0.00000000	-68.07948000	-39.39468000
36.59999800	0.00000000	-73.06840000	-27.90969000
36.79999799	0.00000000	-77.71284000	-15.18209000
36.99999797	0.00000000	-80.37032000	-4.44143700
37.19999796	0.00000000	-80.78248000	1.77165300
37.39999795	0.00000000	-78.46333000	1.78395700
37.59999794	0.00000000	-74.27411000	-3.52485200
37.79999793	0.00000000	-69.61736000	-12.76452000
37.99999791	0.00000000	-65.37893000	-23.03765000
38.19999790	0.00000000	-62.72760000	-31.16388000
38.39999789	0.00000000	-62.63533000	-34.98400000
38.59999788	0.00000000	-64.54232000	-33.85827000
38.79999787	0.00000000	-67.29208000	-27.68824000
38.99999786	0.00000000	-71.19833000	-18.57160000
39.19999784	0.00000000	-75.43060000	-9.37500000
39.39999783	0.00000000	-78.92471000	-3.23572800
39.59999782	0.00000000	-81.24999000	-1.70398600
39.79999781	0.00000000	-81.57603000	-5.19192900
39.99999780	0.00000000	-79.71210000	-13.22589000
40.19999778	0.00000000	-76.23032000	-23.17298000
40.39999777	0.00000000	-72.31791000	-32.00664000
40.59999776	0.00000000	-68.03641000	-37.34621000
40.79999775	0.00000000	-64.22243000	-37.34621000
40.99999774	0.00000000	-62.26008000	-32.00664000
41.19999772	0.00000000	-62.17396000	-23.17298000
41.39999771	0.00000000	-63.42274000	-13.18282000
41.59999770	0.00000000	-66.12943000	-4.73056000
41.79999769	0.00000000	-70.40477000	-0.12918310
41.99999768	0.00000000	-74.55708000	-0.46136810
42.19999767	0.00000000	-77.75590000	-5.42568800
42.39999765	0.00000000	-79.34301000	-13.09670000
42.59999764	0.00000000	-80.13041000	-21.59203000
42.79999763	0.00000000	-79.66904000	-28.89395000
42.99999762	0.00000000	-77.38681000	-33.16314000
43.19999761	0.00000000	-74.31717000	-33.58144000
43.39999759	0.00000000	-71.19833000	-30.51796000
43.59999758	0.00000000	-68.50394000	-24.79700000
43.79999757	0.00000000	-66.95989000	-18.25172000
43.99999756	0.00000000	-66.87376000	-12.85679000
44.19999755	0.00000000	-67.61810000	-9.33193800
44.39999753	0.00000000	-68.36859000	-8.53838500
44.59999752	0.00000000	-69.15600000	-10.02707000
44.79999751	0.00000000	-69.53124000	-13.09670000
44.99999750	0.00000000	-69.61736000	-16.94759000
45.19999749	0.00000000	-70.04182000	-20.43553000
45.39999748	0.00000000	-71.19833000	-23.17298000
45.59999746	0.00000000	-72.77928000	-24.71087000
45.79999745	0.00000000	-74.78469000	-24.71087000
45.99999744	0.00000000	-77.47908000	-23.22219000
46.19999743	0.00000000	-80.08734000	-20.90305000
46.39999742	0.00000000	-81.20078000	-18.57160000
46.59999740	0.00000000	-80.04429000	-16.25246000
46.79999739	0.00000000	-76.92544000	-14.72072000
46.99999738	0.00000000	-72.18258000	-14.30241000
47.19999737	0.00000000	-66.03100000	-14.72072000
47.39999736	0.00000000	-59.94094000	-16.25246000
47.59999734	0.00000000	-56.49606000	-18.52854000
47.79999733	0.00000000	-56.44685000	-20.47859000
47.99999732	0.00000000	-59.60876000	-22.05955000
48.19999731	0.00000000	-65.80339000	-23.17298000
48.39999730	0.00000000	-73.89886000	-23.17298000
48.59999729	0.00000000	-81.62524000	-22.01649000
48.79999727	0.00000000	-87.43848000	-20.06029000
48.99999726	0.00000000	-90.04675000	-17.32283000
49.19999725	0.00000000	-88.09055000	-14.29626000
49.39999724	0.00000000	-81.53297000	-12.02018000
49.59999723	0.00000000	-72.31791000	-11.60187000
49.79999721	0.00000000	-62.68454000	-12.76452000
49.99999720	0.00000000	-55.37647000	-15.08981000
50.19999719	0.00000000	-52.25763000	-18.61466000
50.39999718	0.00000000	-53.79552000	-22.43479000
50.59999717	0.00000000	-59.56569000	-25.86737000
50.79999715	0.00000000	-68.03641000	-27.39911000
50.99999714	0.00000000	-76.92544000	-26.66092000
51.19999713	0.00000000	-84.27657000	-24.37869000
51.39999712	0.00000000	-88.41658000	-20.85384000
51.59999711	0.00000000	-87.66609000	-16.99065000
51.79999710	0.00000000	-81.95128000	-13.09670000
51.99999708	0.00000000	-73.94193000	-10.11319000
52.19999707	0.00000000	-65.80339000	-9.37500000
52.39999706	0.00000000	-59.70103000	-11.60187000
52.59999705	0.00000000	-57.28961000	-15.36663000
52.79999704	0.00000000	-58.81520000	-18.89764000
52.99999702	0.00000000	-63.05979000	-22.05955000
53.19999701	0.00000000	-69.66043000	-24.71087000
53.39999700	0.00000000	-76.88238000	-25.82431000
53.59999699	0.00000000	-82.22810000	-24.71087000
53.79999698	0.00000000	-83.80905000	-22.05955000
53.99999696	0.00000000	-81.57603000	-18.98991000
54.19999695	0.00000000	-76.96850000	-16.29552000
54.39999694	0.00000000	-71.15526000	-14.76378000
54.59999693	0.00000000	-65.42815000	-14.72072000
54.79999692	0.00000000	-61.56496000	-15.83415000
54.99999691	0.00000000	-60.77140000	-17.40895000
55.19999689	0.00000000	-62.72760000	-19.27288000
55.39999688	0.00000000	-67.33513000	-20.80462000
55.59999687	0.00000000	-73.38828000	-20.76772000
55.79999686	0.00000000	-78.03887000	-19.69119000
55.99999685	0.00000000	-80.41338000	-17.74114000
56.19999683	0.00000000	-80.78248000	-15.87721000
56.39999682	0.00000000	-78.46333000	-14.72072000
56.59999681	0.00000000	-74.27411000	-14.80684000
56.79999680	0.00000000	-69.61736000	-16.71383000
56.99999679	0.00000000	-65.37893000	-20.15256000
57.19999677	0.00000000	-62.72760000	-23.54823000
57.39999676	0.00000000	-62.68454000	-25.86737000
57.59999675	0.00000000	-64.96062000	-26.24262000
57.79999674	0.00000000	-68.41166000	-24.66166000
57.99999673	0.00000000	-72.26870000	-21.17372000
58.19999672	0.00000000	-75.34448000	-16.16018000
58.39999670	0.00000000	-76.92544000	-11.18356000
58.59999669	0.00000000	-76.96850000	-7.37573800
58.79999668	0.00000000	-75.80585000	-6.26230300
58.99999667	0.00000000	-73.89886000	-8.53838500
59.19999666	0.00000000	-71.57356000	-13.18282000
59.39999664	0.00000000	-69.66658000	-19.40822000
59.59999663	0.00000000	-68.50394000	-26.28568000
59.79999662	0.00000000	-68.46087000	-31.63140000
59.99999661	0.00000000	-69.19906000	-33.58144000
60.19999660	0.00000000	-69.99261000	-32.00664000
60.39999658	0.00000000	-71.15526000	-26.98080000
60.59999657	0.00000000	-72.26870000	-19.32210000
60.79999656	0.00000000	-72.64394000	-11.65108000
60.99999655	0.00000000	-72.31791000	-5.84399600
61.19999654	0.00000000	-71.53051000	-3.14960600
61.39999653	0.00000000	-70.78001000	-4.30610200
61.59999651	0.00000000	-70.04182000	-8.95669300
61.79999650	0.00000000	-70.04182000	-16.25246000
61.99999649	0.00000000	-70.78001000	-24.28642000
62.19999648	0.00000000	-71.57356000	-30.51796000
62.39999647	0.00000000	-72.73621000	-33.99975000
62.59999645	0.00000000	-73.84965000	-34.36884000
62.79999644	0.00000000	-74.22490000	-30.84399000
62.99999643	0.00000000	-73.84965000	-24.33563000
63.19999642	0.00000000	-72.69316000	-16.25246000
63.39999641	0.00000000	-71.15526000	-8.95669300
63.59999639	0.00000000	-69.57431000	-4.26304100
63.79999638	0.00000000	-68.07948000	-2.73129900
63.99999637	0.00000000	-67.34129000	-4.63828700
64.19999636	0.00000000	-68.07948000	-9.60875900
64.39999635	0.00000000	-69.57431000	-15.78494000
64.59999634	0.00000000	-71.15526000	-22.01033000
64.79999632	0.00000000	-72.69316000	-27.39911000
64.99999631	0.00000000	-73.84965000	-30.51181000
65.19999630	0.00000000	-74.22490000	-30.93627000
65.39999629	0.00000000	-73.84965000	-29.02928000
65.59999628	0.00000000	-72.64394000	-25.12918000
65.79999626	0.00000000	-70.78001000	-20.15256000
65.99999625	0.00000000	-68.87917000	-15.08981000
66.19999624	0.00000000	-68.12868000	-11.22662000
66.39999623	0.00000000	-68.46087000	-8.86441900
66.59999622	0.00000000	-69.66658000	-8.48917200
66.79999620	0.00000000	-71.53051000	-9.93479300
66.99999619	0.00000000	-73.43134000	-12.25394000
67.19999618	0.00000000	-74.18184000	-14.62844000
67.39999617	0.00000000	-73.80659000	-17.41511000
67.59999616	0.00000000	-72.26870000	-20.52780000
67.79999615	0.00000000	-69.94955000	-23.64050000
67.99999613	0.00000000	-67.66117000	-26.32874000
68.19999612	0.00000000	-65.71111000	-27.86663000
68.39999611	0.00000000	-65.00369000	-27.86663000
68.59999610	0.00000000	-65.80339000	-26.28568000
68.79999609	0.00000000	-68.54699000	-23.21604000
68.99999607	0.00000000	-72.73621000	-19.32210000
69.19999606	0.00000000	-76.96850000	-15.40969000
69.39999605	0.00000000	-80.04429000	-11.51575000
69.59999604	0.00000000	-81.15772000	-8.48917200
69.79999603	0.00000000	-79.61983000	-7.33267600
69.99999601	0.00000000	-75.76279000	-8.53223400
70.19999600	0.00000000	-70.78001000	-11.97711000
70.39999599	0.00000000	-65.71111000	-16.99065000
70.59999598	0.00000000	-61.84178000	-22.01033000
70.79999597	0.00000000	-59.52263000	-26.28568000
70.99999596	0.00000000	-59.60876000	-28.98007000
71.19999594	0.00000000	-62.68454000	-29.35531000
71.39999593	0.00000000	-68.07948000	-27.44832000
71.59999592	0.00000000	-74.22490000	-23.59129000
71.79999591	0.00000000	-79.66904000	-18.98991000
71.99999590	0.00000000	-83.15698000	-14.72072000
72.19999588	0.00000000	-84.31963000	-11.60187000
72.39999587	0.00000000	-82.73868000	-10.07013000
72.59999586	0.00000000	-78.50639000	-10.44537000
72.79999585	0.00000000	-72.73621000	-12.76452000
72.99999584	0.00000000	-66.91682000	-16.16018000
73.19999582	0.00000000	-62.26008000	-19.64198000
73.39999581	0.00000000	-59.56569000	-21.92421000
73.59999580	0.00000000	-59.56569000	-22.75467000
73.79999579	0.00000000	-62.26008000	-22.01649000
73.99999578	0.00000000	-66.87376000	-20.52780000
74.19999577	0.00000000	-72.26870000	-18.98991000
74.39999575	0.00000000	-76.88238000	-17.83341000
74.59999574	0.00000000	-79.61983000	-17.45817000
74.79999573	0.00000000	-80.04429000	-17.83341000
74.99999572	0.00000000	-78.54945000	-18.94685000
75.19999571	0.00000000	-75.80585000	-20.06029000
75.39999569	0.00000000	-72.36097000	-20.39247000
75.59999568	0.00000000	-68.87303000	-19.64198000
75.79999567	0.00000000	-66.58464000	-17.69808000
75.99999566	0.00000000	-65.71111000	-15.40969000
76.19999565	0.00000000	-66.12328000	-13.09055000
76.39999563	0.00000000	-67.24901000	-11.55881000
76.59999562	0.00000000	-69.15600000	-11.22662000
76.79999561	0.00000000	-70.64468000	-12.43848000
76.99999560	0.00000000	-71.11221000	-15.92027000
77.19999559	0.00000000	-71.15526000	-20.52780000
77.39999558	0.00000000	-71.15526000	-25.12918000
77.59999556	0.00000000	-71.15526000	-28.56176000
77.79999555	0.00000000	-71.19833000	-29.31225000
77.99999554	0.00000000	-71.57356000	-27.44832000
78.19999553	0.00000000	-72.31791000	-23.54823000
78.39999552	0.00000000	-72.69316000	-18.52854000
78.59999550	0.00000000	-72.73621000	-13.09670000
78.79999549	0.00000000	-72.69316000	-8.53838500
78.99999548	0.00000000	-72.22563000	-6.21924200
79.19999547	0.00000000	-70.64468000	-6.95743000
79.39999546	0.00000000	-68.03641000	-10.02707000
79.59999544	0.00000000	-65.75418000	-14.67766000
79.79999543	0.00000000	-64.96062000	-20.06029000
79.99999542	0.00000000	-65.33588000	-24.71087000
80.19999541	0.00000000	-66.91682000	-27.82357000
80.39999540	0.00000000	-69.57431000	-28.98007000
80.59999539	0.00000000	-72.31791000	-27.86663000
80.79999537	0.00000000	-74.64935000	-25.17224000
80.99999536	0.00000000	-76.55019000	-21.68430000
81.19999535	0.00000000	-76.88238000	-17.78420000
81.39999534	0.00000000	-75.38755000	-14.29626000
81.59999533	0.00000000	-72.69316000	-11.55881000
81.79999531	0.00000000	-69.66043000	-10.02707000
81.99999530	0.00000000	-67.29208000	-10.02707000
82.19999529	0.00000000	-66.12328000	-11.55881000
82.39999528	0.00000000	-65.71111000	-14.21014000
82.59999527	0.00000000	-66.54158000	-16.94759000
82.79999525	0.00000000	-68.41166000	-19.36516000
82.99999524	0.00000000	-70.73695000	-22.10261000
83.19999523	0.00000000	-72.64394000	-24.75394000
83.39999522	0.00000000	-73.84965000	-26.28568000
83.59999521	0.00000000	-74.22490000	-26.28568000
83.79999520	0.00000000	-73.84965000	-24.75394000
83.99999518	0.00000000	-72.73621000	-22.05955000
84.19999517	0.00000000	-71.62278000	-18.89764000
84.39999516	0.00000000	-71.15526000	-15.40969000
84.59999515	0.00000000	-70.73695000	-11.97711000
84.79999514	0.00000000	-69.99261000	-10.02707000
84.99999512	0.00000000	-69.61736000	-9.60875900
85.19999511	0.00000000	-69.57431000	-10.44537000
85.39999510	0.00000000	-69.57431000	-13.18282000
85.59999509	0.00000000	-69.53124000	-17.36589000
85.79999508	0.00000000	-69.19906000	-21.64124000
85.99999506	0.00000000	-68.82996000	-25.12918000
86.19999505	0.00000000	-69.24213000	-27.40526000
86.39999504	0.00000000	-69.99261000	-27.40526000
86.59999503	0.00000000	-71.15526000	-25.08612000
86.79999502	0.00000000	-72.31791000	-21.22293000
86.99999501	0.00000000	-73.11147000	-16.20325000
87.19999499	0.00000000	-73.84965000	-11.64493000
87.39999498	0.00000000	-73.80659000	-8.90747900
87.59999497	0.00000000	-72.69316000	-8.48917200
87.79999496	0.00000000	-71.15526000	-10.07013000
87.99999495	0.00000000	-69.57431000	-13.55807000
88.19999493	0.00000000	-68.03641000	-18.52854000
88.39999492	0.00000000	-66.91682000	-23.12992000
88.59999491	0.00000000	-66.91682000	-26.24262000
88.79999490	0.00000000	-68.03641000	-27.39911000
88.99999489	0.00000000	-69.57431000	-26.19955000
89.19999487	0.00000000	-71.11221000	-22.75467000
89.39999486	0.00000000	-72.31791000	-17.78420000
89.59999485	0.00000000	-73.06840000	-13.18282000
89.79999484	0.00000000	-73.48056000	-10.07013000
89.99999483	0.00000000	-73.01919000	-8.91363100
90.19999482	0.00000000	-71.94266000	-10.11319000
90.39999480	0.00000000	-70.41092000	-13.55807000
90.59999479	0.00000000	-69.61736000	-18.52854000
90.79999478	0.00000000	-69.19906000	-23.12992000
90.99999477	0.00000000	-68.82996000	-26.24262000
91.19999476	0.00000000	-69.19906000	-27.35605000
91.39999474	0.00000000	-69.57431000	-25.82431000
91.59999473	0.00000000	-69.94955000	-22.01033000
91.79999472	0.00000000	-70.31865000	-17.36589000
91.99999471	0.00000000	-69.94955000	-12.76452000
92.19999470	0.00000000	-69.61736000	-9.37500000
92.39999468	0.00000000	-69.61736000	-8.95669300
92.59999467	0.00000000	-69.99261000	-11.22662000
92.79999466	0.00000000	-70.78001000	-15.08981000
92.99999465	0.00000000	-71.53051000	-20.10950000
93.19999464	0.00000000	-72.31791000	-24.66781000
93.39999463	0.00000000	-72.69316000	-27.35605000
93.59999461	0.00000000	-72.69316000	-27.35605000
93.79999460	0.00000000	-72.26870000	-24.71087000
93.99999459	0.00000000	-71.11221000	-20.47859000
94.19999458	0.00000000	-69.57431000	-15.87721000
94.39999457	0.00000000	-67.99335000	-12.06939000
94.59999455	0.00000000	-66.45546000	-10.48843000
94.79999454	0.00000000	-65.33588000	-11.22662000
94.99999453	0.00000000	-65.37893000	-13.55807000
95.19999452	0.00000000	-66.91682000	-17.40895000
95.39999451	0.00000000	-69.61736000	-21.54897000
95.59999449	0.00000000	-72.69316000	-24.29257000
95.79999448	0.00000000	-75.38755000	-25.08612000
95.99999447	0.00000000	-76.96850000	-24.33563000
96.19999446	0.00000000	-77.34374000	-22.01649000
96.39999445	0.00000000	-76.50713000	-18.94685000
96.59999444	0.00000000	-73.80659000	-15.87721000
96.79999442	0.00000000	-69.99261000	-13.55807000
96.99999441	0.00000000	-66.45546000	-12.80758000
97.19999440	0.00000000	-63.33661000	-13.50886000
97.39999439	0.00000000	-61.10359000	-15.45891000
97.59999438	0.00000000	-61.10359000	-17.74114000
97.79999436	0.00000000	-63.37967000	-20.06029000
97.99999435	0.00000000	-66.87376000	-21.54897000
98.19999434	0.00000000	-71.10605000	-21.64124000
98.39999433	0.00000000	-74.96924000	-20.90305000
98.59999432	0.00000000	-77.34374000	-20.10950000
98.79999430	0.00000000	-78.50639000	-18.94685000
98.99999429	0.00000000	-78.08808000	-17.83341000
99.19999428	0.00000000	-75.76279000	-17.40895000
99.39999427	0.00000000	-72.31791000	-17.36589000
99.59999426	0.00000000	-68.45472000	-17.36589000
99.79999425	0.00000000	-65.33588000	-17.32283000
99.99999423	0.00000000	-63.37967000	-16.94759000
100.19999422	0.00000000	-62.59227000	-16.20325000
100.39999421	0.00000000	-63.37967000	-15.82800000
100.59999420	0.00000000	-65.29281000	-15.82800000
100.79999419	0.00000000	-68.03641000	-16.25246000
100.99999417	0.00000000	-71.11221000	-17.40895000
101.19999416	0.00000000	-73.84965000	-18.94685000
101.39999415	0.00000000	-75.76279000	-20.52780000
101.59999414	0.00000000	-76.55019000	-22.01649000
101.79999413	0.00000000	-75.80585000	-22.75467000
101.99999411	0.00000000	-74.27411000	-22.01649000
102.19999410	0.00000000	-72.31791000	-20.47859000
102.39999409	0.00000000	-69.94955000	-18.47933000
102.59999408	0.00000000	-67.66117000	-15.78494000
102.79999407	0.00000000	-65.71111000	-13.13976000
102.99999406	0.00000000	-65.00369000	-11.60187000
103.19999404	0.00000000	-65.71111000	-11.60187000
103.39999403	0.00000000	-67.61810000	-13.13976000
103.59999402	0.00000000	-69.53124000	-15.87721000
103.79999401	0.00000000	-71.15526000	-19.32210000
103.99999400	0.00000000	-72.69316000	-22.75467000
104.19999398	0.00000000	-73.84965000	-24.66781000
104.39999397	0.00000000	-74.22490000	-24.71087000
104.59999396	0.00000000	-73.84965000	-23.17298000
104.79999395	0.00000000	-72.69316000	-20.47859000
104.99999394	0.00000000	-71.15526000	-17.41511000
105.19999392	0.00000000	-69.57431000	-14.72072000
105.39999391	0.00000000	-68.07948000	-13.13976000
105.59999390	0.00000000	-67.34129000	-12.76452000
105.79999389	0.00000000	-68.03641000	-13.55807000
105.99999388	0.00000000	-69.15600000	-15.83415000
106.19999387	0.00000000	-69.99261000	-18.47933000
106.39999385	0.00000000	-71.15526000	-20.43553000
106.59999384	0.00000000	-72.22563000	-21.64124000
106.79999383	0.00000000	-72.26870000	-21.96727000
106.99999382	0.00000000	-71.53051000	-21.22293000
107.19999381	0.00000000	-70.73695000	-19.32210000
107.39999379	0.00000000	-69.57431000	-17.40895000
107.59999378	0.00000000	-68.46087000	-15.87721000
107.79999377	0.00000000	-68.08563000	-15.08981000
107.99999376	0.00000000	-68.46087000	-15.50197000
108.19999375	0.00000000	-69.57431000	-16.62155000
108.39999374	0.00000000	-70.73695000	-18.52854000
108.59999372	0.00000000	-71.53051000	-20.06029000
108.79999371	0.00000000	-72.26870000	-20.85384000
108.99999370	0.00000000	-72.26870000	-21.22293000
109.19999369	0.00000000	-71.53051000	-20.43553000
109.39999368	0.00000000	-70.73695000	-18.94685000
109.59999366	0.00000000	-69.57431000	-17.36589000
109.79999365	0.00000000	-68.46087000	-15.83415000
109.99999364	0.00000000	-68.03641000	-14.72072000
110.19999363	0.00000000	-68.03641000	-14.72072000
110.39999362	0.00000000	-68.41166000	-15.78494000
110.59999360	0.00000000	-69.19906000	-16.94759000
110.79999359	0.00000000	-69.94955000	-17.78420000
110.99999358	0.00000000	-70.78001000	-18.98991000
111.19999357	0.00000000	-71.53051000	-20.43553000
111.39999356	0.00000000	-72.26870000	-21.22293000
111.59999355	0.00000000	-72.26870000	-20.85384000
111.79999353	0.00000000	-71.53051000	-20.10950000
111.99999352	0.00000000	-70.78001000	-18.94685000
112.19999351	0.00000000	-69.94955000	-17.83341000
112.39999350	0.00000000	-69.24213000	-17.36589000
112.59999349	0.00000000	-68.82996000	-16.94759000
112.79999347	0.00000000	-69.19906000	-16.25246000
112.99999346	0.00000000	-69.53124000	-16.25246000
113.19999345	0.00000000	-69.57431000	-16.94759000
113.39999344	0.00000000	-69.61736000	-17.32283000
113.59999343	0.00000000	-69.94955000	-17.40895000
113.79999341	0.00000000	-70.31865000	-17.78420000
113.99999340	0.00000000	-69.94955000	-18.52854000
114.19999339	0.00000000	-69.61736000	-18.90379000
114.39999338	0.00000000	-69.57431000	-18.94685000
114.59999337	0.00000000	-69.61736000	-18.98991000
114.79999336	0.00000000	-69.94955000	-19.32210000
114.99999334	0.00000000	-70.31865000	-19.69119000
115.19999333	0.00000000	-69.94955000	-19.32210000
115.39999332	0.00000000	-69.61736000	-18.94685000
115.59999331	0.00000000	-69.57431000	-18.52854000
115.79999330	0.00000000	-69.61736000	-17.78420000
115.99999328	0.00000000	-69.94955000	-17.36589000
116.19999327	0.00000000	-70.36171000	-16.94759000
116.39999326	0.00000000	-70.36786000	-16.20325000
116.59999325	0.00000000	-70.78001000	-15.87721000
116.79999324	0.00000000	-71.11221000	-16.20325000
116.99999322	0.00000000	-71.11221000	-16.99065000
117.19999321	0.00000000	-70.68774000	-17.74114000
117.39999320	0.00000000	-69.57431000	-18.57160000
117.59999319	0.00000000	-68.46087000	-19.32210000
117.79999318	0.00000000	-68.03641000	-20.10950000
117.99999317	0.00000000	-67.99335000	-20.48474000
118.19999315	0.00000000	-68.03641000	-20.48474000
118.39999314	0.00000000	-68.41166000	-20.06029000
118.59999313	0.00000000	-69.19906000	-18.90379000
118.79999312	0.00000000	-69.99261000	-17.40895000
118.99999311	0.00000000	-71.15526000	-16.25246000
119.19999309	0.00000000	-72.26870000	-15.82800000
119.39999308	0.00000000	-72.64394000	-15.78494000
119.59999307	0.00000000	-72.26870000	-15.78494000
119.79999306	0.00000000	-71.15526000	-15.82800000
119.99999305	0.00000000	-69.99261000	-16.20325000
120.19999303	0.00000000	-69.15600000	-16.99065000
120.39999302	0.00000000	-67.99335000	-17.74114000
120.59999301	0.00000000	-66.87376000	-18.52854000
120.79999300	0.00000000	-66.49852000	-18.90379000
120.99999299	0.00000000	-66.87376000	-18.94685000
121.19999298	0.00000000	-68.03641000	-18.94685000
121.39999296	0.00000000	-69.57431000	-18.94685000
121.59999295	0.00000000	-71.11221000	-18.90379000
121.79999294	0.00000000	-72.26870000	-18.52854000
121.99999293	0.00000000	-72.69316000	-17.78420000
122.19999292	0.00000000	-72.69316000	-17.40895000
122.39999290	0.00000000	-72.26870000	-17.36589000
122.59999289	0.00000000	-71.15526000	-17.32283000
122.79999288	0.00000000	-69.99261000	-16.99065000
122.99999287	0.00000000	-69.15600000	-16.62155000
123.19999286	0.00000000	-68.03641000	-16.99065000
123.39999284	0.00000000	-67.24901000	-17.32283000
123.59999283	0.00000000	-67.24286000	-17.40895000
123.79999282	0.00000000	-67.20596000	-17.78420000
123.99999281	0.00000000	-67.66117000	-18.52854000
124.19999280	0.00000000	-68.41166000	-18.90379000
124.39999279	0.00000000	-69.57431000	-18.94685000
124.59999277	0.00000000	-70.73695000	-18.94685000
124.79999276	0.00000000	-71.53051000	-18.90379000
124.99999275	0.00000000	-72.26870000	-18.52854000
125.19999274	0.00000000	-72.26870000	-17.78420000
125.39999273	0.00000000	-71.53051000	-17.40895000
125.59999271	0.00000000	-70.78001000	-17.32283000
125.79999270	0.00000000	-69.94955000	-16.99065000
125.99999269	0.00000000	-69.19906000	-16.62155000
126.19999268	0.00000000	-68.41166000	-16.99065000
126.39999267	0.00000000	-68.03641000	-17.32283000
126.59999265	0.00000000	-67.99335000	-17.40895000
126.79999264	0.00000000	-68.03641000	-17.78420000
126.99999263	0.00000000	-68.41166000	-18.52854000
127.19999262	0.00000000	-69.19906000	-18.90379000
127.39999261	0.00000000	-69.99261000	-18.94685000
127.59999260	0.00000000	-71.15526000	-18.94685000
127.79999258	0.00000000	-72.26870000	-18.90379000
127.99999257	0.00000000	-72.64394000	-18.52854000
128.19999256	0.00000000	-72.26870000	-17.78420000
128.39999255	0.00000000	-71.11221000	-17.40895000
128.59999254	0.00000000	-69.61736000	-17.36589000
128.79999252	0.00000000	-68.46087000	-17.36589000
128.99999251	0.00000000	-68.03641000	-17.36589000
129.19999250	0.00000000	-67.99335000	-17.40895000
129.39999249	0.00000000	-68.03641000	-17.78420000
129.59999248	0.00000000	-68.46087000	-18.52854000
129.79999246	0.00000000	-69.57431000	-18.90379000
129.99999245	0.00000000	-70.68774000	-18.90379000
130.19999244	0.00000000	-71.11221000	-18.52854000
130.39999243	0.00000000	-71.15526000	-17.78420000
130.59999242	0.00000000	-71.11221000	-17.40895000
130.79999241	0.00000000	-70.68774000	-17.36589000
130.99999239	0.00000000	-69.57431000	-17.36589000
131.19999238	0.00000000	-68.46087000	-17.36589000
131.39999237	0.00000000	-68.03641000	-17.40895000
131.59999236	0.00000000	-68.03641000	-17.78420000
131.79999235	0.00000000	-68.41166000	-18.52854000
131.99999233	0.00000000	-69.15600000	-18.90379000
132.19999232	0.00000000	-69.53124000	-18.94685000
132.39999231	0.00000000	-69.61736000	-18.94685000
132.59999230	0.00000000	-69.94955000	-18.90379000
132.79999229	0.00000000	-70.31865000	-18.52854000
132.99999227	0.00000000	-69.94955000	-17.78420000
133.19999226	0.00000000	-69.61736000	-17.36589000
133.39999225	0.00000000	-69.57431000	-16.94759000
133.59999224	0.00000000	-69.57431000	-16.25246000
133.79999223	0.00000000	-69.57431000	-16.25246000
133.99999222	0.00000000	-69.57431000	-16.94759000
134.19999220	0.00000000	-69.57431000	-17.36589000
134.39999219	0.00000000	-69.61736000	-17.78420000
134.59999218	0.00000000	-69.90649000	-18.57160000
134.79999217	0.00000000	-69.89419000	-19.32210000
134.99999216	0.00000000	-68.78691000	-20.06029000
135.19999214	0.00000000	-68.08563000	-20.06029000
135.39999213	0.00000000	-68.03641000	-19.32210000
135.59999212	0.00000000	-68.41166000	-18.57160000
135.79999211	0.00000000	-69.15600000	-17.74114000
135.99999210	0.00000000	-69.57431000	-16.99065000
136.19999208	0.00000000	-69.99261000	-16.25246000
136.39999207	0.00000000	-70.73695000	-16.25246000
136.59999206	0.00000000	-71.11221000	-16.94759000
136.79999205	0.00000000	-71.11221000	-17.32283000
136.99999204	0.00000000	-70.73695000	-17.36589000
137.19999203	0.00000000	-69.94955000	-17.40895000
137.39999201	0.00000000	-69.19906000	-17.78420000
137.59999200	0.00000000	-68.41166000	-18.52854000
137.79999199	0.00000000	-68.03641000	-18.90379000
137.99999198	0.00000000	-68.03641000	-18.94685000
138.19999197	0.00000000	-68.41166000	-18.94685000
138.39999195	0.00000000	-69.15600000	-18.90379000
138.59999194	0.00000000	-69.57431000	-18.52854000
138.79999193	0.00000000	-69.99261000	-17.78420000
138.99999192	0.00000000	-70.73695000	-17.36589000
139.19999191	0.00000000	-71.06299000	-16.94759000
139.39999189	0.00000000	-70.73695000	-16.20325000
139.59999188	0.00000000	-69.94955000	-15.82800000
139.79999187	0.00000000	-69.19906000	-15.82800000
139.99999186	0.00000000	-68.41166000	-16.20325000
140.19999185	0.00000000	-68.03641000	-16.99065000
140.39999184	0.00000000	-67.99335000	-17.74114000
140.59999182	0.00000000	-67.99335000	-18.52854000
140.79999181	0.00000000	-68.03641000	-18.90379000
140.99999180	0.00000000	-68.41166000	-18.94685000
141.19999179	0.00000000	-69.15600000	-18.94685000
141.39999178	0.00000000	-69.53124000	-18.90379000
141.59999176	0.00000000	-69.57431000	-18.47933000
141.79999175	0.00000000	-69.57431000	-17.36589000
141.99999174	0.00000000	-69.53124000	-16.25246000
142.19999173	0.00000000	-69.15600000	-15.82800000
142.39999172	0.00000000	-68.41166000	-15.78494000
142.59999170	0.00000000	-68.08563000	-15.82800000
142.79999169	0.00000000	-68.36859000	-16.20325000
142.99999168	0.00000000	-68.78075000	-16.99065000
143.19999167	0.00000000	-68.74384000	-17.74114000
143.39999166	0.00000000	-68.86687000	-18.52854000
143.59999165	0.00000000	-69.16215000	-18.90379000
143.79999163	0.00000000	-69.94341000	-18.94685000
143.99999162	0.00000000	-69.90649000	-18.90379000
144.19999161	0.00000000	-69.61736000	-18.52854000
144.39999160	0.00000000	-69.57431000	-17.78420000
144.59999159	0.00000000	-69.57431000	-17.36589000
144.79999157	0.00000000	-69.53124000	-16.94759000
144.99999156	0.00000000	-69.19906000	-16.20325000
145.19999155	0.00000000	-68.82996000	-15.87721000
145.39999154	0.00000000	-69.19906000	-16.20325000
145.59999153	0.00000000	-69.53124000	-16.94759000
145.79999151	0.00000000	-69.57431000	-17.36589000
145.99999150	0.00000000	-69.57431000	-17.78420000
146.19999149	0.00000000	-69.57431000	-18.52854000
146.39999148	0.00000000	-69.57431000	-18.90379000
146.59999147	0.00000000	-69.57431000	-18.94685000
146.79999146	0.00000000	-69.53124000	-18.90379000
146.99999144	0.00000000	-69.15600000	-18.52854000
147.19999143	0.00000000	-68.46087000	-17.78420000
147.39999142	0.00000000	-68.46087000	-17.36589000
147.59999141	0.00000000	-69.15600000	-16.94759000
147.79999140	0.00000000	-69.53124000	-16.25246000
147.99999138	0.00000000	-69.57431000	-16.25246000
148.19999137	0.00000000	-69.57431000	-16.94759000
148.39999136	0.00000000	-69.57431000	-17.32283000
148.59999135	0.00000000	-69.57431000	-17.40895000
148.79999134	0.00000000	-69.57431000	-17.78420000
148.99999132	0.00000000	-69.57431000	-18.52854000
149.19999131	0.00000000	-69.53124000	-18.85458000
149.39999130	0.00000000	-69.19906000	-18.57160000
149.59999129	0.00000000	-68.78691000	-18.15945000
149.79999128	0.00000000	-68.78075000	-18.15330000
149.99999127	0.00000000	-68.41166000	-17.74114000
150.19999125	0.00000000	-68.46087000	-17.36589000
150.39999124	0.00000000	-69.15600000	-16.99065000
150.59999123	0.00000000	-69.53124000	-16.62155000
150.79999122	0.00000000	-69.57431000	-16.94759000
150.99999121	0.00000000	-69.57431000	-16.94759000
151.19999119	0.00000000	-69.57431000	-16.67077000
151.39999118	0.00000000	-69.57431000	-17.40895000
151.59999117	0.00000000	-69.57431000	-18.43627000
151.79999116	0.00000000	-69.57431000	-18.47933000
151.99999115	0.00000000	-69.53124000	-17.78420000
152.19999113	0.00000000	-69.15600000	-17.40895000
152.39999112	0.00000000	-68.41166000	-17.36589000
152.59999111	0.00000000	-68.03641000	-17.36589000
152.79999110	0.00000000	-67.99335000	-17.36589000
152.99999109	0.00000000	-67.99335000	-17.36589000
153.19999108	0.00000000	-68.03641000	-17.36589000
153.39999106	0.00000000	-68.41166000	-17.36589000
153.59999105	0.00000000	-69.15600000	-17.36589000
153.79999104	0.00000000	-69.53124000	-17.36589000
153.99999103	0.00000000	-69.57431000	-17.36589000
154.19999102	0.00000000	-69.57431000	-17.36589000
154.39999100	0.00000000	-69.57431000	-17.36589000
154.59999099	0.00000000	-69.57431000	-17.36589000
154.79999098	0.00000000	-69.53124000	-17.36589000
154.99999097	0.00000000	-69.15600000	-17.40895000
155.19999096	0.00000000	-68.41166000	-17.78420000
155.39999094	0.00000000	-68.03641000	-18.47933000
155.59999093	0.00000000	-67.99335000	-18.47933000
155.79999092	0.00000000	-67.99335000	-17.78420000
155.99999091	0.00000000	-68.03641000	-17.40895000
156.19999090	0.00000000	-68.41166000	-17.36589000
156.39999089	0.00000000	-69.15600000	-17.32283000
156.59999087	0.00000000	-69.53124000	-16.94759000
156.79999086	0.00000000	-69.57431000	-16.25246000
156.99999085	0.00000000	-69.57431000	-16.25246000
157.19999084	0.00000000	-69.57431000	-16.94759000
157.39999083	0.00000000	-69.57431000	-17.32283000
157.59999081	0.00000000	-69.53124000	-17.36589000
157.79999080	0.00000000	-69.15600000	-17.36589000
157.99999079	0.00000000	-68.36859000	-17.36589000
158.19999078	0.00000000	-67.66117000	-17.36589000
158.39999077	0.00000000	-67.24901000	-17.36589000
158.59999075	0.00000000	-67.61810000	-17.36589000
158.79999074	0.00000000	-67.95029000	-17.36589000
158.99999073	0.00000000	-67.99335000	-17.36589000
159.19999072	0.00000000	-68.03641000	-17.36589000
159.39999071	0.00000000	-68.41166000	-17.36589000
159.59999070	0.00000000	-69.15600000	-17.32283000
159.79999068	0.00000000	-69.53124000	-16.99065000
159.99999067	0.00000000	-69.57431000	-16.62155000
160.19999066	0.00000000	-69.57431000	-16.99065000
160.39999065	0.00000000	-69.57431000	-17.32283000
160.59999064	0.00000000	-69.57431000	-17.40895000
160.79999062	0.00000000	-69.57431000	-17.78420000
160.99999061	0.00000000	-69.57431000	-18.52854000
161.19999060	0.00000000	-69.57431000	-18.90379000
161.39999059	0.00000000	-69.53124000	-18.94685000
161.59999058	0.00000000	-69.15600000	-18.90379000
161.79999056	0.00000000	-68.41166000	-18.52854000
161.99999055	0.00000000	-68.03641000	-17.78420000
162.19999054	0.00000000	-67.99335000	-17.40895000
162.39999053	0.00000000	-67.99335000	-17.36589000
162.59999052	0.00000000	-68.03641000	-17.36589000
162.79999051	0.00000000	-68.41166000	-17.32283000
162.99999049	0.00000000	-69.15600000	-16.99065000
163.19999048	0.00000000	-69.53124000	-16.62155000
163.39999047	0.00000000	-69.57431000	-16.99065000
163.59999046	0.00000000	-69.57431000	-17.32283000
163.79999045	0.00000000	-69.57431000	-17.36589000
163.99999043	0.00000000	-69.57431000	-17.36589000
164.19999042	0.00000000	-69.53124000	-17.36589000
164.39999041	0.00000000	-69.15600000	-17.36589000
164.59999040	0.00000000	-68.41166000	-17.36589000
164.79999039	0.00000000	-68.03641000	-17.36589000
164.99999037	0.00000000	-67.99335000	-17.36589000
165.19999036	0.00000000	-67.99335000	-17.36589000
165.39999035	0.00000000	-67.99335000	-17.36589000
165.59999034	0.00000000	-67.99335000	-17.32283000
165.79999033	0.00000000	-68.03641000	-16.99065000
165.99999032	0.00000000	-68.36859000	-16.62155000
166.19999030	0.00000000	-68.78075000	-16.99065000
166.39999029	0.00000000	-68.78691000	-17.32283000
166.59999028	0.00000000	-69.19906000	-17.32283000
166.79999027	0.00000000	-69.48203000	-16.99065000
166.99999026	0.00000000	-69.19906000	-16.62155000
167.19999024	0.00000000	-68.78691000	-16.99065000
167.39999023	0.00000000	-68.78075000	-17.32283000
167.59999022	0.00000000	-68.36859000	-17.36589000
167.79999021	0.00000000	-68.03641000	-17.36589000
167.99999020	0.00000000	-67.99335000	-17.36589000
168.19999018	0.00000000	-67.99335000	-17.36589000
168.39999017	0.00000000	-67.99335000	-17.36589000
168.59999016	0.00000000	-67.99335000	-17.36589000
168.79999015	0.00000000	-67.99335000	-17.36589000
168.99999014	0.00000000	-68.03641000	-17.36589000
169.19999013	0.00000000	-68.41166000	-17.36589000
169.39999011	0.00000000	-69.15600000	-17.36589000
169.59999010	0.00000000	-69.53124000	-17.36589000
169.79999009	0.00000000	-69.57431000	-17.36589000
169.99999008	0.00000000	-69.57431000	-17.36589000
170.19999007	0.00000000	-69.57431000	-17.36589000
170.39999005	0.00000000	-69.57431000	-17.36589000
170.59999004	0.00000000	-69.53124000	-17.36589000
170.79999003	0.00000000	-69.15600000	-17.36589000
170.99999002	0.00000000	-68.41166000	-17.36589000
171.19999001	0.00000000	-68.03641000	-17.36589000
171.39998999	0.00000000	-67.99335000	-17.36589000
171.59998998	0.00000000	-67.99335000	-17.36589000
171.79998997	0.00000000	-68.03641000	-17.36589000
171.99998996	0.00000000	-68.41166000	-17.36589000
172.19998995	0.00000000	-69.15600000	-17.36589000
172.39998994	0.00000000	-69.53124000	-17.36589000
172.59998992	0.00000000	-69.57431000	-17.36589000
172.79998991	0.00000000	-69.57431000	-17.36589000
172.99998990	0.00000000	-69.57431000	-17.36589000
173.19998989	0.00000000	-69.53124000	-17.36589000
173.39998988	0.00000000	-69.19906000	-17.36589000
173.59998986	0.00000000	-68.78691000	-17.36589000
173.79998985	0.00000000	-68.78075000	-17.36589000
173.99998984	0.00000000	-68.36859000	-17.36589000
174.19998983	0.00000000	-68.03641000	-17.36589000
174.39998982	0.00000000	-67.99335000	-17.36589000
174.59998980	0.00000000	-67.99335000	-17.36589000
174.79998979	0.00000000	-67.99335000	-17.36589000
174.99998978	0.00000000	-67.99335000	-17.36589000
175.19998977	0.00000000	-68.03641000	-17.36589000
175.39998976	0.00000000	-68.36859000	-17.36589000
175.59998975	0.00000000	-68.73769000	-17.36589000
175.79998973	0.00000000	-68.36859000	-17.36589000
175.99998972	0.00000000	-68.03641000	-17.36589000
176.19998971	0.00000000	-67.99335000	-17.36589000
176.39998970	0.00000000	-67.99335000	-17.36589000
176.59998969	0.00000000	-67.99335000	-17.36589000
176.79998967	0.00000000	-67.99335000	-17.36589000
176.99998966	0.00000000	-67.99335000	-17.36589000
177.19998965	0.00000000	-67.99335000	-17.36589000
177.39998964	0.00000000	-67.99335000	-17.36589000
177.59998963	0.00000000	-67.99335000	-17.36589000
177.79998961	0.00000000	-68.03641000	-17.36589000
177.99998960	0.00000000	-68.36859000	-17.36589000
178.19998959	0.00000000	-68.73769000	-17.36589000
178.39998958	0.00000000	-68.36859000	-17.36589000
178.59998957	0.00000000	-68.03641000	-17.36589000
178.79998956	0.00000000	-67.99335000	-17.36589000
178.99998954	0.00000000	-67.99335000	-17.36589000
179.19998953	0.00000000	-67.99335000	-17.36589000
179.39998952	0.00000000	-67.99335000	-17.36589000
179.59998951	0.00000000	-67.99335000	-17.36589000
179.79998950	0.00000000	-67.99335000	-17.36589000
179.99998948	0.00000000	-67.99335000	-17.36589000
180.19998947	0.00000000	-67.99335000	-17.36589000
180.39998946	0.00000000	-67.99335000	-17.36589000
180.59998945	0.00000000	-67.99335000	-17.36589000
180.79998944	0.00000000	-67.99335000	-17.36589000
180.99998942	0.00000000	-67.99335000	-17.36589000
181.19998941	0.00000000	-67.99335000	-17.36589000
181.39998940	0.00000000	-67.99335000	-17.36589000
181.59998939	0.00000000	-67.99335000	-17.36589000
181.79998938	0.00000000	-67.99335000	-17.36589000
181.99998937	0.00000000	-67.99335000	-17.36589000
182.19998935	0.00000000	-67.99335000	-17.36589000
182.39998934	0.00000000	-67.99335000	-17.36589000
182.59998933	0.00000000	-67.99335000	-17.36589000
182.79998932	0.00000000	-67.99335000	-17.36589000
182.99998931	0.00000000	-67.99335000	-17.36589000
183.19998929	0.00000000	-67.99335000	-17.36589000
183.39998928	0.00000000	-67.99335000	-17.36589000
183.59998927	0.00000000	-67.99335000	-17.36589000
183.79998926	0.00000000	-68.03641000	-17.36589000
183.99998925	0.00000000	-68.41166000	-17.36589000
184.19998923	0.00000000	-69.10678000	-17.36589000
184.39998922	0.00000000	-69.10678000	-17.32283000
184.59998921	0.00000000	-68.41166000	-16.94759000
184.79998920	0.00000000	-68.03641000	-16.25246000
184.99998919	0.00000000	-67.99335000	-16.25246000
185.19998918	0.00000000	-67.99335000	-16.94759000
185.39998916	0.00000000	-67.99335000	-17.32283000
185.59998915	0.00000000	-67.99335000	-17.36589000
185.79998914	0.00000000	-67.99335000	-17.36589000
185.99998913	0.00000000	-67.99335000	-17.36589000
186.19998912	0.00000000	-67.99335000	-17.40895000
186.39998910	0.00000000	-67.99335000	-17.74114000
186.59998909	0.00000000	-67.99335000	-18.11024000
186.79998908	0.00000000	-67.99335000	-17.74114000
186.99998907	0.00000000	-67.99335000	-17.36589000
187.19998906	0.00000000	-67.99335000	-16.94759000
187.39998904	0.00000000	-67.99335000	-16.20325000
187.59998903	0.00000000	-67.99335000	-15.82800000
187.79998902	0.00000000	-67.99335000	-15.82800000
187.99998901	0.00000000	-67.99335000	-16.20325000
188.19998900	0.00000000	-67.99335000	-16.94759000
188.39998899	0.00000000	-67.99335000	-17.32283000
188.59998897	0.00000000	-67.99335000	-17.36589000
188.79998896	0.00000000	-67.99335000	-17.36589000
188.99998895	0.00000000	-67.99335000	-17.40895000
189.19998894	0.00000000	-67.99335000	-17.74114000
189.39998893	0.00000000	-67.99335000	-18.11024000
189.59998891	0.00000000	-67.99335000	-17.74114000
189.79998890	0.00000000	-67.99335000	-17.40895000
189.99998889	0.00000000	-67.99335000	-17.32283000
190.19998888	0.00000000	-68.03641000	-16.99065000
190.39998887	0.00000000	-68.36859000	-16.62155000
190.59998885	0.00000000	-68.73769000	-16.99065000
190.79998884	0.00000000	-68.36859000	-17.32283000
190.99998883	0.00000000	-68.03641000	-17.36589000
191.19998882	0.00000000	-67.99335000	-17.36589000
191.39998881	0.00000000	-67.99335000	-17.36589000
191.59998880	-0.15871060	-67.99335000	-17.36589000
191.79998878	0.00000000	-67.99335000	-17.36589000
191.99998877	0.00000000	-67.99335000	-17.36589000
192.19998876	0.00000000	-67.99335000	-17.36589000
192.39998875	0.00000000	-67.99335000	-17.36589000
192.59998874	0.00000000	-67.99335000	-17.36589000
192.79998872	0.00000000	-68.03641000	-17.36589000
192.99998871	0.00000000	-68.41166000	-17.36589000
193.19998870	0.00000000	-69.10678000	-17.36589000
193.39998869	0.00000000	-69.10678000	-17.36589000
193.59998868	0.00000000	-68.41166000	-17.36589000
193.79998866	0.00000000	-68.03641000	-17.36589000
193.99998865	0.00000000	-67.99335000	-17.36589000
194.19998864	0.00000000	-67.99335000	-17.36589000
194.39998863	0.00000000	-67.99335000	-17.36589000
194.59998862	0.00000000	-67.99335000	-17.36589000
194.79998861	0.00000000	-67.99335000	-17.36589000
194.99998859	0.00000000	-67.99335000	-17.36589000
195.19998858	0.00000000	-67.99335000	-17.36589000
195.39998857	0.00000000	-67.99335000	-17.36589000
195.59998856	0.00000000	-68.03641000	-17.36589000
195.79998855	0.00000000	-68.41166000	-17.36589000
195.99998853	0.00000000	-69.15600000	-17.36589000
