Time	Channel A	Channel B	Channel C
(us)	(V)	(mV)	(mV)

-4.49999956	0.00000000	-3.16190900	6.31151500
-4.29999957	0.00000000	-3.16190900	6.31151500
-4.09999958	0.00000000	-3.16190900	6.31151500
-3.89999959	0.00000000	-3.16190900	6.26845500
-3.69999960	0.00000000	-3.16190900	5.93626900
-3.49999962	0.00000000	-3.16190900	5.57332700
-3.29999963	0.00000000	-3.16190900	5.93626900
-3.09999964	0.00000000	-3.16190900	6.26845500
-2.89999965	0.00000000	-3.16190900	6.31151500
-2.69999966	0.00000000	-3.16190900	6.31151500
-2.49999968	0.00000000	-3.16190900	6.31151500
-2.29999969	0.00000000	-3.16190900	6.31151500
-2.09999970	0.00000000	-3.16190900	6.31151500
-1.89999971	0.00000000	-3.16190900	6.31151500
-1.69999972	0.00000000	-3.16190900	6.31151500
-1.49999973	0.00000000	-3.16190900	6.31151500
-1.29999975	0.00000000	-3.16190900	6.31151500
-1.09999976	0.00000000	-3.16190900	6.31151500
-0.89999977	0.00000000	-3.16190900	6.31151500
-0.69999978	0.00000000	-3.16190900	6.31151500
-0.49999979	0.00000000	-3.11884800	6.31151500
-0.29999981	0.31803640	-2.78666300	6.31151500
-0.09999982	0.63668800	-2.41756900	6.31151500
0.10000017	0.95533960	-2.78666300	6.31151500
0.30000016	0.95533960	-3.11884800	6.31151500
0.50000015	0.79601380	-3.16190900	6.31151500
0.70000013	0.31803640	-3.16190900	6.31151500
0.90000012	-0.47736220	-3.16190900	6.31151500
1.10000011	-1.43331700	-3.16190900	6.31151500
1.30000010	-2.38927200	-3.16190900	6.31151500
1.50000009	-2.86724900	-3.16190900	6.31151500
1.70000008	-2.38927200	-3.16190900	6.31151500
1.90000006	-1.27399100	-3.16190900	6.31151500
2.10000005	0.47736220	-3.16190900	6.31151500
2.30000004	2.54859700	-3.16190900	6.31151500
2.50000003	4.45989200	-3.16190900	6.31151500
2.70000002	5.25652100	-3.16190900	6.26845500
2.90000000	4.93786900	-3.16190900	5.89320800
3.09999999	3.02657500	-3.16190900	5.15501900
3.29999998	0.00000000	-3.16190900	4.82898600
3.49999997	-3.50393700	-3.16190900	5.15501900
3.69999996	-6.37180100	-3.16190900	5.89320800
3.89999994	-7.96444400	-3.16190900	6.26845500
4.09999993	-7.48646600	-3.16190900	6.31151500
4.29999992	-5.09719500	-3.16190900	6.31151500
4.49999991	-1.11466500	-3.16190900	6.31151500
4.69999990	3.34522600	-3.16190900	6.31151500
4.89999989	7.16781500	-3.16190900	6.31151500
5.09999987	9.23905000	-3.16190900	6.26845500
5.29999986	9.07972400	-3.16190900	5.89320800
5.49999985	6.69045300	-3.16190900	5.15501900
5.69999984	2.38927200	-3.16190900	4.82898600
5.89999983	-2.38927200	-3.16190900	5.15501900
6.09999981	-6.53112700	-3.16190900	5.89320800
6.29999980	-9.07972400	-3.16190900	6.26845500
6.49999979	-9.23905000	-3.11884800	6.31151500
6.69999978	-7.16781500	-2.78666300	6.31151500
6.89999977	-3.50393700	-2.41756900	6.31151500
7.09999975	0.79601380	-2.78666300	6.31151500
7.29999974	4.77854300	-3.11884800	6.31151500
7.49999973	7.16781500	-3.16190900	6.31151500
7.69999972	7.64579200	-3.16190900	6.26845500
7.89999971	6.21247500	-3.16190900	5.89320800
8.09999970	3.50393700	-3.16190900	5.19808000
8.29999968	0.15871060	-3.16190900	5.19808000
8.49999967	-2.86724900	-3.16190900	5.89320800
8.69999966	-4.61921700	-3.16190900	6.26845500
8.89999965	-5.09719500	-3.16190900	6.31151500
9.09999964	-4.45989200	-3.16190900	6.31151500
9.29999962	-2.70792300	-3.16190900	6.31151500
9.49999961	-0.79601380	-3.16190900	6.31151500
9.69999960	0.95533960	-3.16190900	6.31151500
9.89999959	2.22994600	-3.16190900	6.31151500
10.09999958	2.54859700	-3.16190900	6.31151500
10.29999956	2.22994600	-3.16190900	6.31151500
10.49999955	1.43331700	-3.16190900	6.31151500
10.69999954	0.47736220	-3.16190900	6.31151500
10.89999953	-0.15871060	-3.16190900	6.31151500
11.09999952	-0.79601380	-3.16190900	6.31151500
11.29999951	-0.95533960	-3.16190900	6.31151500
11.49999949	-0.95533960	-3.16190900	6.31151500
11.69999948	-0.79601380	-3.16190900	6.31151500
11.89999947	-0.47736220	-3.16190900	6.31151500
12.09999946	-0.15871060	-3.16190900	6.31151500
12.29999945	-0.15871060	-3.16190900	6.31151500
12.49999943	0.00000000	-3.16190900	6.31151500
12.69999942	0.00000000	-3.16190900	6.31151500
12.89999941	0.00000000	-3.16190900	6.31151500
13.09999940	0.00000000	-3.16190900	6.31151500
13.29999939	0.00000000	-3.16190900	6.31151500
13.49999937	0.00000000	-3.16190900	6.31151500
13.69999936	0.00000000	-3.16190900	6.31151500
13.89999935	0.00000000	-3.16190900	6.31151500
14.09999934	-0.15871060	-3.16190900	6.31151500
14.29999933	-0.15871060	-3.16190900	6.31151500
14.49999932	-0.15871060	-3.16190900	6.31151500
14.69999930	-0.15871060	-3.16190900	6.31151500
14.89999929	0.00000000	-3.16190900	6.31151500
15.09999928	0.00000000	-3.16190900	6.31151500
15.29999927	0.00000000	-3.16190900	6.31151500
15.49999926	0.00000000	-3.16190900	6.31151500
15.69999924	0.00000000	-3.16190900	6.31151500
15.89999923	0.00000000	-3.16190900	6.31151500
16.09999922	0.00000000	-3.16190900	6.31151500
16.29999921	-0.15871060	-3.16190900	6.31151500
16.49999920	-0.15871060	-3.11884800	6.31151500
16.69999919	-0.15871060	-2.74360200	6.31151500
16.89999917	0.00000000	-1.95620100	6.31151500
17.09999916	0.00000000	-1.20570900	6.31151500
17.29999915	0.00000000	-0.46751960	6.31151500
17.49999914	0.00000000	-0.46751960	6.31151500
17.69999913	0.00000000	-1.16264800	6.31151500
17.89999911	0.00000000	-1.58095500	6.31151500
18.09999910	0.00000000	-2.04847400	6.31151500
18.29999909	0.00000000	-3.25418300	6.31151500
18.49999908	0.00000000	-5.11811000	6.31151500
18.69999907	0.00000000	-7.01894700	6.31151500
18.89999905	0.00000000	-7.81250000	6.31151500
19.09999904	0.00000000	-7.81250000	6.31151500
19.29999903	0.00000000	-6.93282500	6.31151500
19.49999902	0.00000000	-4.23228400	6.31151500
19.69999901	0.00000000	-0.37524600	6.31151500
19.89999900	0.00000000	3.49409400	6.31151500
20.09999898	0.00000000	6.97588500	6.31151500
20.29999897	0.00000000	8.79675100	6.31151500
20.49999896	0.00000000	8.00319800	6.31151500
20.69999895	0.00000000	4.09694900	6.31151500
20.89999894	0.00000000	-2.09153500	6.31151500
21.09999892	0.00000000	-9.48572700	6.31151500
21.29999891	0.00000000	-16.79380000	6.31151500
21.49999890	0.00000000	-22.13952000	6.26845500
21.69999889	0.00000000	-23.63435000	5.89320800
21.89999888	0.00000000	-20.42323000	5.15501900
22.09999886	0.00000000	-12.27854000	4.77977300
22.29999885	0.00000000	-0.28297240	4.73671200
22.49999884	0.00000000	12.42003000	4.77977300
22.69999883	0.00000000	23.16683000	5.11195900
22.89999882	0.00000000	28.56176000	5.51796200
23.09999881	0.00000000	26.98696000	5.57332700
23.29999879	0.00000000	19.11909000	6.36072800
23.49999878	0.00000000	4.74901600	7.42495000
23.69999877	0.00000000	-13.34276000	7.84940900
23.89999876	0.00000000	-30.28420000	7.89247000
24.09999875	0.00000000	-42.24286000	7.84940900
24.29999873	0.00000000	-45.59547000	7.42495000
24.49999872	0.00000000	-38.98868000	6.26845500
24.69999871	0.00000000	-23.12377000	4.73671200
24.89999870	0.00000000	-1.53789400	3.15575800
25.09999869	0.00000000	20.51550000	1.62401600
25.29999867	0.00000000	38.24434000	0.51058070
25.49999866	0.00000000	47.50246000	0.55364170
25.69999865	0.00000000	45.46629000	2.08538400
25.89999864	0.00000000	32.33268000	4.82283400
26.09999863	0.00000000	10.33464000	8.31077700
26.29999862	0.00000000	-14.70226000	12.21087000
26.49999860	0.00000000	-36.79872000	15.60654000
26.69999859	0.00000000	-51.45792000	17.50738000
26.89999858	0.00000000	-55.27190000	16.67692000
27.09999857	0.00000000	-46.80118000	13.18898000
27.29999856	0.00000000	-28.33415000	7.33882900
27.49999854	0.00000000	-4.74286400	0.00000000
27.69999853	0.00000000	18.84842000	-7.29576700
27.89999852	0.00000000	37.36466000	-12.63533000
28.09999851	0.00000000	46.29675000	-14.16708000
28.29999850	0.00000000	44.01451000	-11.42962000
28.49999848	0.00000000	31.68061000	-4.74286400
28.69999847	0.00000000	12.00787000	5.66560000
28.89999846	0.00000000	-10.00246000	17.59966000
29.09999845	0.00000000	-29.35531000	27.63902000
29.29999844	0.00000000	-42.15059000	34.19045000
29.49999843	0.00000000	-45.68774000	35.21161000
29.69999841	0.00000000	-40.00984000	29.40452000
29.89999840	0.00000000	-27.21457000	17.83957000
30.09999839	0.00000000	-10.23007000	3.15575800
30.29999838	0.00000000	7.58489100	-11.57111000
30.49999837	0.00000000	21.86885000	-23.46826000
30.69999835	0.00000000	30.09965000	-29.59522000
30.89999834	0.00000000	30.93627000	-27.65133000
31.09999833	0.00000000	25.16609000	-18.39936000
31.29999832	0.00000000	14.32702000	-3.67249000
31.49999831	0.00000000	0.41830710	13.69956000
31.69999829	0.00000000	-13.12131000	29.91511000
31.89999828	0.00000000	-23.58514000	41.48622000
32.09999827	0.00000000	-29.02313000	45.71235000
32.29999826	0.00000000	-28.32800000	41.52928000
32.49999825	0.00000000	-22.55782000	30.33341000
32.69999824	-0.15871060	-13.25664000	14.81299000
32.89999822	0.00000000	-2.09153500	-2.60211600
33.09999821	0.00000000	7.95398600	-18.39936000
33.29999820	0.00000000	14.60999000	-28.80782000
33.49999819	0.00000000	17.35359000	-31.54527000
33.69999818	0.00000000	15.77264000	-26.20571000
33.89999816	0.00000000	10.00246000	-14.59153000
34.09999815	0.00000000	1.58095500	0.88582670
34.29999814	0.00000000	-6.88361200	17.46432000
34.49999813	0.00000000	-13.12131000	30.98548000
34.69999812	0.00000000	-16.23400000	38.79183000
34.89999810	0.00000000	-15.85876000	39.90526000
35.09999809	0.00000000	-12.05093000	33.72293000
35.29999808	0.00000000	-6.28075700	21.41363000
35.49999807	0.00000000	-0.13533460	6.40378900
35.69999806	0.00000000	4.88435000	-7.90477300
35.89999805	0.00000000	7.21579700	-18.31324000
36.09999803	0.00000000	6.88361200	-22.58243000
36.29999802	0.00000000	4.14616100	-19.88804000
36.49999801	0.00000000	-0.46751960	-11.06053000
36.69999800	0.00000000	-5.81323800	1.57480300
36.89999799	0.00000000	-10.00246000	14.25935000
37.09999797	0.00000000	-11.58341000	23.51132000
37.29999796	0.00000000	-10.46998000	27.45448000
37.49999795	0.00000000	-7.39419200	25.55364000
37.69999794	0.00000000	-3.16190900	19.00221000
37.89999793	0.00000000	1.07037400	9.01205700
38.09999791	0.00000000	4.18922200	-1.63016700
38.29999790	0.00000000	5.77017700	-8.92593500
38.49999789	0.00000000	5.77017700	-10.92520000
38.69999788	0.00000000	4.14616100	-7.85556000
38.89999787	0.00000000	0.69512790	-0.55979330
39.09999786	0.00000000	-3.90625000	9.01205700
39.29999784	0.00000000	-7.76943800	17.74729000
39.49999783	0.00000000	-10.55610000	22.76083000
39.69999782	0.00000000	-12.05093000	22.35482000
39.89999781	0.00000000	-11.67569000	17.04601000
40.09999780	0.00000000	-9.35039300	8.18159400
40.29999778	0.00000000	-5.85629900	-1.35334600
40.49999777	0.00000000	-1.58095500	-9.06126900
40.69999776	0.00000000	2.65132900	-12.50000000
40.89999775	0.00000000	5.77017700	-10.96826000
41.09999774	0.00000000	7.30807100	-4.82898600
41.29999772	0.00000000	6.93282500	4.41067900
41.49999771	0.00000000	4.60752900	13.98868000
41.69999770	0.00000000	1.11343500	21.69045000
41.89999769	0.00000000	-3.11884800	25.09227000
42.09999768	0.00000000	-6.97588500	23.27141000
42.29999767	0.00000000	-9.35039300	17.14444000
42.49999765	0.00000000	-10.55610000	9.09817800
42.69999764	0.00000000	-10.51304000	0.97194880
42.89999763	0.00000000	-8.97514600	-5.20423200
43.09999762	0.00000000	-6.28075700	-8.31692900
43.29999761	0.00000000	-3.20497000	-7.94783400
43.49999759	0.00000000	-0.46751960	-4.09694900
43.69999758	0.00000000	1.44562000	1.99311000
43.89999757	0.00000000	2.27608300	8.54453700
44.09999756	0.00000000	1.91314000	13.56422000
44.29999755	0.00000000	1.20570900	16.30167000
44.49999753	0.00000000	0.41830710	16.35089000
44.69999752	0.00000000	0.04306102	14.07480000
44.89999751	0.00000000	-0.04306102	10.62992000
45.09999750	0.00000000	-0.41830710	6.72982200
45.29999749	0.00000000	-1.20570900	3.29109200
45.49999748	0.00000000	-2.04847400	0.92888770
45.69999746	0.00000000	-3.67249000	0.17839570
45.89999745	0.00000000	-6.32381900	0.92888770
46.09999744	0.00000000	-9.01820900	3.19881900
46.29999743	0.00000000	-10.93135000	5.85014700
46.49999742	0.00000000	-11.62648000	7.84940900
46.69999740	0.00000000	-10.04552000	9.42421200
46.89999739	0.00000000	-6.18848400	10.53765000
47.09999738	0.00000000	-1.11343500	10.53765000
47.29999737	0.00000000	4.69980300	9.42421200
47.49999736	0.00000000	10.00246000	7.84940900
47.69999734	0.00000000	12.69685000	5.89320800
47.89999733	0.00000000	11.91560000	3.57406500
48.09999732	0.00000000	8.00319800	1.71013800
48.29999731	0.00000000	1.02731300	0.92888770
48.49999730	0.00000000	-7.43725300	1.66707700
48.69999729	0.00000000	-15.12057000	3.24803100
48.89999727	0.00000000	-20.14025000	5.57332700
49.09999726	0.00000000	-20.89075000	8.63681000
49.29999725	0.00000000	-17.39665000	10.96211000
49.49999724	0.00000000	-10.04552000	12.49385000
49.69999723	0.00000000	-0.46751960	12.81373000
49.89999721	0.00000000	8.42150500	10.91289000
50.09999720	0.00000000	14.60999000	7.84940900
50.29999719	0.00000000	16.88607000	4.36146600
50.49999718	0.00000000	14.14862000	0.88582670
50.69999717	0.00000000	6.88361200	-1.39640700
50.89999715	0.00000000	-2.69439000	-2.18380900
51.09999714	0.00000000	-11.54035000	-0.97810030
51.29999713	0.00000000	-17.39665000	2.04232300
51.49999712	0.00000000	-19.30979000	5.89320800
51.69999711	0.00000000	-17.02141000	9.42421200
51.89999710	0.00000000	-10.83907000	12.53691000
52.09999708	0.00000000	-2.82972400	14.76993000
52.29999707	0.00000000	4.88435000	14.76993000
52.49999706	0.00000000	9.86712600	12.49385000
52.69999705	0.00000000	11.07283000	9.05511800
52.89999704	0.00000000	8.37844500	5.15501900
53.09999702	0.00000000	2.65132900	1.71013800
53.29999701	0.00000000	-4.27534400	-0.60285430
53.49999700	0.00000000	-10.42077000	-0.97810030
53.69999699	0.00000000	-14.27780000	0.51058070
53.89999698	0.00000000	-14.65305000	3.19881900
54.09999696	0.00000000	-11.58341000	6.26845500
54.29999695	0.00000000	-5.85629900	8.91978400
54.49999694	0.00000000	0.65206690	10.11934000
54.69999693	0.00000000	5.67790300	9.75639700
54.89999692	0.00000000	8.37844500	8.63681000
55.09999691	0.00000000	8.00319800	6.72982200
55.29999689	0.00000000	4.56446800	5.19808000
55.49999688	0.00000000	-0.41830710	4.45374000
55.69999687	0.00000000	-5.81323800	4.45989200
55.89999686	0.00000000	-10.04552000	5.98548200
56.09999685	0.00000000	-12.00172000	7.84940900
56.29999683	0.00000000	-11.62648000	9.38115100
56.49999682	0.00000000	-8.88902600	10.11934000
56.69999681	0.00000000	-4.32455700	9.33809000
56.89999680	0.00000000	0.65206690	7.38188900
57.09999679	0.00000000	4.14616100	4.31840500
57.29999677	0.00000000	5.72711600	0.92888770
57.49999676	0.00000000	5.35187000	-0.97810030
57.69999675	0.00000000	3.02657500	-0.97810030
57.89999674	0.00000000	-0.41830710	0.97194880
58.09999673	0.00000000	-4.27534400	4.87204700
58.29999672	0.00000000	-7.30807100	9.79945900
58.49999670	0.00000000	-8.51377900	14.43775000
58.69999669	0.00000000	-7.81250000	17.09523000
58.89999668	0.00000000	-6.28075700	17.46432000
59.09999667	0.00000000	-4.32455700	14.72687000
59.29999666	0.00000000	-1.99926200	9.38115100
59.49999664	0.00000000	-0.09227362	3.20497000
59.69999663	0.00000000	1.07037400	-2.60211600
59.89999662	0.00000000	1.07037400	-6.78518600
60.09999661	0.00000000	-0.04306102	-7.89862200
60.29999660	0.00000000	-1.53789400	-5.20423200
60.49999658	0.00000000	-2.69439000	0.55364170
60.69999657	0.00000000	-3.11884800	7.89247000
60.89999656	0.00000000	-3.16190900	15.18824000
61.09999655	0.00000000	-3.11884800	20.53395000
61.29999654	0.00000000	-2.74360200	22.06570000
61.49999653	0.00000000	-1.99926200	19.42052000
61.69999651	0.00000000	-1.62401600	13.65650000
61.89999650	0.00000000	-1.62401600	6.31766700
62.09999649	0.00000000	-2.04847400	-1.02116100
62.29999648	0.00000000	-3.16190900	-6.82824800
62.49999647	0.00000000	-4.27534400	-9.84867000
62.69999645	0.00000000	-4.69980300	-9.06126900
62.89999644	0.00000000	-4.69980300	-4.09079700
63.09999643	0.00000000	-4.27534400	3.15575800
63.29999642	0.00000000	-3.11884800	10.53765000
63.49999641	0.00000000	-1.58095500	16.71998000
63.69999639	0.00000000	-0.04306102	20.57702000
63.89999638	0.00000000	1.07037400	20.95226000
64.09999637	0.00000000	1.07037400	17.92569000
64.29999636	0.00000000	-0.04306102	12.53691000
64.49999635	0.00000000	-1.58095500	6.31151500
64.69999634	0.00000000	-3.11884800	0.13533460
64.89999632	0.00000000	-4.32455700	-4.82898600
65.09999631	0.00000000	-5.07504900	-6.78518600
65.29999630	0.00000000	-5.43799200	-5.71481200
65.49999629	0.00000000	-4.65059000	-2.64517700
65.69999628	0.00000000	-3.16190900	1.62401600
65.89999626	0.00000000	-1.62401600	6.26845500
66.09999625	0.00000000	-0.46751960	10.53765000
66.29999624	0.00000000	-0.13533460	13.65650000
66.49999623	0.00000000	-0.88582670	15.23130000
66.69999622	0.00000000	-2.74360200	15.27436000
66.89999620	0.00000000	-4.27534400	14.11786000
67.09999619	0.00000000	-5.07504900	12.16781000
67.29999618	0.00000000	-5.43799200	9.38115100
67.49999617	0.00000000	-4.60752900	5.93626900
67.69999616	0.00000000	-2.74360200	2.46063000
67.89999615	0.00000000	-0.41830710	0.09227362
68.09999613	0.00000000	1.48868100	-1.53174200
68.29999612	0.00000000	2.65132900	-2.60211600
68.49999611	0.00000000	2.60826800	-2.18380900
68.69999610	0.00000000	1.02731300	0.09227362
68.89999609	0.00000000	-2.04847400	3.19881900
69.09999607	0.00000000	-5.90551100	6.77903500
69.29999606	0.00000000	-9.35039300	11.00517000
69.49999605	0.00000000	-11.62648000	14.81299000
69.69999604	0.00000000	-11.62648000	16.76919000
69.89999603	0.00000000	-9.30733200	16.76919000
70.09999601	0.00000000	-5.43799200	14.81299000
70.29999600	0.00000000	-0.37524600	10.91289000
70.49999599	0.00000000	4.60752900	5.89320800
70.69999598	0.00000000	8.46456700	0.51058070
70.89999597	0.00000000	9.95939900	-3.67249000
71.09999596	0.00000000	8.42150500	-5.25344500
71.29999594	0.00000000	4.18922200	-4.13385800
71.49999593	0.00000000	-1.58095500	-1.07037400
71.69999592	0.00000000	-7.39419200	3.20497000
71.89999591	0.00000000	-12.05093000	7.84940900
72.09999590	0.00000000	-14.74532000	12.07554000
72.29999588	0.00000000	-14.74532000	14.76993000
72.49999587	0.00000000	-12.05093000	15.18824000
72.69999586	0.00000000	-7.39419200	13.69956000
72.89999585	0.00000000	-1.62401600	10.96211000
73.09999584	0.00000000	3.77091500	7.51722400
73.29999582	0.00000000	7.30807100	4.08464600
73.49999581	0.00000000	8.83981200	2.12844500
73.69999580	0.00000000	8.04626000	1.71013800
73.89999579	0.00000000	4.60752900	2.46063000
74.09999578	0.00000000	0.00000000	4.31840500
74.29999577	0.00000000	-4.69980300	5.80093500
74.49999575	0.00000000	-8.88902600	6.26845500
74.69999574	0.00000000	-11.20817000	6.26845500
74.89999573	0.00000000	-10.88829000	5.85014700
75.09999572	0.00000000	-8.97514600	4.73671200
75.29999571	0.00000000	-5.85629900	3.66633800
75.49999569	0.00000000	-2.04847400	3.66633800
75.69999568	0.00000000	1.02731300	4.82283400
75.89999567	0.00000000	2.60826800	6.77903500
76.09999566	0.00000000	2.69439000	9.47342500
76.29999565	0.00000000	1.91314000	12.11860000
76.49999563	0.00000000	0.74434050	13.56422000
76.69999562	0.00000000	-1.16264800	12.81988000
76.89999561	0.00000000	-2.65132900	9.75639700
77.09999560	0.00000000	-3.11884800	5.93626900
77.29999559	0.00000000	-3.16190900	1.99311000
77.49999558	0.00000000	-3.11884800	-1.44562000
77.69999556	0.00000000	-2.74360200	-3.71555100
77.89999555	0.00000000	-2.09153500	-3.67249000
78.09999554	0.00000000	-2.50984200	-1.02116100
78.29999553	0.00000000	-4.27534400	3.24803100
78.49999552	0.00000000	-5.39493100	8.26771600
78.69999550	0.00000000	-5.07504900	13.28125000
78.89999549	0.00000000	-4.32455700	16.72613000
79.09999548	0.00000000	-3.06963600	17.92569000
79.29999547	0.00000000	-1.16264800	16.72613000
79.49999546	0.00000000	1.11343500	13.28125000
79.69999544	0.00000000	2.65132900	8.26771600
79.89999543	0.00000000	3.06963600	3.24803100
80.09999542	0.00000000	2.65132900	-1.02116100
80.29999541	0.00000000	1.07037400	-3.71555100
80.49999540	0.00000000	-1.62401600	-4.09079700
80.69999539	0.00000000	-4.65059000	-2.22687000
80.89999537	0.00000000	-6.97588500	1.24877000
81.09999536	0.00000000	-7.76943800	5.11195900
81.29999535	0.00000000	-7.39419200	9.00590400
81.49999534	0.00000000	-5.81323800	12.11860000
81.69999533	0.00000000	-3.16190900	14.07480000
81.89999531	0.00000000	-0.46751960	14.85605000
82.09999530	0.00000000	1.48868100	14.11786000
82.29999529	0.00000000	2.65132900	12.53691000
82.49999528	0.00000000	2.65132900	10.16855000
82.69999527	0.00000000	1.48868100	6.72982200
82.89999525	0.00000000	-0.41830710	3.66633800
83.09999524	0.00000000	-2.74360200	1.62401600
83.29999523	0.00000000	-4.65059000	0.04306102
83.49999522	0.00000000	-5.85629900	-1.06422200
83.69999521	0.00000000	-6.18848400	-1.02116100
83.89999520	0.00000000	-5.48720400	0.51058070
84.09999518	0.00000000	-3.95546200	3.24803100
84.29999517	0.00000000	-2.82972400	6.72982200
84.49999516	0.00000000	-1.99926200	10.58686000
84.69999515	0.00000000	-1.62401600	13.65650000
84.89999514	0.00000000	-1.58095500	15.18824000
85.09999512	0.00000000	-1.58095500	14.81299000
85.29999511	0.00000000	-1.53789400	12.49385000
85.49999510	0.00000000	-1.16264800	9.00590400
85.69999509	0.00000000	-0.41830710	4.73671200
85.89999508	0.00000000	-0.09227362	0.51058070
86.09999506	0.00000000	-0.41830710	-2.55905500
86.29999505	0.00000000	-1.20570900	-3.71555100
86.49999504	0.00000000	-1.99926200	-2.55905500
86.69999503	0.00000000	-3.16190900	0.51058070
86.89999502	0.00000000	-4.27534400	4.77977300
87.09999501	0.00000000	-4.69980300	9.43036400
87.29999499	0.00000000	-4.74286400	13.61343000
87.49999498	0.00000000	-4.65059000	15.92642000
87.69999497	0.00000000	-3.85703700	15.56348000
87.89999496	0.00000000	-1.95620100	13.23819000
88.09999495	0.00000000	-0.09227362	8.96284400
88.29999493	0.00000000	1.11343500	3.66633800
88.49999492	0.00000000	1.48868100	-0.55979330
88.69999491	0.00000000	1.11343500	-2.55905500
88.89999490	0.00000000	-0.04306102	-2.55905500
89.09999489	0.00000000	-1.58095500	-0.55979330
89.29999487	0.00000000	-3.11884800	3.66633800
89.49999486	0.00000000	-4.27534400	8.96284400
89.69999485	0.00000000	-4.69980300	13.23819000
89.89999484	0.00000000	-4.69980300	15.56348000
90.09999483	0.00000000	-4.27534400	15.92642000
90.29999482	0.00000000	-3.16190900	13.56422000
90.49999480	0.00000000	-1.99926200	9.00590400
90.69999479	0.00000000	-1.20570900	3.62327700
90.89999478	0.00000000	-0.46751960	-0.97810030
91.09999477	0.00000000	-0.46751960	-3.67249000
91.29999476	0.00000000	-1.16264800	-3.62942900
91.49999474	0.00000000	-1.53789400	-0.60285430
91.69999473	0.00000000	-1.58095500	4.36146600
91.89999472	0.00000000	-1.58095500	9.38115100
92.09999471	0.00000000	-1.58095500	13.61343000
92.29999470	0.00000000	-1.58095500	15.88336000
92.49999468	0.00000000	-1.58095500	15.14518000
92.69999467	0.00000000	-1.62401600	12.11860000
92.89999466	0.00000000	-2.04847400	7.84940900
93.09999465	0.00000000	-3.16190900	3.24803100
93.29999464	0.00000000	-4.27534400	-0.60285430
93.49999463	0.00000000	-4.69980300	-2.46678100
93.69999461	0.00000000	-4.69980300	-1.76550200
93.89999460	0.00000000	-4.27534400	1.33489200
94.09999459	0.00000000	-3.06963600	5.53026500
94.29999458	0.00000000	-1.16264800	10.11934000
94.49999457	0.00000000	1.11343500	13.18898000
94.69999455	0.00000000	2.65132900	13.98253000
94.89999454	0.00000000	3.06963600	12.86294000
95.09999453	0.00000000	2.65132900	9.75639700
95.29999452	0.00000000	1.07037400	5.93626900
95.49999451	0.00000000	-1.62401600	2.08538400
95.69999449	0.00000000	-4.69980300	-0.55979330
95.89999448	0.00000000	-7.39419200	-0.97810030
96.09999447	0.00000000	-8.93208600	0.51058070
96.29999446	0.00000000	-8.93208600	3.19881900
96.49999445	0.00000000	-7.35113100	6.31151500
96.69999444	0.00000000	-4.27534400	9.38115100
96.89999442	0.00000000	-0.41830710	11.65723000
97.09999441	0.00000000	3.06963600	12.03248000
97.29999440	0.00000000	5.77017700	10.58686000
97.49999439	0.00000000	6.88361200	8.26771600
97.69999438	0.00000000	5.77017700	5.98548200
97.89999436	0.00000000	3.06963600	4.03543200
98.09999435	0.00000000	-0.41830710	3.24803100
98.29999434	0.00000000	-4.32455700	3.19881900
98.49999433	0.00000000	-7.76943800	3.62327700
98.69999432	0.00000000	-10.09473000	4.73671200
98.89999430	0.00000000	-10.46998000	5.89320800
99.09999429	0.00000000	-8.97514600	6.68676100
99.29999428	0.00000000	-6.28075700	7.42495000
99.49999427	0.00000000	-3.16190900	7.47416300
99.69999426	0.00000000	0.00000000	7.14812900
99.89999425	0.00000000	3.06963600	7.51722400
100.09999423	0.00000000	5.35187000	7.89247000
100.29999422	0.00000000	5.72711600	8.31077700
100.49999421	0.00000000	4.23228400	9.00590400
100.69999420	0.00000000	1.53789400	8.96284400
100.89999419	0.00000000	-1.58095500	7.84940900
101.09999417	0.00000000	-4.69980300	6.31151500
101.29999416	0.00000000	-7.35113100	4.73671200
101.49999415	0.00000000	-8.55684000	3.19881900
101.69999414	0.00000000	-8.23695900	2.04232300
101.89999413	0.00000000	-7.43725300	1.71013800
102.09999411	0.00000000	-5.81323800	2.50369100
102.29999410	0.00000000	-3.16190900	4.77977300
102.49999409	0.00000000	-0.46751960	7.47416300
102.69999408	0.00000000	1.48868100	9.79945900
102.89999407	0.00000000	2.65132900	11.74951000
103.09999406	0.00000000	2.65132900	12.45079000
103.29999404	0.00000000	1.53789400	11.70029000
103.49999403	0.00000000	0.00000000	9.38115100
103.69999402	0.00000000	-1.58095500	6.31151500
103.89999401	0.00000000	-3.16190900	3.24803100
104.09999400	0.00000000	-4.69980300	0.92888770
104.29999398	0.00000000	-5.81323800	0.13533460
104.49999397	0.00000000	-5.85629900	0.51058070
104.69999396	0.00000000	-5.07504900	2.08538400
104.89999395	0.00000000	-3.90625000	4.77977300
105.09999394	0.00000000	-1.99926200	7.84940900
105.29999392	0.00000000	-0.46751960	10.53765000
105.49999391	0.00000000	0.33218500	12.03248000
105.69999390	0.00000000	0.69512790	11.70029000
105.89999389	0.00000000	-0.04306102	9.79945900
106.09999388	0.00000000	-1.16264800	7.51722400
106.29999387	0.00000000	-1.99926200	5.15501900
106.49999385	0.00000000	-3.16190900	3.24803100
106.69999384	0.00000000	-4.23228400	2.08538400
106.89999383	0.00000000	-4.23228400	2.12844500
107.09999382	0.00000000	-3.16190900	3.61712600
107.29999381	0.00000000	-1.99926200	5.89320800
107.49999379	0.00000000	-1.20570900	7.80019600
107.69999378	0.00000000	-0.41830710	9.00590400
107.89999377	0.00000000	-0.09227362	9.38115100
108.09999376	0.00000000	-0.41830710	9.00590400
108.29999375	0.00000000	-1.24877000	7.84940900
108.49999374	0.00000000	-2.37450800	6.31151500
108.69999372	0.00000000	-3.90625000	4.77977300
108.89999371	0.00000000	-4.60752900	3.66633800
109.09999370	0.00000000	-4.32455700	3.66633800
109.29999369	0.00000000	-3.53715500	4.77977300
109.49999368	0.00000000	-2.74360200	6.31151500
109.69999366	0.00000000	-1.58095500	7.84940900
109.89999365	0.00000000	-0.46751960	9.05511800
110.09999364	0.00000000	-0.09227362	9.75639700
110.29999363	0.00000000	-0.41830710	9.79330600
110.49999362	0.00000000	-1.16264800	8.64296200
110.69999360	0.00000000	-1.58095500	7.47416300
110.89999359	0.00000000	-1.99926200	5.89320800
111.09999358	0.00000000	-2.78666300	4.03543200
111.29999357	0.00000000	-3.49409400	3.24803100
111.49999356	0.00000000	-3.90625000	3.19881900
111.69999355	0.00000000	-3.53715500	3.57406500
111.89999353	0.00000000	-3.16190900	4.36146600
112.09999352	0.00000000	-2.69439000	5.11195900
112.29999351	0.00000000	-1.62401600	5.93626900
112.49999350	0.00000000	-0.88582670	6.68676100
112.69999349	0.00000000	-1.20570900	7.47416300
112.89999347	0.00000000	-1.53789400	7.84940900
113.09999346	0.00000000	-1.58095500	7.84940900
113.29999345	0.00000000	-1.58095500	7.47416300
113.49999344	0.00000000	-1.58095500	6.72982200
113.69999343	0.00000000	-1.58095500	6.35457700
113.89999341	0.00000000	-1.62401600	6.26845500
114.09999340	0.00000000	-1.99926200	5.89320800
114.29999339	0.00000000	-2.69439000	5.15501900
114.49999338	0.00000000	-2.69439000	4.77977300
114.69999337	0.00000000	-1.99926200	4.73671200
114.89999336	0.00000000	-1.62401600	4.73671200
115.09999334	0.00000000	-1.58095500	4.73671200
115.29999333	0.00000000	-1.58095500	4.77977300
115.49999332	0.00000000	-1.58095500	5.15501900
115.69999331	0.00000000	-1.58095500	5.93626900
115.89999330	0.00000000	-1.58095500	6.68676100
116.09999328	0.00000000	-1.62401600	7.47416300
116.29999327	0.00000000	-1.99926200	7.84940900
116.49999326	0.00000000	-2.74360200	7.89247000
116.69999325	0.00000000	-3.11884800	7.89247000
116.89999324	0.00000000	-3.11884800	7.84940900
117.09999322	0.00000000	-2.74360200	7.42495000
117.29999321	0.00000000	-1.99926200	6.31151500
117.49999320	0.00000000	-1.58095500	5.15501900
117.69999319	0.00000000	-1.16264800	4.40452700
117.89999318	0.00000000	-0.41830710	3.99237200
118.09999317	0.00000000	-0.04306102	4.36146600
118.29999315	0.00000000	-0.04306102	4.73671200
118.49999314	0.00000000	-0.46751960	5.15501900
118.69999313	0.00000000	-1.58095500	5.93626900
118.89999312	0.00000000	-2.69439000	6.72982200
119.09999311	0.00000000	-3.11884800	7.84940900
119.29999309	0.00000000	-3.20497000	8.58759800
119.49999308	0.00000000	-3.53715500	8.26771600
119.69999307	0.00000000	-3.85703700	7.93553100
119.89999306	0.00000000	-3.06963600	7.84940900
120.09999305	0.00000000	-1.58095500	7.47416300
120.29999303	0.00000000	-0.04306102	6.68676100
120.49999302	0.00000000	1.11343500	5.93626900
120.69999301	0.00000000	1.48868100	5.15501900
120.89999300	0.00000000	1.16264800	4.77977300
121.09999299	0.00000000	0.37524600	4.77977300
121.29999298	0.00000000	-0.41830710	5.15501900
121.49999296	0.00000000	-1.62401600	5.89320800
121.69999295	0.00000000	-3.11884800	6.26845500
121.89999294	0.00000000	-4.27534400	6.31151500
122.09999293	0.00000000	-4.69980300	6.31151500
122.29999292	0.00000000	-4.69980300	6.35457700
122.49999290	0.00000000	-4.32455700	6.72982200
122.69999289	0.00000000	-3.53715500	7.47416300
122.89999288	0.00000000	-2.74360200	7.80019600
123.09999287	0.00000000	-1.58095500	7.47416300
123.29999286	0.00000000	-0.46751960	6.72982200
123.49999284	-0.15871060	-0.04306102	6.35457700
123.69999283	0.00000000	0.00000000	6.26845500
123.89999282	0.00000000	-0.04306102	5.89320800
124.09999281	0.00000000	-0.41830710	5.15501900
124.29999280	0.00000000	-1.20570900	4.77977300
124.49999279	0.00000000	-1.95620100	4.73671200
124.69999277	0.00000000	-2.78666300	4.77977300
124.89999276	0.00000000	-3.53715500	5.15501900
125.09999275	0.00000000	-4.32455700	5.89320800
125.29999274	0.00000000	-4.65059000	6.31151500
125.49999273	0.00000000	-4.27534400	6.72982200
125.69999271	0.00000000	-3.16190900	7.47416300
125.89999270	0.00000000	-1.99926200	7.84940900
126.09999269	0.00000000	-1.20570900	7.89247000
126.29999268	0.00000000	-0.41830710	7.84940900
126.49999267	0.00000000	-0.04306102	7.47416300
126.69999265	0.00000000	0.00000000	6.72982200
126.89999264	0.00000000	-0.04306102	6.35457700
127.09999263	0.00000000	-0.46751960	6.26845500
127.29999262	0.00000000	-1.62401600	5.89320800
127.49999261	0.00000000	-3.11884800	5.19808000
127.69999260	0.00000000	-4.27534400	5.19808000
127.89999258	0.00000000	-4.65059000	5.89320800
128.09999257	0.00000000	-4.32455700	6.26845500
128.29999256	0.00000000	-3.53715500	6.35457700
128.49999255	0.00000000	-2.74360200	6.68676100
128.69999254	0.00000000	-1.58095500	7.05585600
128.89999252	0.00000000	-0.46751960	6.68676100
129.09999251	0.00000000	-0.04306102	6.35457700
129.29999250	0.00000000	-0.04306102	6.31151500
129.49999249	0.00000000	-0.41830710	6.31151500
129.69999248	0.00000000	-1.20570900	6.31151500
129.89999246	0.00000000	-1.95620100	6.31151500
130.09999245	0.00000000	-2.74360200	6.31151500
130.29999244	0.00000000	-3.11884800	6.31151500
130.49999243	0.00000000	-3.16190900	6.35457700
130.69999242	0.00000000	-3.11884800	6.68676100
130.89999241	0.00000000	-2.74360200	7.05585600
131.09999239	0.00000000	-1.95620100	6.68676100
131.29999238	0.00000000	-1.20570900	6.35457700
131.49999237	0.00000000	-0.41830710	6.31151500
131.69999236	0.00000000	-0.09227362	6.26845500
131.89999235	0.00000000	-0.41830710	5.89320800
132.09999233	0.00000000	-1.20570900	5.15501900
132.29999232	0.00000000	-1.95620100	4.77977300
132.49999231	0.00000000	-2.74360200	4.73671200
132.69999230	0.00000000	-3.06963600	4.77977300
132.89999229	0.00000000	-2.74360200	5.19808000
133.09999227	0.00000000	-1.99926200	6.31151500
133.29999226	0.00000000	-1.62401600	7.42495000
133.49999225	0.00000000	-1.58095500	7.84940900
133.69999224	0.00000000	-1.58095500	7.84940900
133.89999223	0.00000000	-1.62401600	7.47416300
134.09999222	0.00000000	-1.99926200	6.72982200
134.29999220	0.00000000	-2.69439000	6.31151500
134.49999219	0.00000000	-2.69439000	5.89320800
134.69999218	0.00000000	-1.99926200	5.15501900
134.89999217	0.00000000	-1.62401600	4.77977300
135.09999216	0.00000000	-1.58095500	4.73671200
135.29999214	0.00000000	-1.58095500	4.77977300
135.49999213	0.00000000	-1.53789400	5.15501900
135.69999212	0.00000000	-1.20570900	5.93626900
135.89999211	0.00000000	-0.88582670	6.68676100
136.09999210	0.00000000	-1.62401600	7.47416300
136.29999208	0.00000000	-2.69439000	7.84940900
136.49999207	0.00000000	-3.11884800	7.89247000
136.69999206	0.00000000	-3.16190900	7.84940900
136.89999205	0.00000000	-3.11884800	7.47416300
137.09999204	0.00000000	-2.69439000	6.72982200
137.29999203	0.00000000	-1.58095500	6.31151500
137.49999201	0.00000000	-0.46751960	5.89320800
137.69999200	0.00000000	-0.04306102	5.15501900
137.89999199	0.00000000	-0.04306102	4.77977300
138.09999198	0.00000000	-0.41830710	4.73671200
138.29999197	0.00000000	-1.16264800	4.77977300
138.49999195	0.00000000	-1.58095500	5.15501900
138.69999194	0.00000000	-1.99926200	5.89320800
138.89999193	0.00000000	-2.74360200	6.31151500
139.09999192	0.00000000	-3.11884800	6.72982200
139.29999191	0.00000000	-3.16190900	7.47416300
139.49999189	0.00000000	-3.11884800	7.84940900
139.69999188	0.00000000	-2.74360200	7.89247000
139.89999187	0.00000000	-1.95620100	7.89247000
140.09999186	0.00000000	-1.20570900	7.84940900
140.29999185	0.00000000	-0.46751960	7.42495000
140.49999184	0.00000000	-0.46751960	6.31151500
140.69999182	0.00000000	-1.16264800	5.19808000
140.89999181	0.00000000	-1.58095500	4.77977300
141.09999180	0.00000000	-1.99926200	4.77977300
141.29999179	0.00000000	-2.74360200	5.15501900
141.49999178	0.00000000	-3.06963600	5.89320800
141.69999176	0.00000000	-2.74360200	6.31151500
141.89999175	0.00000000	-1.99926200	6.72982200
142.09999174	0.00000000	-1.58095500	7.47416300
142.29999173	0.00000000	-1.16264800	7.84940900
142.49999172	0.00000000	-0.46751960	7.89247000
142.69999170	0.00000000	-0.46751960	7.84940900
142.89999169	0.00000000	-1.16264800	7.42495000
143.09999168	0.00000000	-1.53789400	6.31151500
143.29999167	0.00000000	-1.62401600	5.19808000
143.49999166	0.00000000	-1.95620100	4.77977300
143.69999165	0.00000000	-2.32529500	4.73671200
143.89999163	0.00000000	-1.95620100	4.77977300
144.09999162	0.00000000	-1.62401600	5.15501900
144.29999161	0.00000000	-1.58095500	5.93626900
144.49999160	0.00000000	-1.58095500	6.68676100
144.69999159	0.00000000	-1.58095500	7.47416300
144.89999157	0.00000000	-1.58095500	7.84940900
145.09999156	0.00000000	-1.58095500	7.84940900
145.29999155	0.00000000	-1.58095500	7.47416300
145.49999154	0.00000000	-1.62401600	6.72982200
145.69999153	0.00000000	-1.99926200	6.35457700
145.89999151	0.00000000	-2.74360200	6.26845500
146.09999150	0.00000000	-3.06963600	5.89320800
146.29999149	0.00000000	-2.74360200	5.15501900
146.49999148	0.00000000	-1.99926200	4.77977300
146.69999147	0.00000000	-1.62401600	4.77977300
146.89999146	0.00000000	-1.58095500	5.15501900
147.09999144	0.00000000	-1.58095500	5.89320800
147.29999143	0.00000000	-1.58095500	6.31151500
147.49999142	0.00000000	-1.58095500	6.72982200
147.69999141	0.00000000	-1.58095500	7.47416300
147.89999140	0.00000000	-1.58095500	7.84940900
148.09999138	0.00000000	-1.62401600	7.84940900
148.29999137	0.00000000	-1.95620100	7.47416300
148.49999136	0.00000000	-2.36835600	6.72982200
148.69999135	0.00000000	-2.33144700	6.35457700
148.89999134	0.00000000	-2.36835600	6.26845500
149.09999132	0.00000000	-1.95620100	5.93626900
149.29999131	0.00000000	-1.62401600	5.57332700
149.49999130	0.00000000	-1.58095500	5.93626900
149.69999129	0.00000000	-1.58095500	6.26845500
149.89999128	0.00000000	-1.58095500	6.31151500
150.09999127	0.00000000	-1.58095500	6.35457700
150.29999125	0.00000000	-1.58095500	6.72982200
150.49999124	0.00000000	-1.58095500	7.47416300
150.69999123	0.00000000	-1.58095500	7.84940900
150.89999122	0.00000000	-1.58095500	7.84940900
151.09999121	0.00000000	-1.62401600	7.47416300
151.29999119	0.00000000	-1.95620100	6.72982200
151.49999118	0.00000000	-2.36835600	6.35457700
151.69999117	0.00000000	-2.33144700	6.31151500
151.89999116	0.00000000	-2.36835600	6.31151500
152.09999115	0.00000000	-1.95620100	6.31151500
152.29999113	0.00000000	-1.58095500	6.31151500
152.49999112	0.00000000	-1.16264800	6.31151500
152.69999111	0.00000000	-0.41830710	6.31151500
152.89999110	0.00000000	-0.09227362	6.31151500
153.09999109	0.00000000	-0.41830710	6.35457700
153.29999108	0.00000000	-1.16264800	6.68676100
153.49999106	0.00000000	-1.53789400	7.05585600
153.69999105	0.00000000	-1.62401600	6.72982200
153.89999104	0.00000000	-1.99926200	6.72982200
154.09999103	0.00000000	-2.74360200	7.05585600
154.29999102	0.00000000	-3.11884800	6.68676100
154.49999100	0.00000000	-3.16190900	6.35457700
154.69999099	0.00000000	-3.11884800	6.31151500
154.89999098	0.00000000	-2.74360200	6.31151500
155.09999097	0.00000000	-1.95620100	6.31151500
155.29999096	0.00000000	-1.20570900	6.31151500
155.49999094	0.00000000	-0.41830710	6.31151500
155.69999093	0.00000000	-0.04306102	6.31151500
155.89999092	0.00000000	-0.04306102	6.31151500
156.09999091	0.00000000	-0.41830710	6.31151500
156.29999090	0.00000000	-1.16264800	6.35457700
156.49999089	0.00000000	-1.58095500	6.72982200
156.69999087	0.00000000	-1.99926200	7.47416300
156.89999086	0.00000000	-2.74360200	7.84940900
157.09999085	0.00000000	-3.11884800	7.89247000
157.29999084	0.00000000	-3.16190900	7.84940900
157.49999083	0.00000000	-3.11884800	7.51722400
157.69999081	0.00000000	-2.74360200	7.10506800
157.89999080	0.00000000	-1.95620100	7.09891700
158.09999079	0.00000000	-1.24877000	6.64370100
158.29999078	0.00000000	-0.79355310	5.98548200
158.49999077	0.00000000	-0.78740150	5.57332700
158.69999075	0.00000000	-0.41830710	5.93626900
158.89999074	0.00000000	-0.46751960	6.26845500
159.09999073	0.00000000	-1.16264800	6.35457700
159.29999072	0.00000000	-1.53789400	6.72982200
159.49999071	0.00000000	-1.58095500	7.47416300
159.69999070	0.00000000	-1.58095500	7.80019600
159.89999068	0.00000000	-1.58095500	7.51722400
160.09999067	0.00000000	-1.58095500	7.10506800
160.29999066	0.00000000	-1.58095500	7.09891700
160.49999065	0.00000000	-1.58095500	6.68676100
160.69999064	0.00000000	-1.58095500	6.35457700
160.89999062	0.00000000	-1.58095500	6.31151500
161.09999061	0.00000000	-1.58095500	6.31151500
161.29999060	0.00000000	-1.58095500	6.31151500
161.49999059	0.00000000	-1.58095500	6.31151500
161.69999058	0.00000000	-1.58095500	6.31151500
161.89999056	0.00000000	-1.58095500	6.31151500
162.09999055	0.00000000	-1.58095500	6.31151500
162.29999054	0.00000000	-1.58095500	6.31151500
162.49999053	0.00000000	-1.58095500	6.31151500
162.69999052	0.00000000	-1.58095500	6.31151500
162.89999051	0.00000000	-1.58095500	6.31151500
163.09999049	0.00000000	-1.62401600	6.31151500
163.29999048	0.00000000	-1.99926200	6.31151500
163.49999047	0.00000000	-2.74360200	6.31151500
163.69999046	0.00000000	-3.11884800	6.31151500
163.89999045	0.00000000	-3.11884800	6.31151500
164.09999043	0.00000000	-2.74360200	6.31151500
164.29999042	0.00000000	-1.99926200	6.31151500
164.49999041	0.00000000	-1.58095500	6.31151500
164.69999040	0.00000000	-1.16264800	6.31151500
164.89999039	0.00000000	-0.41830710	6.31151500
165.09999037	0.00000000	-0.09227362	6.31151500
165.29999036	0.00000000	-0.41830710	6.31151500
165.49999035	0.00000000	-1.16264800	6.31151500
165.69999034	0.00000000	-1.53789400	6.31151500
165.89999033	0.00000000	-1.62401600	6.31151500
166.09999032	0.00000000	-1.95620100	6.31151500
166.29999030	0.00000000	-2.36835600	6.31151500
166.49999029	0.00000000	-2.33144700	6.31151500
166.69999028	0.00000000	-2.36835600	6.31151500
166.89999027	0.00000000	-1.95620100	6.31151500
167.09999026	0.00000000	-1.62401600	6.31151500
167.29999024	0.00000000	-1.58095500	6.31151500
167.49999023	0.00000000	-1.58095500	6.31151500
167.69999022	0.00000000	-1.58095500	6.31151500
167.89999021	0.00000000	-1.58095500	6.31151500
168.09999020	0.00000000	-1.58095500	6.31151500
168.29999018	0.00000000	-1.58095500	6.31151500
168.49999017	0.00000000	-1.58095500	6.31151500
168.69999016	0.00000000	-1.58095500	6.31151500
168.89999015	0.00000000	-1.58095500	6.31151500
169.09999014	0.00000000	-1.58095500	6.31151500
169.29999013	0.00000000	-1.58095500	6.31151500
169.49999011	0.00000000	-1.58095500	6.31151500
169.69999010	0.00000000	-1.58095500	6.31151500
169.89999009	0.00000000	-1.58095500	6.31151500
170.09999008	0.00000000	-1.58095500	6.31151500
170.29999007	0.00000000	-1.58095500	6.31151500
170.49999005	0.00000000	-1.58095500	6.31151500
170.69999004	0.00000000	-1.58095500	6.31151500
170.89999003	0.00000000	-1.58095500	6.31151500
171.09999002	0.00000000	-1.53789400	6.31151500
171.29999001	0.00000000	-1.20570900	6.31151500
171.49998999	0.00000000	-0.83661410	6.31151500
171.69998998	0.00000000	-1.16264800	6.31151500
171.89998997	0.00000000	-1.16264800	6.31151500
172.09998996	0.00000000	-0.83661410	6.31151500
172.29998995	0.00000000	-1.20570900	6.31151500
172.49998994	0.00000000	-1.53789400	6.31151500
172.69998992	0.00000000	-1.58095500	6.31151500
172.89998991	0.00000000	-1.58095500	6.31151500
173.09998990	0.00000000	-1.58095500	6.31151500
173.29998989	0.00000000	-1.58095500	6.31151500
173.49998988	0.00000000	-1.58095500	6.31151500
173.69998986	0.00000000	-1.58095500	6.31151500
173.89998985	0.00000000	-1.58095500	6.31151500
174.09998984	0.00000000	-1.58095500	6.31151500
174.29998983	0.00000000	-1.53789400	6.31151500
174.49998982	0.00000000	-1.20570900	6.31151500
174.69998980	0.00000000	-0.83661410	6.31151500
174.89998979	0.00000000	-1.20570900	6.31151500
175.09998978	0.00000000	-1.53789400	6.31151500
175.29998977	0.00000000	-1.58095500	6.31151500
175.49998976	0.00000000	-1.58095500	6.31151500
175.69998975	0.00000000	-1.58095500	6.31151500
175.89998973	0.00000000	-1.58095500	6.31151500
176.09998972	0.00000000	-1.58095500	6.31151500
176.29998971	0.00000000	-1.58095500	6.31151500
176.49998970	0.00000000	-1.58095500	6.31151500
176.69998969	0.00000000	-1.58095500	6.31151500
176.89998967	0.00000000	-1.58095500	6.31151500
177.09998966	0.00000000	-1.58095500	6.31151500
177.29998965	0.00000000	-1.58095500	6.31151500
177.49998964	0.00000000	-1.58095500	6.31151500
177.69998963	0.00000000	-1.58095500	6.31151500
177.89998961	0.00000000	-1.58095500	6.31151500
178.09998960	0.00000000	-1.58095500	6.31151500
178.29998959	0.00000000	-1.58095500	6.31151500
178.49998958	0.00000000	-1.58095500	6.31151500
178.69998957	0.00000000	-1.58095500	6.31151500
178.89998956	0.00000000	-1.53789400	6.31151500
179.09998954	0.00000000	-1.16264800	6.35457700
179.29998953	0.00000000	-0.46751960	6.68676100
179.49998952	0.00000000	-0.46751960	7.05585600
179.69998951	0.00000000	-1.16264800	6.68676100
179.89998950	0.00000000	-1.53789400	6.35457700
180.09998948	0.00000000	-1.58095500	6.31151500
180.29998947	0.00000000	-1.58095500	6.31151500
180.49998946	0.00000000	-1.58095500	6.31151500
180.69998945	0.00000000	-1.58095500	6.31151500
180.89998944	0.00000000	-1.58095500	6.31151500
181.09998942	0.00000000	-1.58095500	6.31151500
181.29998941	0.00000000	-1.58095500	6.31151500
181.49998940	0.00000000	-1.58095500	6.35457700
181.69998939	0.00000000	-1.58095500	6.68676100
181.89998938	0.00000000	-1.53789400	7.05585600
182.09998937	0.00000000	-1.20570900	6.68676100
182.29998935	0.00000000	-0.83661410	6.35457700
182.49998934	0.00000000	-1.20570900	6.31151500
182.69998933	0.00000000	-1.53789400	6.31151500
182.89998932	0.00000000	-1.58095500	6.31151500
183.09998931	0.00000000	-1.58095500	6.26845500
183.29998929	0.00000000	-1.58095500	5.93626900
183.49998928	0.00000000	-1.58095500	5.57332700
183.69998927	0.00000000	-1.58095500	5.93626900
183.89998926	0.00000000	-1.58095500	6.26845500
184.09998925	0.00000000	-1.58095500	6.31151500
184.29998923	0.00000000	-1.58095500	6.35457700
184.49998922	0.00000000	-1.58095500	6.68676100
184.69998921	0.00000000	-1.58095500	7.09891700
184.89998920	0.00000000	-1.58095500	7.06200700
185.09998919	0.00000000	-1.58095500	7.09891700
185.29998918	0.00000000	-1.58095500	6.68676100
185.49998916	0.00000000	-1.58095500	6.35457700
185.69998915	0.00000000	-1.58095500	6.31151500
185.89998914	0.00000000	-1.58095500	6.26845500
186.09998913	0.00000000	-1.53789400	5.93626900
186.29998912	0.00000000	-1.20570900	5.57332700
186.49998910	0.00000000	-0.83661410	5.93626900
186.69998909	0.00000000	-1.20570900	6.26845500
186.89998908	0.00000000	-1.53789400	6.31151500
187.09998907	0.00000000	-1.58095500	6.35457700
187.29998906	0.00000000	-1.58095500	6.68676100
187.49998904	0.00000000	-1.58095500	7.09891700
187.69998903	0.00000000	-1.58095500	7.10506800
187.89998902	0.00000000	-1.58095500	7.47416300
188.09998901	0.00000000	-1.58095500	7.42495000
188.29998900	0.00000000	-1.58095500	6.72982200
188.49998899	0.00000000	-1.58095500	6.35457700
188.69998897	0.00000000	-1.53789400	6.31151500
188.89998896	0.00000000	-1.20570900	6.31151500
189.09998895	0.00000000	-0.83661410	6.31151500
189.29998894	0.00000000	-1.20570900	6.31151500
189.49998893	0.00000000	-1.53789400	6.31151500
189.69998891	0.00000000	-1.58095500	6.31151500
189.89998890	0.00000000	-1.58095500	6.31151500
190.09998889	0.00000000	-1.58095500	6.31151500
190.29998888	0.00000000	-1.58095500	6.31151500
190.49998887	0.00000000	-1.58095500	6.31151500
190.69998885	0.00000000	-1.58095500	6.31151500
190.89998884	0.00000000	-1.58095500	6.31151500
191.09998883	0.00000000	-1.58095500	6.31151500
191.29998882	0.00000000	-1.53789400	6.31151500
191.49998881	0.00000000	-1.20570900	6.31151500
191.69998880	0.00000000	-0.83661410	6.31151500
191.89998878	0.00000000	-1.16264800	6.31151500
192.09998877	0.00000000	-1.16264800	6.31151500
192.29998876	0.00000000	-0.83661410	6.31151500
192.49998875	0.00000000	-1.20570900	6.31151500
192.69998874	0.00000000	-1.53789400	6.31151500
192.89998872	0.00000000	-1.58095500	6.31151500
193.09998871	0.00000000	-1.58095500	6.31151500
193.29998870	0.00000000	-1.58095500	6.31151500
193.49998869	0.00000000	-1.58095500	6.31151500
193.69998868	0.00000000	-1.58095500	6.31151500
193.89998866	0.00000000	-1.58095500	6.31151500
194.09998865	0.00000000	-1.58095500	6.35457700
194.29998864	0.00000000	-1.58095500	6.68676100
194.49998863	0.00000000	-1.58095500	7.05585600
194.69998862	0.00000000	-1.58095500	6.68676100
194.89998861	0.00000000	-1.58095500	6.35457700
195.09998859	0.00000000	-1.58095500	6.31151500
195.29998858	0.00000000	-1.58095500	6.31151500
195.49998857	0.00000000	-1.58095500	6.31151500
195.69998856	0.00000000	-1.58095500	6.31151500
195.89998855	0.00000000	-1.58095500	6.31151500
196.09998853	0.00000000	-1.58095500	6.31151500
