Time	Channel A	Channel B	Channel C
(us)	(V)	(mV)	(mV)

-4.49999956	0.00000000	-60.08243000	-13.37352000
-4.29999957	0.00000000	-60.08243000	-13.00443000
-4.09999958	0.00000000	-60.08243000	-12.72146000
-3.89999959	0.00000000	-60.08243000	-13.00443000
-3.69999960	0.00000000	-60.08243000	-13.37352000
-3.49999962	0.00000000	-60.08243000	-13.00443000
-3.29999963	0.00000000	-60.08243000	-12.67224000
-3.09999964	0.00000000	-60.08243000	-12.62918000
-2.89999965	0.00000000	-60.08243000	-12.62918000
-2.69999966	0.00000000	-60.08243000	-12.62918000
-2.49999968	0.00000000	-60.08243000	-12.62918000
-2.29999969	0.00000000	-60.08243000	-12.62918000
-2.09999970	0.00000000	-60.08243000	-12.62918000
-1.89999971	0.00000000	-60.08243000	-12.62918000
-1.69999972	0.00000000	-60.08243000	-12.62918000
-1.49999973	0.00000000	-60.08243000	-12.67224000
-1.29999975	0.00000000	-60.08243000	-13.04749000
-1.09999976	0.00000000	-60.08243000	-13.74262000
-0.89999977	0.00000000	-60.08243000	-13.74262000
-0.69999978	0.00000000	-60.08243000	-13.04749000
-0.49999979	0.00000000	-60.08243000	-12.67224000
-0.29999981	0.31803640	-60.08243000	-12.62918000
-0.09999982	0.63668800	-60.08243000	-12.62918000
0.10000017	0.95533960	-60.08243000	-12.67224000
0.30000016	0.95533960	-60.08243000	-13.00443000
0.50000015	0.79601380	-60.08243000	-13.41658000
0.70000013	0.15871060	-60.08243000	-13.42274000
0.90000012	-0.79601380	-60.08243000	-13.79183000
1.10000011	-1.75196900	-60.08243000	-13.74262000
1.30000010	-2.54859700	-60.08243000	-13.04749000
1.50000009	-2.70792300	-60.08243000	-12.67224000
1.70000008	-2.22994600	-60.08243000	-12.62918000
1.90000006	-0.95533960	-60.08243000	-12.62918000
2.10000005	1.11466500	-60.08243000	-12.67224000
2.30000004	3.18590100	-60.08243000	-13.04749000
2.50000003	4.77854300	-60.08243000	-13.79183000
2.70000002	5.41584600	-60.08243000	-14.16708000
2.90000000	4.45989200	-60.08243000	-14.21014000
3.09999999	2.22994600	-60.08243000	-14.21014000
3.29999998	-0.95533960	-60.08243000	-14.21014000
3.49999997	-4.30056600	-60.08243000	-14.16708000
3.69999996	-7.00848900	-60.08243000	-13.79183000
3.89999994	-7.96444400	-60.08243000	-13.04749000
4.09999993	-7.00848900	-60.08243000	-12.67224000
4.29999992	-4.14124000	-60.08243000	-12.62918000
4.49999991	0.00000000	-60.08243000	-12.62918000
4.69999990	4.45989200	-60.08243000	-12.62918000
4.89999989	7.80511800	-60.08243000	-12.67224000
5.09999987	9.55770200	-60.08243000	-13.04749000
5.29999986	8.60174700	-60.08243000	-13.79183000
5.49999985	5.57517200	-60.08243000	-14.16708000
5.69999984	1.11466500	-60.08243000	-14.21014000
5.89999983	-3.50393700	-60.08243000	-14.16708000
6.09999981	-7.48646600	-60.08243000	-13.79183000
6.29999980	-9.39837600	-60.08243000	-13.04749000
6.49999979	-8.92039900	-60.08243000	-12.67224000
6.69999978	-6.37180100	-60.08243000	-12.62918000
6.89999977	-2.38927200	-60.08243000	-12.62918000
7.09999975	2.07062000	-60.08243000	-12.67224000
7.29999974	5.57517200	-60.08243000	-13.00443000
7.49999973	7.48646600	-60.08243000	-13.41658000
7.69999972	7.48646600	-60.08243000	-13.42274000
7.89999971	5.57517200	-60.08243000	-13.83489000
8.09999970	2.54859700	-60.08243000	-14.16708000
8.29999968	-0.79601380	-60.08243000	-14.21014000
8.49999967	-3.50393700	-60.08243000	-14.16708000
8.69999966	-4.93786900	-60.08243000	-13.79183000
8.89999965	-5.09719500	-60.08243000	-13.04749000
9.09999964	-3.98191400	-60.08243000	-12.67224000
9.29999962	-2.22994600	-60.03937000	-12.62918000
9.49999961	-0.15871060	-59.70718000	-12.62918000
9.69999960	1.43331700	-59.33809000	-12.62918000
9.89999959	2.38927200	-59.70718000	-12.67224000
10.09999958	2.54859700	-60.03937000	-13.00443000
10.29999956	2.07062000	-60.08243000	-13.37352000
10.49999955	1.11466500	-60.08243000	-13.04749000
10.69999954	0.31803640	-60.08243000	-13.04749000
10.89999953	-0.47736220	-60.08243000	-13.37352000
11.09999952	-0.79601380	-60.08243000	-13.00443000
11.29999951	-0.95533960	-60.08243000	-12.67224000
11.49999949	-0.95533960	-60.08243000	-12.67224000
11.69999948	-0.63668800	-60.08243000	-13.00443000
11.89999947	-0.31803640	-60.12549000	-13.41658000
12.09999946	-0.15871060	-60.45767000	-13.37967000
12.29999945	-0.15871060	-60.77756000	-13.45964000
12.49999943	0.00000000	-60.08243000	-13.42274000
12.69999942	0.00000000	-59.38730000	-13.83489000
12.89999941	0.00000000	-59.70718000	-14.11786000
13.09999940	0.00000000	-60.03937000	-13.83489000
13.29999939	0.00000000	-60.08243000	-13.42274000
13.49999937	0.00000000	-60.08243000	-13.45964000
13.69999936	0.00000000	-60.08243000	-13.42274000
13.89999935	0.00000000	-60.08243000	-13.79183000
14.09999934	-0.15871060	-60.08243000	-13.74262000
14.29999933	-0.15871060	-60.08243000	-13.09670000
14.49999932	-0.15871060	-60.08243000	-13.09670000
14.69999930	0.00000000	-60.08243000	-13.79183000
14.89999929	0.00000000	-60.08243000	-14.11786000
15.09999928	0.00000000	-60.08243000	-13.79183000
15.29999927	0.00000000	-60.08243000	-13.04749000
15.49999926	0.00000000	-60.08243000	-12.67224000
15.69999924	0.00000000	-60.08243000	-12.62918000
15.89999923	0.00000000	-60.08243000	-12.62918000
16.09999922	0.00000000	-60.08243000	-12.62918000
16.29999921	-0.15871060	-60.08243000	-12.67224000
16.49999920	-0.15871060	-60.03937000	-13.00443000
16.69999919	0.00000000	-59.66412000	-13.37352000
16.89999917	-0.15871060	-58.91978000	-13.00443000
17.09999916	0.00000000	-58.54454000	-12.72146000
17.29999915	0.00000000	-58.50147000	-13.00443000
17.49999914	0.00000000	-58.50147000	-13.37352000
17.69999913	0.00000000	-58.54454000	-13.00443000
17.89999911	0.00000000	-58.96899000	-12.67224000
18.09999910	0.00000000	-60.12549000	-12.62918000
18.29999909	0.00000000	-61.62032000	-12.62918000
18.49999908	0.00000000	-62.82603000	-12.62918000
18.69999907	0.00000000	-63.61958000	-12.62918000
18.89999905	-0.15871060	-64.35777000	-12.62918000
19.09999904	0.00000000	-64.27164000	-12.62918000
19.29999903	0.00000000	-62.69069000	-12.62918000
19.49999902	0.00000000	-59.61491000	-12.62918000
19.69999901	0.00000000	-55.75787000	-12.62918000
19.89999900	0.00000000	-52.26993000	-12.62918000
20.09999898	0.00000000	-49.56939000	-12.62918000
20.29999897	0.00000000	-48.49901000	-12.62918000
20.49999896	0.00000000	-50.07997000	-12.62918000
20.69999895	0.00000000	-54.40452000	-12.62918000
20.89999894	0.00000000	-60.96825000	-12.62918000
21.09999892	0.00000000	-68.73154000	-12.67224000
21.29999891	0.00000000	-75.62746000	-13.00443000
21.49999890	0.00000000	-80.22883000	-13.41658000
21.69999889	0.00000000	-80.46875000	-13.42274000
21.89999888	0.00000000	-75.43676000	-13.83489000
22.09999886	0.00000000	-65.71727000	-14.11786000
22.29999885	0.00000000	-53.34030000	-13.79183000
22.49999884	0.00000000	-40.63730000	-13.09670000
22.69999883	0.00000000	-31.05315000	-13.04749000
22.89999882	0.00000000	-27.60211000	-13.37352000
23.09999881	0.00000000	-31.13927000	-13.00443000
23.29999879	0.00000000	-41.65846000	-12.62918000
23.49999878	0.00000000	-57.52337000	-12.21087000
23.69999877	0.00000000	-75.29527000	-11.46653000
23.89999876	0.00000000	-91.11713000	-11.09129000
24.09999875	0.00000000	-101.03350000	-11.09129000
24.29999873	0.00000000	-101.72860000	-11.51575000
24.49999872	0.00000000	-92.05215000	-12.67224000
24.69999871	0.00000000	-74.28026000	-14.21014000
24.89999870	0.00000000	-52.22071000	-15.78494000
25.09999869	0.00000000	-30.63484000	-17.32283000
25.29999867	0.00000000	-14.85605000	-18.43627000
25.49999866	0.00000000	-9.04281500	-18.39321000
25.69999865	0.00000000	-14.53002000	-16.81225000
25.89999864	0.00000000	-30.40108000	-13.69956000
26.09999863	0.00000000	-53.93700000	-9.47342500
26.29999862	0.00000000	-78.98006000	-5.24729300
26.49999860	0.00000000	-99.49556000	-2.17765700
26.69999859	0.00000000	-111.07900000	-1.05807100
26.89999858	0.00000000	-111.07900000	-2.63902500
27.09999857	0.00000000	-99.49556000	-6.90821800
27.29999856	0.00000000	-79.02312000	-13.13976000
27.49999854	0.00000000	-54.31225000	-20.52780000
27.69999853	0.00000000	-31.13927000	-27.78051000
27.89999852	0.00000000	-14.90526000	-32.74483000
28.09999851	0.00000000	-9.09202700	-33.45226000
28.29999850	0.00000000	-14.81299000	-29.58907000
28.49999848	0.00000000	-30.21038000	-21.41363000
28.69999847	0.00000000	-51.06422000	-10.58686000
28.89999846	0.00000000	-72.74237000	0.97810030
29.09999845	0.00000000	-90.52042000	10.59301000
29.29999844	0.00000000	-100.65820000	15.56963000
29.49999843	0.00000000	-101.49480000	14.73302000
29.69999841	0.00000000	-93.81151000	7.34498000
29.89999840	0.00000000	-79.52755000	-5.38262700
30.09999839	0.00000000	-62.13090000	-20.43553000
30.29999838	0.00000000	-45.47243000	-34.74409000
30.49999837	0.00000000	-32.67717000	-45.10950000
30.69999835	0.00000000	-26.39640000	-48.96038000
30.89999834	0.00000000	-27.14075000	-45.06028000
31.09999833	0.00000000	-34.07972000	-34.23351000
31.29999832	0.00000000	-46.07529000	-18.39321000
31.49999831	0.00000000	-59.94709000	-1.02116100
31.69999829	0.00000000	-72.78542000	14.03789000
31.89999828	0.00000000	-82.04970000	23.69586000
32.09999827	0.00000000	-85.94980000	25.60285000
32.29999826	0.00000000	-83.72293000	19.46973000
32.49999825	0.00000000	-76.79011000	6.69291300
32.69999824	0.00000000	-67.10752000	-9.94094400
32.89999822	0.00000000	-56.26845000	-27.31299000
33.09999821	0.00000000	-47.01033000	-41.62155000
33.29999820	0.00000000	-41.14788000	-49.71087000
33.49999819	0.00000000	-39.56693000	-50.16609000
33.69999818	0.00000000	-42.26747000	-42.79035000
33.89999816	0.00000000	-48.45595000	-29.71826000
34.09999815	0.00000000	-56.92052000	-13.42274000
34.29999814	0.00000000	-65.34202000	2.38065900
34.49999813	0.00000000	-71.16142000	14.77608000
34.69999812	0.00000000	-73.16068000	20.91535000
34.89999810	0.00000000	-71.67200000	19.42667000
35.09999809	0.00000000	-67.39050000	10.96826000
35.29999808	0.00000000	-61.28814000	-2.17765700
35.49999807	0.00000000	-55.10580000	-17.18750000
35.69999806	0.00000000	-50.86737000	-30.70251000
35.89999805	0.00000000	-48.91732000	-39.16707000
36.09999803	0.00000000	-50.07997000	-41.20325000
36.29999802	0.00000000	-53.89394000	-36.56496000
36.49999801	0.00000000	-58.87672000	-26.93774000
36.69999800	0.00000000	-63.89641000	-14.25320000
36.89999799	0.00000000	-67.34743000	-1.99311000
37.09999797	0.00000000	-68.55315000	6.09621000
37.29999796	0.00000000	-67.34743000	8.45841400
37.49999795	0.00000000	-63.94562000	4.65059000
37.69999794	0.00000000	-59.29502000	-3.75861200
37.89999793	0.00000000	-55.05659000	-14.11786000
38.09999791	0.00000000	-51.56865000	-23.68971000
38.29999790	0.00000000	-50.03691000	-29.45374000
38.49999789	0.00000000	-50.77510000	-29.87205000
38.69999788	0.00000000	-53.10654000	-25.26452000
38.89999787	0.00000000	-57.01279000	-16.85531000
39.09999786	0.00000000	-61.62032000	-7.28961600
39.29999784	0.00000000	-65.85260000	0.33218500
39.49999783	0.00000000	-68.55315000	3.81397600
39.69999782	0.00000000	-69.02066000	1.87007900
39.89999781	0.00000000	-67.85802000	-4.59522600
40.09999780	0.00000000	-65.47736000	-13.83489000
40.29999778	0.00000000	-61.57111000	-22.99459000
40.49999777	0.00000000	-56.96358000	-29.53986000
40.69999776	0.00000000	-52.73130000	-31.45300000
40.89999775	0.00000000	-49.98769000	-28.38337000
41.09999774	0.00000000	-49.19414000	-21.08760000
41.29999772	0.00000000	-49.98769000	-11.51575000
41.49999771	0.00000000	-52.73130000	-2.68208600
41.69999770	0.00000000	-56.92052000	3.16806100
41.89999769	0.00000000	-61.19586000	5.06889700
42.09999768	0.00000000	-64.68996000	2.74360200
42.29999767	0.00000000	-67.06447000	-3.80167300
42.49999765	0.00000000	-67.81496000	-12.53691000
42.69999764	0.00000000	-67.06447000	-20.66314000
42.89999763	0.00000000	-64.73917000	-26.06422000
43.09999762	0.00000000	-61.66338000	-28.05118000
43.29999761	0.00000000	-58.59375000	-26.15034000
43.49999759	0.00000000	-56.22539000	-21.59203000
43.69999758	0.00000000	-55.05659000	-15.74188000
43.89999757	0.00000000	-54.59522000	-9.60875900
44.09999756	0.00000000	-54.96432000	-4.63828700
44.29999755	0.00000000	-55.33957000	-2.68208600
44.49999753	0.00000000	-55.75787000	-3.70939900
44.69999752	0.00000000	-56.50221000	-6.40378900
44.89999751	0.00000000	-56.92052000	-9.89173200
45.09999750	0.00000000	-57.33883000	-13.74262000
45.29999749	0.00000000	-58.12622000	-16.81225000
45.49999748	0.00000000	-58.96899000	-18.39321000
45.69999746	0.00000000	-60.59301000	-18.43627000
45.89999745	0.00000000	-63.24434000	-17.27362000
46.09999744	0.00000000	-65.94488000	-15.36663000
46.29999743	0.00000000	-67.80880000	-13.04749000
46.49999742	0.00000000	-68.13484000	-11.09744000
46.69999740	0.00000000	-65.80955000	-9.55954600
46.89999739	0.00000000	-61.52805000	-8.82135800
47.09999738	0.00000000	-56.08390000	-9.51648500
47.29999737	0.00000000	-49.94463000	-10.67298000
47.49999736	0.00000000	-45.38017000	-11.88484000
47.69999734	0.00000000	-43.79921000	-13.83489000
47.89999733	0.00000000	-45.42937000	-15.74188000
48.09999732	0.00000000	-50.45521000	-17.27362000
48.29999731	0.00000000	-58.16929000	-18.01796000
48.49999730	0.00000000	-66.27091000	-17.23056000
48.69999729	0.00000000	-73.25295000	-15.32357000
48.89999727	0.00000000	-77.44217000	-12.62918000
49.09999726	0.00000000	-77.39911000	-9.93479300
49.29999725	0.00000000	-72.74237000	-7.98474400
49.49999724	0.00000000	-64.27164000	-6.82209600
49.69999723	0.00000000	-54.31225000	-6.86515700
49.89999721	0.00000000	-45.80462000	-8.44611200
50.09999720	0.00000000	-40.77264000	-11.51575000
50.29999719	0.00000000	-40.03444000	-15.36663000
50.49999718	0.00000000	-44.26673000	-18.81152000
50.69999717	0.00000000	-52.31299000	-21.13066000
50.89999715	0.00000000	-61.57726000	-21.50590000
51.09999714	0.00000000	-70.09104000	-19.97416000
51.29999713	0.00000000	-75.76894000	-16.85531000
51.49999712	0.00000000	-76.55634000	-12.62918000
51.69999711	0.00000000	-72.04723000	-8.40305000
51.89999710	0.00000000	-64.78223000	-5.33341500
52.09999708	0.00000000	-57.01279000	-4.17691900
52.29999707	0.00000000	-50.07997000	-5.29035400
52.49999706	0.00000000	-45.84769000	-7.98474400
52.69999705	0.00000000	-45.47243000	-11.46653000
52.89999704	0.00000000	-48.91732000	-15.32357000
53.09999702	0.00000000	-55.43184000	-18.39321000
53.29999701	0.00000000	-62.69069000	-19.97416000
53.49999700	0.00000000	-68.51008000	-19.97416000
53.69999699	0.00000000	-71.57972000	-18.39321000
53.89999698	0.00000000	-71.16142000	-15.36663000
54.09999696	0.00000000	-67.01525000	-11.93405000
54.29999695	0.00000000	-60.87598000	-9.65182000
54.49999694	0.00000000	-55.05659000	-8.82135800
54.69999693	0.00000000	-50.03691000	-9.55954600
54.89999692	0.00000000	-47.42864000	-11.04823000
55.09999691	0.00000000	-48.54207000	-12.62918000
55.29999689	0.00000000	-52.73130000	-14.11786000
55.49999688	0.00000000	-58.45841000	-14.85605000
55.69999687	0.00000000	-63.85334000	-14.11786000
55.89999686	0.00000000	-67.34743000	-12.62918000
56.09999685	0.00000000	-68.51008000	-11.04823000
56.29999683	0.00000000	-66.97219000	-9.60875900
56.49999682	0.00000000	-63.15822000	-9.23966500
56.69999681	0.00000000	-58.54454000	-10.76525000
56.89999680	0.00000000	-54.31225000	-13.09055000
57.09999679	0.00000000	-51.56865000	-16.20325000
57.29999677	0.00000000	-50.77510000	-19.54970000
57.49999676	0.00000000	-51.56865000	-21.08760000
57.69999675	0.00000000	-54.26919000	-20.30020000
57.89999674	0.00000000	-58.08316000	-17.59966000
58.09999673	0.00000000	-61.52805000	-12.96137000
58.29999672	0.00000000	-63.89641000	-7.98474400
58.49999670	0.00000000	-64.64690000	-3.70939900
58.69999669	0.00000000	-63.93946000	-1.10728300
58.89999668	0.00000000	-61.99557000	-1.52559000
59.09999667	0.00000000	-59.70718000	-5.33341500
59.29999666	0.00000000	-57.38804000	-11.09744000
59.49999664	0.00000000	-55.85014000	-17.32283000
59.69999663	0.00000000	-55.43184000	-23.08686000
59.89999662	0.00000000	-55.80708000	-26.84547000
60.09999661	0.00000000	-56.96358000	-26.84547000
60.29999660	0.00000000	-58.45841000	-23.03765000
60.49999658	0.00000000	-59.61491000	-16.85531000
60.69999657	0.00000000	-60.03937000	-9.51648500
60.89999656	0.00000000	-60.03937000	-2.63902500
61.09999655	0.00000000	-59.66412000	1.58710600
61.29999654	0.00000000	-58.91978000	2.00541300
61.49999653	0.00000000	-58.54454000	-1.10728300
61.69999651	0.00000000	-58.50147000	-7.28346400
61.89999650	0.00000000	-58.54454000	-15.32357000
62.09999649	0.00000000	-58.91978000	-22.61934000
62.29999648	0.00000000	-59.70718000	-27.31299000
62.49999647	0.00000000	-60.41461000	-28.84473000
62.69999645	0.00000000	-60.82677000	-26.89468000
62.89999644	0.00000000	-60.41461000	-21.50590000
63.09999643	0.00000000	-59.66412000	-14.21014000
63.29999642	0.00000000	-58.50147000	-6.86515700
63.49999641	0.00000000	-57.33883000	-1.06422200
63.69999639	0.00000000	-56.54527000	2.00541300
63.89999638	0.00000000	-55.80708000	1.63016700
64.09999637	0.00000000	-55.85014000	-2.22071800
64.29999636	0.00000000	-56.96358000	-8.35383800
64.49999635	0.00000000	-58.50147000	-15.27436000
64.69999634	0.00000000	-60.03937000	-21.08760000
64.89999632	0.00000000	-61.19586000	-24.61860000
65.09999631	0.00000000	-61.57111000	-25.82431000
65.29999630	0.00000000	-61.19586000	-24.61860000
65.49999629	0.00000000	-60.03937000	-21.17372000
65.69999628	0.00000000	-58.54454000	-16.16018000
65.89999626	0.00000000	-57.38804000	-11.18356000
66.09999625	0.00000000	-56.96358000	-7.24040300
66.29999624	0.00000000	-56.96358000	-4.87204700
66.49999623	0.00000000	-57.38804000	-3.70939900
66.69999622	0.00000000	-58.54454000	-4.08464600
66.89999620	0.00000000	-60.03937000	-5.98548200
67.09999619	0.00000000	-61.15280000	-8.31077700
67.29999618	0.00000000	-61.15280000	-11.09744000
67.49999617	0.00000000	-60.03937000	-14.16092000
67.69999616	0.00000000	-58.45841000	-16.94759000
67.89999615	0.00000000	-56.50221000	-19.27288000
68.09999613	0.00000000	-54.22613000	-21.17372000
68.29999612	0.00000000	-52.77436000	-21.54897000
68.49999611	0.00000000	-53.14960000	-20.39247000
68.69999610	0.00000000	-55.47490000	-18.06102000
68.89999609	0.00000000	-58.91978000	-14.53617000
69.09999607	0.00000000	-62.82603000	-10.67298000
69.29999606	0.00000000	-66.22785000	-6.77903500
69.49999605	0.00000000	-68.13484000	-3.70939900
69.69999604	0.00000000	-67.34743000	-2.17150600
69.89999603	0.00000000	-64.31471000	-2.59596400
70.09999601	0.00000000	-60.03937000	-5.29035400
70.29999600	0.00000000	-55.33957000	-9.56569900
70.49999599	0.00000000	-50.73204000	-14.58538000
70.69999598	0.00000000	-47.29330000	-19.59892000
70.89999597	0.00000000	-46.54281000	-23.04380000
71.09999596	0.00000000	-48.45595000	-24.24335000
71.29999594	0.00000000	-52.73130000	-23.04380000
71.49999593	0.00000000	-58.54454000	-19.59892000
71.69999592	0.00000000	-64.68996000	-14.62844000
71.89999591	0.00000000	-69.67273000	-9.98400600
72.09999590	0.00000000	-71.62893000	-6.44685000
72.29999588	0.00000000	-70.50935000	-4.12770700
72.49999587	0.00000000	-67.01525000	-3.80167300
72.69999586	0.00000000	-61.62032000	-5.66560000
72.89999585	0.00000000	-55.85014000	-9.09817800
73.09999584	0.00000000	-51.15034000	-12.53691000
73.29999582	0.00000000	-48.08071000	-15.27436000
73.49999581	0.00000000	-47.29330000	-16.81225000
73.69999580	0.00000000	-49.24335000	-16.85531000
73.89999579	0.00000000	-53.06348000	-15.74188000
74.09999578	0.00000000	-58.08316000	-14.25320000
74.29999577	0.00000000	-62.69069000	-13.09670000
74.49999575	0.00000000	-65.85260000	-12.67224000
74.69999574	0.00000000	-67.39050000	-12.67224000
74.89999573	0.00000000	-67.01525000	-13.09670000
75.09999572	0.00000000	-64.68996000	-14.21014000
75.29999571	0.00000000	-61.28814000	-15.27436000
75.49999569	0.00000000	-57.80634000	-15.23130000
75.69999568	0.00000000	-55.47490000	-13.69956000
75.89999567	0.00000000	-54.26919000	-11.04823000
76.09999566	0.00000000	-54.26919000	-8.35383800
76.29999565	0.00000000	-55.33957000	-6.44685000
76.49999563	0.00000000	-56.50221000	-5.70866100
76.69999562	0.00000000	-57.33883000	-6.91437000
76.89999561	0.00000000	-58.50147000	-9.98400600
77.09999560	0.00000000	-59.57185000	-14.21014000
77.29999559	0.00000000	-59.61491000	-18.43627000
77.49999558	0.00000000	-58.91978000	-21.54897000
77.69999556	0.00000000	-58.59375000	-23.08686000
77.89999555	0.00000000	-58.91978000	-22.66855000
78.09999554	0.00000000	-59.70718000	-19.92495000
78.29999553	0.00000000	-60.45767000	-15.32357000
78.49999552	0.00000000	-61.24508000	-9.93479300
78.69999550	0.00000000	-61.57111000	-5.33341500
78.89999549	0.00000000	-61.15280000	-2.59596400
79.09999548	0.00000000	-59.61491000	-2.22071800
79.29999547	0.00000000	-57.33883000	-4.12770700
79.49999546	0.00000000	-55.38263000	-7.98474400
79.69999544	0.00000000	-53.85088000	-12.62918000
79.89999543	0.00000000	-53.14960000	-17.27362000
80.09999542	0.00000000	-54.31225000	-21.13066000
80.29999541	0.00000000	-56.92052000	-23.03765000
80.49999540	0.00000000	-59.61491000	-22.71161000
80.69999539	0.00000000	-61.62032000	-20.39247000
80.89999537	0.00000000	-63.15207000	-16.94759000
81.09999536	0.00000000	-63.89641000	-13.04749000
81.29999535	0.00000000	-63.15207000	-9.55954600
81.49999534	0.00000000	-61.57111000	-6.86515700
81.69999533	0.00000000	-59.24582000	-5.66560000
81.89999531	0.00000000	-56.22539000	-5.98548200
82.09999530	0.00000000	-54.31225000	-6.72982200
82.29999529	0.00000000	-53.85088000	-7.98474400
82.49999528	0.00000000	-54.26919000	-9.93479300
82.69999527	0.00000000	-55.80708000	-12.67224000
82.89999525	0.00000000	-58.08316000	-15.74188000
83.09999524	0.00000000	-59.99015000	-18.43627000
83.29999523	0.00000000	-61.19586000	-20.01722000
83.49999522	0.00000000	-61.62032000	-20.43553000
83.69999521	0.00000000	-61.62032000	-19.97416000
83.89999520	0.00000000	-61.19586000	-18.01796000
84.09999518	0.00000000	-60.08243000	-14.58538000
84.29999517	0.00000000	-58.91978000	-11.09744000
84.49999516	0.00000000	-58.12622000	-7.93553100
84.69999515	0.00000000	-57.38804000	-5.29035400
84.89999514	0.00000000	-57.38804000	-4.12770700
85.09999512	0.00000000	-58.03395000	-4.91510800
85.29999511	0.00000000	-58.03395000	-7.24040300
85.49999510	0.00000000	-57.33883000	-11.14050000
85.69999509	0.00000000	-56.96358000	-15.69882000
85.89999508	0.00000000	-56.92052000	-19.59892000
86.09999506	0.00000000	-56.96358000	-21.92421000
86.29999505	0.00000000	-57.38804000	-22.71161000
86.49999504	0.00000000	-58.50147000	-21.46284000
86.69999503	0.00000000	-59.66412000	-18.01796000
86.89999502	0.00000000	-60.45767000	-13.00443000
87.09999501	0.00000000	-61.24508000	-8.02780400
87.29999499	0.00000000	-61.57111000	-4.17076700
87.49999498	0.00000000	-61.19586000	-2.63902500
87.69999497	0.00000000	-60.03937000	-3.75246000
87.89999496	0.00000000	-58.50147000	-6.82209600
88.09999495	0.00000000	-56.96358000	-11.09129000
88.29999493	0.00000000	-55.80708000	-15.74188000
88.49999492	0.00000000	-55.43184000	-19.92495000
88.69999491	0.00000000	-55.80708000	-22.20103000
88.89999490	0.00000000	-56.96358000	-21.46284000
89.09999489	0.00000000	-58.50147000	-18.39321000
89.29999487	0.00000000	-60.03937000	-13.79183000
89.49999486	0.00000000	-61.19586000	-8.77829600
89.69999485	0.00000000	-61.57111000	-4.95816900
89.89999484	0.00000000	-61.19586000	-3.01427100
90.09999483	0.00000000	-60.03937000	-3.79552100
90.29999482	0.00000000	-58.54454000	-6.86515700
90.49999480	0.00000000	-57.38804000	-11.46653000
90.69999479	0.00000000	-56.96358000	-16.48622000
90.89999478	0.00000000	-56.92052000	-20.30020000
91.09999477	0.00000000	-56.92052000	-22.24409000
91.29999476	0.00000000	-56.96358000	-21.41363000
91.49999474	0.00000000	-57.33883000	-18.01796000
91.69999473	0.00000000	-58.08316000	-13.00443000
91.89999472	0.00000000	-58.40920000	-8.02780400
92.09999471	0.00000000	-58.12622000	-4.17076700
92.29999470	0.00000000	-57.75713000	-2.68208600
92.49999468	0.00000000	-58.12622000	-4.17076700
92.69999467	0.00000000	-58.50147000	-7.98474400
92.89999466	0.00000000	-58.91978000	-12.62918000
93.09999465	0.00000000	-59.70718000	-17.23056000
93.29999464	0.00000000	-60.45767000	-20.66314000
93.49999463	0.00000000	-61.19586000	-21.46284000
93.69999461	0.00000000	-61.15280000	-19.97416000
93.89999460	0.00000000	-60.03937000	-16.85531000
94.09999459	0.00000000	-58.45841000	-12.62918000
94.29999458	0.00000000	-56.54527000	-8.44611200
94.49999457	0.00000000	-54.59522000	-5.75172200
94.69999455	0.00000000	-53.47564000	-5.33341500
94.89999454	0.00000000	-53.06348000	-6.86515700
95.09999453	0.00000000	-53.89394000	-9.93479300
95.29999452	0.00000000	-55.80708000	-13.79183000
95.49999451	0.00000000	-58.54454000	-17.23056000
95.69999449	0.00000000	-61.62032000	-19.50664000
95.89999448	0.00000000	-64.31471000	-19.50664000
96.09999447	0.00000000	-65.80955000	-17.27977000
96.29999446	0.00000000	-65.43430000	-14.21014000
96.49999445	0.00000000	-63.10900000	-11.14050000
96.69999444	0.00000000	-59.66412000	-8.82135800
96.89999442	0.00000000	-55.75787000	-8.02780400
97.09999441	0.00000000	-52.31299000	-8.35998900
97.29999440	0.00000000	-49.98769000	-9.55954600
97.49999439	0.00000000	-49.61245000	-11.46653000
97.69999438	0.00000000	-51.10728000	-13.74262000
97.89999436	0.00000000	-53.85088000	-15.27436000
98.09999435	0.00000000	-57.33883000	-15.69267000
98.29999434	0.00000000	-61.19586000	-15.36663000
98.49999433	0.00000000	-64.27164000	-14.58538000
98.69999432	0.00000000	-65.85260000	-13.79183000
98.89999430	0.00000000	-65.85260000	-12.67224000
99.09999429	0.00000000	-64.31471000	-11.88484000
99.29999428	0.00000000	-61.57111000	-11.83563000
99.49999427	0.00000000	-58.12622000	-11.42347000
99.69999426	0.00000000	-54.59522000	-11.09129000
99.89999425	0.00000000	-51.93774000	-11.00517000
100.09999423	0.00000000	-50.36294000	-10.62992000
100.29999422	0.00000000	-50.77510000	-9.89173200
100.49999421	0.00000000	-52.64517000	-9.56569900
100.69999420	0.00000000	-55.38263000	-9.93479300
100.89999419	0.00000000	-58.45841000	-11.09744000
101.09999417	0.00000000	-61.19586000	-12.62918000
101.29999416	0.00000000	-63.15207000	-14.21014000
101.49999415	0.00000000	-64.31471000	-15.74188000
101.69999414	0.00000000	-64.31471000	-16.85531000
101.89999413	0.00000000	-63.15207000	-16.85531000
102.09999411	0.00000000	-61.19586000	-15.69882000
102.29999410	0.00000000	-58.50147000	-13.74262000
102.49999409	0.00000000	-55.80708000	-11.04823000
102.69999408	0.00000000	-53.89394000	-8.35383800
102.89999407	0.00000000	-53.06348000	-6.44685000
103.09999406	0.00000000	-53.42642000	-5.70866100
103.29999404	0.00000000	-54.17691000	-6.86515700
103.49999403	0.00000000	-55.43184000	-9.51648500
103.69999402	0.00000000	-57.33883000	-12.62918000
103.89999401	0.00000000	-59.61491000	-15.69882000
104.09999400	0.00000000	-61.15280000	-18.01796000
104.29999398	0.00000000	-61.62032000	-18.76845000
104.49999397	0.00000000	-61.62032000	-18.01796000
104.69999396	0.00000000	-61.19586000	-15.69882000
104.89999395	0.00000000	-59.99015000	-12.67224000
105.09999394	0.00000000	-58.12622000	-9.93479300
105.29999392	0.00000000	-56.22539000	-8.02780400
105.49999391	0.00000000	-55.43184000	-7.24040300
105.69999390	0.00000000	-55.38263000	-7.98474400
105.89999389	0.00000000	-55.80708000	-9.51648500
106.09999388	0.00000000	-56.96358000	-11.51575000
106.29999387	0.00000000	-58.45841000	-14.16092000
106.49999385	0.00000000	-59.61491000	-16.39395000
106.69999384	0.00000000	-59.99015000	-16.81225000
106.89999383	0.00000000	-59.66412000	-15.74188000
107.09999382	0.00000000	-58.87672000	-14.21014000
107.29999381	0.00000000	-58.12622000	-12.62918000
107.49999379	0.00000000	-57.33883000	-11.09744000
107.69999378	0.00000000	-56.96358000	-9.93479300
107.89999377	0.00000000	-56.96358000	-9.60875900
108.09999376	0.00000000	-57.33883000	-10.31004000
108.29999375	0.00000000	-58.12622000	-11.87869000
108.49999374	0.00000000	-58.91978000	-13.37967000
108.69999372	0.00000000	-60.03937000	-14.94833000
108.89999371	0.00000000	-60.77756000	-15.64960000
109.09999370	0.00000000	-60.41461000	-15.32357000
109.29999369	0.00000000	-59.66412000	-14.16092000
109.49999368	0.00000000	-58.45841000	-12.62918000
109.69999366	0.00000000	-56.96358000	-11.04823000
109.89999365	0.00000000	-55.80708000	-9.55954600
110.09999364	0.00000000	-55.43184000	-8.77829600
110.29999363	0.00000000	-55.80708000	-9.19045200
110.49999362	0.00000000	-56.92052000	-10.31004000
110.69999360	0.00000000	-58.08316000	-12.25394000
110.89999359	0.00000000	-58.87672000	-14.11786000
111.09999358	0.00000000	-59.66412000	-15.32357000
111.29999357	0.00000000	-60.03937000	-15.74188000
111.49999356	0.00000000	-60.08243000	-15.74188000
111.69999355	0.00000000	-60.03937000	-15.36663000
111.89999353	0.00000000	-59.61491000	-14.58538000
112.09999352	0.00000000	-58.50147000	-13.79183000
112.29999351	0.00000000	-57.38804000	-12.62918000
112.49999350	0.00000000	-56.96358000	-11.51575000
112.69999349	0.00000000	-56.92052000	-11.09129000
112.89999347	0.00000000	-56.92052000	-11.09129000
113.09999346	0.00000000	-56.96358000	-11.46653000
113.29999345	0.00000000	-57.33883000	-12.21087000
113.49999344	0.00000000	-58.08316000	-12.58612000
113.69999343	0.00000000	-58.45841000	-12.67224000
113.89999341	0.00000000	-58.50147000	-13.00443000
114.09999340	0.00000000	-58.50147000	-13.41658000
114.29999339	0.00000000	-58.50147000	-13.37967000
114.49999338	0.00000000	-58.50147000	-13.45964000
114.69999337	0.00000000	-58.50147000	-13.42274000
114.89999336	0.00000000	-58.50147000	-13.83489000
115.09999334	0.00000000	-58.50147000	-14.16708000
115.29999333	0.00000000	-58.45841000	-14.16708000
115.49999332	0.00000000	-58.08316000	-13.74262000
115.69999331	0.00000000	-57.33883000	-12.62918000
115.89999330	0.00000000	-56.96358000	-11.51575000
116.09999328	0.00000000	-56.96358000	-11.04823000
116.29999327	0.00000000	-57.33883000	-10.62992000
116.49999326	0.00000000	-58.08316000	-9.93479300
116.69999325	0.00000000	-58.45841000	-9.93479300
116.89999324	0.00000000	-58.45841000	-10.67298000
117.09999322	0.00000000	-58.08316000	-11.46653000
117.29999321	0.00000000	-57.33883000	-12.62918000
117.49999320	0.00000000	-56.92052000	-13.74262000
117.69999319	0.00000000	-56.50221000	-14.16708000
117.89999318	0.00000000	-55.80708000	-14.21014000
118.09999317	0.00000000	-55.80708000	-14.16708000
118.29999315	0.00000000	-56.54527000	-13.79183000
118.49999314	0.00000000	-57.29576000	-13.00443000
118.69999313	0.00000000	-58.12622000	-12.25394000
118.89999312	0.00000000	-58.87672000	-11.46653000
119.09999311	0.00000000	-59.66412000	-11.09129000
119.29999309	0.00000000	-60.03937000	-11.04823000
119.49999308	0.00000000	-60.03937000	-11.04823000
119.69999307	0.00000000	-59.61491000	-11.04823000
119.89999306	0.00000000	-58.50147000	-11.09129000
120.09999305	0.00000000	-57.33883000	-11.46653000
120.29999303	0.00000000	-56.50221000	-12.25394000
120.49999302	0.00000000	-55.38263000	-13.00443000
120.69999301	0.00000000	-54.64444000	-13.79183000
120.89999300	0.00000000	-55.00738000	-14.16708000
121.09999299	0.00000000	-55.75787000	-14.21014000
121.29999298	0.00000000	-56.96358000	-14.16708000
121.49999296	0.00000000	-58.45841000	-13.79183000
121.69999295	0.00000000	-59.66412000	-13.04749000
121.89999294	0.00000000	-60.45767000	-12.67224000
122.09999293	0.00000000	-61.19586000	-12.62918000
122.29999292	0.00000000	-61.15280000	-12.58612000
122.49999290	0.00000000	-60.03937000	-12.21087000
122.69999289	0.00000000	-58.54454000	-11.46653000
122.89999288	0.00000000	-57.33883000	-11.09129000
123.09999287	0.00000000	-56.54527000	-11.09129000
123.29999286	0.00000000	-55.75787000	-11.46653000
123.49999284	0.00000000	-55.38263000	-12.21087000
123.69999283	0.00000000	-55.38263000	-12.58612000
123.89999282	0.00000000	-55.75787000	-12.67224000
124.09999281	0.00000000	-56.54527000	-13.04749000
124.29999280	0.00000000	-57.29576000	-13.79183000
124.49999279	0.00000000	-58.12622000	-14.16708000
124.69999277	0.00000000	-58.87672000	-14.16708000
124.89999276	0.00000000	-59.66412000	-13.79183000
125.09999275	0.00000000	-60.03937000	-13.04749000
125.29999274	0.00000000	-60.03937000	-12.62918000
125.49999273	0.00000000	-59.66412000	-12.21087000
125.69999271	0.00000000	-58.87672000	-11.46653000
125.89999270	0.00000000	-58.08316000	-11.09129000
126.09999269	0.00000000	-56.92052000	-11.04823000
126.29999268	0.00000000	-55.80708000	-11.09129000
126.49999267	0.00000000	-55.43184000	-11.46653000
126.69999265	0.00000000	-55.71481000	-12.25394000
126.89999264	0.00000000	-56.17002000	-12.96137000
127.09999263	0.00000000	-56.55142000	-13.41658000
127.29999262	0.00000000	-57.75098000	-13.37967000
127.49999261	0.00000000	-58.83366000	-13.41658000
127.69999260	0.00000000	-59.66412000	-13.00443000
127.89999258	0.00000000	-60.03937000	-12.67224000
128.09999257	0.00000000	-60.03937000	-12.58612000
128.29999256	0.00000000	-59.61491000	-12.21087000
128.49999255	0.00000000	-58.45841000	-11.46653000
128.69999254	0.00000000	-56.96358000	-11.09129000
128.89999252	0.00000000	-55.80708000	-11.09129000
129.09999251	0.00000000	-55.43184000	-11.46653000
129.29999250	0.00000000	-55.75787000	-12.21087000
129.49999249	0.00000000	-56.54527000	-12.58612000
129.69999248	0.00000000	-57.33883000	-12.62918000
129.89999246	0.00000000	-58.50147000	-12.62918000
130.09999245	0.00000000	-59.61491000	-12.62918000
130.29999244	0.00000000	-59.99015000	-12.62918000
130.49999243	0.00000000	-59.66412000	-12.58612000
130.69999242	0.00000000	-58.87672000	-12.25394000
130.89999241	0.00000000	-58.12622000	-11.84178000
131.09999239	0.00000000	-57.33883000	-11.83563000
131.29999238	0.00000000	-56.92052000	-11.46653000
131.49999237	0.00000000	-56.54527000	-11.51575000
131.69999236	0.00000000	-56.17618000	-12.25394000
131.89999235	0.00000000	-56.58833000	-13.00443000
132.09999233	0.00000000	-57.29576000	-13.79183000
132.29999232	0.00000000	-58.08316000	-14.11786000
132.49999231	0.00000000	-58.45841000	-13.79183000
132.69999230	0.00000000	-58.50147000	-13.04749000
132.89999229	0.00000000	-58.50147000	-12.62918000
133.09999227	0.00000000	-58.50147000	-12.21087000
133.29999226	0.00000000	-58.45841000	-11.46653000
133.49999225	0.00000000	-58.12622000	-11.09129000
133.69999224	0.00000000	-57.75713000	-11.04823000
133.89999223	0.00000000	-58.12622000	-11.09129000
134.09999222	0.00000000	-58.45841000	-11.46653000
134.29999220	0.00000000	-58.45841000	-12.25394000
134.49999219	0.00000000	-58.08316000	-13.00443000
134.69999218	0.00000000	-57.33883000	-13.79183000
134.89999217	0.00000000	-56.96358000	-14.16708000
135.09999216	0.00000000	-56.87746000	-14.16708000
135.29999214	0.00000000	-56.54527000	-13.79183000
135.49999213	0.00000000	-56.17618000	-13.04749000
135.69999212	0.00000000	-56.58833000	-12.62918000
135.89999211	0.00000000	-57.29576000	-12.21087000
136.09999210	0.00000000	-58.08316000	-11.46653000
136.29999208	0.00000000	-58.45841000	-11.09129000
136.49999207	0.00000000	-58.50147000	-11.04823000
136.69999206	0.00000000	-58.50147000	-11.04823000
136.89999205	0.00000000	-58.45841000	-11.09129000
137.09999204	0.00000000	-58.08316000	-11.46653000
137.29999203	0.00000000	-57.29576000	-12.25394000
137.49999201	0.00000000	-56.54527000	-13.00443000
137.69999200	0.00000000	-55.80708000	-13.79183000
137.89999199	0.00000000	-55.80708000	-14.16708000
138.09999198	0.00000000	-56.54527000	-14.16708000
138.29999197	0.00000000	-57.29576000	-13.79183000
138.49999195	0.00000000	-58.08316000	-13.04749000
138.69999194	0.00000000	-58.45841000	-12.62918000
138.89999193	0.00000000	-58.50147000	-12.21087000
139.09999192	0.00000000	-58.50147000	-11.46653000
139.29999191	0.00000000	-58.50147000	-11.09129000
139.49999189	0.00000000	-58.45841000	-11.04823000
139.69999188	0.00000000	-58.08316000	-11.04823000
139.89999187	0.00000000	-57.33883000	-11.09129000
140.09999186	0.00000000	-56.96358000	-11.51575000
140.29999185	0.00000000	-56.92052000	-12.62918000
140.49999184	0.00000000	-56.92052000	-13.74262000
140.69999182	0.00000000	-56.96358000	-14.16708000
140.89999181	0.00000000	-57.29576000	-14.21014000
141.09999180	0.00000000	-57.70792000	-14.16708000
141.29999179	0.00000000	-57.71407000	-13.79183000
141.49999178	0.00000000	-58.08316000	-13.00443000
141.69999176	0.00000000	-58.03395000	-12.25394000
141.89999175	0.00000000	-57.33883000	-11.46653000
142.09999174	0.00000000	-56.96358000	-11.09129000
142.29999173	0.00000000	-56.92052000	-11.04823000
142.49999172	0.00000000	-56.92052000	-11.09129000
142.69999170	0.00000000	-56.92052000	-11.46653000
142.89999169	0.00000000	-56.92052000	-12.21087000
143.09999168	0.00000000	-56.92052000	-12.62918000
143.29999167	0.00000000	-56.96358000	-13.04749000
143.49999166	0.00000000	-57.29576000	-13.79183000
143.69999165	0.00000000	-57.70792000	-14.16708000
143.89999163	0.00000000	-57.67101000	-14.21014000
144.09999162	0.00000000	-57.70792000	-14.16708000
144.29999161	0.00000000	-57.29576000	-13.79183000
144.49999160	0.00000000	-56.96358000	-13.00443000
144.69999159	0.00000000	-56.92052000	-12.25394000
144.89999157	0.00000000	-56.92052000	-11.46653000
145.09999156	0.00000000	-56.92052000	-11.09129000
145.29999155	0.00000000	-56.92052000	-11.09129000
145.49999154	0.00000000	-56.96358000	-11.46653000
145.69999153	0.00000000	-57.33883000	-12.25394000
145.89999151	0.00000000	-58.08316000	-13.00443000
146.09999150	0.00000000	-58.45841000	-13.79183000
146.29999149	0.00000000	-58.45841000	-14.16708000
146.49999148	0.00000000	-58.08316000	-14.16708000
146.69999147	0.00000000	-57.33883000	-13.79183000
146.89999146	0.00000000	-56.96358000	-13.04749000
147.09999144	0.00000000	-56.92052000	-12.67224000
147.29999143	0.00000000	-56.92052000	-12.58612000
147.49999142	0.00000000	-56.92052000	-12.21087000
147.69999141	0.00000000	-56.92052000	-11.46653000
147.89999140	0.00000000	-56.96358000	-11.09129000
148.09999138	0.00000000	-57.33883000	-11.09129000
148.29999137	0.00000000	-58.08316000	-11.46653000
148.49999136	0.00000000	-58.45841000	-12.21087000
148.69999135	0.00000000	-58.50147000	-12.58612000
148.89999134	0.00000000	-58.45841000	-12.62918000
149.09999132	0.00000000	-58.08316000	-12.62918000
149.29999131	0.00000000	-57.33883000	-12.62918000
149.49999130	0.00000000	-56.96358000	-12.62918000
149.69999129	0.00000000	-56.92052000	-12.58612000
149.89999128	0.00000000	-56.92052000	-12.21087000
150.09999127	0.00000000	-56.92052000	-11.46653000
150.29999125	0.00000000	-56.92052000	-11.09129000
150.49999124	0.00000000	-56.92052000	-11.04823000
150.69999123	0.00000000	-56.92052000	-11.09129000
150.89999122	0.00000000	-56.96358000	-11.42347000
151.09999121	0.00000000	-57.33883000	-11.83563000
151.29999119	0.00000000	-58.08316000	-11.84178000
151.49999118	0.00000000	-58.45841000	-12.25394000
151.69999117	0.00000000	-58.45841000	-12.58612000
151.89999116	0.00000000	-58.08316000	-12.62918000
152.09999115	0.00000000	-57.33883000	-12.62918000
152.29999113	0.00000000	-56.96358000	-12.62918000
152.49999112	0.00000000	-56.92052000	-12.62918000
152.69999111	0.00000000	-56.92052000	-12.62918000
152.89999110	0.00000000	-56.92052000	-12.58612000
153.09999109	0.00000000	-56.92052000	-12.25394000
153.29999108	0.00000000	-56.92052000	-11.84178000
153.49999106	0.00000000	-56.92052000	-11.83563000
153.69999105	0.00000000	-56.96358000	-11.42347000
153.89999104	0.00000000	-57.33883000	-11.09129000
154.09999103	0.00000000	-58.08316000	-11.09129000
154.29999102	0.00000000	-58.45841000	-11.46653000
154.49999100	0.00000000	-58.45841000	-12.21087000
154.69999099	0.00000000	-58.08316000	-12.58612000
154.89999098	0.00000000	-57.33883000	-12.62918000
155.09999097	0.00000000	-56.92052000	-12.62918000
155.29999096	0.00000000	-56.54527000	-12.62918000
155.49999094	0.00000000	-56.17618000	-12.62918000
155.69999093	0.00000000	-56.54527000	-12.62918000
155.89999092	0.00000000	-56.87746000	-12.62918000
156.09999091	0.00000000	-56.92052000	-12.58612000
156.29999090	0.00000000	-56.96358000	-12.21087000
156.49999089	0.00000000	-57.33883000	-11.46653000
156.69999087	0.00000000	-58.08316000	-11.09129000
156.89999086	0.00000000	-58.45841000	-11.04823000
157.09999085	0.00000000	-58.50147000	-11.04823000
157.29999084	0.00000000	-58.45841000	-11.09129000
157.49999083	0.00000000	-58.08316000	-11.46653000
157.69999081	0.00000000	-57.33883000	-12.21087000
157.89999080	0.00000000	-56.96358000	-12.58612000
158.09999079	0.00000000	-56.92052000	-12.62918000
158.29999078	0.00000000	-56.92052000	-12.62918000
158.49999077	0.00000000	-56.92052000	-12.62918000
158.69999075	0.00000000	-56.92052000	-12.62918000
158.89999074	0.00000000	-56.92052000	-12.58612000
159.09999073	0.00000000	-56.92052000	-12.21087000
159.29999072	0.00000000	-56.92052000	-11.46653000
159.49999071	0.00000000	-56.96358000	-11.09129000
159.69999070	0.00000000	-57.29576000	-11.04823000
159.89999068	0.00000000	-57.70792000	-11.04823000
160.09999067	0.00000000	-57.67101000	-11.04823000
160.29999066	0.00000000	-57.75098000	-11.09129000
160.49999065	0.00000000	-57.67101000	-11.46653000
160.69999064	0.00000000	-57.70792000	-12.21087000
160.89999062	0.00000000	-57.29576000	-12.58612000
161.09999061	0.00000000	-56.96358000	-12.62918000
161.29999060	0.00000000	-56.92052000	-12.62918000
161.49999059	0.00000000	-56.92052000	-12.62918000
161.69999058	0.00000000	-56.92052000	-12.62918000
161.89999056	0.00000000	-56.92052000	-12.58612000
162.09999055	0.00000000	-56.92052000	-12.21087000
162.29999054	0.00000000	-56.92052000	-11.46653000
162.49999053	0.00000000	-56.92052000	-11.09129000
162.69999052	0.00000000	-56.92052000	-11.04823000
162.89999051	0.00000000	-56.96358000	-11.04823000
163.09999049	0.00000000	-57.33883000	-11.04823000
163.29999048	0.00000000	-58.08316000	-11.09129000
163.49999047	0.00000000	-58.40920000	-11.46653000
163.69999046	0.00000000	-58.12622000	-12.21087000
163.89999045	0.00000000	-57.71407000	-12.58612000
164.09999043	0.00000000	-57.70792000	-12.62918000
164.29999042	0.00000000	-57.29576000	-12.62918000
164.49999041	0.00000000	-56.96358000	-12.62918000
164.69999040	0.00000000	-56.92052000	-12.62918000
164.89999039	0.00000000	-56.92052000	-12.62918000
165.09999037	0.00000000	-56.92052000	-12.62918000
165.29999036	0.00000000	-56.92052000	-12.58612000
165.49999035	0.00000000	-56.92052000	-12.21087000
165.69999034	0.00000000	-56.92052000	-11.46653000
165.89999033	0.00000000	-56.92052000	-11.14050000
166.09999032	0.00000000	-56.92052000	-11.46653000
166.29999030	0.00000000	-56.96358000	-12.21087000
166.49999029	0.00000000	-57.29576000	-12.53691000
166.69999028	0.00000000	-57.66486000	-12.25394000
166.89999027	0.00000000	-57.29576000	-11.88484000
167.09999026	0.00000000	-56.96358000	-12.25394000
167.29999024	0.00000000	-56.92052000	-12.58612000
167.49999023	0.00000000	-56.92052000	-12.62918000
167.69999022	0.00000000	-56.92052000	-12.62918000
167.89999021	0.00000000	-56.92052000	-12.62918000
168.09999020	0.00000000	-56.92052000	-12.62918000
168.29999018	0.00000000	-56.92052000	-12.62918000
168.49999017	0.00000000	-56.92052000	-12.62918000
168.69999016	0.00000000	-56.92052000	-12.62918000
168.89999015	0.00000000	-56.96358000	-12.62918000
169.09999014	0.00000000	-57.29576000	-12.62918000
169.29999013	0.00000000	-57.66486000	-12.62918000
169.49999011	0.00000000	-57.29576000	-12.62918000
169.69999010	0.00000000	-56.96358000	-12.62918000
169.89999009	0.00000000	-56.92052000	-12.62918000
170.09999008	0.00000000	-56.92052000	-12.62918000
170.29999007	0.00000000	-56.92052000	-12.62918000
170.49999005	0.00000000	-56.92052000	-12.62918000
170.69999004	0.00000000	-56.92052000	-12.62918000
170.89999003	0.00000000	-56.92052000	-12.62918000
171.09999002	0.00000000	-56.92052000	-12.62918000
171.29999001	0.00000000	-56.92052000	-12.58612000
171.49998999	0.00000000	-56.92052000	-12.25394000
171.69998998	0.00000000	-56.92052000	-11.88484000
171.89998997	0.00000000	-56.92052000	-12.25394000
172.09998996	0.00000000	-56.92052000	-12.58612000
172.29998995	0.00000000	-56.96358000	-12.62918000
172.49998994	0.00000000	-57.29576000	-12.62918000
172.69998992	0.00000000	-57.66486000	-12.62918000
172.89998991	0.00000000	-57.29576000	-12.58612000
173.09998990	0.00000000	-56.96358000	-12.21087000
173.29998989	0.00000000	-56.92052000	-11.51575000
173.49998988	0.00000000	-56.92052000	-11.51575000
173.69998986	0.00000000	-56.92052000	-12.21087000
173.89998985	0.00000000	-56.92052000	-12.58612000
174.09998984	0.00000000	-56.92052000	-12.62918000
174.29998983	0.00000000	-56.92052000	-12.62918000
174.49998982	0.00000000	-56.92052000	-12.62918000
174.69998980	0.00000000	-56.92052000	-12.62918000
174.89998979	0.00000000	-56.92052000	-12.62918000
175.09998978	0.00000000	-56.92052000	-12.62918000
175.29998977	0.00000000	-56.92052000	-12.62918000
175.49998976	0.00000000	-56.92052000	-12.62918000
175.69998975	0.00000000	-56.92052000	-12.58612000
175.89998973	0.00000000	-56.92052000	-12.25394000
176.09998972	0.00000000	-56.92052000	-11.88484000
176.29998971	0.00000000	-56.92052000	-12.25394000
176.49998970	0.00000000	-56.92052000	-12.58612000
176.69998969	0.00000000	-56.92052000	-12.62918000
176.89998967	0.00000000	-56.92052000	-12.62918000
177.09998966	0.00000000	-56.92052000	-12.62918000
177.29998965	0.00000000	-56.92052000	-12.58612000
177.49998964	0.00000000	-56.92052000	-12.25394000
177.69998963	0.00000000	-56.92052000	-11.88484000
177.89998961	0.00000000	-56.92052000	-12.21087000
178.09998960	0.00000000	-56.92052000	-12.21087000
178.29998959	0.00000000	-56.92052000	-11.84178000
178.49998958	0.00000000	-56.92052000	-11.83563000
178.69998957	0.00000000	-56.92052000	-11.42347000
178.89998956	0.00000000	-56.92052000	-11.09129000
179.09998954	0.00000000	-56.92052000	-11.04823000
179.29998953	0.00000000	-56.92052000	-11.04823000
179.49998952	0.00000000	-56.92052000	-11.09129000
179.69998951	0.00000000	-56.92052000	-11.42347000
179.89998950	0.00000000	-56.92052000	-11.79257000
180.09998948	0.00000000	-56.92052000	-11.46653000
180.29998947	0.00000000	-56.92052000	-11.51575000
180.49998946	0.00000000	-56.92052000	-12.16166000
180.69998945	0.00000000	-56.92052000	-12.16166000
180.89998944	0.00000000	-56.92052000	-11.46653000
181.09998942	0.00000000	-56.92052000	-11.09129000
181.29998941	0.00000000	-56.92052000	-11.04823000
181.49998940	0.00000000	-56.92052000	-11.04823000
181.69998939	0.00000000	-56.92052000	-11.04823000
181.89998938	0.00000000	-56.92052000	-11.04823000
182.09998937	0.00000000	-56.87746000	-11.04823000
182.29998935	0.00000000	-56.54527000	-11.09129000
182.49998934	0.00000000	-56.17618000	-11.46653000
182.69998933	0.00000000	-56.50221000	-12.21087000
182.89998932	0.00000000	-56.50221000	-12.58612000
183.09998931	0.00000000	-56.17618000	-12.62918000
183.29998929	0.00000000	-56.54527000	-12.62918000
183.49998928	0.00000000	-56.87746000	-12.62918000
183.69998927	0.00000000	-56.92052000	-12.62918000
183.89998926	0.00000000	-56.92052000	-12.62918000
184.09998925	0.00000000	-56.92052000	-12.58612000
184.29998923	0.00000000	-56.92052000	-12.25394000
184.49998922	0.00000000	-56.92052000	-11.84178000
184.69998921	0.00000000	-56.92052000	-11.83563000
184.89998920	0.00000000	-56.92052000	-11.46653000
185.09998919	0.00000000	-56.92052000	-11.51575000
185.29998918	0.00000000	-56.92052000	-12.21087000
185.49998916	0.00000000	-56.92052000	-12.58612000
185.69998915	0.00000000	-56.92052000	-12.62918000
185.89998914	0.00000000	-56.92052000	-12.62918000
186.09998913	0.00000000	-56.92052000	-12.62918000
186.29998912	0.00000000	-56.92052000	-12.62918000
186.49998910	-0.15871060	-56.92052000	-12.62918000
186.69998909	0.00000000	-56.92052000	-12.62918000
186.89998908	0.00000000	-56.92052000	-12.58612000
187.09998907	0.00000000	-56.92052000	-12.21087000
187.29998906	0.00000000	-56.92052000	-11.46653000
187.49998904	0.00000000	-56.92052000	-11.09129000
187.69998903	0.00000000	-56.92052000	-11.04823000
187.89998902	0.00000000	-56.92052000	-11.09129000
188.09998901	0.00000000	-56.92052000	-11.42347000
188.29998900	0.00000000	-56.92052000	-11.83563000
188.49998899	0.00000000	-56.92052000	-11.84178000
188.69998897	0.00000000	-56.92052000	-12.25394000
188.89998896	0.00000000	-56.92052000	-12.58612000
189.09998895	0.00000000	-56.92052000	-12.62918000
189.29998894	0.00000000	-56.92052000	-12.62918000
189.49998893	0.00000000	-56.92052000	-12.62918000
189.69998891	0.00000000	-56.92052000	-12.58612000
189.89998890	0.00000000	-56.92052000	-12.25394000
190.09998889	0.00000000	-56.92052000	-11.84178000
190.29998888	0.00000000	-56.92052000	-11.83563000
190.49998887	0.00000000	-56.92052000	-11.42347000
190.69998885	0.00000000	-56.92052000	-11.09129000
190.89998884	0.00000000	-56.92052000	-11.04823000
191.09998883	0.00000000	-56.92052000	-11.04823000
191.29998882	0.00000000	-56.87746000	-11.04823000
191.49998881	0.00000000	-56.54527000	-11.09129000
191.69998880	0.00000000	-56.17618000	-11.46653000
191.89998878	0.00000000	-56.54527000	-12.21087000
192.09998877	0.00000000	-56.87746000	-12.53691000
192.29998876	0.00000000	-56.92052000	-12.25394000
192.49998875	0.00000000	-56.92052000	-11.88484000
192.69998874	0.00000000	-56.92052000	-12.25394000
192.89998872	0.00000000	-56.92052000	-12.58612000
193.09998871	0.00000000	-56.92052000	-12.62918000
193.29998870	0.00000000	-56.92052000	-12.62918000
193.49998869	0.00000000	-56.92052000	-12.58612000
193.69998868	0.00000000	-56.92052000	-12.21087000
193.89998866	0.00000000	-56.92052000	-11.51575000
194.09998865	0.00000000	-56.87746000	-11.46653000
194.29998864	0.00000000	-56.54527000	-11.79257000
194.49998863	0.00000000	-56.17618000	-11.46653000
194.69998862	0.00000000	-56.50221000	-11.46653000
194.89998861	0.00000000	-56.50221000	-11.83563000
195.09998859	0.00000000	-56.17618000	-11.84178000
195.29998858	0.00000000	-56.54527000	-12.21087000
195.49998857	0.00000000	-56.87746000	-12.21087000
195.69998856	0.00000000	-56.92052000	-11.88484000
195.89998855	0.00000000	-56.92052000	-12.25394000
196.09998853	0.00000000	-56.92052000	-12.53691000
