Time	Channel A	Channel B	Channel C
(us)	(V)	(mV)	(mV)

-4.49999956	0.00000000	-82.22194000	-22.10261000
-4.29999957	0.00000000	-82.17889000	-22.10261000
-4.09999958	0.00000000	-81.80363000	-22.10261000
-3.89999959	0.00000000	-81.10851000	-22.10261000
-3.69999960	0.00000000	-81.05930000	-22.10261000
-3.49999962	0.00000000	-81.42839000	-22.10261000
-3.29999963	0.00000000	-81.39148000	-22.10261000
-3.09999964	0.00000000	-81.47145000	-22.10261000
-2.89999965	0.00000000	-81.39148000	-22.10261000
-2.69999966	0.00000000	-81.42839000	-22.10261000
-2.49999968	0.00000000	-81.05930000	-22.10261000
-2.29999969	0.00000000	-81.05930000	-22.10261000
-2.09999970	0.00000000	-81.38533000	-22.10261000
-1.89999971	0.00000000	-81.05930000	-22.14567000
-1.69999972	0.00000000	-81.05930000	-22.47785000
-1.49999973	0.00000000	-81.42839000	-22.84695000
-1.29999975	0.00000000	-81.43454000	-22.47785000
-1.09999976	0.00000000	-81.80363000	-22.19488000
-0.89999977	0.00000000	-81.80363000	-22.47785000
-0.69999978	0.00000000	-81.43454000	-22.84695000
-0.49999979	0.00000000	-81.47145000	-22.47785000
-0.29999981	0.31803640	-81.43454000	-22.14567000
-0.09999982	0.63668800	-81.84669000	-22.10261000
0.10000017	0.95533960	-82.17889000	-22.10261000
0.30000016	0.95533960	-82.22194000	-22.14567000
0.50000015	0.79601380	-82.22194000	-22.47785000
0.70000013	0.15871060	-82.22194000	-22.84695000
0.90000012	-0.63668800	-82.22194000	-22.47785000
1.10000011	-1.59264300	-82.17889000	-22.14567000
1.30000010	-2.38927200	-81.80363000	-22.10261000
1.50000009	-2.86724900	-81.10851000	-22.10261000
1.70000008	-2.38927200	-81.05930000	-22.10261000
1.90000006	-1.11466500	-81.38533000	-22.10261000
2.10000005	0.79601380	-81.05930000	-22.10261000
2.30000004	2.86724900	-81.10851000	-22.10261000
2.50000003	4.61921700	-81.80363000	-22.14567000
2.70000002	5.41584600	-82.17889000	-22.52091000
2.90000000	4.61921700	-82.22194000	-23.26525000
3.09999999	2.54859700	-82.22194000	-23.64050000
3.29999998	-0.63668800	-82.22194000	-23.68356000
3.49999997	-3.98191400	-82.17889000	-23.64050000
3.69999996	-6.69045300	-81.84669000	-23.26525000
3.89999994	-7.96444400	-81.43454000	-22.52091000
4.09999993	-7.16781500	-81.42839000	-22.14567000
4.29999992	-4.45989200	-81.05930000	-22.10261000
4.49999991	-0.47736220	-81.05930000	-22.10261000
4.69999990	3.98191400	-81.38533000	-22.10261000
4.89999989	7.64579200	-81.05930000	-22.14567000
5.09999987	9.39837600	-81.10851000	-22.52091000
5.29999986	8.92039900	-81.80363000	-23.26525000
5.49999985	6.05315000	-82.17889000	-23.64050000
5.69999984	1.75196900	-82.22194000	-23.68356000
5.89999983	-3.18590100	-82.17889000	-23.64050000
6.09999981	-7.16781500	-81.80363000	-23.26525000
6.29999980	-9.23905000	-81.05930000	-22.52091000
6.49999979	-9.07972400	-80.68405000	-22.14567000
6.69999978	-6.69045300	-80.64099000	-22.10261000
6.89999977	-2.70792300	-80.64099000	-22.10261000
7.09999975	1.59264300	-80.68405000	-22.10261000
7.29999974	5.41584600	-81.05930000	-22.14567000
7.49999973	7.48646600	-81.75443000	-22.52091000
7.69999972	7.64579200	-81.80363000	-23.26525000
7.89999971	5.89382400	-81.47760000	-23.59129000
8.09999970	2.86724900	-81.80363000	-23.26525000
8.29999968	-0.31803640	-81.75443000	-22.52091000
8.49999967	-3.18590100	-81.10851000	-22.19488000
8.69999966	-4.93786900	-81.10851000	-22.47785000
8.89999965	-5.09719500	-81.75443000	-22.84695000
9.09999964	-4.14124000	-81.75443000	-22.47785000
9.29999962	-2.38927200	-81.05930000	-22.14567000
9.49999961	-0.47736220	-80.68405000	-22.10261000
9.69999960	1.27399100	-80.64099000	-22.10261000
9.89999959	2.22994600	-80.68405000	-22.14567000
10.09999958	2.54859700	-81.01624000	-22.43479000
10.29999956	2.07062000	-81.38533000	-22.47170000
10.49999955	1.27399100	-81.01624000	-21.73966000
10.69999954	0.31803640	-80.68405000	-21.81964000
10.89999953	-0.31803640	-80.64099000	-22.43479000
11.09999952	-0.79601380	-80.64099000	-22.84695000
11.29999951	-0.95533960	-80.64099000	-22.47785000
11.49999949	-0.95533960	-80.64099000	-22.14567000
11.69999948	-0.63668800	-80.64099000	-22.10261000
11.89999947	-0.31803640	-80.68405000	-22.10261000
12.09999946	-0.15871060	-81.01624000	-22.10261000
12.29999945	-0.15871060	-81.38533000	-22.10261000
12.49999943	0.00000000	-81.01624000	-22.10261000
12.69999942	0.00000000	-80.68405000	-22.10261000
12.89999941	0.00000000	-80.64099000	-22.10261000
13.09999940	0.00000000	-80.64099000	-22.10261000
13.29999939	0.00000000	-80.64099000	-22.10261000
13.49999937	0.00000000	-80.68405000	-22.10261000
13.69999936	0.00000000	-81.01624000	-22.10261000
13.89999935	-0.15871060	-81.38533000	-22.10261000
14.09999934	-0.15871060	-81.01624000	-22.10261000
14.29999933	-0.15871060	-80.68405000	-22.10261000
14.49999932	-0.15871060	-80.68405000	-22.10261000
14.69999930	0.00000000	-81.01624000	-22.10261000
14.89999929	0.00000000	-81.38533000	-22.10261000
15.09999928	0.00000000	-81.01624000	-22.10261000
15.29999927	0.00000000	-80.73326000	-22.14567000
15.49999926	0.00000000	-81.05930000	-22.47785000
15.69999924	0.00000000	-81.80363000	-22.84695000
15.89999923	0.00000000	-82.17889000	-22.47785000
16.09999922	0.00000000	-82.22194000	-22.19488000
16.29999921	-0.15871060	-82.17889000	-22.47785000
16.49999920	0.00000000	-81.80363000	-22.84695000
16.69999919	0.00000000	-81.05930000	-22.47785000
16.89999917	0.00000000	-80.64099000	-22.14567000
17.09999916	0.00000000	-80.22269000	-22.10261000
17.29999915	0.00000000	-79.52755000	-22.10261000
17.49999914	0.00000000	-79.47834000	-22.10261000
17.69999913	0.00000000	-79.84743000	-22.10261000
17.89999911	0.00000000	-79.89664000	-22.10261000
18.09999910	0.00000000	-80.73326000	-22.10261000
18.29999909	0.00000000	-82.22194000	-22.10261000
18.49999908	0.00000000	-83.80289000	-22.10261000
18.69999907	0.00000000	-85.34079000	-22.10261000
18.89999905	0.00000000	-86.45423000	-22.10261000
19.09999904	0.00000000	-86.41116000	-22.10261000
19.29999903	0.00000000	-84.83022000	-22.10261000
19.49999902	0.00000000	-81.71136000	-22.10261000
19.69999901	0.00000000	-77.47908000	-22.10261000
19.89999900	0.00000000	-73.24680000	-22.10261000
20.09999898	0.00000000	-70.17101000	-22.10261000
20.29999897	0.00000000	-69.05757000	-22.10261000
20.49999896	0.00000000	-70.63853000	-22.10261000
20.69999895	0.00000000	-74.91387000	-22.10261000
20.89999894	0.00000000	-81.15157000	-22.10261000
21.09999892	0.00000000	-88.54576000	-22.10261000
21.29999891	0.00000000	-95.85383000	-22.10261000
21.49999890	0.00000000	-101.16260000	-22.14567000
21.69999889	0.00000000	-102.23300000	-22.47785000
21.89999888	0.00000000	-97.90846000	-22.84695000
22.09999886	0.00000000	-88.64419000	-22.47785000
22.29999885	0.00000000	-76.22416000	-22.14567000
22.49999884	0.00000000	-63.51500000	-22.10261000
22.69999883	0.00000000	-53.14345000	-22.10261000
22.89999882	0.00000000	-48.57898000	-22.10261000
23.09999881	0.00000000	-51.32258000	-22.05955000
23.29999879	0.00000000	-61.04823000	-21.68430000
23.49999878	0.00000000	-76.58710000	-20.94611000
23.69999877	0.00000000	-94.69118000	-20.57087000
23.89999876	0.00000000	-111.25120000	-20.52780000
24.09999875	0.00000000	-121.62890000	-20.57087000
24.29999873	0.00000000	-123.12380000	-20.98917000
24.49999872	0.00000000	-114.92990000	-22.15182000
24.69999871	0.00000000	-97.90231000	-23.68356000
24.89999870	0.00000000	-75.89813000	-25.26452000
25.09999869	0.00000000	-53.88779000	-26.79626000
25.29999867	0.00000000	-36.94635000	-27.90969000
25.49999866	0.00000000	-29.64444000	-27.86663000
25.69999865	0.00000000	-33.96899000	-26.28568000
25.89999864	0.00000000	-49.37868000	-23.17298000
26.09999863	0.00000000	-72.53936000	-18.94685000
26.29999862	0.00000000	-97.25639000	-14.76378000
26.49999860	0.00000000	-118.55930000	-12.02018000
26.69999859	0.00000000	-131.63750000	-11.22662000
26.89999858	0.00000000	-133.17540000	-12.11245000
27.09999857	0.00000000	-122.74850000	-15.69267000
27.29999856	0.00000000	-102.69440000	-22.23794000
27.49999854	0.00000000	-78.03272000	-29.90895000
27.69999853	0.00000000	-54.81668000	-36.87869000
27.89999852	0.00000000	-38.15822000	-41.48006000
28.09999851	0.00000000	-31.18233000	-42.59350000
28.29999850	0.00000000	-35.41462000	-39.39468000
28.49999848	0.00000000	-49.65551000	-31.67446000
28.69999847	0.00000000	-70.08488000	-20.85384000
28.89999846	0.00000000	-91.76304000	-9.65182000
29.09999845	0.00000000	-109.95940000	0.04921259
29.29999844	0.00000000	-121.21060000	6.09621000
29.49999843	0.00000000	-123.20990000	6.41609200
29.69999841	0.00000000	-116.32630000	-0.21530510
29.89999840	0.00000000	-102.78670000	-12.53076000
30.09999839	0.00000000	-85.34079000	-27.95891000
30.29999838	0.00000000	-67.60580000	-42.63656000
30.49999837	0.00000000	-53.69709000	-53.46948000
30.69999835	0.00000000	-46.99803000	-58.43996000
30.89999834	0.00000000	-47.69931000	-55.65329000
31.09999833	0.00000000	-54.63829000	-45.24483000
31.29999832	0.00000000	-66.63385000	-29.44759000
31.49999831	0.00000000	-80.50565000	-12.02633000
31.69999829	0.00000000	-93.34399000	3.45103300
31.89999828	0.00000000	-102.65130000	14.22244000
32.09999827	0.00000000	-106.97590000	17.29208000
32.29999826	0.00000000	-105.81320000	11.90330000
32.49999825	0.00000000	-99.62475000	-0.41215550
32.69999824	0.00000000	-89.61613000	-17.03986000
32.89999822	0.00000000	-78.40797000	-34.09203000
33.09999821	0.00000000	-68.72539000	-48.82505000
33.29999820	0.00000000	-62.12475000	-58.43996000
33.49999819	0.00000000	-60.21161000	-60.30389000
33.69999818	0.00000000	-63.19512000	-53.78937000
33.89999816	0.00000000	-69.75270000	-40.32357000
34.09999815	0.00000000	-77.85432000	-23.77584000
34.29999814	0.00000000	-85.99286000	-7.84325700
34.49999813	0.00000000	-92.13213000	4.56446800
34.69999812	0.00000000	-94.87573000	11.48499000
34.89999810	0.00000000	-93.76230000	11.06668000
35.09999809	0.00000000	-89.57307000	3.03272600
35.29999808	0.00000000	-83.75984000	-10.02707000
35.49999807	0.00000000	-77.61442000	-24.75394000
35.69999806	0.00000000	-72.59473000	-38.27509000
35.89999805	0.00000000	-70.30634000	-47.89616000
36.09999803	0.00000000	-71.01377000	-50.95964000
36.29999802	0.00000000	-74.49557000	-46.81963000
36.49999801	0.00000000	-79.43528000	-37.20472000
36.69999800	0.00000000	-84.45496000	-24.88927000
36.89999799	0.00000000	-87.94906000	-12.57382000
37.09999797	0.00000000	-89.53001000	-3.74630900
37.29999796	0.00000000	-89.06249000	-0.63361220
37.49999795	0.00000000	-85.99286000	-3.66018700
37.69999794	0.00000000	-81.05930000	-11.69414000
37.89999793	0.00000000	-76.45177000	-22.01033000
38.09999791	0.00000000	-73.28986000	-31.63140000
38.29999790	0.00000000	-71.75196000	-37.77067000
38.49999789	0.00000000	-72.12721000	-38.92716000
38.69999788	0.00000000	-74.45251000	-34.74409000
38.89999787	0.00000000	-77.94660000	-26.70398000
39.09999786	0.00000000	-82.22194000	-17.50123000
39.29999784	0.00000000	-86.41116000	-9.46727400
39.49999783	0.00000000	-89.15477000	-5.28420300
39.69999782	0.00000000	-89.94832000	-6.44069800
39.89999781	0.00000000	-89.19783000	-12.53076000
40.09999780	0.00000000	-86.82947000	-21.72736000
40.29999778	0.00000000	-83.33538000	-30.93627000
40.49999777	0.00000000	-79.06004000	-37.89985000
40.69999776	0.00000000	-74.82775000	-40.92643000
40.89999775	0.00000000	-71.75196000	-38.97022000
41.09999774	0.00000000	-70.59547000	-32.04970000
41.29999772	0.00000000	-71.70891000	-22.14567000
41.49999771	0.00000000	-74.36023000	-12.53076000
41.69999770	0.00000000	-77.52214000	-5.97933100
41.89999769	0.00000000	-81.05930000	-3.61097400
42.09999768	0.00000000	-84.91634000	-5.93011800
42.29999767	0.00000000	-87.94906000	-12.06939000
42.49999765	0.00000000	-89.15477000	-20.52780000
42.69999764	0.00000000	-88.41042000	-28.93701000
42.89999763	0.00000000	-86.49728000	-34.78716000
43.09999762	0.00000000	-83.75984000	-37.11245000
43.29999761	0.00000000	-80.68405000	-35.99286000
43.49999759	0.00000000	-77.98966000	-31.39763000
43.69999758	0.00000000	-76.40871000	-25.30758000
43.89999757	0.00000000	-75.94118000	-19.45743000
44.09999756	0.00000000	-75.94118000	-14.80684000
44.29999755	0.00000000	-76.31644000	-12.11245000
44.49999753	0.00000000	-77.06077000	-12.11245000
44.69999752	0.00000000	-77.43602000	-14.72072000
44.89999751	0.00000000	-77.52214000	-18.52854000
45.09999750	0.00000000	-77.94660000	-22.05955000
45.29999749	0.00000000	-79.10310000	-25.17224000
45.49999748	0.00000000	-80.68405000	-27.44832000
45.69999746	0.00000000	-82.64025000	-27.86663000
45.89999745	0.00000000	-85.00861000	-26.75320000
46.09999744	0.00000000	-87.29700000	-24.84621000
46.29999743	0.00000000	-89.15477000	-22.52091000
46.49999742	0.00000000	-89.10555000	-20.57087000
46.69999740	0.00000000	-86.78642000	-18.98991000
46.89999739	0.00000000	-82.87401000	-17.87647000
47.09999738	0.00000000	-77.43602000	-17.87647000
47.29999737	0.00000000	-71.66584000	-19.03912000
47.49999736	0.00000000	-67.05216000	-20.94611000
47.69999734	0.00000000	-64.77608000	-23.26525000
47.89999733	0.00000000	-65.98179000	-25.17224000
48.09999732	0.00000000	-70.63853000	-26.37795000
48.29999731	0.00000000	-77.98966000	-26.74705000
48.49999730	0.00000000	-86.45423000	-26.32874000
48.69999729	0.00000000	-93.80536000	-24.75394000
48.89999727	0.00000000	-98.36982000	-22.05955000
49.09999726	0.00000000	-98.73891000	-19.03297000
49.29999725	0.00000000	-94.09448000	-16.71383000
49.49999724	0.00000000	-86.03592000	-15.92027000
49.69999723	0.00000000	-76.35949000	-16.29552000
49.89999721	0.00000000	-67.56274000	-17.87647000
50.09999720	0.00000000	-62.11860000	-20.61393000
50.29999719	0.00000000	-61.32504000	-24.05881000
50.49999718	0.00000000	-64.81914000	-27.54060000
50.69999717	0.00000000	-72.17027000	-29.82283000
50.89999715	0.00000000	-81.75443000	-30.60408000
51.09999714	0.00000000	-90.60039000	-29.39837000
51.29999713	0.00000000	-96.37057000	-26.32874000
51.49999712	0.00000000	-97.57627000	-22.10261000
51.69999711	0.00000000	-94.13754000	-17.87647000
51.89999710	0.00000000	-87.61687000	-14.76378000
52.09999708	0.00000000	-79.52755000	-13.22589000
52.29999707	0.00000000	-72.21949000	-13.64419000
52.49999706	0.00000000	-67.56274000	-16.33858000
52.69999705	0.00000000	-66.44315000	-20.47859000
52.89999704	0.00000000	-69.51894000	-24.37869000
53.09999702	0.00000000	-75.99039000	-27.12844000
53.29999701	0.00000000	-83.24926000	-29.02928000
53.49999700	0.00000000	-89.06249000	-29.02928000
53.69999699	0.00000000	-92.13213000	-27.12844000
53.89999698	0.00000000	-91.80609000	-24.47096000
54.09999696	0.00000000	-88.31815000	-21.36442000
54.29999695	0.00000000	-82.91708000	-19.08218000
54.49999694	0.00000000	-76.40871000	-17.91953000
54.69999693	0.00000000	-71.10605000	-18.29478000
54.89999692	0.00000000	-69.10064000	-20.15256000
55.09999691	0.00000000	-70.22022000	-22.05955000
55.29999689	0.00000000	-73.70817000	-23.59129000
55.49999688	0.00000000	-79.06004000	-24.33563000
55.69999687	0.00000000	-84.45496000	-23.59129000
55.89999686	0.00000000	-88.31815000	-22.10261000
56.09999685	0.00000000	-90.22514000	-20.52780000
56.29999683	0.00000000	-89.06249000	-19.03912000
56.49999682	0.00000000	-85.29158000	-18.33784000
56.69999681	0.00000000	-80.68405000	-19.50049000
56.89999680	0.00000000	-76.40871000	-22.15182000
57.09999679	0.00000000	-73.28986000	-25.21530000
57.29999677	0.00000000	-71.75196000	-27.90969000
57.49999676	0.00000000	-72.17642000	-29.40452000
57.69999675	0.00000000	-74.82775000	-28.98007000
57.89999674	0.00000000	-78.64173000	-26.28568000
58.09999673	0.00000000	-82.12967000	-22.05955000
58.29999672	0.00000000	-84.83022000	-17.40895000
58.49999670	0.00000000	-85.99286000	-13.18282000
58.69999669	0.00000000	-85.24852000	-10.53765000
58.89999668	0.00000000	-83.38459000	-10.58071000
59.09999667	0.00000000	-81.05930000	-13.69340000
59.29999666	0.00000000	-79.10310000	-19.45743000
59.49999664	0.00000000	-77.57135000	-26.32874000
59.69999663	0.00000000	-76.78395000	-32.09276000
59.89999662	0.00000000	-77.14690000	-35.20546000
60.09999661	0.00000000	-77.89738000	-35.20546000
60.29999660	0.00000000	-79.06004000	-32.09276000
60.49999658	0.00000000	-80.17347000	-26.28568000
60.69999657	0.00000000	-80.59792000	-18.98991000
60.89999656	0.00000000	-80.64099000	-12.06939000
61.09999655	0.00000000	-80.59792000	-7.46801100
61.29999654	0.00000000	-80.22269000	-6.30536400
61.49999653	0.00000000	-79.47834000	-9.04896600
61.69999651	0.00000000	-79.15231000	-15.18209000
61.89999650	0.00000000	-79.47834000	-23.26525000
62.09999649	0.00000000	-80.26574000	-30.93627000
62.29999648	0.00000000	-81.01624000	-36.36811000
62.49999647	0.00000000	-81.80363000	-38.27509000
62.69999645	0.00000000	-82.17889000	-36.36811000
62.89999644	0.00000000	-82.17889000	-30.97933000
63.09999643	0.00000000	-81.75443000	-23.68356000
63.29999642	0.00000000	-80.59792000	-16.29552000
63.49999641	0.00000000	-79.06004000	-10.16240000
63.69999639	0.00000000	-77.57135000	-6.68061000
63.89999638	0.00000000	-76.78395000	-7.04970500
64.09999637	0.00000000	-77.14690000	-10.48843000
64.29999636	0.00000000	-77.89738000	-16.29552000
64.49999635	0.00000000	-79.10310000	-23.21604000
64.69999634	0.00000000	-80.64099000	-29.40452000
64.89999632	0.00000000	-82.12967000	-33.67372000
65.09999631	0.00000000	-82.91708000	-35.25467000
65.29999630	0.00000000	-82.55412000	-34.09203000
65.49999629	0.00000000	-81.80363000	-30.64714000
65.69999628	0.00000000	-80.59792000	-25.63976000
65.89999626	0.00000000	-79.10310000	-20.61393000
66.09999625	0.00000000	-77.98966000	-16.33858000
66.29999624	0.00000000	-77.98966000	-13.60113000
66.49999623	0.00000000	-79.06004000	-12.76452000
66.69999622	0.00000000	-80.22269000	-13.13976000
66.89999620	0.00000000	-81.05930000	-14.72072000
67.09999619	0.00000000	-82.17889000	-17.41511000
67.29999618	0.00000000	-82.87401000	-20.52780000
67.49999617	0.00000000	-82.08661000	-23.64050000
67.69999616	0.00000000	-80.17347000	-26.37795000
67.89999615	0.00000000	-77.47908000	-28.37721000
68.09999613	0.00000000	-74.87081000	-29.90895000
68.29999612	0.00000000	-73.70817000	-30.64714000
68.49999611	0.00000000	-74.49557000	-29.86589000
68.69999610	0.00000000	-76.78395000	-27.90969000
68.89999609	0.00000000	-80.30881000	-24.75394000
69.09999607	0.00000000	-84.13508000	-20.52780000
69.29999606	0.00000000	-87.61687000	-16.29552000
69.49999605	0.00000000	-89.48080000	-13.18282000
69.69999604	0.00000000	-89.10555000	-11.60187000
69.89999603	0.00000000	-86.41116000	-11.64493000
70.09999601	0.00000000	-82.12967000	-13.60113000
70.29999600	0.00000000	-77.10384000	-17.50123000
70.49999599	0.00000000	-72.08414000	-22.52091000
70.69999598	0.00000000	-68.68233000	-27.90969000
70.89999597	0.00000000	-67.84571000	-32.09276000
71.09999596	0.00000000	-69.79576000	-33.67372000
71.29999594	0.00000000	-73.66510000	-32.56028000
71.49999593	0.00000000	-79.10310000	-29.49065000
71.69999592	0.00000000	-84.87327000	-25.17224000
71.89999591	0.00000000	-89.53001000	-20.19562000
72.09999590	0.00000000	-92.22440000	-15.60039000
72.29999588	0.00000000	-92.18134000	-13.27510000
72.49999587	0.00000000	-89.10555000	-13.18282000
72.69999586	0.00000000	-83.71062000	-14.72072000
72.89999585	0.00000000	-77.57135000	-17.41511000
73.09999584	0.00000000	-72.17642000	-20.52780000
73.29999582	0.00000000	-69.05757000	-23.59129000
73.49999581	0.00000000	-68.59006000	-25.86737000
73.69999580	0.00000000	-70.12794000	-26.28568000
73.89999579	0.00000000	-73.28986000	-25.21530000
74.09999578	0.00000000	-77.89738000	-23.68356000
74.29999577	0.00000000	-82.87401000	-22.15182000
74.49999575	0.00000000	-86.36810000	-21.03838000
74.69999574	0.00000000	-87.99212000	-21.03838000
74.89999573	0.00000000	-87.99212000	-22.15182000
75.09999572	0.00000000	-86.41116000	-23.64050000
75.29999571	0.00000000	-83.33538000	-24.75394000
75.49999569	0.00000000	-79.52755000	-24.71087000
75.69999568	0.00000000	-76.45177000	-23.17298000
75.89999567	0.00000000	-74.87081000	-20.47859000
76.09999566	0.00000000	-74.82775000	-17.45817000
76.29999565	0.00000000	-75.94118000	-15.13902000
76.49999563	0.00000000	-77.43602000	-14.38853000
76.69999562	0.00000000	-78.64173000	-15.18209000
76.89999561	0.00000000	-79.43528000	-17.91953000
77.09999560	0.00000000	-80.22269000	-22.10261000
77.29999559	0.00000000	-80.54871000	-26.37795000
77.49999558	0.00000000	-80.26574000	-29.86589000
77.69999556	0.00000000	-79.89664000	-32.14198000
77.89999555	0.00000000	-80.26574000	-32.04970000
78.09999554	0.00000000	-80.64099000	-29.02928000
78.29999553	0.00000000	-81.05930000	-24.01575000
78.49999552	0.00000000	-81.80363000	-18.61466000
78.69999550	0.00000000	-82.12967000	-13.60113000
78.89999549	0.00000000	-81.71136000	-10.53765000
79.09999548	0.00000000	-80.17347000	-10.11319000
79.29999547	0.00000000	-77.89738000	-12.02018000
79.49999546	0.00000000	-75.99039000	-15.92027000
79.69999544	0.00000000	-74.78469000	-20.89690000
79.89999543	0.00000000	-74.40945000	-25.91043000
80.09999542	0.00000000	-74.82775000	-29.39837000
80.29999541	0.00000000	-76.40871000	-31.02239000
80.49999540	0.00000000	-79.10310000	-31.02239000
80.69999539	0.00000000	-82.12967000	-29.44759000
80.89999537	0.00000000	-84.45496000	-26.37795000
81.09999536	0.00000000	-85.24852000	-22.52091000
81.29999535	0.00000000	-84.87327000	-19.03297000
81.49999534	0.00000000	-83.29231000	-16.25246000
81.69999533	0.00000000	-80.59792000	-14.34547000
81.89999531	0.00000000	-77.57135000	-13.55807000
82.09999530	0.00000000	-75.24606000	-14.34547000
82.29999529	0.00000000	-74.45251000	-16.25246000
82.49999528	0.00000000	-74.78469000	-18.98991000
82.69999527	0.00000000	-75.99039000	-22.05955000
82.89999525	0.00000000	-77.89738000	-24.84621000
83.09999524	0.00000000	-80.17347000	-27.17150000
83.29999523	0.00000000	-81.71136000	-29.07234000
83.49999522	0.00000000	-82.17889000	-29.44759000
83.69999521	0.00000000	-82.17889000	-28.32800000
83.89999520	0.00000000	-81.75443000	-26.37795000
84.09999518	0.00000000	-80.64099000	-23.64050000
84.29999517	0.00000000	-79.52755000	-20.52780000
84.49999516	0.00000000	-79.10310000	-17.41511000
84.69999515	0.00000000	-79.06004000	-14.72072000
84.89999514	0.00000000	-79.06004000	-13.22589000
85.09999512	0.00000000	-79.01697000	-13.60113000
85.29999511	0.00000000	-78.68478000	-15.92027000
85.49999510	0.00000000	-78.27264000	-19.40822000
85.69999509	0.00000000	-78.26648000	-23.68356000
85.89999508	0.00000000	-77.89738000	-27.90969000
86.09999506	0.00000000	-77.94660000	-30.93627000
86.29999505	0.00000000	-78.68478000	-31.71752000
86.49999504	0.00000000	-79.47834000	-29.82283000
86.69999503	0.00000000	-80.64099000	-26.37795000
86.89999502	0.00000000	-81.75443000	-22.05955000
87.09999501	0.00000000	-82.17889000	-17.45817000
87.29999499	0.00000000	-82.17889000	-13.60113000
87.49999498	0.00000000	-81.75443000	-11.69414000
87.69999497	0.00000000	-80.59792000	-12.06939000
87.89999496	0.00000000	-79.06004000	-14.80684000
88.09999495	0.00000000	-77.52214000	-19.41437000
88.29999493	0.00000000	-76.36565000	-24.79700000
88.49999492	0.00000000	-75.99039000	-29.35531000
88.69999491	0.00000000	-76.36565000	-31.67446000
88.89999490	0.00000000	-77.52214000	-30.93627000
89.09999489	0.00000000	-79.06004000	-27.86663000
89.29999487	0.00000000	-80.59792000	-23.26525000
89.49999486	0.00000000	-81.75443000	-18.25172000
89.69999485	0.00000000	-82.12967000	-14.38853000
89.89999484	0.00000000	-81.75443000	-12.06939000
90.09999483	0.00000000	-80.64099000	-12.11245000
90.29999482	0.00000000	-79.47834000	-14.80684000
90.49999480	0.00000000	-78.68478000	-19.41437000
90.69999479	0.00000000	-77.89738000	-24.75394000
90.89999478	0.00000000	-77.57135000	-28.98007000
91.09999477	0.00000000	-77.85432000	-30.93627000
91.29999476	0.00000000	-78.26648000	-30.56102000
91.49999474	0.00000000	-78.27264000	-27.82357000
91.69999473	0.00000000	-78.68478000	-23.21604000
91.89999472	0.00000000	-79.01697000	-17.87647000
92.09999471	0.00000000	-79.06004000	-13.64419000
92.29999470	0.00000000	-79.06004000	-11.73720000
92.49999468	0.00000000	-79.06004000	-12.53076000
92.69999467	0.00000000	-79.10310000	-16.33858000
92.89999466	0.00000000	-79.47834000	-21.63509000
93.09999465	0.00000000	-80.26574000	-26.28568000
93.29999464	0.00000000	-81.01624000	-29.39837000
93.49999463	0.00000000	-81.75443000	-30.51796000
93.69999461	0.00000000	-81.71136000	-29.02928000
93.89999460	0.00000000	-80.59792000	-25.54749000
94.09999459	0.00000000	-79.06004000	-21.30905000
94.29999458	0.00000000	-77.47908000	-16.71383000
94.49999457	0.00000000	-75.89813000	-13.69340000
94.69999455	0.00000000	-74.40945000	-13.27510000
94.89999454	0.00000000	-73.70817000	-15.18209000
95.09999453	0.00000000	-74.82775000	-18.98991000
95.29999452	0.00000000	-77.10384000	-23.21604000
95.49999451	0.00000000	-79.47834000	-26.70398000
95.69999449	0.00000000	-82.22194000	-28.98007000
95.89999448	0.00000000	-84.87327000	-28.98007000
96.09999447	0.00000000	-86.41116000	-26.75320000
96.29999446	0.00000000	-86.36810000	-23.68356000
96.49999445	0.00000000	-84.45496000	-20.57087000
96.69999444	0.00000000	-80.97318000	-17.87647000
96.89999442	0.00000000	-77.14690000	-16.33858000
97.09999441	0.00000000	-73.62204000	-16.33858000
97.29999440	0.00000000	-71.33366000	-17.83341000
97.49999439	0.00000000	-70.54626000	-20.10950000
97.69999438	0.00000000	-71.70891000	-22.05955000
97.89999436	0.00000000	-74.40945000	-23.64050000
98.09999435	0.00000000	-77.89738000	-24.75394000
98.29999434	0.00000000	-81.80363000	-24.75394000
98.49999433	0.00000000	-85.24852000	-23.68356000
98.69999432	0.00000000	-87.57381000	-22.52091000
98.89999430	0.00000000	-87.94906000	-21.72736000
99.09999429	0.00000000	-86.41116000	-20.94611000
99.29999428	0.00000000	-83.33538000	-20.57087000
99.49999427	0.00000000	-79.47834000	-20.52780000
99.69999426	0.00000000	-75.99039000	-20.48474000
99.89999425	0.00000000	-73.24680000	-20.10950000
100.09999423	0.00000000	-71.70891000	-19.36516000
100.29999422	0.00000000	-71.70891000	-18.98991000
100.49999421	0.00000000	-73.24680000	-18.94685000
100.69999420	0.00000000	-75.94118000	-18.98991000
100.89999419	0.00000000	-79.01697000	-19.45743000
101.09999417	0.00000000	-81.75443000	-20.98917000
101.29999416	0.00000000	-83.71062000	-23.22219000
101.49999415	0.00000000	-84.87327000	-24.79700000
101.69999414	0.00000000	-84.87327000	-25.59055000
101.89999413	0.00000000	-83.71062000	-25.91043000
102.09999411	0.00000000	-81.75443000	-24.75394000
102.29999410	0.00000000	-79.06004000	-22.47785000
102.49999409	0.00000000	-76.40871000	-20.10950000
102.69999408	0.00000000	-74.78469000	-17.41511000
102.89999407	0.00000000	-73.98499000	-15.18209000
103.09999406	0.00000000	-73.62204000	-14.80684000
103.29999404	0.00000000	-74.45251000	-16.29552000
103.49999403	0.00000000	-76.31644000	-18.98991000
103.69999402	0.00000000	-78.64173000	-22.05955000
103.89999401	0.00000000	-80.54871000	-24.79700000
104.09999400	0.00000000	-81.75443000	-26.75320000
104.29999398	0.00000000	-82.17889000	-27.86663000
104.49999397	0.00000000	-82.17889000	-27.44832000
104.69999396	0.00000000	-81.75443000	-25.17224000
104.89999395	0.00000000	-80.59792000	-22.15182000
105.09999394	0.00000000	-79.06004000	-19.40822000
105.29999392	0.00000000	-77.52214000	-17.45817000
105.49999391	0.00000000	-76.40871000	-16.29552000
105.69999390	0.00000000	-76.36565000	-16.33858000
105.89999389	0.00000000	-77.10384000	-17.87647000
106.09999388	0.00000000	-77.89738000	-20.52780000
106.29999387	0.00000000	-79.06004000	-23.22219000
106.49999385	0.00000000	-80.17347000	-25.12918000
106.69999384	0.00000000	-80.59792000	-25.91043000
106.89999383	0.00000000	-80.59792000	-25.17224000
107.09999382	0.00000000	-80.17347000	-23.68356000
107.29999381	0.00000000	-79.06004000	-22.10261000
107.49999379	0.00000000	-77.94660000	-20.52780000
107.69999378	0.00000000	-77.52214000	-19.03912000
107.89999377	0.00000000	-77.52214000	-18.29478000
108.09999376	0.00000000	-77.94660000	-19.03912000
108.29999375	0.00000000	-79.06004000	-20.52780000
108.49999374	0.00000000	-80.17347000	-22.10261000
108.69999372	0.00000000	-80.59792000	-23.59129000
108.89999371	0.00000000	-80.64099000	-24.37869000
109.09999370	0.00000000	-80.59792000	-24.01575000
109.29999369	0.00000000	-80.17347000	-23.26525000
109.49999368	0.00000000	-79.06004000	-22.05955000
109.69999366	0.00000000	-77.89738000	-20.52780000
109.89999365	0.00000000	-77.14690000	-18.98991000
110.09999364	0.00000000	-76.73474000	-17.87647000
110.29999363	0.00000000	-77.10384000	-17.87647000
110.49999362	0.00000000	-77.47908000	-18.98991000
110.69999360	0.00000000	-77.94660000	-20.52780000
110.89999359	0.00000000	-79.06004000	-22.05955000
111.09999358	0.00000000	-80.17347000	-23.21604000
111.29999357	0.00000000	-80.59792000	-23.64050000
111.49999356	0.00000000	-80.59792000	-23.68356000
111.69999355	0.00000000	-80.22269000	-23.64050000
111.89999353	0.00000000	-79.43528000	-23.21604000
112.09999352	0.00000000	-78.68478000	-22.05955000
112.29999351	0.00000000	-77.89738000	-20.57087000
112.49999350	0.00000000	-77.52214000	-19.41437000
112.69999349	0.00000000	-77.47908000	-19.03912000
112.89999347	0.00000000	-77.52214000	-19.36516000
113.09999346	0.00000000	-77.89738000	-20.10950000
113.29999345	0.00000000	-78.64173000	-20.52780000
113.49999344	0.00000000	-79.01697000	-20.94611000
113.69999343	0.00000000	-79.06004000	-21.68430000
113.89999341	0.00000000	-79.06004000	-22.05955000
114.09999340	0.00000000	-79.06004000	-22.10261000
114.29999339	0.00000000	-79.06004000	-22.10261000
114.49999338	0.00000000	-79.06004000	-22.14567000
114.69999337	0.00000000	-79.06004000	-22.52091000
114.89999336	0.00000000	-79.06004000	-23.26525000
115.09999334	0.00000000	-79.06004000	-23.59129000
115.29999333	0.00000000	-79.06004000	-23.26525000
115.49999332	0.00000000	-79.06004000	-22.47785000
115.69999331	0.00000000	-79.06004000	-21.72736000
115.89999330	0.00000000	-79.06004000	-20.94611000
116.09999328	0.00000000	-79.06004000	-20.52780000
116.29999327	0.00000000	-79.06004000	-20.10950000
116.49999326	0.00000000	-79.06004000	-19.41437000
116.69999325	0.00000000	-79.06004000	-19.41437000
116.89999324	0.00000000	-79.06004000	-20.15256000
117.09999322	0.00000000	-79.01697000	-20.90305000
117.29999321	0.00000000	-78.64173000	-21.72736000
117.49999320	0.00000000	-77.85432000	-22.47785000
117.69999319	0.00000000	-77.14690000	-23.26525000
117.89999318	0.00000000	-76.73474000	-23.64050000
118.09999317	0.00000000	-77.10384000	-23.64050000
118.29999315	0.00000000	-77.47908000	-23.26525000
118.49999314	0.00000000	-77.94660000	-22.47785000
118.69999313	0.00000000	-79.06004000	-21.68430000
118.89999312	0.00000000	-80.17347000	-20.52780000
119.09999311	0.00000000	-80.59792000	-19.41437000
119.29999309	0.00000000	-80.64099000	-18.98991000
119.49999308	0.00000000	-80.59792000	-18.98991000
119.69999307	0.00000000	-80.22269000	-19.36516000
119.89999306	0.00000000	-79.43528000	-20.10950000
120.09999305	0.00000000	-78.64173000	-20.52780000
120.29999303	0.00000000	-77.47908000	-20.94611000
120.49999302	0.00000000	-76.36565000	-21.68430000
120.69999301	0.00000000	-75.94118000	-22.05955000
120.89999300	0.00000000	-75.94118000	-22.10261000
121.09999299	0.00000000	-76.36565000	-22.10261000
121.29999298	0.00000000	-77.52214000	-22.10261000
121.49999296	0.00000000	-79.01697000	-22.05955000
121.69999295	0.00000000	-80.22269000	-21.68430000
121.89999294	0.00000000	-81.01624000	-20.94611000
122.09999293	0.00000000	-81.75443000	-20.57087000
122.29999292	0.00000000	-81.71136000	-20.52780000
122.49999290	0.00000000	-80.64099000	-20.52780000
122.69999289	0.00000000	-79.47834000	-20.52780000
122.89999288	0.00000000	-78.64173000	-20.52780000
123.09999287	0.00000000	-77.47908000	-20.52780000
123.29999286	0.00000000	-76.36565000	-20.57087000
123.49999284	0.00000000	-75.94118000	-20.94611000
123.69999283	0.00000000	-75.94118000	-21.68430000
123.89999282	0.00000000	-76.31644000	-22.05955000
124.09999281	0.00000000	-77.10384000	-22.10261000
124.29999280	0.00000000	-77.85432000	-22.10261000
124.49999279	0.00000000	-78.68478000	-22.10261000
124.69999277	0.00000000	-79.43528000	-22.10261000
124.89999276	0.00000000	-80.22269000	-22.05955000
125.09999275	0.00000000	-80.59792000	-21.68430000
125.29999274	0.00000000	-80.59792000	-20.94611000
125.49999273	0.00000000	-80.22269000	-20.57087000
125.69999271	0.00000000	-79.43528000	-20.52780000
125.89999270	0.00000000	-78.64173000	-20.52780000
126.09999269	0.00000000	-77.47908000	-20.52780000
126.29999268	0.00000000	-76.36565000	-20.52780000
126.49999267	0.00000000	-75.94118000	-20.57087000
126.69999265	0.00000000	-75.94118000	-20.94611000
126.89999264	0.00000000	-76.31644000	-21.68430000
127.09999263	0.00000000	-77.10384000	-22.05955000
127.29999262	0.00000000	-77.89738000	-22.10261000
127.49999261	0.00000000	-79.06004000	-22.10261000
127.69999260	0.00000000	-80.17347000	-22.10261000
127.89999258	0.00000000	-80.54871000	-22.05955000
128.09999257	0.00000000	-80.22269000	-21.68430000
128.29999256	0.00000000	-79.43528000	-20.94611000
128.49999255	0.00000000	-78.68478000	-20.57087000
128.69999254	0.00000000	-77.89738000	-20.52780000
128.89999252	0.00000000	-77.47908000	-20.52780000
129.09999251	0.00000000	-77.10384000	-20.52780000
129.29999250	0.00000000	-76.73474000	-20.57087000
129.49999249	0.00000000	-77.14690000	-20.94611000
129.69999248	0.00000000	-77.85432000	-21.68430000
129.89999246	0.00000000	-78.68478000	-22.05955000
130.09999245	0.00000000	-79.43528000	-22.10261000
130.29999244	0.00000000	-80.17347000	-22.05955000
130.49999243	0.00000000	-80.17347000	-21.68430000
130.69999242	0.00000000	-79.43528000	-20.94611000
130.89999241	0.00000000	-78.68478000	-20.57087000
131.09999239	0.00000000	-77.85432000	-20.52780000
131.29999238	0.00000000	-77.14690000	-20.57087000
131.49999237	0.00000000	-76.73474000	-20.94611000
131.69999236	0.00000000	-77.10384000	-21.68430000
131.89999235	0.00000000	-77.47908000	-22.05955000
132.09999233	0.00000000	-77.89738000	-22.10261000
132.29999232	0.00000000	-78.64173000	-22.10261000
132.49999231	0.00000000	-79.01697000	-22.05955000
132.69999230	0.00000000	-79.06004000	-21.68430000
132.89999229	0.00000000	-79.06004000	-20.94611000
133.09999227	0.00000000	-79.06004000	-20.52780000
133.29999226	0.00000000	-79.01697000	-20.15256000
133.49999225	0.00000000	-78.64173000	-19.74040000
133.69999224	0.00000000	-77.89738000	-19.77731000
133.89999223	0.00000000	-77.57135000	-19.74040000
134.09999222	0.00000000	-77.89738000	-20.19562000
134.29999220	0.00000000	-78.64173000	-20.90305000
134.49999219	0.00000000	-78.96776000	-21.68430000
134.69999218	0.00000000	-78.64173000	-22.10261000
134.89999217	0.00000000	-77.89738000	-22.52091000
135.09999216	0.00000000	-77.52214000	-23.21604000
135.29999214	0.00000000	-77.47908000	-23.21604000
135.49999213	0.00000000	-77.47908000	-22.47785000
135.69999212	0.00000000	-77.52214000	-21.72736000
135.89999211	0.00000000	-77.89738000	-20.90305000
136.09999210	0.00000000	-78.64173000	-20.15256000
136.29999208	0.00000000	-79.06004000	-19.36516000
136.49999207	0.00000000	-79.43528000	-19.03912000
136.69999206	0.00000000	-79.80437000	-19.36516000
136.89999205	0.00000000	-79.43528000	-20.15256000
137.09999204	0.00000000	-79.06004000	-20.90305000
137.29999203	0.00000000	-78.64173000	-21.68430000
137.49999201	0.00000000	-77.85432000	-22.05955000
137.69999200	0.00000000	-77.10384000	-22.10261000
137.89999199	0.00000000	-76.36565000	-22.10261000
138.09999198	0.00000000	-76.36565000	-22.10261000
138.29999197	0.00000000	-77.10384000	-22.10261000
138.49999195	0.00000000	-77.85432000	-22.05955000
138.69999194	0.00000000	-78.64173000	-21.68430000
138.89999193	0.00000000	-79.01697000	-20.90305000
139.09999192	0.00000000	-79.06004000	-20.15256000
139.29999191	0.00000000	-79.06004000	-19.36516000
139.49999189	0.00000000	-79.01697000	-19.03912000
139.69999188	0.00000000	-78.64173000	-19.36516000
139.89999187	0.00000000	-77.89738000	-20.10950000
140.09999186	0.00000000	-77.52214000	-20.52780000
140.29999185	0.00000000	-77.47908000	-20.94611000
140.49999184	0.00000000	-77.47908000	-21.72736000
140.69999182	0.00000000	-77.47908000	-22.47785000
140.89999181	0.00000000	-77.52214000	-23.21604000
141.09999180	0.00000000	-77.89738000	-23.21604000
141.29999179	0.00000000	-78.64173000	-22.47785000
141.49999178	0.00000000	-79.01697000	-21.72736000
141.69999176	0.00000000	-79.06004000	-20.90305000
141.89999175	0.00000000	-79.01697000	-20.15256000
142.09999174	0.00000000	-78.64173000	-19.36516000
142.29999173	0.00000000	-77.89738000	-18.98991000
142.49999172	0.00000000	-77.52214000	-18.98991000
142.69999170	0.00000000	-77.47908000	-19.36516000
142.89999169	0.00000000	-77.47908000	-20.15256000
143.09999168	0.00000000	-77.52214000	-20.90305000
143.29999167	0.00000000	-77.89738000	-21.72736000
143.49999166	0.00000000	-78.64173000	-22.43479000
143.69999165	0.00000000	-79.01697000	-22.84695000
143.89999163	0.00000000	-79.01697000	-22.47785000
144.09999162	0.00000000	-78.64173000	-22.10261000
144.29999161	0.00000000	-77.89738000	-21.68430000
144.49999160	0.00000000	-77.52214000	-20.94611000
144.69999159	0.00000000	-77.47908000	-20.52780000
144.89999157	0.00000000	-77.47908000	-20.10950000
145.09999156	0.00000000	-77.47908000	-19.41437000
145.29999155	0.00000000	-77.52214000	-19.41437000
145.49999154	0.00000000	-77.89738000	-20.15256000
145.69999153	0.00000000	-78.64173000	-20.90305000
145.89999151	0.00000000	-79.01697000	-21.68430000
146.09999150	0.00000000	-79.01697000	-22.05955000
146.29999149	0.00000000	-78.64173000	-22.10261000
146.49999148	0.00000000	-77.89738000	-22.10261000
146.69999147	0.00000000	-77.52214000	-22.10261000
146.89999146	0.00000000	-77.47908000	-22.05955000
147.09999144	0.00000000	-77.47908000	-21.68430000
147.29999143	0.00000000	-77.47908000	-20.94611000
147.49999142	0.00000000	-77.47908000	-20.52780000
147.69999141	0.00000000	-77.47908000	-20.15256000
147.89999140	0.00000000	-77.52214000	-19.78346000
148.09999138	0.00000000	-77.89738000	-20.19562000
148.29999137	0.00000000	-78.64173000	-20.90305000
148.49999136	0.00000000	-79.01697000	-21.64124000
148.69999135	0.00000000	-79.01697000	-21.68430000
148.89999134	0.00000000	-78.64173000	-21.36442000
149.09999132	0.00000000	-77.89738000	-21.72736000
149.29999131	0.00000000	-77.52214000	-22.05955000
149.49999130	0.00000000	-77.43602000	-22.05955000
149.69999129	0.00000000	-77.10384000	-21.68430000
149.89999128	0.00000000	-76.73474000	-20.94611000
150.09999127	0.00000000	-77.06077000	-20.57087000
150.29999125	0.00000000	-77.06077000	-20.52780000
150.49999124	0.00000000	-76.73474000	-20.52780000
150.69999123	0.00000000	-77.10384000	-20.52780000
150.89999122	0.00000000	-77.43602000	-20.52780000
151.09999121	0.00000000	-77.52214000	-20.52780000
151.29999119	0.00000000	-77.89738000	-20.52780000
151.49999118	0.00000000	-78.59251000	-20.52780000
151.69999117	0.00000000	-78.59251000	-20.52780000
151.89999116	0.00000000	-77.89738000	-20.57087000
152.09999115	0.00000000	-77.52214000	-20.90305000
152.29999113	0.00000000	-77.47908000	-21.26599000
152.49999112	0.00000000	-77.43602000	-20.90305000
152.69999111	0.00000000	-77.06077000	-20.57087000
152.89999110	0.00000000	-76.36565000	-20.52780000
153.09999109	0.00000000	-76.36565000	-20.52780000
153.29999108	0.00000000	-77.06077000	-20.52780000
153.49999106	0.00000000	-77.43602000	-20.52780000
153.69999105	0.00000000	-77.47908000	-20.48474000
153.89999104	0.00000000	-77.52214000	-20.15256000
154.09999103	0.00000000	-77.89738000	-19.78346000
154.29999102	0.00000000	-78.64173000	-20.19562000
154.49999100	0.00000000	-79.01697000	-20.85384000
154.69999099	0.00000000	-79.01697000	-21.26599000
154.89999098	0.00000000	-78.64173000	-20.94611000
155.09999097	0.00000000	-77.89738000	-20.98917000
155.29999096	0.00000000	-77.52214000	-21.68430000
155.49999094	0.00000000	-77.43602000	-22.05955000
155.69999093	0.00000000	-77.10384000	-22.05955000
155.89999092	0.00000000	-76.73474000	-21.68430000
156.09999091	0.00000000	-77.10384000	-20.94611000
156.29999090	0.00000000	-77.43602000	-20.57087000
156.49999089	0.00000000	-77.52214000	-20.52780000
156.69999087	0.00000000	-77.89738000	-20.48474000
156.89999086	0.00000000	-78.64173000	-20.15256000
157.09999085	0.00000000	-79.01697000	-19.78346000
157.29999084	0.00000000	-79.06004000	-20.15256000
157.49999083	0.00000000	-79.01697000	-20.48474000
157.69999081	0.00000000	-78.64173000	-20.57087000
157.89999080	0.00000000	-77.89738000	-20.90305000
158.09999079	0.00000000	-77.52214000	-21.30905000
158.29999078	0.00000000	-77.43602000	-21.32136000
158.49999077	0.00000000	-77.10384000	-21.68430000
158.69999075	0.00000000	-76.69167000	-21.64124000
158.89999074	0.00000000	-76.72858000	-20.94611000
159.09999073	0.00000000	-76.69167000	-20.57087000
159.29999072	0.00000000	-77.10384000	-20.52780000
159.49999071	0.00000000	-77.43602000	-20.48474000
159.69999070	0.00000000	-77.47908000	-20.15256000
159.89999068	0.00000000	-77.52214000	-19.74040000
160.09999067	0.00000000	-77.85432000	-19.77731000
160.29999066	0.00000000	-78.22342000	-19.74040000
160.49999065	0.00000000	-77.85432000	-20.15256000
160.69999064	0.00000000	-77.52214000	-20.48474000
160.89999062	0.00000000	-77.47908000	-20.57087000
161.09999061	0.00000000	-77.47908000	-20.94611000
161.29999060	0.00000000	-77.47908000	-21.68430000
161.49999059	0.00000000	-77.47908000	-22.01033000
161.69999058	0.00000000	-77.47908000	-21.68430000
161.89999056	0.00000000	-77.43602000	-20.94611000
162.09999055	0.00000000	-77.10384000	-20.57087000
162.29999054	0.00000000	-76.73474000	-20.52780000
162.49999053	0.00000000	-77.10384000	-20.52780000
162.69999052	0.00000000	-77.43602000	-20.52780000
162.89999051	0.00000000	-77.47908000	-20.52780000
163.09999049	0.00000000	-77.52214000	-20.57087000
163.29999048	0.00000000	-77.89738000	-20.94611000
163.49999047	0.00000000	-78.64173000	-21.64124000
163.69999046	0.00000000	-78.96776000	-21.64124000
163.89999045	0.00000000	-78.64173000	-20.98917000
164.09999043	0.00000000	-77.89738000	-20.98917000
164.29999042	0.00000000	-77.52214000	-21.64124000
164.49999041	0.00000000	-77.47908000	-21.68430000
164.69999040	0.00000000	-77.43602000	-21.32136000
164.89999039	0.00000000	-77.06077000	-21.30905000
165.09999037	0.00000000	-76.31644000	-20.90305000
165.29999036	0.00000000	-75.99039000	-20.57087000
165.49999035	0.00000000	-76.31644000	-20.52780000
165.69999034	0.00000000	-77.06077000	-20.52780000
165.89999033	0.00000000	-77.43602000	-20.52780000
166.09999032	0.00000000	-77.47908000	-20.52780000
166.29999030	0.00000000	-77.52214000	-20.52780000
166.49999029	0.00000000	-77.85432000	-20.52780000
166.69999028	0.00000000	-78.22342000	-20.52780000
166.89999027	0.00000000	-77.85432000	-20.52780000
167.09999026	0.00000000	-77.52214000	-20.52780000
167.29999024	0.00000000	-77.47908000	-20.52780000
167.49999023	0.00000000	-77.47908000	-20.52780000
167.69999022	0.00000000	-77.47908000	-20.52780000
167.89999021	0.00000000	-77.47908000	-20.57087000
168.09999020	0.00000000	-77.47908000	-20.90305000
168.29999018	0.00000000	-77.47908000	-21.26599000
168.49999017	0.00000000	-77.47908000	-20.90305000
168.69999016	0.00000000	-77.47908000	-20.57087000
168.89999015	0.00000000	-77.47908000	-20.52780000
169.09999014	0.00000000	-77.47908000	-20.52780000
169.29999013	0.00000000	-77.47908000	-20.52780000
169.49999011	0.00000000	-77.47908000	-20.52780000
169.69999010	0.00000000	-77.47908000	-20.52780000
169.89999009	0.00000000	-77.47908000	-20.52780000
170.09999008	0.00000000	-77.47908000	-20.52780000
170.29999007	0.00000000	-77.47908000	-20.52780000
170.49999005	0.00000000	-77.47908000	-20.52780000
170.69999004	0.00000000	-77.47908000	-20.52780000
170.89999003	0.00000000	-77.47908000	-20.52780000
171.09999002	0.00000000	-77.47908000	-20.52780000
171.29999001	0.00000000	-77.47908000	-20.52780000
171.49998999	0.00000000	-77.47908000	-20.52780000
171.69998998	0.00000000	-77.47908000	-20.52780000
171.89998997	0.00000000	-77.47908000	-20.52780000
172.09998996	0.00000000	-77.47908000	-20.52780000
172.29998995	0.00000000	-77.47908000	-20.52780000
172.49998994	0.00000000	-77.47908000	-20.52780000
172.69998992	0.00000000	-77.47908000	-20.52780000
172.89998991	0.00000000	-77.47908000	-20.52780000
173.09998990	0.00000000	-77.47908000	-20.52780000
173.29998989	0.00000000	-77.47908000	-20.52780000
173.49998988	0.00000000	-77.47908000	-20.52780000
173.69998986	0.00000000	-77.47908000	-20.52780000
173.89998985	0.00000000	-77.47908000	-20.52780000
174.09998984	0.00000000	-77.47908000	-20.52780000
174.29998983	0.00000000	-77.47908000	-20.52780000
174.49998982	0.00000000	-77.47908000	-20.52780000
174.69998980	0.00000000	-77.47908000	-20.52780000
174.89998979	0.00000000	-77.47908000	-20.52780000
175.09998978	0.00000000	-77.47908000	-20.52780000
175.29998977	0.00000000	-77.47908000	-20.52780000
175.49998976	0.00000000	-77.47908000	-20.52780000
175.69998975	0.00000000	-77.47908000	-20.52780000
175.89998973	0.00000000	-77.47908000	-20.52780000
176.09998972	0.00000000	-77.47908000	-20.52780000
176.29998971	0.00000000	-77.47908000	-20.52780000
176.49998970	0.00000000	-77.47908000	-20.52780000
176.69998969	0.00000000	-77.47908000	-20.52780000
176.89998967	0.00000000	-77.47908000	-20.52780000
177.09998966	0.00000000	-77.47908000	-20.52780000
177.29998965	0.00000000	-77.47908000	-20.52780000
177.49998964	0.00000000	-77.47908000	-20.52780000
177.69998963	0.00000000	-77.47908000	-20.52780000
177.89998961	0.00000000	-77.47908000	-20.52780000
178.09998960	0.00000000	-77.47908000	-20.52780000
178.29998959	0.00000000	-77.47908000	-20.52780000
178.49998958	0.00000000	-77.47908000	-20.52780000
178.69998957	0.00000000	-77.47908000	-20.52780000
178.89998956	0.00000000	-77.47908000	-20.52780000
179.09998954	0.00000000	-77.43602000	-20.52780000
179.29998953	0.00000000	-77.06077000	-20.52780000
179.49998952	0.00000000	-76.31644000	-20.52780000
179.69998951	0.00000000	-75.94118000	-20.52780000
179.89998950	0.00000000	-75.94118000	-20.52780000
180.09998948	0.00000000	-76.31644000	-20.52780000
180.29998947	0.00000000	-77.06077000	-20.52780000
180.49998946	0.00000000	-77.43602000	-20.52780000
180.69998945	0.00000000	-77.47908000	-20.52780000
180.89998944	0.00000000	-77.47908000	-20.52780000
181.09998942	0.00000000	-77.47908000	-20.52780000
181.29998941	0.00000000	-77.47908000	-20.48474000
181.49998940	0.00000000	-77.43602000	-20.15256000
181.69998939	0.00000000	-77.10384000	-19.78346000
181.89998938	0.00000000	-76.69167000	-20.15256000
182.09998937	0.00000000	-76.72858000	-20.48474000
182.29998935	0.00000000	-76.69167000	-20.52780000
182.49998934	0.00000000	-77.06077000	-20.52780000
182.69998933	0.00000000	-77.06077000	-20.52780000
182.89998932	0.00000000	-76.73474000	-20.52780000
183.09998931	0.00000000	-77.06077000	-20.52780000
183.29998929	0.00000000	-77.06077000	-20.52780000
183.49998928	0.00000000	-76.73474000	-20.52780000
183.69998927	0.00000000	-77.10384000	-20.52780000
183.89998926	0.00000000	-77.43602000	-20.52780000
184.09998925	0.00000000	-77.47908000	-20.52780000
184.29998923	0.00000000	-77.47908000	-20.52780000
184.49998922	0.00000000	-77.47908000	-20.52780000
184.69998921	0.00000000	-77.47908000	-20.52780000
184.89998920	0.00000000	-77.43602000	-20.48474000
185.09998919	0.00000000	-77.06077000	-20.15256000
185.29998918	0.00000000	-76.31644000	-19.78346000
185.49998916	0.00000000	-75.94118000	-20.15256000
185.69998915	0.00000000	-75.89813000	-20.52780000
185.89998914	0.00000000	-75.89813000	-20.90305000
186.09998913	0.00000000	-75.89813000	-21.26599000
186.29998912	0.00000000	-75.94118000	-20.94611000
186.49998910	0.00000000	-76.31644000	-20.94611000
186.69998909	0.00000000	-77.06077000	-21.26599000
186.89998908	0.00000000	-77.43602000	-20.90305000
187.09998907	0.00000000	-77.47908000	-20.57087000
187.29998906	0.00000000	-77.47908000	-20.52780000
187.49998904	0.00000000	-77.47908000	-20.48474000
187.69998903	0.00000000	-77.47908000	-20.15256000
187.89998902	0.00000000	-77.43602000	-19.78346000
188.09998901	0.00000000	-77.10384000	-20.15256000
188.29998900	0.00000000	-76.69167000	-20.48474000
188.49998899	0.00000000	-76.68553000	-20.57087000
188.69998897	0.00000000	-76.27337000	-20.94611000
188.89998896	0.00000000	-75.99039000	-21.64124000
189.09998895	0.00000000	-76.31644000	-21.68430000
189.29998894	0.00000000	-77.06077000	-21.32136000
189.49998893	0.00000000	-77.43602000	-21.30905000
189.69998891	0.00000000	-77.47908000	-20.90305000
189.89998890	0.00000000	-77.47908000	-20.57087000
190.09998889	0.00000000	-77.47908000	-20.52780000
190.29998888	0.00000000	-77.47908000	-20.52780000
190.49998887	0.00000000	-77.43602000	-20.52780000
190.69998885	0.00000000	-77.10384000	-20.52780000
190.89998884	0.00000000	-76.73474000	-20.52780000
191.09998883	0.00000000	-77.06077000	-20.52780000
191.29998882	0.00000000	-77.01156000	-20.52780000
191.49998881	0.00000000	-76.31644000	-20.52780000
191.69998880	0.00000000	-75.94118000	-20.52780000
191.89998878	0.00000000	-75.94118000	-20.52780000
192.09998877	0.00000000	-76.27337000	-20.52780000
192.29998876	0.00000000	-76.68553000	-20.52780000
192.49998875	0.00000000	-76.69167000	-20.52780000
192.69998874	0.00000000	-77.10384000	-20.52780000
192.89998872	0.00000000	-77.43602000	-20.52780000
193.09998871	0.00000000	-77.47908000	-20.52780000
193.29998870	0.00000000	-77.47908000	-20.52780000
193.49998869	0.00000000	-77.47908000	-20.52780000
193.69998868	0.00000000	-77.47908000	-20.52780000
193.89998866	0.00000000	-77.47908000	-20.48474000
194.09998865	0.00000000	-77.43602000	-20.15256000
194.29998864	0.00000000	-77.06077000	-19.78346000
194.49998863	0.00000000	-76.31644000	-20.15256000
194.69998862	0.00000000	-75.94118000	-20.48474000
194.89998861	0.00000000	-75.94118000	-20.52780000
195.09998859	0.00000000	-76.27337000	-20.52780000
195.29998858	0.00000000	-76.64246000	-20.52780000
195.49998857	0.00000000	-76.31644000	-20.52780000
195.69998856	0.00000000	-76.36565000	-20.52780000
195.89998855	0.00000000	-77.06077000	-20.52780000
196.09998853	0.00000000	-77.43602000	-20.52780000
