Time	Channel A	Channel B	Channel C
(us)	(V)	(mV)	(mV)

-4.49999956	0.00000000	-21.38902000	1.53174200
-4.29999957	0.00000000	-21.71506000	1.57480300
-4.09999958	0.00000000	-21.71506000	1.57480300
-3.89999959	0.00000000	-21.38902000	1.57480300
-3.69999960	0.00000000	-21.71506000	1.57480300
-3.49999962	0.00000000	-21.71506000	1.57480300
-3.29999963	0.00000000	-21.38902000	1.57480300
-3.09999964	0.00000000	-21.75812000	1.53174200
-2.89999965	0.00000000	-22.04109000	1.19955700
-2.69999966	0.00000000	-21.71506000	0.83661410
-2.49999968	0.00000000	-21.01993000	1.19955700
-2.29999969	0.00000000	-21.01993000	1.53174200
-2.09999970	0.00000000	-21.66585000	1.57480300
-1.89999971	0.00000000	-21.71506000	1.57480300
-1.69999972	0.00000000	-21.38902000	1.57480300
-1.49999973	0.00000000	-21.71506000	1.57480300
-1.29999975	0.00000000	-21.71506000	1.57480300
-1.09999976	0.00000000	-21.38902000	1.57480300
-0.89999977	0.00000000	-21.75812000	1.57480300
-0.69999978	0.00000000	-22.09030000	1.57480300
-0.49999979	0.00000000	-22.13336000	1.57480300
-0.29999981	0.31803640	-22.13336000	1.57480300
-0.09999982	0.63668800	-22.09030000	1.57480300
0.10000017	0.95533960	-21.75812000	1.53174200
0.30000016	0.95533960	-21.38902000	1.19955700
0.50000015	0.95533960	-21.75812000	0.83661410
0.70000013	0.31803640	-22.09030000	1.19955700
0.90000012	-0.47736220	-22.13336000	1.53174200
1.10000011	-1.43331700	-22.13336000	1.57480300
1.30000010	-2.22994600	-22.09030000	1.57480300
1.50000009	-2.70792300	-21.75812000	1.57480300
1.70000008	-2.54859700	-21.34596000	1.57480300
1.90000006	-1.43331700	-21.33981000	1.57480300
2.10000005	0.31803640	-20.92766000	1.57480300
2.30000004	2.38927200	-20.59547000	1.57480300
2.50000003	4.30056600	-20.59547000	1.57480300
2.70000002	5.25652100	-20.97072000	1.57480300
2.90000000	4.93786900	-21.71506000	1.53174200
3.09999999	3.18590100	-22.09030000	1.15649600
3.29999998	0.31803640	-22.13336000	0.41830710
3.49999997	-3.18590100	-22.09030000	0.09227362
3.69999996	-6.21247500	-21.71506000	0.41830710
3.89999994	-7.80511800	-20.97072000	1.15649600
4.09999993	-7.64579200	-20.59547000	1.53174200
4.29999992	-5.41584600	-20.55241000	1.57480300
4.49999991	-1.43331700	-20.55241000	1.57480300
4.69999990	3.02657500	-20.55241000	1.57480300
4.89999989	6.84916400	-20.59547000	1.57480300
5.09999987	9.07972400	-20.97072000	1.53174200
5.29999986	9.23905000	-21.71506000	1.15649600
5.49999985	6.84916400	-22.04109000	0.41830710
5.69999984	2.86724900	-21.75812000	0.04306102
5.89999983	-1.91129400	-21.38902000	0.00000000
6.09999981	-6.21247500	-21.75812000	0.04306102
6.29999980	-8.92039900	-22.04109000	0.41830710
6.49999979	-9.39837600	-21.71506000	1.15649600
6.69999978	-7.32714100	-20.97072000	1.53174200
6.89999977	-3.66326300	-20.59547000	1.57480300
7.09999975	0.47736220	-20.55241000	1.57480300
7.29999974	4.45989200	-20.59547000	1.57480300
7.49999973	7.16781500	-20.97072000	1.57480300
7.69999972	7.64579200	-21.71506000	1.53174200
7.89999971	6.37180100	-22.04109000	1.15649600
8.09999970	3.82258900	-21.75812000	0.46136810
8.29999968	0.47736220	-21.38902000	0.46136810
8.49999967	-2.54859700	-21.75812000	1.15649600
8.69999966	-4.61921700	-22.09030000	1.53174200
8.89999965	-5.25652100	-22.13336000	1.57480300
9.09999964	-4.45989200	-22.09030000	1.57480300
9.29999962	-2.86724900	-21.71506000	1.57480300
9.49999961	-0.79601380	-20.97072000	1.57480300
9.69999960	0.95533960	-20.64468000	1.57480300
9.89999959	2.07062000	-20.97072000	1.57480300
10.09999958	2.54859700	-21.71506000	1.57480300
10.29999956	2.22994600	-22.09030000	1.57480300
10.49999955	1.43331700	-22.09030000	1.57480300
10.69999954	0.63668800	-21.71506000	1.57480300
10.89999953	-0.15871060	-20.97072000	1.57480300
11.09999952	-0.79601380	-20.59547000	1.57480300
11.29999951	-0.95533960	-20.59547000	1.57480300
11.49999949	-0.95533960	-20.97072000	1.57480300
11.69999948	-0.79601380	-21.66585000	1.57480300
11.89999947	-0.47736220	-21.66585000	1.57480300
12.09999946	-0.15871060	-20.97072000	1.57480300
12.29999945	-0.15871060	-20.59547000	1.57480300
12.49999943	0.00000000	-20.55241000	1.57480300
12.69999942	0.00000000	-20.59547000	1.57480300
12.89999941	0.00000000	-20.92766000	1.57480300
13.09999940	0.00000000	-21.33981000	1.57480300
13.29999939	0.00000000	-21.30290000	1.57480300
13.49999937	0.00000000	-21.33981000	1.57480300
13.69999936	0.00000000	-20.97072000	1.57480300
13.89999935	0.00000000	-20.97072000	1.57480300
14.09999934	-0.15871060	-21.33981000	1.57480300
14.29999933	-0.15871060	-21.30290000	1.57480300
14.49999932	-0.15871060	-21.38287000	1.57480300
14.69999930	-0.15871060	-21.34596000	1.57480300
14.89999929	0.00000000	-21.71506000	1.57480300
15.09999928	0.00000000	-21.66585000	1.57480300
15.29999927	0.00000000	-20.97072000	1.57480300
15.49999926	0.00000000	-20.64468000	1.57480300
15.69999924	0.00000000	-20.92766000	1.57480300
15.89999923	0.00000000	-21.33981000	1.57480300
16.09999922	0.00000000	-21.30290000	1.57480300
16.29999921	0.00000000	-21.33981000	1.57480300
16.49999920	0.00000000	-20.92766000	1.57480300
16.69999919	-0.15871060	-20.55241000	1.57480300
16.89999917	-0.15871060	-20.13410000	1.57480300
17.09999916	0.00000000	-19.38976000	1.57480300
17.29999915	0.00000000	-19.01451000	1.57480300
17.49999914	0.00000000	-18.97145000	1.57480300
17.69999913	0.00000000	-19.01451000	1.57480300
17.89999911	0.00000000	-19.43897000	1.57480300
18.09999910	0.00000000	-20.59547000	1.53174200
18.29999909	0.00000000	-22.13336000	1.19955700
18.49999908	0.00000000	-23.71432000	0.83661410
18.69999907	-0.15871060	-25.25221000	1.19955700
18.89999905	0.00000000	-26.36565000	1.53174200
19.09999904	-0.15871060	-26.32259000	1.57480300
19.29999903	0.00000000	-24.78469000	1.57480300
19.49999902	0.00000000	-22.04109000	1.57480300
19.69999901	0.00000000	-18.55315000	1.57480300
19.89999900	0.00000000	-14.69611000	1.57480300
20.09999898	0.00000000	-11.62032000	1.57480300
20.29999897	0.00000000	-10.08243000	1.57480300
20.49999896	0.00000000	-10.54995000	1.57480300
20.69999895	0.00000000	-13.75492000	1.57480300
20.89999894	0.00000000	-19.90034000	1.57480300
21.09999892	0.00000000	-27.62057000	1.57480300
21.29999891	0.00000000	-34.60876000	1.57480300
21.49999890	0.00000000	-40.00369000	1.57480300
21.69999889	0.00000000	-42.18750000	1.57480300
21.89999888	0.00000000	-39.40084000	1.57480300
22.09999886	0.00000000	-31.62524000	1.57480300
22.29999885	0.00000000	-19.99877000	1.57480300
22.49999884	0.00000000	-6.92052100	1.57480300
22.69999883	0.00000000	4.23843500	1.57480300
22.89999882	0.00000000	10.38386000	1.57480300
23.09999881	0.00000000	9.92249000	1.61786400
23.29999879	0.00000000	2.06077700	1.99311000
23.49999878	0.00000000	-12.59842000	2.73745100
23.69999877	0.00000000	-30.73942000	3.11269700
23.89999876	0.00000000	-47.72391000	3.15575800
24.09999875	0.00000000	-60.05167000	3.11269700
24.29999873	0.00000000	-64.15477000	2.68823800
24.49999872	0.00000000	-57.96013000	1.53174200
24.69999871	0.00000000	-42.51968000	0.00000000
24.89999870	0.00000000	-21.62278000	-1.57480300
25.09999869	0.00000000	0.42445860	-3.11269700
25.29999867	0.00000000	18.89764000	-4.22613100
25.49999866	-0.15871060	28.85088000	-4.18307100
25.69999865	0.00000000	27.31914000	-2.64517700
25.89999864	0.00000000	14.53002000	0.09227362
26.09999863	0.00000000	-6.73597400	3.57406500
26.29999862	0.00000000	-32.18504000	7.47416300
26.49999860	0.00000000	-55.30880000	10.86983000
26.69999859	0.00000000	-70.38631000	12.77067000
26.89999858	0.00000000	-74.29256000	11.94021000
27.09999857	0.00000000	-66.15403000	8.50147600
27.29999856	0.00000000	-48.04995000	2.97736200
27.49999854	0.00000000	-24.08957000	-3.99237200
27.69999853	0.00000000	-0.12918310	-11.65723000
27.89999852	0.00000000	18.80536000	-17.37205000
28.09999851	0.00000000	28.48179000	-19.28519000
28.29999850	0.00000000	26.62401000	-16.91068000
28.49999848	0.00000000	14.70842000	-9.89788300
28.69999847	0.00000000	-4.26919300	0.51058070
28.89999846	0.00000000	-26.27953000	12.11860000
29.09999845	0.00000000	-46.33366000	22.52707000
29.29999844	0.00000000	-59.54109000	29.40452000
29.49999843	0.00000000	-63.54577000	30.52411000
29.69999841	0.00000000	-58.93824000	25.08612000
29.89999840	0.00000000	-46.93036000	14.21629000
30.09999839	0.00000000	-29.95201000	-0.46751960
30.29999838	0.00000000	-12.17397000	-15.88336000
30.49999837	0.00000000	2.57135800	-28.20497000
30.69999835	0.00000000	11.50344000	-34.75024000
30.89999834	0.00000000	13.12746000	-33.54453000
31.09999833	0.00000000	7.73252900	-24.66781000
31.29999832	0.00000000	-3.06348400	-9.99015700
31.49999831	0.00000000	-16.97219000	7.38804100
31.69999829	0.00000000	-30.51181000	23.60359000
31.89999828	0.00000000	-40.98179000	35.21776000
32.09999827	0.00000000	-46.46899000	39.86220000
32.29999826	0.00000000	-46.14296000	36.74950000
32.49999825	0.00000000	-41.11712000	26.29183000
32.69999824	0.00000000	-32.18504000	10.45152000
32.89999822	0.00000000	-21.06299000	-7.29576700
33.09999821	0.00000000	-10.96826000	-23.13607000
33.29999820	0.00000000	-3.98622000	-33.58760000
33.49999819	0.00000000	-0.87967510	-36.70644000
33.69999818	0.00000000	-2.78051200	-32.05585000
33.89999816	0.00000000	-8.50147600	-20.48474000
34.09999815	0.00000000	-16.22785000	-4.64443900
34.29999814	0.00000000	-24.36639000	11.94021000
34.49999813	0.00000000	-30.93012000	25.87352000
34.69999812	0.00000000	-34.79330000	34.00591000
34.89999810	0.00000000	-34.79330000	35.21161000
35.09999809	0.00000000	-31.02239000	29.36146000
35.29999808	0.00000000	-25.25221000	17.42126000
35.49999807	0.00000000	-19.06373000	2.04232300
35.69999806	0.00000000	-13.66880000	-12.59227000
35.89999805	0.00000000	-10.59301000	-23.04995000
36.09999803	0.00000000	-10.59301000	-27.31914000
36.29999802	0.00000000	-13.61959000	-24.66781000
36.49999801	0.00000000	-18.59621000	-16.21555000
36.69999800	0.00000000	-23.62205000	-4.26919300
36.89999799	0.00000000	-27.86048000	8.40920300
37.09999797	0.00000000	-30.13656000	18.39936000
37.29999796	0.00000000	-29.39222000	23.04995000
37.49999795	0.00000000	-26.36565000	21.55512000
37.69999794	0.00000000	-22.09030000	14.67766000
37.89999793	0.00000000	-17.48277000	4.73671200
38.09999791	0.00000000	-13.61959000	-5.25344500
38.29999790	0.00000000	-11.66339000	-12.54921000
38.49999789	0.00000000	-11.66339000	-15.24360000
38.69999788	0.00000000	-13.61959000	-12.54921000
38.89999787	0.00000000	-17.48277000	-5.29650500
39.09999786	0.00000000	-22.09030000	4.27534400
39.29999784	0.00000000	-26.36565000	13.01058000
39.49999783	0.00000000	-29.44143000	18.02411000
39.69999782	0.00000000	-30.64714000	17.61811000
39.89999781	0.00000000	-29.90280000	12.30930000
40.09999780	0.00000000	-27.90354000	3.48794300
40.29999778	0.00000000	-24.40945000	-5.71481200
40.49999777	0.00000000	-19.80807000	-13.05364000
40.69999776	0.00000000	-15.90182000	-16.86762000
40.89999775	0.00000000	-12.78297000	-15.70497000
41.09999774	0.00000000	-10.88213000	-9.94094400
41.29999772	0.00000000	-11.24508000	-1.11343500
41.49999771	0.00000000	-13.15822000	8.50147600
41.69999770	0.00000000	-16.32013000	16.16634000
41.89999769	0.00000000	-20.55241000	20.02337000
42.09999768	0.00000000	-24.78469000	18.86688000
42.29999767	0.00000000	-27.86048000	13.19513000
42.49999765	0.00000000	-29.10925000	5.11195900
42.69999764	0.00000000	-28.74015000	-2.97736200
42.89999763	0.00000000	-27.57136000	-9.56569900
43.09999762	0.00000000	-25.20300000	-13.01058000
43.29999761	0.00000000	-22.17643000	-12.68455000
43.49999759	0.00000000	-19.38976000	-8.87672100
43.69999758	0.00000000	-17.10753000	-3.15575800
43.89999757	0.00000000	-15.57579000	2.69439000
44.09999756	0.00000000	-15.90182000	7.71407400
44.29999755	0.00000000	-16.97219000	11.14665000
44.49999753	0.00000000	-17.76575000	11.56496000
44.69999752	0.00000000	-18.55315000	9.33809000
44.89999751	0.00000000	-18.92839000	5.89320800
45.09999750	0.00000000	-19.01451000	1.99311000
45.29999749	0.00000000	-19.43897000	-1.44562000
45.49999748	0.00000000	-20.59547000	-3.80782500
45.69999746	0.00000000	-22.17643000	-4.55831700
45.89999745	0.00000000	-24.18184000	-3.85088600
46.09999744	0.00000000	-26.83317000	-1.90698800
46.29999743	0.00000000	-29.10925000	0.37524600
46.49999742	0.00000000	-29.81053000	2.69439000
46.69999740	0.00000000	-28.64173000	4.22613100
46.89999739	0.00000000	-25.11688000	4.69365100
47.09999738	0.00000000	-20.08489000	4.69365100
47.29999737	0.00000000	-14.27165000	4.26919300
47.49999736	0.00000000	-8.92593500	3.06348400
47.69999734	0.00000000	-5.85014700	1.15649600
47.89999733	0.00000000	-5.89936000	-1.11343500
48.09999732	0.00000000	-9.43651600	-2.64517700
48.29999731	0.00000000	-16.36319000	-3.06348400
48.49999730	0.00000000	-24.82775000	-2.64517700
48.69999729	0.00000000	-32.56028000	-1.07037400
48.89999727	0.00000000	-37.95522000	1.58095500
49.09999726	0.00000000	-39.45005000	4.26919300
49.29999725	0.00000000	-36.33120000	6.22539300
49.49999724	0.00000000	-29.02313000	7.38188900
49.69999723	0.00000000	-19.38976000	7.38188900
49.89999721	0.00000000	-10.17470000	6.17618100
50.09999720	0.00000000	-3.61712600	3.85088600
50.29999719	0.00000000	-1.66092500	0.37524600
50.49999718	0.00000000	-4.31840500	-3.06348400
50.69999717	0.00000000	-10.54995000	-5.75787400
50.89999715	0.00000000	-19.38976000	-6.87130900
51.09999714	0.00000000	-28.59867000	-5.75787400
51.29999713	0.00000000	-35.12549000	-3.06348400
51.49999712	0.00000000	-37.49385000	0.41830710
51.69999711	0.00000000	-35.16855000	4.31840500
51.89999710	0.00000000	-29.06619000	7.75713500
52.09999708	0.00000000	-20.97072000	10.03322000
52.29999707	0.00000000	-13.29355000	10.03322000
52.49999706	0.00000000	-7.89862200	7.75713500
52.69999705	0.00000000	-6.36072800	4.31840500
52.89999704	0.00000000	-9.01205700	0.41830710
53.09999702	0.00000000	-14.73917000	-3.02042300
53.29999701	0.00000000	-21.66585000	-5.33956700
53.49999700	0.00000000	-27.86048000	-5.71481200
53.69999699	0.00000000	-32.09276000	-4.22613100
53.89999698	0.00000000	-33.21235000	-1.53174200
54.09999696	0.00000000	-30.51181000	1.53174200
54.29999695	0.00000000	-24.78469000	4.22613100
54.49999694	0.00000000	-17.90108000	5.75787400
54.69999693	0.00000000	-12.17397000	5.80093500
54.89999692	0.00000000	-9.43651600	4.64443900
55.09999691	0.00000000	-10.17470000	2.78051200
55.29999689	0.00000000	-13.61959000	0.87967510
55.49999688	0.00000000	-19.01451000	0.09227362
55.69999687	0.00000000	-24.74163000	0.09227362
55.89999686	0.00000000	-28.97392000	0.87967510
56.09999685	0.00000000	-30.55487000	2.78051200
56.29999683	0.00000000	-29.44143000	4.60137700
56.49999682	0.00000000	-26.36565000	5.33956700
56.69999681	0.00000000	-22.13336000	4.22613100
56.89999680	0.00000000	-17.85802000	1.90698800
57.09999679	0.00000000	-14.40699000	-0.79355310
57.29999677	0.00000000	-12.46309000	-3.85088600
57.49999676	0.00000000	-12.87525000	-5.71481200
57.69999675	0.00000000	-15.11442000	-5.71481200
57.89999674	0.00000000	-18.59621000	-3.76476400
58.09999673	0.00000000	-22.04109000	0.09227362
58.29999672	0.00000000	-24.78469000	4.69365100
58.49999670	0.00000000	-26.32259000	8.96284400
58.69999669	0.00000000	-26.32259000	11.98942000
58.89999668	0.00000000	-24.82775000	12.72761000
59.09999667	0.00000000	-22.50861000	10.35925000
59.29999666	0.00000000	-20.22022000	5.38262700
59.49999664	0.00000000	-18.27633000	-1.15649600
59.69999663	0.00000000	-17.48277000	-7.29576700
59.89999662	0.00000000	-17.43356000	-11.52190000
60.09999661	0.00000000	-17.85802000	-12.63533000
60.29999660	0.00000000	-19.01451000	-9.94094400
60.49999658	0.00000000	-20.50935000	-4.18307100
60.69999657	0.00000000	-21.66585000	3.11269700
60.89999656	0.00000000	-22.04109000	10.07628000
61.09999655	0.00000000	-21.71506000	15.09596000
61.29999654	0.00000000	-20.92766000	17.37205000
61.49999653	0.00000000	-20.17716000	15.79109000
61.69999651	0.00000000	-19.43897000	10.40846000
61.89999650	0.00000000	-19.43897000	2.73745100
62.09999649	0.00000000	-20.17716000	-5.33956700
62.29999648	0.00000000	-20.92766000	-11.52190000
62.49999647	0.00000000	-21.71506000	-14.63459000
62.69999645	0.00000000	-22.09030000	-14.21629000
62.89999644	0.00000000	-22.13336000	-9.94094400
63.09999643	0.00000000	-22.04109000	-2.69439000
63.29999642	0.00000000	-21.24754000	5.38262700
63.49999641	0.00000000	-19.38976000	11.94021000
63.69999639	0.00000000	-17.90108000	15.88336000
63.89999638	0.00000000	-17.43356000	16.63386000
64.09999637	0.00000000	-17.43356000	14.30241000
64.29999636	0.00000000	-17.85802000	8.91978400
64.49999635	0.00000000	-19.01451000	1.99311000
64.69999634	0.00000000	-20.55241000	-4.55831700
64.89999632	0.00000000	-22.09030000	-9.56569900
65.09999631	0.00000000	-23.20374000	-11.52190000
65.29999630	0.00000000	-23.20374000	-10.49459000
65.49999629	0.00000000	-22.09030000	-7.75713500
65.69999628	0.00000000	-20.59547000	-3.85703700
65.89999626	0.00000000	-19.43897000	1.15649600
66.09999625	0.00000000	-19.01451000	5.75787400
66.29999624	0.00000000	-19.01451000	8.91978400
66.49999623	0.00000000	-19.43897000	10.49459000
66.69999622	0.00000000	-20.59547000	10.53765000
66.89999620	0.00000000	-22.09030000	9.38115100
67.09999619	0.00000000	-23.24680000	7.43110200
67.29999618	0.00000000	-23.57899000	4.68750000
67.49999617	0.00000000	-22.82849000	1.58095500
67.69999616	0.00000000	-20.88459000	-1.53174200
67.89999615	0.00000000	-18.59621000	-4.26919300
68.09999613	0.00000000	-16.27707000	-6.22539300
68.29999612	0.00000000	-14.78223000	-7.33882900
68.49999611	0.00000000	-14.78223000	-6.96358300
68.69999610	0.00000000	-16.36319000	-5.01968500
68.89999609	0.00000000	-19.43897000	-2.27608300
69.09999607	0.00000000	-23.29601000	1.66707700
69.29999606	0.00000000	-26.74089000	6.21924200
69.49999605	0.00000000	-29.06619000	10.11934000
69.69999604	0.00000000	-29.39222000	12.40157000
69.89999603	0.00000000	-27.48524000	12.81373000
70.09999601	0.00000000	-23.62205000	10.82677000
70.29999600	0.00000000	-18.97145000	7.00664300
70.49999599	0.00000000	-14.32087000	1.95004900
70.69999598	0.00000000	-10.50689000	-3.06963600
70.89999597	0.00000000	-8.96899500	-7.33882900
71.09999596	0.00000000	-10.13164000	-9.94094400
71.29999594	0.00000000	-13.61959000	-9.56569900
71.49999593	0.00000000	-19.01451000	-6.17618100
71.69999592	0.00000000	-24.78469000	-1.57480300
71.89999591	0.00000000	-29.48450000	3.06963600
72.09999590	0.00000000	-32.55413000	6.96358300
72.29999588	0.00000000	-33.25541000	9.29502900
72.49999587	0.00000000	-30.55487000	10.07628000
72.69999586	0.00000000	-25.20300000	8.91978400
72.89999585	0.00000000	-19.06373000	6.26845500
73.09999584	0.00000000	-13.61959000	3.15575800
73.29999582	0.00000000	-10.13164000	0.09227362
73.49999581	0.00000000	-8.92593500	-2.18380900
73.69999580	0.00000000	-10.13164000	-2.60211600
73.89999579	0.00000000	-13.57652000	-1.53174200
74.09999578	0.00000000	-18.55315000	-0.04306102
74.29999577	0.00000000	-23.20374000	1.11343500
74.49999575	0.00000000	-26.74089000	1.53174200
74.69999574	0.00000000	-29.01698000	1.53174200
74.89999573	0.00000000	-29.01698000	1.11343500
75.09999572	0.00000000	-26.78395000	0.00000000
75.29999571	0.00000000	-23.71432000	-1.06422200
75.49999569	0.00000000	-20.59547000	-1.06422200
75.69999568	0.00000000	-17.85802000	0.09227362
75.89999567	0.00000000	-15.94488000	2.04232300
76.09999566	0.00000000	-15.15748000	4.73671200
76.29999565	0.00000000	-15.90182000	7.38188900
76.49999563	0.00000000	-17.39050000	8.87672100
76.69999562	0.00000000	-18.92839000	8.50147600
76.89999561	0.00000000	-20.08489000	6.13312000
77.09999560	0.00000000	-20.50935000	2.31914400
77.29999559	0.00000000	-20.55241000	-2.31914400
77.49999558	0.00000000	-20.55241000	-6.13312000
77.69999556	0.00000000	-20.55241000	-8.50147600
77.89999555	0.00000000	-20.59547000	-8.82750900
78.09999554	0.00000000	-20.97072000	-6.87746000
78.29999553	0.00000000	-21.75812000	-2.64517700
78.49999552	0.00000000	-22.50861000	2.73745100
78.69999550	0.00000000	-23.24680000	7.75713500
78.89999549	0.00000000	-23.16068000	11.61417000
79.09999548	0.00000000	-21.66585000	13.10285000
79.29999547	0.00000000	-19.38976000	11.65723000
79.49999546	0.00000000	-17.43356000	8.17544300
79.69999544	0.00000000	-15.90182000	3.90009800
79.89999543	0.00000000	-15.15748000	-1.15649600
80.09999542	0.00000000	-15.90182000	-5.71481200
80.29999541	0.00000000	-17.43356000	-8.45226300
80.49999540	0.00000000	-19.43897000	-8.87672100
80.69999539	0.00000000	-22.13336000	-7.33882900
80.89999537	0.00000000	-24.74163000	-4.22613100
81.09999536	0.00000000	-25.94734000	0.00000000
81.29999535	0.00000000	-25.57825000	4.22613100
81.49999534	0.00000000	-24.40945000	7.33882900
81.69999533	0.00000000	-22.04109000	8.96284400
81.89999531	0.00000000	-19.01451000	9.38115100
82.09999530	0.00000000	-16.32013000	8.96284400
82.29999529	0.00000000	-14.78223000	7.43110200
82.49999528	0.00000000	-14.78223000	5.11195900
82.69999527	0.00000000	-16.27707000	2.73745100
82.89999525	0.00000000	-18.55315000	0.00000000
83.09999524	0.00000000	-20.50935000	-2.69439000
83.29999523	0.00000000	-22.09030000	-4.64443900
83.49999522	0.00000000	-23.20374000	-5.80093500
83.69999521	0.00000000	-23.24680000	-5.75787400
83.89999520	0.00000000	-22.50861000	-4.22613100
84.09999518	0.00000000	-21.71506000	-1.48868100
84.29999517	0.00000000	-20.55241000	1.99311000
84.49999516	0.00000000	-19.43897000	5.85014700
84.69999515	0.00000000	-19.01451000	8.91978400
84.89999514	0.00000000	-18.97145000	10.49459000
85.09999512	0.00000000	-18.97145000	10.45152000
85.29999511	0.00000000	-18.97145000	8.54453700
85.49999510	0.00000000	-18.97145000	5.01968500
85.69999509	0.00000000	-18.97145000	0.78124990
85.89999508	0.00000000	-18.97145000	-3.85703700
86.09999506	0.00000000	-18.97145000	-7.25270600
86.29999505	0.00000000	-19.01451000	-8.45226300
86.49999504	0.00000000	-19.43897000	-7.29576700
86.69999503	0.00000000	-20.59547000	-4.22613100
86.89999502	0.00000000	-22.09030000	0.04306102
87.09999501	0.00000000	-23.24680000	4.69365100
87.29999499	0.00000000	-23.62205000	8.87672100
87.49999498	0.00000000	-23.24680000	11.18971000
87.69999497	0.00000000	-22.09030000	10.82677000
87.89999496	0.00000000	-20.55241000	8.54453700
88.09999495	0.00000000	-18.97145000	4.64443900
88.29999493	0.00000000	-17.48277000	0.04306102
88.49999492	0.00000000	-16.69537000	-4.18307100
88.69999491	0.00000000	-17.05832000	-6.87746000
88.89999490	0.00000000	-17.80881000	-7.24655500
89.09999489	0.00000000	-19.01451000	-5.33956700
89.29999487	0.00000000	-20.55241000	-1.48868100
89.49999486	0.00000000	-22.09030000	3.11269700
89.69999485	0.00000000	-23.20374000	7.38188900
89.89999484	0.00000000	-23.20374000	10.40846000
90.09999483	0.00000000	-22.09030000	11.14665000
90.29999482	0.00000000	-20.59547000	8.82750900
90.49999480	0.00000000	-19.43897000	4.31840500
90.69999479	0.00000000	-19.01451000	-0.69512790
90.89999478	0.00000000	-18.97145000	-4.60137700
91.09999477	0.00000000	-18.97145000	-7.29576700
91.29999476	0.00000000	-18.97145000	-7.99089500
91.49999474	0.00000000	-18.97145000	-5.67175200
91.69999473	0.00000000	-19.01451000	-1.11343500
91.89999472	0.00000000	-19.34670000	4.22613100
92.09999471	0.00000000	-19.71580000	8.45226300
92.29999470	0.00000000	-19.34670000	10.40846000
92.49999468	0.00000000	-19.06373000	10.03322000
92.69999467	0.00000000	-19.38976000	7.33882900
92.89999466	0.00000000	-20.17716000	3.11269700
93.09999465	0.00000000	-20.97072000	-1.48868100
93.29999464	0.00000000	-22.13336000	-5.33956700
93.49999463	0.00000000	-23.20374000	-7.24655500
93.69999461	0.00000000	-23.20374000	-6.87746000
93.89999460	0.00000000	-22.09030000	-4.14000900
94.09999459	0.00000000	-20.55241000	0.41830710
94.29999458	0.00000000	-18.97145000	5.33956700
94.49999457	0.00000000	-17.39050000	8.45226300
94.69999455	0.00000000	-15.85261000	9.29502900
94.89999454	0.00000000	-14.78223000	8.50147600
95.09999453	0.00000000	-15.15748000	5.75787400
95.29999452	0.00000000	-17.10753000	1.62401600
95.49999451	0.00000000	-19.76501000	-2.22687000
95.69999449	0.00000000	-22.92076000	-4.55831700
95.89999448	0.00000000	-25.57825000	-5.33956700
96.09999447	0.00000000	-27.48524000	-4.18307100
96.29999446	0.00000000	-27.43602000	-1.53174200
96.49999445	0.00000000	-25.20300000	1.58095500
96.69999444	0.00000000	-22.13336000	4.64443900
96.89999442	0.00000000	-18.97145000	6.92052100
97.09999441	0.00000000	-15.85261000	7.29576700
97.29999440	0.00000000	-13.15822000	5.85014700
97.49999439	0.00000000	-11.66339000	3.57406500
97.69999438	0.00000000	-12.03863000	1.62401600
97.89999436	0.00000000	-14.36393000	0.04306102
98.09999435	0.00000000	-17.80881000	-1.06422200
98.29999434	0.00000000	-21.71506000	-1.11343500
98.49999433	0.00000000	-25.15994000	-0.37524600
98.69999432	0.00000000	-27.52830000	0.41830710
98.89999430	0.00000000	-28.27879000	1.57480300
99.09999429	0.00000000	-27.48524000	2.68823800
99.29999428	0.00000000	-24.78469000	3.11269700
99.49999427	0.00000000	-20.97072000	3.15575800
99.69999426	0.00000000	-17.48277000	3.15575800
99.89999425	0.00000000	-14.69611000	3.15575800
100.09999423	0.00000000	-12.78297000	3.19881900
100.29999422	0.00000000	-12.03863000	3.57406500
100.49999421	0.00000000	-13.20128000	4.26919300
100.69999420	0.00000000	-15.85261000	4.26919300
100.89999419	0.00000000	-18.97145000	3.48794300
101.09999417	0.00000000	-22.09030000	2.31914400
101.29999416	0.00000000	-24.78469000	0.37524600
101.49999415	0.00000000	-26.32259000	-1.48868100
101.69999414	0.00000000	-26.36565000	-2.68823800
101.89999413	0.00000000	-25.20300000	-3.02042300
102.09999411	0.00000000	-23.29601000	-2.22687000
102.29999410	0.00000000	-20.92766000	0.04306102
102.49999409	0.00000000	-18.59621000	2.73745100
102.69999408	0.00000000	-16.27707000	5.06274600
102.89999407	0.00000000	-14.78223000	7.01279500
103.09999406	0.00000000	-14.73917000	7.75713500
103.29999404	0.00000000	-15.85261000	7.33882900
103.49999403	0.00000000	-17.43356000	5.38262700
103.69999402	0.00000000	-19.38976000	1.99311000
103.89999401	0.00000000	-21.66585000	-1.07037400
104.09999400	0.00000000	-23.24680000	-3.06348400
104.29999398	0.00000000	-24.04650000	-4.22613100
104.49999397	0.00000000	-24.40945000	-4.18307100
104.69999396	0.00000000	-23.62205000	-2.64517700
104.89999395	0.00000000	-22.13336000	0.04306102
105.09999394	0.00000000	-20.55241000	3.11269700
105.29999392	0.00000000	-19.01451000	5.80093500
105.49999391	0.00000000	-17.85802000	7.33882900
105.69999390	0.00000000	-17.48277000	7.33882900
105.89999389	0.00000000	-17.85802000	5.80093500
106.09999388	0.00000000	-18.97145000	3.15575800
106.29999387	0.00000000	-20.13410000	0.46751960
106.49999385	0.00000000	-20.92766000	-1.48868100
106.69999384	0.00000000	-21.66585000	-2.64517700
106.89999383	0.00000000	-21.66585000	-2.60211600
107.09999382	0.00000000	-20.92766000	-1.11343500
107.29999381	0.00000000	-20.17716000	1.15649600
107.49999379	0.00000000	-19.34670000	3.06348400
107.69999378	0.00000000	-18.63927000	4.26919300
107.89999377	0.00000000	-18.22711000	4.64443900
108.09999376	0.00000000	-18.63927000	4.26919300
108.29999375	0.00000000	-19.38976000	3.06348400
108.49999374	0.00000000	-20.55241000	1.20570900
108.69999372	0.00000000	-21.66585000	-0.69512790
108.89999371	0.00000000	-22.09030000	-1.43946800
109.09999370	0.00000000	-22.09030000	-1.15649600
109.29999369	0.00000000	-21.66585000	-0.32603340
109.49999368	0.00000000	-20.50935000	0.83661410
109.69999366	0.00000000	-19.01451000	2.73745100
109.89999365	0.00000000	-17.85802000	4.22613100
110.09999364	0.00000000	-17.43356000	4.69365100
110.29999363	0.00000000	-17.43356000	4.69365100
110.49999362	0.00000000	-17.85802000	4.26919300
110.69999360	0.00000000	-18.97145000	3.11269700
110.89999359	0.00000000	-20.13410000	1.57480300
111.09999358	0.00000000	-20.88459000	0.04306102
111.29999357	0.00000000	-21.33981000	-1.11343500
111.49999356	0.00000000	-21.30290000	-1.48253000
111.69999355	0.00000000	-21.33981000	-1.11343500
111.89999353	0.00000000	-20.88459000	0.00000000
112.09999352	0.00000000	-20.17716000	1.15649600
112.29999351	0.00000000	-19.38976000	1.95004900
112.49999350	0.00000000	-19.01451000	2.73745100
112.69999349	0.00000000	-18.97145000	3.11269700
112.89999347	0.00000000	-18.97145000	3.15575800
113.09999346	0.00000000	-19.01451000	3.15575800
113.29999345	0.00000000	-19.34670000	3.11269700
113.49999344	0.00000000	-19.75886000	2.73745100
113.69999343	0.00000000	-19.76501000	1.99311000
113.89999341	0.00000000	-20.17716000	1.61786400
114.09999340	0.00000000	-20.50935000	1.53174200
114.29999339	0.00000000	-20.55241000	1.15649600
114.49999338	0.00000000	-20.55241000	0.41830710
114.69999337	0.00000000	-20.55241000	0.04306102
114.89999336	0.00000000	-20.50935000	0.00000000
115.09999334	0.00000000	-20.17716000	0.00000000
115.29999333	0.00000000	-19.76501000	0.04306102
115.49999332	0.00000000	-19.75886000	0.41830710
115.69999331	0.00000000	-19.38976000	1.19955700
115.89999330	0.00000000	-19.43897000	1.95004900
116.09999328	0.00000000	-20.13410000	2.73745100
116.29999327	0.00000000	-20.50935000	3.11269700
116.49999326	0.00000000	-20.55241000	3.15575800
116.69999325	0.00000000	-20.55241000	3.15575800
116.89999324	0.00000000	-20.55241000	3.11269700
117.09999322	0.00000000	-20.50935000	2.68823800
117.29999321	0.00000000	-20.13410000	1.57480300
117.49999320	0.00000000	-19.38976000	0.46136810
117.69999319	0.00000000	-18.97145000	0.04306102
117.89999318	0.00000000	-18.55315000	0.00000000
118.09999317	0.00000000	-17.85802000	0.00000000
118.29999315	0.00000000	-17.85802000	0.04306102
118.49999314	0.00000000	-18.59621000	0.46136810
118.69999313	0.00000000	-19.34670000	1.57480300
118.89999312	0.00000000	-20.17716000	2.73745100
119.09999311	0.00000000	-20.92766000	3.53100400
119.29999309	0.00000000	-21.71506000	4.26919300
119.49999308	0.00000000	-22.04109000	4.26919300
119.69999307	0.00000000	-21.71506000	3.57406500
119.89999306	0.00000000	-20.92766000	3.15575800
120.09999305	0.00000000	-20.13410000	2.73745100
120.29999303	0.00000000	-18.97145000	1.95004900
120.49999302	0.00000000	-17.80881000	1.19955700
120.69999301	0.00000000	-17.05832000	0.41830710
120.89999300	0.00000000	-16.69537000	0.04306102
121.09999299	0.00000000	-17.43356000	0.00000000
121.29999298	0.00000000	-18.55315000	0.04306102
121.49999296	0.00000000	-19.38976000	0.41830710
121.69999295	0.00000000	-20.55241000	1.15649600
121.89999294	0.00000000	-21.66585000	1.53174200
122.09999293	0.00000000	-22.09030000	1.61786400
122.29999292	0.00000000	-22.09030000	1.99311000
122.49999290	0.00000000	-21.71506000	2.73745100
122.69999289	0.00000000	-20.92766000	3.11269700
122.89999288	0.00000000	-20.13410000	3.15575800
123.09999287	0.00000000	-18.97145000	3.15575800
123.29999286	0.00000000	-17.85802000	3.11269700
123.49999284	0.00000000	-17.43356000	2.73745100
123.69999283	0.00000000	-17.39050000	1.99311000
123.89999282	0.00000000	-17.43356000	1.57480300
124.09999281	0.00000000	-17.85802000	1.15649600
124.29999280	0.00000000	-18.97145000	0.46136810
124.49999279	0.00000000	-20.13410000	0.41830710
124.69999277	0.00000000	-20.92766000	0.78124990
124.89999276	0.00000000	-21.71506000	0.79355310
125.09999275	0.00000000	-22.09030000	1.19955700
125.29999274	0.00000000	-22.09030000	1.57480300
125.49999273	0.00000000	-21.71506000	1.99311000
125.69999271	0.00000000	-20.92766000	2.73745100
125.89999270	0.00000000	-20.13410000	3.11269700
126.09999269	0.00000000	-18.97145000	3.15575800
126.29999268	0.00000000	-17.85802000	3.15575800
126.49999267	0.00000000	-17.43356000	3.11269700
126.69999265	0.00000000	-17.43356000	2.73745100
126.89999264	0.00000000	-17.80881000	1.99311000
127.09999263	0.00000000	-18.59621000	1.61786400
127.29999262	0.00000000	-19.34670000	1.57480300
127.49999261	0.00000000	-20.17716000	1.53174200
127.69999260	0.00000000	-20.92766000	1.19955700
127.89999258	0.00000000	-21.66585000	0.83661410
128.09999257	0.00000000	-21.66585000	1.19955700
128.29999256	0.00000000	-20.92766000	1.57480300
128.49999255	0.00000000	-20.13410000	1.95004900
128.69999254	0.00000000	-18.97145000	2.36220500
128.89999252	0.00000000	-17.85802000	2.32529500
129.09999251	0.00000000	-17.43356000	2.36220500
129.29999250	0.00000000	-17.43356000	1.95004900
129.49999249	0.00000000	-17.85802000	1.61786400
129.69999248	0.00000000	-18.97145000	1.57480300
129.89999246	0.00000000	-20.13410000	1.57480300
130.09999245	0.00000000	-20.92766000	1.57480300
130.29999244	0.00000000	-21.66585000	1.61786400
130.49999243	0.00000000	-21.66585000	1.99311000
130.69999242	0.00000000	-20.92766000	2.73745100
130.89999241	0.00000000	-20.17716000	3.11269700
131.09999239	0.00000000	-19.34670000	3.15575800
131.29999238	0.00000000	-18.59621000	3.11269700
131.49999237	0.00000000	-17.85802000	2.73745100
131.69999236	0.00000000	-17.85802000	1.95004900
131.89999235	0.00000000	-18.55315000	1.24877000
132.09999233	0.00000000	-18.97145000	0.79355310
132.29999232	0.00000000	-19.38976000	0.78124990
132.49999231	0.00000000	-20.13410000	0.41830710
132.69999230	0.00000000	-20.50935000	0.46136810
132.89999229	0.00000000	-20.55241000	1.19955700
133.09999227	0.00000000	-20.50935000	1.95004900
133.29999226	0.00000000	-20.17716000	2.73745100
133.49999225	0.00000000	-19.76501000	3.11269700
133.69999224	0.00000000	-19.75886000	3.15575800
133.89999223	0.00000000	-19.34670000	3.11269700
134.09999222	0.00000000	-19.06373000	2.73745100
134.29999220	0.00000000	-19.34670000	1.95004900
134.49999219	0.00000000	-19.71580000	1.19955700
134.69999218	0.00000000	-19.34670000	0.41830710
134.89999217	0.00000000	-19.01451000	0.04306102
135.09999216	0.00000000	-18.97145000	0.00000000
135.29999214	0.00000000	-18.97145000	0.04306102
135.49999213	0.00000000	-18.97145000	0.41830710
135.69999212	0.00000000	-18.97145000	1.19955700
135.89999211	0.00000000	-19.01451000	1.95004900
136.09999210	0.00000000	-19.38976000	2.78051200
136.29999208	0.00000000	-20.13410000	3.48794300
136.49999207	0.00000000	-20.50935000	3.90009800
136.69999206	0.00000000	-20.55241000	3.48794300
136.89999205	0.00000000	-20.50935000	2.78051200
137.09999204	0.00000000	-20.13410000	1.99311000
137.29999203	0.00000000	-19.34670000	1.61786400
137.49999201	0.00000000	-18.59621000	1.53174200
137.69999200	0.00000000	-17.80881000	1.15649600
137.89999199	0.00000000	-17.48277000	0.41830710
138.09999198	0.00000000	-17.80881000	0.04306102
138.29999197	0.00000000	-18.59621000	0.04306102
138.49999195	0.00000000	-19.34670000	0.41830710
138.69999194	0.00000000	-20.13410000	1.15649600
138.89999193	0.00000000	-20.50935000	1.57480300
139.09999192	0.00000000	-20.55241000	1.99311000
139.29999191	0.00000000	-20.55241000	2.73745100
139.49999189	0.00000000	-20.50935000	3.11269700
139.69999188	0.00000000	-20.13410000	3.15575800
139.89999187	0.00000000	-19.38976000	3.11269700
140.09999186	0.00000000	-19.01451000	2.73745100
140.29999185	0.00000000	-18.97145000	1.99311000
140.49999184	0.00000000	-18.92839000	1.57480300
140.69999182	0.00000000	-18.59621000	1.15649600
140.89999181	0.00000000	-18.27633000	0.41830710
141.09999180	0.00000000	-19.01451000	0.04306102
141.29999179	0.00000000	-20.08489000	0.04306102
141.49999178	0.00000000	-20.50935000	0.46136810
141.69999176	0.00000000	-20.50935000	1.57480300
141.89999175	0.00000000	-20.13410000	2.68823800
142.09999174	0.00000000	-19.38976000	3.11269700
142.29999173	0.00000000	-19.01451000	3.15575800
142.49999172	0.00000000	-18.97145000	3.15575800
142.69999170	0.00000000	-18.97145000	3.11269700
142.89999169	0.00000000	-18.97145000	2.73745100
143.09999168	0.00000000	-18.97145000	1.95004900
143.29999167	0.00000000	-19.01451000	1.19955700
143.49999166	0.00000000	-19.38976000	0.41830710
143.69999165	0.00000000	-20.13410000	0.04306102
143.89999163	0.00000000	-20.46014000	0.04306102
144.09999162	0.00000000	-20.13410000	0.41830710
144.29999161	0.00000000	-19.38976000	1.19955700
144.49999160	0.00000000	-19.01451000	1.95004900
144.69999159	0.00000000	-18.97145000	2.73745100
144.89999157	0.00000000	-18.97145000	3.11269700
145.09999156	0.00000000	-18.97145000	3.15575800
145.29999155	0.00000000	-18.97145000	3.11269700
145.49999154	0.00000000	-19.01451000	2.73745100
145.69999153	0.00000000	-19.38976000	1.99311000
145.89999151	0.00000000	-20.13410000	1.57480300
146.09999150	0.00000000	-20.50935000	1.15649600
146.29999149	0.00000000	-20.50935000	0.41830710
146.49999148	0.00000000	-20.13410000	0.04306102
146.69999147	0.00000000	-19.38976000	0.04306102
146.89999146	0.00000000	-19.01451000	0.41830710
147.09999144	0.00000000	-18.97145000	1.19955700
147.29999143	0.00000000	-18.97145000	1.95004900
147.49999142	0.00000000	-18.97145000	2.73745100
147.69999141	0.00000000	-18.97145000	3.11269700
147.89999140	0.00000000	-18.97145000	3.15575800
148.09999138	0.00000000	-19.01451000	3.11269700
148.29999137	0.00000000	-19.38976000	2.73745100
148.49999136	0.00000000	-20.13410000	1.99311000
148.69999135	0.00000000	-20.50935000	1.61786400
148.89999134	0.00000000	-20.50935000	1.53174200
149.09999132	0.00000000	-20.13410000	1.19955700
149.29999131	0.00000000	-19.38976000	0.83661410
149.49999130	0.00000000	-19.01451000	1.19955700
149.69999129	0.00000000	-18.97145000	1.53174200
149.89999128	0.00000000	-18.97145000	1.57480300
150.09999127	0.00000000	-18.97145000	1.61786400
150.29999125	0.00000000	-18.97145000	1.99311000
150.49999124	0.00000000	-18.97145000	2.73745100
150.69999123	0.00000000	-19.01451000	3.11269700
150.89999122	0.00000000	-19.38976000	3.15575800
151.09999121	0.00000000	-20.13410000	3.11269700
151.29999119	0.00000000	-20.50935000	2.73745100
151.49999118	0.00000000	-20.50935000	1.99311000
151.69999117	0.00000000	-20.13410000	1.61786400
151.89999116	0.00000000	-19.38976000	1.57480300
152.09999115	0.00000000	-19.01451000	1.57480300
152.29999113	0.00000000	-18.97145000	1.57480300
152.49999112	0.00000000	-18.97145000	1.57480300
152.69999111	0.00000000	-18.97145000	1.57480300
152.89999110	0.00000000	-18.97145000	1.61786400
153.09999109	0.00000000	-18.97145000	1.95004900
153.29999108	0.00000000	-18.97145000	2.36220500
153.49999106	0.00000000	-18.97145000	2.36835600
153.69999105	0.00000000	-19.01451000	2.73745100
153.89999104	0.00000000	-19.38976000	2.73745100
154.09999103	0.00000000	-20.13410000	2.36835600
154.29999102	0.00000000	-20.50935000	2.36220500
154.49999100	0.00000000	-20.55241000	1.95004900
154.69999099	0.00000000	-20.50935000	1.61786400
154.89999098	0.00000000	-20.13410000	1.57480300
155.09999097	0.00000000	-19.34670000	1.57480300
155.29999096	0.00000000	-18.63927000	1.57480300
155.49999094	0.00000000	-18.22711000	1.57480300
155.69999093	0.00000000	-18.55315000	1.57480300
155.89999092	0.00000000	-18.55315000	1.57480300
156.09999091	0.00000000	-18.22711000	1.57480300
156.29999090	0.00000000	-18.59621000	1.61786400
156.49999089	0.00000000	-18.97145000	1.99311000
156.69999087	0.00000000	-19.38976000	2.73745100
156.89999086	0.00000000	-20.13410000	3.11269700
157.09999085	0.00000000	-20.50935000	3.15575800
157.29999084	0.00000000	-20.55241000	3.15575800
157.49999083	0.00000000	-20.50935000	3.11269700
157.69999081	0.00000000	-20.13410000	2.73745100
157.89999080	0.00000000	-19.38976000	1.99311000
158.09999079	0.00000000	-19.01451000	1.57480300
158.29999078	0.00000000	-18.92839000	1.19955700
158.49999077	0.00000000	-18.59621000	0.83661410
158.69999075	0.00000000	-18.22711000	1.19955700
158.89999074	0.00000000	-18.59621000	1.53174200
159.09999073	0.00000000	-18.92839000	1.61786400
159.29999072	0.00000000	-18.97145000	1.95004900
159.49999071	0.00000000	-18.97145000	2.36220500
159.69999070	0.00000000	-18.97145000	2.36835600
159.89999068	0.00000000	-19.01451000	2.78051200
160.09999067	0.00000000	-19.34670000	3.11269700
160.29999066	0.00000000	-19.71580000	3.11269700
160.49999065	0.00000000	-19.34670000	2.73745100
160.69999064	0.00000000	-19.01451000	1.99311000
160.89999062	0.00000000	-18.97145000	1.61786400
161.09999061	0.00000000	-18.97145000	1.57480300
161.29999060	0.00000000	-18.97145000	1.57480300
161.49999059	0.00000000	-18.97145000	1.57480300
161.69999058	0.00000000	-18.97145000	1.57480300
161.89999056	0.00000000	-18.97145000	1.57480300
162.09999055	0.00000000	-18.97145000	1.57480300
162.29999054	0.00000000	-18.97145000	1.57480300
162.49999053	0.00000000	-18.97145000	1.61786400
162.69999052	0.00000000	-18.97145000	1.99311000
162.89999051	0.00000000	-18.97145000	2.68823800
163.09999049	0.00000000	-19.01451000	2.68823800
163.29999048	0.00000000	-19.38976000	1.99311000
163.49999047	0.00000000	-20.13410000	1.61786400
163.69999046	0.00000000	-20.46014000	1.57480300
163.89999045	0.00000000	-20.13410000	1.57480300
164.09999043	0.00000000	-19.38976000	1.57480300
164.29999042	0.00000000	-19.01451000	1.57480300
164.49999041	0.00000000	-18.97145000	1.57480300
164.69999040	0.00000000	-18.97145000	1.57480300
164.89999039	0.00000000	-18.97145000	1.57480300
165.09999037	0.00000000	-18.97145000	1.57480300
165.29999036	0.00000000	-18.97145000	1.57480300
165.49999035	0.00000000	-18.97145000	1.57480300
165.69999034	0.00000000	-18.97145000	1.57480300
165.89999033	0.00000000	-18.97145000	1.57480300
166.09999032	0.00000000	-18.97145000	1.57480300
166.29999030	0.00000000	-19.01451000	1.57480300
166.49999029	0.00000000	-19.34670000	1.57480300
166.69999028	0.00000000	-19.71580000	1.57480300
166.89999027	0.00000000	-19.34670000	1.57480300
167.09999026	0.00000000	-19.01451000	1.57480300
167.29999024	0.00000000	-18.97145000	1.57480300
167.49999023	0.00000000	-18.97145000	1.57480300
167.69999022	0.00000000	-18.97145000	1.57480300
167.89999021	0.00000000	-18.97145000	1.57480300
168.09999020	0.00000000	-18.97145000	1.57480300
168.29999018	0.00000000	-18.97145000	1.61786400
168.49999017	0.00000000	-18.92839000	1.95004900
168.69999016	0.00000000	-18.59621000	2.36220500
168.89999015	0.00000000	-18.22711000	2.36835600
169.09999014	0.00000000	-18.59621000	2.73745100
169.29999013	0.00000000	-18.92839000	2.68823800
169.49999011	0.00000000	-18.97145000	1.99311000
169.69999010	0.00000000	-18.97145000	1.61786400
169.89999009	0.00000000	-18.97145000	1.57480300
170.09999008	0.00000000	-18.97145000	1.57480300
170.29999007	0.00000000	-18.97145000	1.57480300
170.49999005	0.00000000	-18.97145000	1.57480300
170.69999004	0.00000000	-18.97145000	1.57480300
170.89999003	0.00000000	-18.97145000	1.57480300
171.09999002	0.00000000	-18.97145000	1.57480300
171.29999001	0.00000000	-18.97145000	1.57480300
171.49998999	0.00000000	-18.97145000	1.57480300
171.69998998	0.00000000	-18.97145000	1.57480300
171.89998997	0.00000000	-18.97145000	1.57480300
172.09998996	0.00000000	-18.97145000	1.57480300
172.29998995	0.00000000	-18.97145000	1.57480300
172.49998994	0.00000000	-18.97145000	1.57480300
172.69998992	0.00000000	-18.97145000	1.57480300
172.89998991	0.00000000	-18.97145000	1.57480300
173.09998990	0.00000000	-18.97145000	1.57480300
173.29998989	0.00000000	-18.97145000	1.57480300
173.49998988	0.00000000	-18.97145000	1.57480300
173.69998986	0.00000000	-18.97145000	1.57480300
173.89998985	0.00000000	-18.97145000	1.57480300
174.09998984	0.00000000	-18.97145000	1.57480300
174.29998983	0.00000000	-18.97145000	1.57480300
174.49998982	0.00000000	-18.97145000	1.57480300
174.69998980	0.00000000	-18.97145000	1.57480300
174.89998979	0.00000000	-18.97145000	1.57480300
175.09998978	0.00000000	-18.97145000	1.57480300
175.29998977	0.00000000	-18.97145000	1.57480300
175.49998976	0.00000000	-18.97145000	1.57480300
175.69998975	0.00000000	-18.97145000	1.57480300
175.89998973	0.00000000	-18.97145000	1.61786400
176.09998972	0.00000000	-18.97145000	1.95004900
176.29998971	0.00000000	-18.97145000	2.31914400
176.49998970	0.00000000	-18.97145000	1.95004900
176.69998969	0.00000000	-18.97145000	1.61786400
176.89998967	0.00000000	-18.97145000	1.57480300
177.09998966	0.00000000	-18.97145000	1.57480300
177.29998965	0.00000000	-18.97145000	1.57480300
177.49998964	0.00000000	-18.97145000	1.57480300
177.69998963	0.00000000	-18.97145000	1.57480300
177.89998961	0.00000000	-18.97145000	1.57480300
178.09998960	0.00000000	-18.97145000	1.57480300
178.29998959	0.00000000	-18.97145000	1.57480300
178.49998958	0.00000000	-18.97145000	1.57480300
178.69998957	0.00000000	-18.97145000	1.57480300
178.89998956	0.00000000	-18.97145000	1.57480300
179.09998954	0.00000000	-18.97145000	1.57480300
179.29998953	0.00000000	-18.97145000	1.57480300
179.49998952	0.00000000	-18.97145000	1.57480300
179.69998951	0.00000000	-18.97145000	1.57480300
179.89998950	0.00000000	-18.97145000	1.57480300
180.09998948	0.00000000	-18.97145000	1.57480300
180.29998947	0.00000000	-18.97145000	1.57480300
180.49998946	0.00000000	-18.97145000	1.57480300
180.69998945	0.00000000	-18.97145000	1.57480300
180.89998944	0.00000000	-18.97145000	1.57480300
181.09998942	0.00000000	-18.97145000	1.57480300
181.29998941	0.00000000	-18.97145000	1.61786400
181.49998940	0.00000000	-18.97145000	1.95004900
181.69998939	0.00000000	-18.97145000	2.31914400
181.89998938	0.00000000	-18.97145000	1.99311000
182.09998937	0.00000000	-18.97145000	1.99311000
182.29998935	0.00000000	-18.97145000	2.31914400
182.49998934	0.00000000	-18.97145000	1.95004900
182.69998933	0.00000000	-18.97145000	1.61786400
182.89998932	0.00000000	-18.97145000	1.57480300
183.09998931	0.00000000	-18.97145000	1.57480300
183.29998929	0.00000000	-18.97145000	1.57480300
183.49998928	0.00000000	-18.97145000	1.57480300
183.69998927	0.00000000	-18.97145000	1.57480300
183.89998926	0.00000000	-18.97145000	1.57480300
184.09998925	0.00000000	-18.97145000	1.57480300
184.29998923	0.00000000	-18.97145000	1.61786400
184.49998922	0.00000000	-18.97145000	1.99311000
184.69998921	0.00000000	-18.97145000	2.73745100
184.89998920	0.00000000	-18.97145000	3.11269700
185.09998919	0.00000000	-18.97145000	3.11269700
185.29998918	0.00000000	-18.97145000	2.73745100
185.49998916	0.00000000	-18.97145000	1.99311000
185.69998915	0.00000000	-18.97145000	1.61786400
185.89998914	0.00000000	-18.97145000	1.57480300
186.09998913	0.00000000	-18.97145000	1.57480300
186.29998912	0.00000000	-18.97145000	1.57480300
186.49998910	0.00000000	-18.97145000	1.57480300
186.69998909	0.00000000	-18.97145000	1.57480300
186.89998908	0.00000000	-18.97145000	1.61786400
187.09998907	0.00000000	-18.97145000	1.99311000
187.29998906	0.00000000	-18.97145000	2.73745100
187.49998904	0.00000000	-18.97145000	3.11269700
187.69998903	0.00000000	-18.97145000	3.15575800
187.89998902	0.00000000	-18.97145000	3.11269700
188.09998901	0.00000000	-18.97145000	2.73745100
188.29998900	0.00000000	-18.97145000	1.99311000
188.49998899	0.00000000	-18.97145000	1.61786400
188.69998897	0.00000000	-18.97145000	1.57480300
188.89998896	0.00000000	-18.97145000	1.57480300
189.09998895	0.00000000	-18.97145000	1.57480300
189.29998894	0.00000000	-18.97145000	1.57480300
189.49998893	0.00000000	-18.97145000	1.57480300
189.69998891	0.00000000	-18.97145000	1.57480300
189.89998890	0.00000000	-18.97145000	1.57480300
190.09998889	0.00000000	-18.97145000	1.57480300
190.29998888	0.00000000	-18.97145000	1.61786400
190.49998887	0.00000000	-18.97145000	1.95004900
190.69998885	0.00000000	-18.97145000	2.36220500
190.89998884	0.00000000	-18.97145000	2.36835600
191.09998883	0.00000000	-18.97145000	2.78051200
191.29998882	0.00000000	-18.97145000	3.06348400
191.49998881	0.00000000	-18.97145000	2.78051200
191.69998880	0.00000000	-18.97145000	2.36835600
191.89998878	0.00000000	-18.97145000	2.36220500
192.09998877	0.00000000	-18.97145000	1.95004900
192.29998876	0.00000000	-18.97145000	1.61786400
192.49998875	0.00000000	-18.97145000	1.57480300
192.69998874	0.00000000	-18.97145000	1.57480300
192.89998872	0.00000000	-18.97145000	1.57480300
193.09998871	0.00000000	-18.97145000	1.57480300
193.29998870	0.00000000	-18.97145000	1.57480300
193.49998869	0.00000000	-18.97145000	1.57480300
193.69998868	0.00000000	-18.97145000	1.61786400
193.89998866	0.00000000	-18.97145000	1.99311000
194.09998865	0.00000000	-18.92839000	2.68823800
194.29998864	0.00000000	-18.59621000	2.73745100
194.49998863	0.00000000	-18.22711000	2.36835600
194.69998862	0.00000000	-18.59621000	2.36220500
194.89998861	0.00000000	-18.92839000	1.95004900
195.09998859	0.00000000	-18.97145000	1.61786400
195.29998858	0.00000000	-18.97145000	1.57480300
195.49998857	0.00000000	-18.97145000	1.57480300
195.69998856	0.00000000	-18.97145000	1.57480300
195.89998855	0.00000000	-18.97145000	1.57480300
196.09998853	0.00000000	-18.97145000	1.57480300
