Time	Channel A	Channel B	Channel C
(us)	(V)	(mV)	(mV)

-4.49999956	0.00000000	-7.99704600	-7.06200700
-4.29999957	0.00000000	-8.32308000	-7.14197800
-4.09999958	0.00000000	-9.06742000	-7.10506800
-3.89999959	0.00000000	-9.44266700	-7.47416300
-3.69999960	0.00000000	-9.48572700	-7.47416300
-3.49999962	0.00000000	-9.44266700	-7.14812900
-3.29999963	0.00000000	-9.11048200	-7.51722400
-3.09999964	0.00000000	-8.74138700	-7.84940900
-2.89999965	0.00000000	-9.11048200	-7.89247000
-2.69999966	0.00000000	-9.44266700	-7.89247000
-2.49999968	0.00000000	-9.44266700	-7.84940900
-2.29999969	0.00000000	-9.11048200	-7.51722400
-2.09999970	0.00000000	-8.74138700	-7.14812900
-1.89999971	0.00000000	-9.11048200	-7.51722400
-1.69999972	0.00000000	-9.44266700	-7.80019600
-1.49999973	0.00000000	-9.48572700	-7.51722400
-1.29999975	0.00000000	-9.48572700	-7.14812900
-1.09999976	0.00000000	-9.48572700	-7.51722400
-0.89999977	0.00000000	-9.48572700	-7.84940900
-0.69999978	0.00000000	-9.48572700	-7.89247000
-0.49999979	0.00000000	-9.48572700	-7.89247000
-0.29999981	0.31803640	-9.48572700	-7.84940900
-0.09999982	0.63668800	-9.48572700	-7.51722400
0.10000017	0.95533960	-9.44266700	-7.10506800
0.30000016	0.95533960	-9.11048200	-7.14197800
0.50000015	0.79601380	-8.74138700	-7.10506800
0.70000013	0.15871060	-9.11048200	-7.51722400
0.90000012	-0.79601380	-9.44266700	-7.84940900
1.10000011	-1.75196900	-9.48572700	-7.89247000
1.30000010	-2.54859700	-9.48572700	-7.84940900
1.50000009	-2.86724900	-9.48572700	-7.47416300
1.70000008	-2.22994600	-9.44266700	-6.72982200
1.90000006	-0.95533960	-9.06742000	-6.35457700
2.10000005	0.95533960	-8.37229300	-6.31151500
2.30000004	3.02657500	-8.37229300	-6.35457700
2.50000003	4.77854300	-9.06742000	-6.72982200
2.70000002	5.41584600	-9.44266700	-7.47416300
2.90000000	4.61921700	-9.48572700	-7.84940900
3.09999999	2.38927200	-9.48572700	-7.89247000
3.29999998	-0.79601380	-9.48572700	-7.89247000
3.49999997	-4.14124000	-9.48572700	-7.89247000
3.69999996	-6.84916400	-9.44266700	-7.84940900
3.89999994	-7.96444400	-9.06742000	-7.47416300
4.09999993	-7.00848900	-8.32308000	-6.72982200
4.29999992	-4.30056600	-7.99704600	-6.35457700
4.49999991	-0.15871060	-8.32308000	-6.31151500
4.69999990	4.14124000	-9.01820900	-6.31151500
4.89999989	7.80511800	-9.06742000	-6.35457700
5.09999987	9.39837600	-8.74138700	-6.72982200
5.29999986	8.76107300	-9.11048200	-7.47416300
5.49999985	5.89382400	-9.44266700	-7.84940900
5.69999984	1.43331700	-9.48572700	-7.89247000
5.89999983	-3.34522600	-9.48572700	-7.89247000
6.09999981	-7.32714100	-9.44266700	-7.84940900
6.29999980	-9.39837600	-9.06742000	-7.47416300
6.49999979	-9.07972400	-8.37229300	-6.72982200
6.69999978	-6.53112700	-8.32308000	-6.35457700
6.89999977	-2.54859700	-8.69217500	-6.31151500
7.09999975	1.91129400	-8.69832600	-6.35457700
7.29999974	5.57517200	-9.11048200	-6.72982200
7.49999973	7.48646600	-9.44266700	-7.47416300
7.69999972	7.48646600	-9.48572700	-7.84940900
7.89999971	5.73449800	-9.48572700	-7.89247000
8.09999970	2.70792300	-9.48572700	-7.89247000
8.29999968	-0.47736220	-9.48572700	-7.89247000
8.49999967	-3.34522600	-9.48572700	-7.89247000
8.69999966	-4.93786900	-9.48572700	-7.84940900
8.89999965	-5.09719500	-9.44266700	-7.47416300
9.09999964	-4.14124000	-9.11048200	-6.72982200
9.29999962	-2.22994600	-8.74138700	-6.35457700
9.49999961	-0.31803640	-9.11048200	-6.35457700
9.69999960	1.27399100	-9.44266700	-6.72982200
9.89999959	2.38927200	-9.44266700	-7.47416300
10.09999958	2.54859700	-9.11048200	-7.84940900
10.29999956	2.07062000	-8.69832600	-7.89247000
10.49999955	1.27399100	-8.73523500	-7.89247000
10.69999954	0.31803640	-8.69832600	-7.89247000
10.89999953	-0.31803640	-9.11048200	-7.89247000
11.09999952	-0.79601380	-9.39345400	-7.89247000
11.29999951	-0.95533960	-9.11048200	-7.89247000
11.49999949	-0.95533960	-8.74138700	-7.89247000
11.69999948	-0.63668800	-9.11048200	-7.84940900
11.89999947	-0.31803640	-9.44266700	-7.51722400
12.09999946	-0.15871060	-9.44266700	-7.10506800
12.29999945	-0.15871060	-9.06742000	-7.14197800
12.49999943	-0.15871060	-8.37229300	-7.10506800
12.69999942	0.00000000	-8.32308000	-7.47416300
12.89999941	0.00000000	-8.69217500	-7.47416300
13.09999940	0.00000000	-8.69832600	-7.14812900
13.29999939	0.15871060	-9.06742000	-7.51722400
13.49999937	0.00000000	-9.06742000	-7.84940900
13.69999936	0.00000000	-8.69832600	-7.89247000
13.89999935	0.00000000	-8.73523500	-7.84940900
14.09999934	-0.15871060	-8.69832600	-7.51722400
14.29999933	-0.15871060	-9.11048200	-7.14812900
14.49999932	-0.15871060	-9.44266700	-7.47416300
14.69999930	0.00000000	-9.48572700	-7.47416300
14.89999929	0.00000000	-9.44266700	-7.14812900
15.09999928	0.00000000	-9.11048200	-7.51722400
15.29999927	0.00000000	-8.74138700	-7.84940900
15.49999926	0.00000000	-9.11048200	-7.89247000
15.69999924	0.00000000	-9.48572700	-7.84940900
15.89999923	0.00000000	-9.86097400	-7.51722400
16.09999922	0.00000000	-10.23007000	-7.10506800
16.29999921	-0.15871060	-9.81791200	-7.09891700
16.49999920	-0.15871060	-9.11048200	-6.72982200
16.69999919	-0.15871060	-8.32308000	-6.77903500
16.89999917	-0.15871060	-7.94783400	-7.47416300
17.09999916	0.00000000	-7.86171200	-7.80019600
17.29999915	0.00000000	-7.52952700	-7.51722400
17.49999914	0.00000000	-7.16043300	-7.14812900
17.69999913	0.00000000	-7.57258800	-7.47416300
17.89999911	0.00000000	-8.32308000	-7.42495000
18.09999910	0.00000000	-9.48572700	-6.77903500
18.29999909	0.00000000	-10.69144000	-6.77903500
18.49999908	0.00000000	-11.86024000	-7.47416300
18.69999907	0.00000000	-13.39198000	-7.84940900
18.89999905	0.00000000	-14.09326000	-7.89247000
19.09999904	0.00000000	-13.71801000	-7.89247000
19.29999903	0.00000000	-12.09400000	-7.84940900
19.49999902	0.00000000	-9.01820900	-7.51722400
19.69999901	0.00000000	-5.11811000	-7.10506800
19.89999900	0.00000000	-1.29798200	-7.14197800
20.09999898	0.00000000	1.76550200	-7.10506800
20.29999897	0.00000000	2.51599400	-7.51722400
20.49999896	0.00000000	0.93503930	-7.84940900
20.69999895	0.00000000	-3.02042300	-7.89247000
20.89999894	0.00000000	-9.62106200	-7.84940900
21.09999892	0.00000000	-17.29823000	-7.51722400
21.29999891	0.00000000	-24.27411000	-7.14812900
21.49999890	0.00000000	-28.83858000	-7.51722400
21.69999889	0.00000000	-29.53371000	-7.84940900
21.89999888	0.00000000	-25.16609000	-7.89247000
22.09999886	0.00000000	-15.90797000	-7.89247000
22.29999885	0.00000000	-3.53715500	-7.89247000
22.49999884	0.00000000	8.79675100	-7.89247000
22.69999883	0.00000000	18.42397000	-7.84940900
22.89999882	0.00000000	22.61319000	-7.47416300
23.09999881	0.00000000	19.82652000	-6.72982200
23.29999879	0.00000000	10.05167000	-6.35457700
23.49999878	0.00000000	-5.76402500	-6.26845500
23.69999877	0.00000000	-23.90502000	-5.89320800
23.89999876	0.00000000	-39.73302000	-5.19808000
24.09999875	0.00000000	-50.09842000	-5.19808000
24.29999873	0.00000000	-51.50098000	-5.98548200
24.49999872	0.00000000	-42.61196000	-7.14812900
24.69999871	0.00000000	-25.21530000	-9.09817800
24.89999870	0.00000000	-3.20497000	-10.96211000
25.09999869	0.00000000	18.42397000	-12.16166000
25.29999867	0.00000000	34.62106000	-12.53691000
25.49999866	0.00000000	41.50467000	-12.11860000
25.69999865	0.00000000	36.80487000	-10.53765000
25.89999864	-0.15871060	20.98917000	-7.80019600
26.09999863	0.00000000	-2.13459600	-4.31840500
26.29999862	0.00000000	-26.83932000	-0.46751960
26.49999860	0.00000000	-47.35482000	2.60211600
26.69999859	0.00000000	-59.36269000	4.09079700
26.89999858	0.00000000	-60.47613000	3.25418300
27.09999857	0.00000000	-50.01230000	-0.63976370
27.29999856	0.00000000	-29.95817000	-6.82209600
27.49999854	0.00000000	-5.29650500	-14.21014000
27.69999853	0.00000000	17.87033000	-21.50590000
27.89999852	0.00000000	34.15354000	-26.80241000
28.09999851	0.00000000	40.39124000	-27.92200000
28.29999850	0.00000000	35.78371000	-24.02190000
28.49999848	0.00000000	21.49975000	-15.93258000
28.69999847	0.00000000	1.07037400	-5.06889700
28.89999846	0.00000000	-20.60777000	6.13312000
29.09999845	0.00000000	-38.80413000	15.79724000
29.29999844	0.00000000	-50.05536000	21.46899000
29.49999843	0.00000000	-52.01156000	21.05069000
29.69999841	0.00000000	-44.75270000	14.03789000
29.89999840	0.00000000	-30.46875000	1.67322800
30.09999839	0.00000000	-12.69070000	-13.74877000
30.29999838	0.00000000	4.74901600	-28.38337000
30.49999837	0.00000000	18.28863000	-38.88410000
30.69999835	0.00000000	25.30758000	-43.44242000
30.89999834	0.00000000	24.56939000	-40.64960000
31.09999833	0.00000000	16.93528000	-29.87205000
31.29999832	0.00000000	4.56446800	-14.07480000
31.49999831	0.00000000	-9.35039300	2.97736200
31.69999829	0.00000000	-22.18873000	18.44242000
31.89999828	0.00000000	-31.49606000	28.85088000
32.09999827	0.00000000	-35.77140000	31.92052000
32.29999826	0.00000000	-34.23966000	26.85777000
32.49999825	0.00000000	-27.30684000	14.12401000
32.69999824	0.00000000	-16.92298000	-3.20497000
32.89999822	0.00000000	-5.71481200	-20.99532000
33.09999821	0.00000000	3.58636800	-35.72219000
33.29999820	0.00000000	9.44881800	-44.59892000
33.49999819	0.00000000	10.98671000	-45.76156000
33.69999818	0.00000000	7.91092400	-38.79183000
33.89999816	0.00000000	1.02731300	-25.35679000
34.09999815	0.00000000	-7.43725300	-8.72908400
34.29999814	0.00000000	-15.21284000	7.11737200
34.49999813	0.00000000	-21.02608000	19.55585000
34.69999812	0.00000000	-23.67741000	26.07037000
34.89999810	0.00000000	-22.18258000	25.31988000
35.09999809	0.00000000	-17.21210000	17.24286000
35.29999808	0.00000000	-10.73450000	4.18307100
35.49999807	0.00000000	-4.50910400	-10.54380000
35.69999806	0.00000000	-0.27066930	-24.02190000
35.89999805	0.00000000	1.67938000	-33.26156000
36.09999803	0.00000000	0.47367120	-35.63607000
36.29999802	0.00000000	-3.67249000	-31.45300000
36.49999801	0.00000000	-9.01820900	-22.15797000
36.69999800	0.00000000	-13.67495000	-9.51648500
36.89999799	0.00000000	-16.79380000	2.74360200
37.09999797	0.00000000	-17.95029000	10.87598000
37.29999796	0.00000000	-16.74459000	13.66265000
37.49999795	0.00000000	-13.29970000	10.96826000
37.69999794	0.00000000	-8.32308000	3.67249000
37.89999793	0.00000000	-3.71555100	-6.31151500
38.09999791	0.00000000	-0.59670270	-16.21555000
38.29999790	0.00000000	0.55979330	-22.71777000
38.49999789	0.00000000	-0.59670270	-23.51132000
38.69999788	0.00000000	-3.67249000	-18.95300000
38.89999787	0.00000000	-7.90477300	-10.58686000
39.09999786	0.00000000	-12.18012000	-1.39025600
39.29999784	0.00000000	-15.71727000	5.53641700
39.49999783	0.00000000	-18.37475000	9.01205700
39.69999782	0.00000000	-19.11294000	7.76328700
39.89999781	0.00000000	-17.21210000	1.67322800
40.09999780	0.00000000	-13.81028000	-7.51722400
40.29999778	0.00000000	-9.86097400	-16.72613000
40.49999777	0.00000000	-5.94857300	-23.64665000
40.69999776	0.00000000	-2.09153500	-26.29798000
40.89999775	0.00000000	0.55979330	-23.60359000
41.09999774	0.00000000	0.98425190	-16.35089000
41.29999772	0.00000000	-0.51058070	-6.73597400
41.49999771	0.00000000	-3.25418300	2.46678100
41.69999770	0.00000000	-6.74212600	9.01205700
41.89999769	0.00000000	-10.64838000	10.96826000
42.09999768	0.00000000	-14.13632000	8.27386800
42.29999767	0.00000000	-16.83686000	1.76550200
42.49999765	0.00000000	-17.95029000	-7.05585600
42.69999764	0.00000000	-16.83686000	-15.09596000
42.89999763	0.00000000	-14.18553000	-20.57702000
43.09999762	0.00000000	-11.10974000	-22.52707000
43.29999761	0.00000000	-8.37229300	-20.99532000
43.49999759	0.00000000	-6.41609200	-16.39395000
43.69999758	0.00000000	-5.21038300	-9.89173200
43.89999757	0.00000000	-4.83513700	-3.70939900
44.09999756	0.00000000	-5.16117100	0.93503930
44.29999755	0.00000000	-5.90551100	3.25418300
44.49999753	0.00000000	-6.28075700	2.51599400
44.69999752	0.00000000	-6.32381900	-0.46751960
44.89999751	0.00000000	-6.36687900	-4.31840500
45.09999750	0.00000000	-6.74212600	-7.84940900
45.29999749	0.00000000	-7.52952700	-10.96211000
45.49999748	0.00000000	-8.41535400	-13.23819000
45.69999746	0.00000000	-10.37155000	-13.65650000
45.89999745	0.00000000	-13.43504000	-12.53691000
46.09999744	0.00000000	-16.09252000	-10.58686000
46.29999743	0.00000000	-18.04257000	-7.89247000
46.49999742	0.00000000	-18.32554000	-5.24729300
46.69999740	0.00000000	-16.36934000	-3.66633800
46.89999739	0.00000000	-12.09400000	-3.24803100
47.09999738	0.00000000	-6.32381900	-3.62327700
47.29999737	0.00000000	-0.51058070	-4.77977300
47.49999736	0.00000000	4.09694900	-6.36072800
47.69999734	0.00000000	6.37303100	-8.31077700
47.89999733	0.00000000	5.12426100	-10.58686000
48.09999732	0.00000000	0.14148620	-12.11860000
48.29999731	0.00000000	-7.62180000	-12.49385000
48.49999730	0.00000000	-16.04946000	-11.74951000
48.69999729	0.00000000	-23.39444000	-9.75639700
48.89999727	0.00000000	-27.21457000	-7.09891700
49.09999726	0.00000000	-26.83932000	-3.99237200
49.29999725	0.00000000	-22.18258000	-1.71013800
49.49999724	0.00000000	-14.09326000	-0.51058070
49.69999723	0.00000000	-4.83513700	-0.59670270
49.89999721	0.00000000	3.63558100	-2.50369100
50.09999720	0.00000000	9.03051100	-5.98548200
50.29999719	0.00000000	9.77485200	-9.79945900
50.49999718	0.00000000	5.91166300	-13.32431000
50.69999717	0.00000000	-2.13459600	-15.56348000
50.89999715	0.00000000	-11.71875000	-15.97564000
51.09999714	0.00000000	-19.82037000	-14.03174000
51.29999713	0.00000000	-24.88312000	-10.58686000
51.49999712	0.00000000	-25.63361000	-6.31151500
51.69999711	0.00000000	-22.18258000	-2.12844500
51.89999710	0.00000000	-15.25591000	0.60285430
52.09999708	0.00000000	-6.83439900	1.39640700
52.29999707	0.00000000	0.47367120	0.60285430
52.49999706	0.00000000	4.70595500	-2.12844500
52.69999705	0.00000000	4.74901600	-6.31151500
52.89999704	0.00000000	0.93503930	-10.53765000
53.09999702	0.00000000	-5.21038300	-13.60728000
53.29999701	0.00000000	-12.18012000	-14.81299000
53.49999700	0.00000000	-18.32554000	-14.07480000
53.69999699	0.00000000	-22.09646000	-12.16781000
53.89999698	0.00000000	-21.72121000	-9.42421200
54.09999696	0.00000000	-17.21210000	-6.36072800
54.29999695	0.00000000	-11.06668000	-3.70939900
54.49999694	0.00000000	-4.87819900	-2.59596400
54.69999693	0.00000000	0.09842519	-3.66633800
54.89999692	0.00000000	2.00541300	-5.89320800
55.09999691	0.00000000	0.51673230	-7.84940900
55.29999689	0.00000000	-3.67249000	-9.38115100
55.49999688	0.00000000	-9.06742000	-10.11934000
55.69999687	0.00000000	-14.09326000	-9.33809000
55.89999686	0.00000000	-17.95029000	-7.47416300
56.09999685	0.00000000	-19.44513000	-5.19808000
56.29999683	0.00000000	-17.95029000	-3.70939900
56.49999682	0.00000000	-14.13632000	-3.66633800
56.69999681	0.00000000	-9.52879000	-4.87204700
56.89999680	0.00000000	-5.25344500	-7.19734200
57.09999679	0.00000000	-2.17765700	-10.62992000
57.29999677	0.00000000	-1.02116100	-13.65650000
57.49999676	0.00000000	-2.13459600	-15.18824000
57.69999675	0.00000000	-4.83513700	-14.76993000
57.89999674	0.00000000	-8.28001900	-12.03248000
58.09999673	0.00000000	-11.76181000	-7.42495000
58.29999672	0.00000000	-14.05020000	-2.04232300
58.49999670	0.00000000	-14.88066000	2.51599400
58.69999669	0.00000000	-14.09326000	4.82898600
58.89999668	0.00000000	-12.22933000	4.04773600
59.09999667	0.00000000	-9.90403500	0.55979330
59.29999666	0.00000000	-7.99704600	-5.24729300
59.49999664	0.00000000	-6.79133800	-12.11860000
59.69999663	0.00000000	-6.41609200	-17.88263000
59.89999662	0.00000000	-6.79133800	-20.99532000
60.09999661	0.00000000	-7.90477300	-20.95226000
60.29999660	0.00000000	-9.06742000	-17.46432000
60.49999658	0.00000000	-9.81791200	-10.91289000
60.69999657	0.00000000	-10.23007000	-3.24803100
60.89999656	0.00000000	-9.86097400	3.67249000
61.09999655	0.00000000	-9.48572700	7.89862200
61.29999654	0.00000000	-9.06742000	8.27386800
61.49999653	0.00000000	-8.32308000	4.78592500
61.69999651	0.00000000	-7.99704600	-2.08538400
61.89999650	0.00000000	-8.37229300	-10.16855000
62.09999649	0.00000000	-9.48572700	-17.14444000
62.29999648	0.00000000	-10.59916000	-22.20103000
62.49999647	0.00000000	-11.02362000	-24.06496000
62.69999645	0.00000000	-11.06668000	-22.15797000
62.89999644	0.00000000	-11.02362000	-16.72613000
63.09999643	0.00000000	-10.59916000	-9.05511800
63.29999642	0.00000000	-9.44266700	-0.97194880
63.49999641	0.00000000	-7.94783400	5.20423200
63.69999639	0.00000000	-6.79133800	8.31692900
63.89999638	0.00000000	-6.36687900	7.94783400
64.09999637	0.00000000	-6.41609200	4.09694900
64.29999636	0.00000000	-7.20964500	-2.04232300
64.49999635	0.00000000	-9.06742000	-9.00590400
64.69999634	0.00000000	-10.59916000	-15.18824000
64.89999632	0.00000000	-11.39887000	-19.46358000
65.09999631	0.00000000	-11.81102000	-20.99532000
65.29999630	0.00000000	-11.39887000	-19.50664000
65.49999629	0.00000000	-10.64838000	-15.69882000
65.69999628	0.00000000	-9.48572700	-11.04823000
65.89999626	0.00000000	-8.37229300	-6.35457700
66.09999625	0.00000000	-7.94783400	-2.08538400
66.29999624	0.00000000	-7.94783400	1.02116100
66.49999623	0.00000000	-8.37229300	2.55905500
66.69999622	0.00000000	-9.52879000	2.22687000
66.89999620	0.00000000	-11.02362000	0.28297240
67.09999619	0.00000000	-12.13706000	-2.41141700
67.29999618	0.00000000	-12.09400000	-5.93626900
67.49999617	0.00000000	-10.59916000	-9.38115100
67.69999616	0.00000000	-8.28001900	-12.16781000
67.89999615	0.00000000	-5.99163300	-14.16092000
68.09999613	0.00000000	-4.04773600	-15.69882000
68.29999612	0.00000000	-3.34030500	-16.39395000
68.49999611	0.00000000	-4.09079700	-15.23130000
68.69999610	0.00000000	-6.45915300	-12.53691000
68.89999609	0.00000000	-9.90403500	-9.05511800
69.09999607	0.00000000	-13.81028000	-5.11195900
69.29999606	0.00000000	-17.21210000	-1.24877000
69.49999605	0.00000000	-19.11294000	2.18380900
69.69999604	0.00000000	-18.32554000	3.67249000
69.89999603	0.00000000	-15.25591000	2.60211600
70.09999601	0.00000000	-10.59916000	-0.13533460
70.29999600	0.00000000	-5.21038300	-4.04158400
70.49999599	0.00000000	-0.59670270	-9.09817800
70.69999598	0.00000000	2.14074800	-14.03174000
70.89999597	0.00000000	2.47293300	-17.50738000
71.09999596	0.00000000	0.14148620	-18.30093000
71.29999594	0.00000000	-4.87819900	-16.81225000
71.49999593	0.00000000	-10.97441000	-13.69956000
71.69999592	0.00000000	-16.46161000	-9.43036400
71.89999591	0.00000000	-20.32480000	-4.82898600
72.09999590	0.00000000	-22.27485000	-0.97194880
72.29999588	0.00000000	-21.44439000	0.97810030
72.49999587	0.00000000	-17.99951000	0.97810030
72.69999586	0.00000000	-12.55536000	-0.92888770
72.89999585	0.00000000	-6.41609200	-4.31840500
73.09999584	0.00000000	-1.02116100	-7.38188900
73.29999582	0.00000000	2.05462600	-9.38115100
73.49999581	0.00000000	2.14074800	-10.58686000
73.69999580	0.00000000	-0.17839570	-10.91289000
73.89999579	0.00000000	-4.04773600	-10.21161000
74.09999578	0.00000000	-9.06742000	-8.68602300
74.29999577	0.00000000	-13.67495000	-7.60949800
74.49999575	0.00000000	-16.79380000	-7.14812900
74.69999574	0.00000000	-17.99951000	-7.56028500
74.89999573	0.00000000	-17.21210000	-8.31077700
75.09999572	0.00000000	-14.92372000	-9.47342500
75.29999571	0.00000000	-11.44193000	-10.49459000
75.49999569	0.00000000	-7.99704600	-10.11934000
75.69999568	0.00000000	-5.25344500	-8.17544300
75.89999567	0.00000000	-3.71555100	-5.51796200
76.09999566	0.00000000	-3.67249000	-2.46063000
76.29999565	0.00000000	-4.83513700	-0.59670270
76.49999563	0.00000000	-6.74212600	-0.55364170
76.69999562	0.00000000	-9.01820900	-2.12844500
76.89999561	0.00000000	-10.51304000	-5.24729300
77.09999560	0.00000000	-10.64838000	-9.47342500
77.29999559	0.00000000	-10.27928000	-13.69956000
77.49999558	0.00000000	-10.27313000	-16.76919000
77.69999556	0.00000000	-9.90403500	-17.92569000
77.89999555	0.00000000	-9.95324800	-16.76919000
78.09999554	0.00000000	-10.69144000	-13.65650000
78.29999553	0.00000000	-11.44193000	-9.00590400
78.49999552	0.00000000	-12.18012000	-3.62327700
78.69999550	0.00000000	-12.13706000	0.97810030
78.89999549	0.00000000	-11.02362000	3.67249000
79.09999548	0.00000000	-9.48572700	3.71555100
79.29999547	0.00000000	-7.90477300	1.39640700
79.49999546	0.00000000	-6.32381900	-2.46063000
79.69999544	0.00000000	-4.83513700	-7.47416300
79.89999543	0.00000000	-4.13385800	-12.11860000
80.09999542	0.00000000	-5.25344500	-15.60654000
80.29999541	0.00000000	-7.52952700	-17.55044000
80.49999540	0.00000000	-9.90403500	-17.18750000
80.69999539	0.00000000	-12.60458000	-15.27436000
80.89999537	0.00000000	-14.83760000	-12.11860000
81.09999536	0.00000000	-15.25591000	-7.93553100
81.29999535	0.00000000	-14.13632000	-4.08464600
81.49999534	0.00000000	-12.18012000	-1.71013800
81.69999533	0.00000000	-9.48572700	-0.46136810
81.89999531	0.00000000	-6.79133800	-0.13533460
82.09999530	0.00000000	-4.87819900	-0.87967510
82.29999529	0.00000000	-4.09079700	-2.82972400
82.49999528	0.00000000	-4.87819900	-5.15501900
82.69999527	0.00000000	-6.74212600	-7.89247000
82.89999525	0.00000000	-9.06742000	-10.58686000
83.09999524	0.00000000	-10.97441000	-12.53691000
83.29999523	0.00000000	-12.18012000	-13.74262000
83.49999522	0.00000000	-12.55536000	-14.11786000
83.69999521	0.00000000	-12.18012000	-13.69956000
83.89999520	0.00000000	-11.06668000	-12.11860000
84.09999518	0.00000000	-9.90403500	-9.42421200
84.29999517	0.00000000	-9.11048200	-6.31151500
84.49999516	0.00000000	-8.37229300	-3.19881900
84.69999515	0.00000000	-8.37229300	-0.51058070
84.89999514	0.00000000	-9.06742000	0.97810030
85.09999512	0.00000000	-9.44266700	0.55979330
85.29999511	0.00000000	-9.44266700	-2.08538400
85.49999510	0.00000000	-9.11048200	-5.98548200
85.69999509	0.00000000	-8.65526600	-10.21776000
85.89999508	0.00000000	-8.31692900	-14.48696000
86.09999506	0.00000000	-7.58489100	-17.09523000
86.29999505	0.00000000	-7.99704600	-17.55044000
86.49999504	0.00000000	-9.06742000	-15.60654000
86.69999503	0.00000000	-9.90403500	-12.16166000
86.89999502	0.00000000	-11.06668000	-7.84940900
87.09999501	0.00000000	-12.18012000	-3.24803100
87.29999499	0.00000000	-12.55536000	0.55979330
87.49999498	0.00000000	-12.18012000	2.09153500
87.69999497	0.00000000	-11.02362000	0.97810030
87.89999496	0.00000000	-9.48572700	-2.08538400
88.09999495	0.00000000	-7.94783400	-6.35457700
88.29999493	0.00000000	-6.79133800	-10.95595000
88.49999492	0.00000000	-6.41609200	-14.81299000
88.69999491	0.00000000	-6.79133800	-16.71998000
88.89999490	0.00000000	-7.94783400	-16.35089000
89.09999489	0.00000000	-9.44266700	-13.61343000
89.29999487	0.00000000	-10.64838000	-9.05511800
89.49999486	0.00000000	-11.44193000	-4.08464600
89.69999485	0.00000000	-12.18012000	-0.59670270
89.89999484	0.00000000	-12.13706000	0.97810030
90.09999483	0.00000000	-11.06668000	0.55979330
90.29999482	0.00000000	-9.90403500	-2.12844500
90.49999480	0.00000000	-9.11048200	-6.35457700
90.69999479	0.00000000	-8.32308000	-10.95595000
90.89999478	0.00000000	-7.94783400	-14.81299000
91.09999477	0.00000000	-7.90477300	-16.67692000
91.29999476	0.00000000	-7.90477300	-15.92642000
91.49999474	0.00000000	-7.94783400	-12.49385000
91.69999473	0.00000000	-8.32308000	-7.89247000
91.89999472	0.00000000	-9.06742000	-3.24803100
92.09999471	0.00000000	-9.44266700	0.55979330
92.29999470	0.00000000	-9.48572700	2.09153500
92.49999468	0.00000000	-9.48572700	0.93503930
92.69999467	0.00000000	-9.52879000	-2.50369100
92.89999466	0.00000000	-9.95324800	-7.47416300
93.09999465	0.00000000	-11.06668000	-12.07554000
93.29999464	0.00000000	-12.18012000	-15.18824000
93.49999463	0.00000000	-12.55536000	-16.34473000
93.69999461	0.00000000	-12.18012000	-15.14518000
93.89999460	0.00000000	-11.02362000	-11.74336000
94.09999459	0.00000000	-9.48572700	-7.14812900
94.29999458	0.00000000	-7.86171200	-3.29109200
94.49999457	0.00000000	-5.94857300	-0.59670270
94.69999455	0.00000000	-4.09079700	0.14148620
94.89999454	0.00000000	-3.71555100	-1.75935000
95.09999453	0.00000000	-4.83513700	-5.15501900
95.29999452	0.00000000	-6.83439900	-9.05511800
95.49999451	0.00000000	-9.90403500	-12.45079000
95.69999449	0.00000000	-13.34276000	-14.39468000
95.89999448	0.00000000	-15.67421000	-14.03174000
96.09999447	0.00000000	-16.83686000	-12.16781000
96.29999446	0.00000000	-16.41855000	-9.42421200
96.49999445	0.00000000	-14.13632000	-6.36072800
96.69999444	0.00000000	-11.02362000	-3.66633800
96.89999442	0.00000000	-7.48646600	-2.12844500
97.09999441	0.00000000	-3.67249000	-2.12844500
97.29999440	0.00000000	-1.02116100	-3.66633800
97.49999439	0.00000000	-0.59670270	-6.31151500
97.69999438	0.00000000	-2.09153500	-8.96284400
97.89999436	0.00000000	-4.83513700	-10.53765000
98.09999435	0.00000000	-8.32308000	-10.95595000
98.29999434	0.00000000	-12.22933000	-10.58686000
98.49999433	0.00000000	-15.67421000	-9.47342500
98.69999432	0.00000000	-17.99951000	-8.31077700
98.89999430	0.00000000	-18.32554000	-7.51722400
99.09999429	0.00000000	-16.46161000	-6.72982200
99.29999428	0.00000000	-12.97982000	-6.35457700
99.49999427	0.00000000	-9.15354300	-6.31151500
99.69999426	0.00000000	-5.62869100	-6.31151500
99.89999425	0.00000000	-3.29724400	-6.26845500
100.09999423	0.00000000	-2.09153500	-5.89320800
100.29999422	0.00000000	-2.13459600	-5.15501900
100.49999421	0.00000000	-3.71555100	-4.82898600
100.69999420	0.00000000	-6.74212600	-5.19808000
100.89999419	0.00000000	-10.23007000	-6.36072800
101.09999417	0.00000000	-12.93061000	-7.89247000
101.29999416	0.00000000	-14.92372000	-9.47342500
101.49999415	0.00000000	-15.67421000	-11.00517000
101.69999414	0.00000000	-15.34203000	-12.11860000
101.89999413	0.00000000	-14.13632000	-12.07554000
102.09999411	0.00000000	-12.18012000	-10.58686000
102.29999410	0.00000000	-9.52879000	-8.26771600
102.49999409	0.00000000	-7.20964500	-5.93626900
102.69999408	0.00000000	-5.99163300	-3.57406500
102.89999407	0.00000000	-5.16117100	-1.71013800
103.09999406	0.00000000	-4.87819900	-0.97194880
103.29999404	0.00000000	-5.67175200	-2.12844500
103.49999403	0.00000000	-7.90477300	-4.77977300
103.69999402	0.00000000	-10.18086000	-7.89247000
103.89999401	0.00000000	-11.44193000	-10.96211000
104.09999400	0.00000000	-12.64764000	-13.28125000
104.29999398	0.00000000	-13.71801000	-14.03174000
104.49999397	0.00000000	-13.71801000	-13.28125000
104.69999396	0.00000000	-12.60458000	-10.96211000
104.89999395	0.00000000	-11.06668000	-7.89247000
105.09999394	0.00000000	-9.48572700	-4.82283400
105.29999392	0.00000000	-7.94783400	-2.50369100
105.49999391	0.00000000	-6.83439900	-1.75319900
105.69999390	0.00000000	-6.83439900	-2.50369100
105.89999389	0.00000000	-7.90477300	-4.77977300
106.09999388	0.00000000	-9.06742000	-7.43110200
106.29999387	0.00000000	-9.86097400	-9.42421200
106.49999385	0.00000000	-10.64838000	-10.96211000
106.69999384	0.00000000	-11.02362000	-11.70029000
106.89999383	0.00000000	-11.02362000	-10.96211000
107.09999382	0.00000000	-10.59916000	-9.42421200
107.29999381	0.00000000	-9.48572700	-7.51722400
107.49999379	0.00000000	-8.37229300	-5.61638700
107.69999378	0.00000000	-7.99704600	-4.82898600
107.89999377	0.00000000	-8.32308000	-4.77977300
108.09999376	0.00000000	-9.11048200	-5.19808000
108.29999375	0.00000000	-9.86097400	-6.40378900
108.49999374	0.00000000	-10.69144000	-8.26771600
108.69999372	0.00000000	-11.39887000	-10.16855000
108.89999371	0.00000000	-11.81102000	-10.91289000
109.09999370	0.00000000	-11.39887000	-10.58686000
109.29999369	0.00000000	-10.64838000	-9.42421200
109.49999368	0.00000000	-9.48572700	-7.89247000
109.69999366	0.00000000	-8.32308000	-6.31151500
109.89999365	0.00000000	-7.57258800	-4.82283400
110.09999364	0.00000000	-7.16043300	-4.04158400
110.29999363	0.00000000	-7.57258800	-4.40452700
110.49999362	0.00000000	-8.32308000	-5.15501900
110.69999360	0.00000000	-9.48572700	-6.36072800
110.89999359	0.00000000	-10.59916000	-7.89247000
111.09999358	0.00000000	-11.02362000	-9.42421200
111.29999357	0.00000000	-11.06668000	-10.53765000
111.49999356	0.00000000	-11.06668000	-10.58686000
111.69999355	0.00000000	-11.02362000	-9.84867000
111.89999353	0.00000000	-10.59916000	-9.09817800
112.09999352	0.00000000	-9.48572700	-8.26771600
112.29999351	0.00000000	-8.37229300	-7.51722400
112.49999350	0.00000000	-7.94783400	-6.72982200
112.69999349	0.00000000	-7.94783400	-6.35457700
112.89999347	0.00000000	-8.32308000	-6.31151500
113.09999346	0.00000000	-9.06742000	-6.31151500
113.29999345	0.00000000	-9.44266700	-6.35457700
113.49999344	0.00000000	-9.52879000	-6.72982200
113.69999343	0.00000000	-9.86097400	-7.47416300
113.89999341	0.00000000	-10.23007000	-7.84940900
114.09999340	0.00000000	-9.86097400	-7.89247000
114.29999339	0.00000000	-9.52879000	-7.93553100
114.49999338	0.00000000	-9.48572700	-8.31077700
114.69999337	0.00000000	-9.48572700	-9.05511800
114.89999336	0.00000000	-9.48572700	-9.43036400
115.09999334	0.00000000	-9.48572700	-9.43036400
115.29999333	0.00000000	-9.48572700	-9.05511800
115.49999332	0.00000000	-9.48572700	-8.31077700
115.69999331	0.00000000	-9.48572700	-7.89247000
115.89999330	0.00000000	-9.48572700	-7.47416300
116.09999328	0.00000000	-9.48572700	-6.68676100
116.29999327	0.00000000	-9.52879000	-5.98548200
116.49999326	0.00000000	-9.90403500	-5.57332700
116.69999325	0.00000000	-10.59916000	-5.93626900
116.89999324	0.00000000	-10.59916000	-6.31151500
117.09999322	0.00000000	-9.90403500	-6.77903500
117.29999321	0.00000000	-9.48572700	-7.89247000
117.49999320	0.00000000	-9.01820900	-9.00590400
117.69999319	0.00000000	-7.90477300	-9.43036400
117.89999318	0.00000000	-6.83439900	-9.47342500
118.09999317	0.00000000	-6.79133800	-9.43036400
118.29999315	0.00000000	-7.52952700	-9.05511800
118.49999314	0.00000000	-8.32308000	-8.26771600
118.69999313	0.00000000	-9.48572700	-7.51722400
118.89999312	0.00000000	-10.64838000	-6.72982200
119.09999311	0.00000000	-11.44193000	-6.31151500
119.29999309	0.00000000	-12.18012000	-5.93626900
119.49999308	0.00000000	-12.18012000	-5.57332700
119.69999307	0.00000000	-11.44193000	-5.93626900
119.89999306	0.00000000	-10.64838000	-6.31151500
120.09999305	0.00000000	-9.44266700	-6.72982200
120.29999303	0.00000000	-7.94783400	-7.51722400
120.49999302	0.00000000	-6.83439900	-8.26771600
120.69999301	0.00000000	-6.79133800	-9.00590400
120.89999300	0.00000000	-7.52952700	-9.05511800
121.09999299	0.00000000	-8.28001900	-8.68602300
121.29999298	0.00000000	-9.11048200	-8.67987200
121.49999296	0.00000000	-9.90403500	-8.26771600
121.69999295	0.00000000	-11.06668000	-7.93553100
121.89999294	0.00000000	-12.18012000	-7.84940900
122.09999293	0.00000000	-12.55536000	-7.47416300
122.29999292	0.00000000	-12.22933000	-6.72982200
122.49999290	0.00000000	-11.44193000	-6.35457700
122.69999289	0.00000000	-10.64838000	-6.31151500
122.89999288	0.00000000	-9.48572700	-6.31151500
123.09999287	0.00000000	-8.37229300	-6.35457700
123.29999286	0.00000000	-7.94783400	-6.72982200
123.49999284	0.00000000	-7.90477300	-7.47416300
123.69999283	0.00000000	-7.90477300	-7.89247000
123.89999282	0.00000000	-7.94783400	-8.31077700
124.09999281	0.00000000	-8.32308000	-9.05511800
124.29999280	0.00000000	-9.11048200	-9.43036400
124.49999279	0.00000000	-9.86097400	-9.43036400
124.69999277	0.00000000	-10.69144000	-9.05511800
124.89999276	0.00000000	-11.39887000	-8.31077700
125.09999275	0.00000000	-11.81102000	-7.89247000
125.29999274	0.00000000	-11.44193000	-7.47416300
125.49999273	0.00000000	-11.06668000	-6.72982200
125.69999271	0.00000000	-10.64838000	-6.35457700
125.89999270	0.00000000	-9.86097400	-6.31151500
126.09999269	0.00000000	-9.11048200	-6.31151500
126.29999268	0.00000000	-8.32308000	-6.35457700
126.49999267	0.00000000	-7.94783400	-6.72982200
126.69999265	0.00000000	-7.94783400	-7.47416300
126.89999264	0.00000000	-8.32308000	-7.84940900
127.09999263	0.00000000	-9.11048200	-7.93553100
127.29999262	0.00000000	-9.90403500	-8.26771600
127.49999261	0.00000000	-11.06668000	-8.63681000
127.69999260	0.00000000	-12.18012000	-8.26771600
127.89999258	0.00000000	-12.55536000	-7.89247000
128.09999257	0.00000000	-12.18012000	-7.51722400
128.29999256	0.00000000	-11.02362000	-7.10506800
128.49999255	0.00000000	-9.52879000	-7.14197800
128.69999254	0.00000000	-8.37229300	-7.10506800
128.89999252	0.00000000	-7.94783400	-7.51722400
129.09999251	0.00000000	-7.90477300	-7.84940900
129.29999250	0.00000000	-7.94783400	-7.89247000
129.49999249	0.00000000	-8.37229300	-7.89247000
129.69999248	0.00000000	-9.48572700	-7.89247000
129.89999246	0.00000000	-10.59916000	-7.89247000
130.09999245	0.00000000	-11.02362000	-7.89247000
130.29999244	0.00000000	-11.06668000	-7.89247000
130.49999243	0.00000000	-11.02362000	-7.89247000
130.69999242	0.00000000	-10.64838000	-7.84940900
130.89999241	0.00000000	-9.86097400	-7.47416300
131.09999239	0.00000000	-9.11048200	-6.72982200
131.29999238	0.00000000	-8.32308000	-6.40378900
131.49999237	0.00000000	-7.94783400	-6.72982200
131.69999236	0.00000000	-7.94783400	-7.47416300
131.89999235	0.00000000	-8.32308000	-7.89247000
132.09999233	0.00000000	-9.06742000	-8.31077700
132.29999232	0.00000000	-9.48572700	-9.05511800
132.49999231	0.00000000	-9.90403500	-9.38115100
132.69999230	0.00000000	-10.59916000	-9.00590400
132.89999229	0.00000000	-10.59916000	-7.89247000
133.09999227	0.00000000	-9.90403500	-6.77903500
133.29999226	0.00000000	-9.52879000	-6.31151500
133.49999225	0.00000000	-9.48572700	-5.93626900
133.69999224	0.00000000	-9.48572700	-5.57332700
133.89999223	0.00000000	-9.52879000	-5.98548200
134.09999222	0.00000000	-9.86097400	-6.72982200
134.29999220	0.00000000	-10.23007000	-7.89247000
134.49999219	0.00000000	-9.86097400	-9.00590400
134.69999218	0.00000000	-9.52879000	-9.43036400
134.89999217	0.00000000	-9.48572700	-9.47342500
135.09999216	0.00000000	-9.48572700	-9.47342500
135.29999214	0.00000000	-9.48572700	-9.43036400
135.49999213	0.00000000	-9.48572700	-9.05511800
135.69999212	0.00000000	-9.52879000	-8.26771600
135.89999211	0.00000000	-9.90403500	-7.51722400
136.09999210	0.00000000	-10.64838000	-6.72982200
136.29999208	0.00000000	-11.02362000	-6.35457700
136.49999207	0.00000000	-11.06668000	-6.31151500
136.69999206	0.00000000	-11.06668000	-6.35457700
136.89999205	0.00000000	-11.02362000	-6.72982200
137.09999204	0.00000000	-10.64838000	-7.47416300
137.29999203	0.00000000	-9.86097400	-7.89247000
137.49999201	0.00000000	-9.11048200	-8.31077700
137.69999200	0.00000000	-8.32308000	-9.05511800
137.89999199	0.00000000	-7.99704600	-9.43036400
138.09999198	0.00000000	-8.37229300	-9.47342500
138.29999197	0.00000000	-9.48572700	-9.43036400
138.49999195	0.00000000	-10.59916000	-9.05511800
138.69999194	0.00000000	-11.02362000	-8.26771600
138.89999193	0.00000000	-11.06668000	-7.51722400
139.09999192	0.00000000	-11.06668000	-6.72982200
139.29999191	0.00000000	-11.02362000	-6.35457700
139.49999189	0.00000000	-10.64838000	-6.31151500
139.69999188	0.00000000	-9.90403500	-6.31151500
139.89999187	0.00000000	-9.52879000	-6.35457700
140.09999186	0.00000000	-9.48572700	-6.72982200
140.29999185	0.00000000	-9.48572700	-7.51722400
140.49999184	0.00000000	-9.48572700	-8.26771600
140.69999182	0.00000000	-9.48572700	-9.05511800
140.89999181	0.00000000	-9.48572700	-9.43036400
141.09999180	0.00000000	-9.48572700	-9.43036400
141.29999179	0.00000000	-9.52879000	-9.05511800
141.49999178	0.00000000	-9.86097400	-8.26771600
141.69999176	0.00000000	-10.23007000	-7.51722400
141.89999175	0.00000000	-9.86097400	-6.72982200
142.09999174	0.00000000	-9.52879000	-6.35457700
142.29999173	0.00000000	-9.48572700	-6.31151500
142.49999172	0.00000000	-9.48572700	-6.31151500
142.69999170	0.00000000	-9.48572700	-6.35457700
142.89999169	0.00000000	-9.48572700	-6.72982200
143.09999168	0.00000000	-9.48572700	-7.51722400
143.29999167	0.00000000	-9.52879000	-8.26771600
143.49999166	0.00000000	-9.86097400	-9.05511800
143.69999165	0.00000000	-10.23007000	-9.43036400
143.89999163	0.00000000	-9.86097400	-9.43036400
144.09999162	0.00000000	-9.52879000	-9.05511800
144.29999161	0.00000000	-9.48572700	-8.26771600
144.49999160	0.00000000	-9.48572700	-7.51722400
144.69999159	0.00000000	-9.48572700	-6.72982200
144.89999157	0.00000000	-9.48572700	-6.35457700
145.09999156	0.00000000	-9.48572700	-6.31151500
145.29999155	0.00000000	-9.52879000	-6.35457700
145.49999154	0.00000000	-9.86097400	-6.72982200
145.69999153	0.00000000	-10.27313000	-7.51722400
145.89999151	0.00000000	-10.27928000	-8.26771600
146.09999150	0.00000000	-10.69144000	-9.05511800
146.29999149	0.00000000	-10.97441000	-9.43036400
146.49999148	0.00000000	-10.64838000	-9.47342500
146.69999147	0.00000000	-9.90403500	-9.43036400
146.89999146	0.00000000	-9.52879000	-9.05511800
147.09999144	0.00000000	-9.48572700	-8.26771600
147.29999143	0.00000000	-9.48572700	-7.51722400
147.49999142	0.00000000	-9.48572700	-6.72982200
147.69999141	0.00000000	-9.48572700	-6.35457700
147.89999140	0.00000000	-9.52879000	-6.31151500
148.09999138	0.00000000	-9.90403500	-6.35457700
148.29999137	0.00000000	-10.64838000	-6.72982200
148.49999136	0.00000000	-11.02362000	-7.47416300
148.69999135	0.00000000	-11.02362000	-7.84940900
148.89999134	0.00000000	-10.64838000	-7.89247000
149.09999132	0.00000000	-9.90403500	-7.89247000
149.29999131	0.00000000	-9.52879000	-7.89247000
149.49999130	0.00000000	-9.44266700	-7.89247000
149.69999129	0.00000000	-9.06742000	-7.89247000
149.89999128	0.00000000	-8.37229300	-7.84940900
150.09999127	0.00000000	-8.37229300	-7.51722400
150.29999125	0.00000000	-9.06742000	-7.14812900
150.49999124	0.00000000	-9.44266700	-7.47416300
150.69999123	0.00000000	-9.52879000	-7.47416300
150.89999122	0.00000000	-9.90403500	-7.14812900
151.09999121	0.00000000	-10.64838000	-7.51722400
151.29999119	0.00000000	-11.02362000	-7.84940900
151.49999118	0.00000000	-11.02362000	-7.89247000
151.69999117	0.00000000	-10.64838000	-7.89247000
151.89999116	0.00000000	-9.90403500	-7.89247000
152.09999115	0.00000000	-9.52879000	-7.89247000
152.29999113	0.00000000	-9.48572700	-7.89247000
152.49999112	0.00000000	-9.48572700	-7.89247000
152.69999111	0.00000000	-9.48572700	-7.89247000
152.89999110	0.00000000	-9.48572700	-7.89247000
153.09999109	0.00000000	-9.48572700	-7.84940900
153.29999108	0.00000000	-9.48572700	-7.51722400
153.49999106	0.00000000	-9.52879000	-7.14812900
153.69999105	0.00000000	-9.90403500	-7.51722400
153.89999104	0.00000000	-10.64838000	-7.84940900
154.09999103	0.00000000	-11.02362000	-7.84940900
154.29999102	0.00000000	-11.06668000	-7.51722400
154.49999100	0.00000000	-11.06668000	-7.14812900
154.69999099	0.00000000	-11.02362000	-7.51722400
154.89999098	0.00000000	-10.64838000	-7.84940900
155.09999097	0.00000000	-9.90403500	-7.89247000
155.29999096	0.00000000	-9.52879000	-7.89247000
155.49999094	0.00000000	-9.48572700	-7.89247000
155.69999093	0.00000000	-9.48572700	-7.89247000
155.89999092	0.00000000	-9.48572700	-7.89247000
156.09999091	0.00000000	-9.48572700	-7.89247000
156.29999090	0.00000000	-9.52879000	-7.84940900
156.49999089	0.00000000	-9.90403500	-7.47416300
156.69999087	0.00000000	-10.64838000	-6.72982200
156.89999086	0.00000000	-11.02362000	-6.35457700
157.09999085	0.00000000	-11.06668000	-6.31151500
157.29999084	0.00000000	-11.06668000	-6.35457700
157.49999083	0.00000000	-11.06668000	-6.72982200
157.69999081	0.00000000	-11.02362000	-7.47416300
157.89999080	0.00000000	-10.64838000	-7.84940900
158.09999079	0.00000000	-9.90403500	-7.93553100
158.29999078	0.00000000	-9.52879000	-8.31077700
158.49999077	0.00000000	-9.48572700	-9.00590400
158.69999075	0.00000000	-9.48572700	-9.00590400
158.89999074	0.00000000	-9.48572700	-8.31077700
159.09999073	0.00000000	-9.48572700	-7.93553100
159.29999072	0.00000000	-9.48572700	-7.84940900
159.49999071	0.00000000	-9.52879000	-7.47416300
159.69999070	0.00000000	-9.90403500	-6.72982200
159.89999068	0.00000000	-10.59916000	-6.40378900
160.09999067	0.00000000	-10.59916000	-6.72982200
160.29999066	0.00000000	-9.95324800	-7.47416300
160.49999065	0.00000000	-9.90403500	-7.84940900
160.69999064	0.00000000	-10.23007000	-7.89247000
160.89999062	0.00000000	-9.86097400	-7.89247000
161.09999061	0.00000000	-9.52879000	-7.93553100
161.29999060	0.00000000	-9.48572700	-8.26771600
161.49999059	0.00000000	-9.48572700	-8.63681000
161.69999058	0.00000000	-9.48572700	-8.26771600
161.89999056	0.00000000	-9.48572700	-7.93553100
162.09999055	0.00000000	-9.48572700	-7.89247000
162.29999054	0.00000000	-9.48572700	-7.84940900
162.49999053	0.00000000	-9.48572700	-7.51722400
162.69999052	0.00000000	-9.48572700	-7.10506800
162.89999051	0.00000000	-9.52879000	-7.14197800
163.09999049	0.00000000	-9.90403500	-7.10506800
163.29999048	0.00000000	-10.64838000	-7.51722400
163.49999047	0.00000000	-11.02362000	-7.84940900
163.69999046	0.00000000	-11.06668000	-7.89247000
163.89999045	0.00000000	-11.06668000	-7.89247000
164.09999043	0.00000000	-11.02362000	-7.89247000
164.29999042	0.00000000	-10.64838000	-7.89247000
164.49999041	0.00000000	-9.90403500	-7.89247000
164.69999040	0.00000000	-9.52879000	-7.89247000
164.89999039	0.00000000	-9.48572700	-7.89247000
165.09999037	0.00000000	-9.48572700	-7.89247000
165.29999036	0.00000000	-9.48572700	-7.89247000
165.49999035	0.00000000	-9.48572700	-7.89247000
165.69999034	0.00000000	-9.52879000	-7.89247000
165.89999033	0.00000000	-9.90403500	-7.89247000
166.09999032	0.00000000	-10.64838000	-7.89247000
166.29999030	0.00000000	-11.02362000	-7.89247000
166.49999029	0.00000000	-11.06668000	-7.89247000
166.69999028	0.00000000	-11.02362000	-7.89247000
166.89999027	0.00000000	-10.64838000	-7.89247000
167.09999026	0.00000000	-9.90403500	-7.89247000
167.29999024	0.00000000	-9.52879000	-7.89247000
167.49999023	0.00000000	-9.48572700	-7.89247000
167.69999022	0.00000000	-9.48572700	-7.89247000
167.89999021	0.00000000	-9.48572700	-7.89247000
168.09999020	0.00000000	-9.48572700	-7.89247000
168.29999018	0.00000000	-9.48572700	-7.89247000
168.49999017	0.00000000	-9.48572700	-7.89247000
168.69999016	0.00000000	-9.48572700	-7.89247000
168.89999015	0.00000000	-9.48572700	-7.89247000
169.09999014	0.00000000	-9.48572700	-7.89247000
169.29999013	0.00000000	-9.52879000	-7.89247000
169.49999011	0.00000000	-9.86097400	-7.89247000
169.69999010	0.00000000	-10.27313000	-7.89247000
169.89999009	0.00000000	-10.27928000	-7.89247000
170.09999008	0.00000000	-10.69144000	-7.89247000
170.29999007	0.00000000	-10.97441000	-7.89247000
170.49999005	0.00000000	-10.64838000	-7.89247000
170.69999004	0.00000000	-9.90403500	-7.89247000
170.89999003	0.00000000	-9.52879000	-7.89247000
171.09999002	0.00000000	-9.48572700	-7.89247000
171.29999001	0.00000000	-9.48572700	-7.89247000
171.49998999	0.00000000	-9.52879000	-7.89247000
171.69998998	0.00000000	-9.86097400	-7.89247000
171.89998997	0.00000000	-10.27313000	-7.89247000
172.09998996	0.00000000	-10.23622000	-7.89247000
172.29998995	0.00000000	-10.27313000	-7.89247000
172.49998994	0.00000000	-9.90403500	-7.89247000
172.69998992	0.00000000	-9.95324800	-7.89247000
172.89998991	0.00000000	-10.59916000	-7.89247000
173.09998990	0.00000000	-10.59916000	-7.89247000
173.29998989	0.00000000	-9.90403500	-7.89247000
173.49998988	0.00000000	-9.52879000	-7.89247000
173.69998986	0.00000000	-9.48572700	-7.89247000
173.89998985	0.00000000	-9.48572700	-7.89247000
174.09998984	0.00000000	-9.48572700	-7.89247000
174.29998983	0.00000000	-9.48572700	-7.89247000
174.49998982	0.00000000	-9.48572700	-7.89247000
174.69998980	0.00000000	-9.48572700	-7.89247000
174.89998979	0.00000000	-9.48572700	-7.89247000
175.09998978	0.00000000	-9.48572700	-7.89247000
175.29998977	0.00000000	-9.48572700	-7.89247000
175.49998976	0.00000000	-9.48572700	-7.89247000
175.69998975	0.00000000	-9.48572700	-7.89247000
175.89998973	0.00000000	-9.48572700	-7.84940900
176.09998972	0.00000000	-9.52879000	-7.51722400
176.29998971	0.00000000	-9.86097400	-7.14812900
176.49998970	0.00000000	-10.23007000	-7.51722400
176.69998969	0.00000000	-9.86097400	-7.84940900
176.89998967	0.00000000	-9.52879000	-7.89247000
177.09998966	0.00000000	-9.48572700	-7.89247000
177.29998965	0.00000000	-9.48572700	-7.89247000
177.49998964	0.00000000	-9.52879000	-7.89247000
177.69998963	0.00000000	-9.86097400	-7.89247000
177.89998961	0.00000000	-10.23007000	-7.89247000
178.09998960	0.00000000	-9.86097400	-7.89247000
178.29998959	0.00000000	-9.52879000	-7.89247000
178.49998958	0.00000000	-9.48572700	-7.89247000
178.69998957	0.00000000	-9.48572700	-7.89247000
178.89998956	0.00000000	-9.48572700	-7.89247000
179.09998954	0.00000000	-9.48572700	-7.89247000
179.29998953	0.00000000	-9.48572700	-7.89247000
179.49998952	0.00000000	-9.48572700	-7.89247000
179.69998951	0.00000000	-9.48572700	-7.89247000
179.89998950	0.00000000	-9.48572700	-7.89247000
180.09998948	0.00000000	-9.48572700	-7.89247000
180.29998947	0.00000000	-9.52879000	-7.89247000
180.49998946	0.00000000	-9.86097400	-7.89247000
180.69998945	0.00000000	-10.27313000	-7.89247000
180.89998944	0.00000000	-10.23622000	-7.89247000
181.09998942	0.00000000	-10.31619000	-7.89247000
181.29998941	0.00000000	-10.27928000	-7.89247000
181.49998940	0.00000000	-10.64838000	-7.89247000
181.69998939	0.00000000	-10.55610000	-7.84940900
181.89998938	0.00000000	-9.57800100	-7.51722400
182.09998937	0.00000000	-9.16584600	-7.14812900
182.29998935	0.00000000	-9.85482200	-7.51722400
182.49998934	0.00000000	-9.81791200	-7.84940900
182.69998933	0.00000000	-9.52879000	-7.89247000
182.89998932	0.00000000	-9.48572700	-7.89247000
183.09998931	0.00000000	-9.48572700	-7.89247000
183.29998929	0.00000000	-9.48572700	-7.89247000
183.49998928	0.00000000	-9.48572700	-7.89247000
183.69998927	0.00000000	-9.48572700	-7.89247000
183.89998926	0.00000000	-9.52879000	-7.89247000
184.09998925	0.00000000	-9.90403500	-7.89247000
184.29998923	0.00000000	-10.59916000	-7.89247000
184.49998922	0.00000000	-10.59916000	-7.89247000
184.69998921	0.00000000	-9.90403500	-7.89247000
184.89998920	0.00000000	-9.52879000	-7.89247000
185.09998919	0.00000000	-9.48572700	-7.89247000
185.29998918	0.00000000	-9.48572700	-7.89247000
185.49998916	0.00000000	-9.48572700	-7.89247000
185.69998915	0.00000000	-9.52879000	-7.89247000
185.89998914	0.00000000	-9.86097400	-7.89247000
186.09998913	0.00000000	-10.23007000	-7.89247000
186.29998912	0.00000000	-9.86097400	-7.89247000
186.49998910	0.00000000	-9.52879000	-7.89247000
186.69998909	0.00000000	-9.52879000	-7.89247000
186.89998908	0.00000000	-9.90403500	-7.89247000
187.09998907	0.00000000	-10.64838000	-7.84940900
187.29998906	0.00000000	-11.02362000	-7.51722400
187.49998904	0.00000000	-11.02362000	-7.10506800
187.69998903	0.00000000	-10.64838000	-7.14197800
187.89998902	0.00000000	-9.90403500	-7.10506800
188.09998901	0.00000000	-9.52879000	-7.51722400
188.29998900	0.00000000	-9.48572700	-7.84940900
188.49998899	0.00000000	-9.48572700	-7.89247000
188.69998897	0.00000000	-9.48572700	-7.93553100
188.89998896	0.00000000	-9.48572700	-8.31077700
189.09998895	0.00000000	-9.48572700	-9.05511800
189.29998894	0.00000000	-9.48572700	-9.38115100
189.49998893	0.00000000	-9.52879000	-9.05511800
189.69998891	0.00000000	-9.90403500	-8.31077700
189.89998890	0.00000000	-10.64838000	-7.93553100
190.09998889	0.00000000	-10.97441000	-7.89247000
190.29998888	0.00000000	-10.64838000	-7.84940900
190.49998887	0.00000000	-9.90403500	-7.51722400
190.69998885	0.00000000	-9.52879000	-7.14812900
190.89998884	0.00000000	-9.48572700	-7.51722400
191.09998883	0.00000000	-9.52879000	-7.84940900
191.29998882	0.00000000	-9.86097400	-7.89247000
191.49998881	0.00000000	-10.23007000	-7.89247000
191.69998880	0.00000000	-9.86097400	-7.89247000
191.89998878	0.00000000	-9.52879000	-7.89247000
192.09998877	0.00000000	-9.52879000	-7.89247000
192.29998876	0.00000000	-9.86097400	-7.89247000
192.49998875	0.00000000	-10.23007000	-7.89247000
192.69998874	0.00000000	-9.90403500	-7.89247000
192.89998872	0.00000000	-9.95324800	-7.89247000
193.09998871	0.00000000	-10.64838000	-7.89247000
193.29998870	0.00000000	-10.97441000	-7.89247000
193.49998869	0.00000000	-10.69144000	-7.89247000
193.69998868	0.00000000	-10.27928000	-7.89247000
193.89998866	0.00000000	-10.27313000	-7.89247000
194.09998865	0.00000000	-9.86097400	-7.89247000
194.29998864	0.00000000	-9.52879000	-7.89247000
194.49998863	0.00000000	-9.48572700	-7.89247000
194.69998862	0.00000000	-9.48572700	-7.89247000
194.89998861	0.00000000	-9.48572700	-7.89247000
195.09998859	0.00000000	-9.48572700	-7.89247000
195.29998858	0.00000000	-9.52879000	-7.89247000
195.49998857	0.00000000	-9.90403500	-7.89247000
195.69998856	0.00000000	-10.64838000	-7.89247000
195.89998855	0.00000000	-11.02362000	-7.89247000
196.09998853	0.00000000	-11.06668000	-7.89247000
