Time	Channel A	Channel B	Channel C
(us)	(V)	(mV)	(mV)

-4.59999956	0.00000000	30.03814000	7.93553100
-4.39999957	0.00000000	30.03814000	8.31077700
-4.19999958	0.00000000	29.99508000	9.05511800
-3.99999959	0.00000000	29.66289000	9.38115100
-3.79999960	0.00000000	29.29380000	9.09817800
-3.59999962	0.00000000	29.66289000	8.68602300
-3.39999963	0.00000000	29.99508000	8.72293300
-3.19999964	0.00000000	30.03814000	8.64296200
-2.99999965	0.00000000	29.99508000	8.67987200
-2.79999966	0.00000000	29.61983000	8.31077700
-2.59999968	0.00000000	28.92470000	8.35998900
-2.39999969	0.00000000	28.92470000	9.05511800
-2.19999970	0.00000000	29.61983000	9.43036400
-1.99999971	0.00000000	29.99508000	9.47342500
-1.79999972	0.00000000	30.03814000	9.47342500
-1.59999973	0.00000000	30.03814000	9.47342500
-1.39999975	0.00000000	30.03814000	9.43036400
-1.19999976	0.00000000	30.03814000	9.09817800
-0.99999977	0.00000000	30.03814000	8.72908400
-0.79999978	0.00000000	30.03814000	9.09817800
-0.59999979	0.00000000	30.03814000	9.43036400
-0.39999981	0.15871060	30.03814000	9.47342500
-0.19999982	0.47736220	30.03814000	9.47342500
0.00000017	0.79601380	30.03814000	9.47342500
0.20000016	1.11466500	30.03814000	9.43036400
0.40000015	0.95533960	30.03814000	9.05511800
0.60000013	0.63668800	30.03814000	8.31077700
0.80000012	-0.15871060	30.03814000	7.93553100
1.00000011	-1.11466500	30.03814000	7.93553100
1.20000010	-2.07062000	30.03814000	8.31077700
1.40000009	-2.70792300	30.03814000	9.05511800
1.60000008	-2.70792300	30.03814000	9.43036400
1.80000006	-1.91129400	30.03814000	9.47342500
2.00000005	-0.31803640	30.03814000	9.47342500
2.20000004	1.75196900	30.03814000	9.47342500
2.40000003	3.66326300	30.03814000	9.43036400
2.60000002	5.09719500	30.03814000	9.05511800
2.80000000	5.25652100	29.99508000	8.31077700
2.99999999	3.98191400	29.61983000	7.93553100
3.19999998	1.27399100	28.87549000	7.89247000
3.39999997	-1.91129400	28.50024000	7.89247000
3.59999996	-5.25652100	28.50024000	7.93553100
3.79999994	-7.48646600	28.87549000	8.31077700
3.99999993	-7.96444400	29.61983000	9.05511800
4.19999992	-6.37180100	29.99508000	9.43036400
4.39999991	-3.02657500	30.03814000	9.47342500
4.59999990	1.27399100	30.03814000	9.47342500
4.79999989	5.57517200	30.03814000	9.43036400
4.99999987	8.60174700	29.99508000	9.05511800
5.19999986	9.39837600	29.61983000	8.31077700
5.39999985	7.96444400	28.87549000	7.93553100
5.59999984	4.45989200	28.54946000	7.89247000
5.79999983	-0.15871060	28.87549000	7.89247000
5.99999981	-4.93786900	29.61983000	7.89247000
6.19999980	-8.28309500	29.99508000	7.93553100
6.39999979	-9.55770200	30.03814000	8.31077700
6.59999978	-8.44242100	30.03814000	9.05511800
6.79999977	-5.25652100	30.03814000	9.43036400
6.99999975	-0.95533960	30.03814000	9.47342500
7.19999974	3.18590100	29.99508000	9.47342500
7.39999973	6.37180100	29.61983000	9.43036400
7.59999972	7.80511800	28.87549000	9.05511800
7.79999971	7.16781500	28.50024000	8.31077700
7.99999970	4.77854300	28.45718000	7.93553100
8.19999968	1.59264300	28.50024000	7.89247000
8.39999967	-1.59264300	28.83243000	7.93553100
8.59999966	-3.98191400	29.20152000	8.26771600
8.79999965	-5.09719500	28.83243000	8.67987200
8.99999964	-4.77854300	28.54946000	8.68602300
9.19999962	-3.50393700	28.87549000	9.05511800
9.39999961	-1.59264300	29.61983000	9.05511800
9.59999960	0.31803640	29.94586000	8.68602300
9.79999959	1.75196900	29.61983000	8.67987200
9.99999958	2.54859700	28.92470000	8.26771600
10.19999956	2.38927200	28.87549000	7.98474400
10.39999955	1.91129400	29.20152000	8.26771600
10.59999954	0.95533960	28.83243000	8.63681000
10.79999953	0.15871060	28.50024000	8.26771600
10.99999952	-0.47736220	28.45718000	7.93553100
11.19999951	-0.95533960	28.45718000	7.89247000
11.39999949	-0.95533960	28.45718000	7.89247000
11.59999948	-0.79601380	28.45718000	7.89247000
11.79999947	-0.63668800	28.50024000	7.89247000
11.99999946	-0.31803640	28.83243000	7.89247000
12.19999945	-0.15871060	29.20152000	7.93553100
12.39999943	-0.15871060	28.87549000	8.26771600
12.59999942	0.00000000	28.87549000	8.67987200
12.79999941	0.00000000	29.20152000	8.68602300
12.99999940	0.00000000	28.83243000	9.05511800
13.19999939	0.00000000	28.54946000	9.00590400
13.39999937	0.00000000	28.83243000	8.35998900
13.59999936	0.00000000	29.20152000	8.31077700
13.79999935	0.00000000	28.83243000	8.63681000
13.99999934	-0.15871060	28.50024000	8.26771600
14.19999933	-0.15871060	28.45718000	7.93553100
14.39999932	-0.15871060	28.45718000	7.89247000
14.59999930	-0.15871060	28.45718000	7.93553100
14.79999929	0.00000000	28.45718000	8.26771600
14.99999928	0.00000000	28.45718000	8.63681000
15.19999927	0.00000000	28.45718000	8.26771600
15.39999926	0.00000000	28.45718000	7.98474400
15.59999924	0.00000000	28.45718000	8.26771600
15.79999923	0.00000000	28.45718000	8.63681000
15.99999922	0.00000000	28.45718000	8.26771600
16.19999921	0.00000000	28.45718000	7.93553100
16.39999920	-0.15871060	28.50024000	7.89247000
16.59999919	-0.15871060	28.87549000	7.93553100
16.79999917	-0.15871060	29.61983000	8.26771600
16.99999916	0.00000000	29.99508000	8.63681000
17.19999915	0.00000000	30.08120000	8.26771600
17.39999914	0.00000000	30.41338000	7.98474400
17.59999913	0.00000000	30.78248000	8.26771600
17.79999911	0.00000000	30.37032000	8.63681000
17.99999910	0.00000000	29.61983000	8.31077700
18.19999909	0.00000000	28.41412000	8.31077700
18.39999908	0.00000000	26.87623000	8.63681000
18.59999907	0.00000000	25.33834000	8.26771600
18.79999905	-0.15871060	24.18184000	7.93553100
18.99999904	0.00000000	23.84965000	7.93553100
19.19999903	0.00000000	24.64321000	8.26771600
19.39999902	0.00000000	26.96850000	8.63681000
19.59999901	0.00000000	30.08120000	8.26771600
19.79999900	0.00000000	33.61835000	7.93553100
19.99999898	0.00000000	37.43848000	7.89247000
20.19999897	0.00000000	40.04675000	7.89247000
20.39999896	0.00000000	40.04675000	7.89247000
20.59999895	0.00000000	37.30315000	7.89247000
20.79999894	0.00000000	32.22810000	7.89247000
20.99999892	0.00000000	25.20300000	7.89247000
21.19999891	0.00000000	17.52584000	7.89247000
21.39999890	0.00000000	11.01747000	7.89247000
21.59999889	0.00000000	7.98474400	7.89247000
21.79999888	0.00000000	9.56569900	7.89247000
21.99999886	0.00000000	15.84646000	7.89247000
22.19999885	0.00000000	26.31643000	7.89247000
22.39999884	0.00000000	39.01944000	7.89247000
22.59999883	0.00000000	50.60285000	7.89247000
22.79999882	0.00000000	58.28617000	7.93553100
22.99999881	0.00000000	60.14394000	8.31077700
23.19999879	0.00000000	54.65674000	9.05511800
23.39999878	0.00000000	42.65502000	9.43036400
23.59999877	0.00000000	26.32259000	9.51648500
23.79999876	0.00000000	8.59375000	9.89173200
23.99999875	0.00000000	-6.33612200	10.58686000
24.19999873	0.00000000	-13.60113000	10.53765000
24.39999872	0.00000000	-10.90059000	9.42421200
24.59999871	0.00000000	1.14419300	7.89247000
24.79999870	0.00000000	20.45399000	6.31151500
24.99999869	0.00000000	42.87647000	4.73671200
25.19999867	0.00000000	62.93676000	3.24803100
25.39999866	0.00000000	76.42715000	2.50369100
25.59999865	-0.15871060	79.41068000	3.33415300
25.79999864	0.00000000	70.52164000	5.61638700
25.99999863	0.00000000	51.63016000	9.14124000
26.19999862	0.00000000	27.30069000	13.00443000
26.39999860	0.00000000	3.33415300	16.85531000
26.59999859	0.00000000	-15.22515000	19.50664000
26.79999858	0.00000000	-24.06496000	19.88189000
26.99999857	0.00000000	-20.94611000	17.88263000
27.19999856	0.00000000	-6.29306100	13.18898000
27.39999854	0.00000000	16.41240000	6.22539300
27.59999853	0.00000000	41.16019000	-1.48868100
27.79999852	0.00000000	62.42617000	-8.36614100
27.99999851	0.00000000	76.00885000	-12.17397000
28.19999850	0.00000000	78.67249000	-11.38656000
28.39999848	0.00000000	70.28174000	-6.32381900
28.59999847	0.00000000	52.89124000	2.63902500
28.79999846	0.00000000	31.29306000	14.21014000
28.99999845	0.00000000	9.99015700	25.77510000
29.19999844	0.00000000	-6.25000000	34.60876000
29.39999843	0.00000000	-14.06250000	38.41658000
29.59999841	0.00000000	-12.57382000	35.67913000
29.79999840	0.00000000	-2.57135800	26.75935000
29.99999839	0.00000000	13.29355000	13.19513000
30.19999838	0.00000000	31.44069000	-2.60211600
30.39999837	0.00000000	48.09301000	-16.86762000
30.59999835	0.00000000	59.35654000	-26.11343000
30.79999834	0.00000000	63.68110000	-28.38951000
30.99999833	0.00000000	60.60531000	-22.58243000
31.19999832	0.00000000	50.97810000	-9.85482200
31.39999831	0.00000000	37.48154000	6.77903500
31.59999829	0.00000000	23.15453000	24.15723000
31.79999828	0.00000000	11.14665000	38.46580000
31.99999827	0.00000000	3.75246000	46.55511000
32.19999826	0.00000000	2.12844500	46.91806000
32.39999825	-0.15871060	5.94242000	38.79183000
32.59999824	0.00000000	13.71186000	24.20029000
32.79999822	0.00000000	24.18184000	6.73597400
32.99999821	0.00000000	35.34695000	-10.27313000
33.19999820	0.00000000	44.19291000	-23.73892000
33.39999819	0.00000000	48.51131000	-29.92126000
33.59999818	0.00000000	47.81619000	-27.69439000
33.79999816	0.00000000	43.20866000	-18.44857000
33.99999815	0.00000000	35.85752000	-4.09694900
34.19999814	0.00000000	27.38681000	12.49385000
34.39999813	0.00000000	20.03568000	27.96506000
34.59999812	0.00000000	15.38509000	38.74877000
34.79999810	0.00000000	14.22244000	42.64886000
34.99999809	0.00000000	16.87377000	38.84104000
35.19999808	0.00000000	22.22564000	28.84473000
35.39999807	0.00000000	28.41412000	15.28051000
35.59999806	0.00000000	34.18430000	0.59670270
35.79999805	0.00000000	38.04749000	-12.08169000
35.99999803	0.00000000	38.84104000	-19.37746000
36.19999802	0.00000000	36.92790000	-19.46973000
36.39999801	0.00000000	32.68946000	-12.96752000
36.59999800	0.00000000	27.34375000	-2.18380900
36.79999799	0.00000000	22.73007000	10.49459000
36.99999797	0.00000000	19.99262000	21.64739000
37.19999796	0.00000000	19.61737000	28.20497000
37.39999795	0.00000000	21.57357000	29.03543000
37.59999794	0.00000000	25.80585000	24.06496000
37.79999793	0.00000000	31.10851000	15.23130000
37.99999791	0.00000000	35.39001000	4.91510800
38.19999790	0.00000000	37.72145000	-3.90625000
38.39999789	0.00000000	38.13361000	-8.13853400
38.59999788	0.00000000	36.18971000	-7.39419200
38.79999787	0.00000000	32.73868000	-1.63016700
38.99999786	0.00000000	28.45718000	7.51722400
39.19999784	0.00000000	24.18184000	16.67692000
39.39999783	0.00000000	20.73080000	23.22835000
39.59999782	0.00000000	18.78691000	25.09227000
39.79999781	0.00000000	19.14985000	21.69045000
39.99999780	0.00000000	21.06299000	13.98868000
40.19999778	0.00000000	24.22490000	4.45374000
40.39999777	0.00000000	28.45718000	-4.41067900
40.59999776	0.00000000	32.68946000	-9.76254800
40.79999775	0.00000000	35.81446000	-10.54995000
40.99999774	0.00000000	37.39542000	-6.27460600
41.19999772	0.00000000	37.39542000	2.12844500
41.39999771	0.00000000	35.85752000	12.11860000
41.59999770	0.00000000	33.11393000	20.95226000
41.79999769	0.00000000	29.61983000	26.34104000
41.99999768	0.00000000	25.76279000	26.75935000
42.19999767	0.00000000	22.64394000	22.57628000
42.39999765	0.00000000	20.68774000	15.23130000
42.59999764	0.00000000	19.94340000	6.40378900
42.79999763	0.00000000	21.10605000	-1.63016700
42.99999762	0.00000000	23.75738000	-6.27460600
43.19999761	0.00000000	26.83317000	-6.78518600
43.39999759	0.00000000	29.57062000	-4.09079700
43.59999758	0.00000000	31.48376000	0.92888770
43.79999757	0.00000000	32.31422000	7.47416300
43.99999756	0.00000000	31.99434000	13.61343000
44.19999755	0.00000000	31.61909000	17.88263000
44.39999753	0.00000000	31.20078000	19.42052000
44.59999752	0.00000000	30.45644000	17.93184000
44.79999751	0.00000000	30.08120000	14.11786000
44.99999750	0.00000000	30.03814000	9.56569900
45.19999749	0.00000000	29.99508000	5.66560000
45.39999748	0.00000000	29.52756000	3.29109200
45.59999746	0.00000000	27.94660000	2.08538400
45.79999745	0.00000000	25.29527000	2.12844500
45.99999744	0.00000000	22.60088000	3.61712600
46.19999743	0.00000000	20.59547000	5.93626900
46.39999742	0.00000000	19.10679000	8.26771600
46.59999740	0.00000000	18.87303000	10.62992000
46.79999739	0.00000000	21.61663000	12.49385000
46.99999738	0.00000000	26.96850000	13.28125000
47.19999737	0.00000000	33.15699000	12.49385000
47.39999736	0.00000000	38.97638000	10.62992000
47.59999734	0.00000000	43.16560000	8.31077700
47.79999733	0.00000000	44.23597000	6.36072800
47.99999732	0.00000000	41.16019000	4.73671200
48.19999731	0.00000000	34.60876000	3.24803100
48.39999730	0.00000000	26.50098000	2.54675200
48.59999729	0.00000000	18.36245000	3.70939900
48.79999727	0.00000000	12.22318000	6.36072800
48.99999726	0.00000000	9.52263600	9.42421200
49.19999725	0.00000000	11.10359000	12.16781000
49.39999724	0.00000000	16.91683000	14.07480000
49.59999723	0.00000000	25.76279000	14.85605000
49.79999721	0.00000000	35.39001000	14.03174000
49.99999720	0.00000000	43.07332000	11.74951000
50.19999719	0.00000000	46.93036000	8.22465500
50.39999718	0.00000000	45.77386000	4.45374000
50.59999717	0.00000000	40.04675000	1.34719500
50.79999715	0.00000000	31.57603000	0.17839570
50.99999714	0.00000000	22.68701000	0.55364170
51.19999713	0.00000000	15.38509000	2.50369100
51.39999712	0.00000000	11.52190000	5.98548200
51.59999711	0.00000000	12.30930000	9.84867000
51.79999710	0.00000000	17.24902000	13.69956000
51.99999708	0.00000000	24.96309000	16.35089000
52.19999707	0.00000000	33.02165000	16.76919000
52.39999706	0.00000000	39.57923000	15.23130000
52.59999705	0.00000000	42.65502000	12.11860000
52.79999704	0.00000000	41.53543000	7.89247000
52.99999702	0.00000000	36.92790000	3.70939900
53.19999701	0.00000000	29.99508000	1.01501000
53.39999700	0.00000000	22.68701000	0.55364170
53.59999699	0.00000000	16.96604000	1.71013800
53.79999698	0.00000000	14.64075000	4.03543200
53.99999696	0.00000000	16.54158000	7.47416300
54.19999695	0.00000000	21.48130000	10.49459000
54.39999694	0.00000000	28.03888000	12.07554000
54.59999693	0.00000000	34.14124000	12.11860000
54.79999692	0.00000000	38.04749000	10.96211000
54.99999691	0.00000000	38.79798000	9.09817800
55.19999689	0.00000000	36.50959000	7.14812900
55.39999688	0.00000000	31.53297000	6.02854300
55.59999687	0.00000000	25.80585000	5.66560000
55.79999686	0.00000000	21.14911000	6.82209600
55.99999685	0.00000000	18.41166000	9.05511800
56.19999683	0.00000000	18.03642000	10.96211000
56.39999682	0.00000000	19.99262000	12.11860000
56.59999681	0.00000000	24.22490000	12.07554000
56.79999680	0.00000000	29.57677000	10.49459000
56.99999679	0.00000000	34.18430000	7.42495000
57.19999677	0.00000000	36.88484000	3.62327700
57.39999676	0.00000000	36.92790000	0.59670270
57.59999675	0.00000000	34.65182000	-0.51673230
57.79999674	0.00000000	31.20078000	1.02116100
57.99999673	0.00000000	27.34375000	4.87204700
58.19999672	0.00000000	24.26796000	9.84867000
58.39999670	0.00000000	22.68701000	14.85605000
58.59999669	0.00000000	22.64394000	18.30093000
58.79999668	0.00000000	23.80659000	19.46358000
58.99999667	0.00000000	25.71358000	17.88263000
59.19999666	0.00000000	28.03888000	13.61343000
59.39999664	0.00000000	29.94586000	7.47416300
59.59999663	0.00000000	31.10851000	0.92888770
59.79999662	0.00000000	31.10851000	-4.09079700
59.99999661	0.00000000	30.03814000	-6.74212600
60.19999660	0.00000000	28.87549000	-5.89936000
60.39999658	0.00000000	28.08194000	-0.93503930
60.59999657	0.00000000	27.29453000	6.36072800
60.79999656	0.00000000	26.96850000	14.07480000
60.99999655	0.00000000	27.29453000	20.62008000
61.19999654	0.00000000	28.03888000	24.02190000
61.39999653	0.00000000	28.41412000	23.32062000
61.59999651	0.00000000	28.45718000	18.67618000
61.79999650	0.00000000	28.41412000	11.74951000
61.99999649	0.00000000	28.03888000	3.62327700
62.19999648	0.00000000	27.25147000	-3.62942900
62.39999647	0.00000000	26.54404000	-7.89862200
62.59999645	0.00000000	26.08883000	-8.31692900
62.79999644	0.00000000	26.12574000	-5.20423200
62.99999643	0.00000000	26.13189000	0.97194880
63.19999642	0.00000000	26.96850000	9.00590400
63.39999641	0.00000000	28.45718000	16.35089000
63.59999639	0.00000000	29.99508000	21.41363000
63.79999638	0.00000000	31.10851000	23.68971000
63.99999637	0.00000000	31.15157000	22.15797000
64.19999636	0.00000000	30.37032000	17.18750000
64.39999635	0.00000000	29.20152000	10.67298000
64.59999634	0.00000000	27.29453000	4.04158400
64.79999632	0.00000000	25.80585000	-1.35334600
64.99999631	0.00000000	25.33834000	-4.82898600
65.19999630	0.00000000	25.33834000	-5.24729300
65.39999629	0.00000000	25.71358000	-2.97736200
65.59999628	0.00000000	26.54404000	0.87967510
65.79999626	0.00000000	27.66978000	5.89320800
65.99999625	0.00000000	29.15231000	10.53765000
66.19999624	0.00000000	29.52756000	14.11786000
66.39999623	0.00000000	28.78937000	16.81225000
66.59999622	0.00000000	27.66363000	17.97490000
66.79999620	0.00000000	26.08883000	17.23056000
66.99999619	0.00000000	25.01230000	15.27436000
67.19999618	0.00000000	24.60015000	12.16166000
67.39999617	0.00000000	25.38755000	8.31077700
67.59999616	0.00000000	26.91929000	4.82283400
67.79999615	0.00000000	28.87549000	2.04232300
67.99999613	0.00000000	31.15157000	0.09227362
68.19999612	0.00000000	32.64640000	-1.06422200
68.39999611	0.00000000	32.64640000	-1.02116100
68.59999610	0.00000000	31.10851000	0.51058070
68.79999609	0.00000000	28.41412000	3.24803100
68.99999607	0.00000000	25.25221000	6.77903500
69.19999606	0.00000000	21.80118000	11.04823000
69.39999605	0.00000000	18.78691000	15.23130000
69.59999604	0.00000000	18.03642000	17.97490000
69.79999603	0.00000000	19.52510000	18.71924000
69.99999601	0.00000000	22.68701000	17.55659000
70.19999600	0.00000000	27.34375000	14.07480000
70.39999599	0.00000000	32.68946000	9.43036400
70.59999598	0.00000000	36.92790000	4.36146600
70.79999597	0.00000000	38.88410000	-0.60285430
70.99999596	0.00000000	38.46580000	-3.62942900
71.19999594	0.00000000	35.34695000	-3.67249000
71.39999593	0.00000000	29.99508000	-1.02116100
71.59999592	0.00000000	24.18184000	3.20497000
71.79999591	0.00000000	19.14985000	7.84940900
71.99999590	0.00000000	15.66806000	12.11860000
72.19999588	0.00000000	14.91757000	15.18824000
72.39999587	0.00000000	16.83071000	16.39395000
72.59999586	0.00000000	21.10605000	15.60654000
72.79999585	0.00000000	26.87623000	13.32431000
72.99999584	0.00000000	32.64640000	9.89173200
73.19999582	0.00000000	36.92790000	6.82209600
73.39999581	0.00000000	38.88410000	4.82283400
73.59999580	0.00000000	38.50886000	3.66633800
73.79999579	0.00000000	35.81446000	3.70939900
73.99999578	0.00000000	31.53297000	5.15501900
74.19999577	0.00000000	26.54404000	7.01279500
74.39999575	0.00000000	21.89960000	7.80019600
74.59999574	0.00000000	19.19906000	7.84940900
74.79999573	0.00000000	18.36245000	7.42495000
74.99999572	0.00000000	19.56816000	6.31151500
75.19999571	0.00000000	22.60088000	5.24729300
75.39999569	0.00000000	26.40871000	5.24729300
75.59999568	0.00000000	29.52756000	6.40378900
75.79999567	0.00000000	31.52682000	8.31077700
75.99999566	0.00000000	32.68946000	10.62992000
76.19999565	0.00000000	32.64640000	12.58612000
76.39999563	0.00000000	31.20078000	14.07480000
76.59999562	0.00000000	29.25074000	14.39468000
76.79999561	0.00000000	27.74975000	12.45079000
76.99999560	0.00000000	26.55635000	9.00590400
77.19999559	0.00000000	26.54404000	4.73671200
77.39999558	0.00000000	26.83317000	0.55364170
77.59999556	0.00000000	26.87623000	-2.14074800
77.79999555	0.00000000	26.83317000	-2.55905500
77.99999554	0.00000000	26.45792000	-0.97810030
78.19999553	0.00000000	25.71358000	2.55290300
78.39999552	0.00000000	25.33834000	7.89247000
78.59999550	0.00000000	25.29527000	13.28125000
78.79999549	0.00000000	25.33834000	17.14444000
78.99999548	0.00000000	25.80585000	19.08834000
79.19999547	0.00000000	27.34375000	18.30093000
79.39999546	0.00000000	29.61983000	15.27436000
79.59999544	0.00000000	31.48376000	11.00517000
79.79999543	0.00000000	32.31422000	6.35457700
79.99999542	0.00000000	31.90207000	2.08538400
80.19999541	0.00000000	30.73326000	-0.97810030
80.39999540	0.00000000	28.41412000	-2.13459600
80.59999539	0.00000000	25.71358000	-1.02116100
80.79999537	0.00000000	23.43135000	1.71013800
80.99999536	0.00000000	21.85654000	5.48105300
81.19999535	0.00000000	21.89345000	9.41806000
81.39999534	0.00000000	23.01919000	12.12475000
81.59999533	0.00000000	25.33834000	14.53002000
81.79999531	0.00000000	28.03888000	15.60654000
81.99999530	0.00000000	30.37032000	15.32357000
82.19999529	0.00000000	32.27116000	14.11786000
82.39999528	0.00000000	32.64640000	12.16781000
82.59999527	0.00000000	31.52682000	9.42421200
82.79999525	0.00000000	29.57062000	6.36072800
82.99999524	0.00000000	26.91929000	3.61712600
83.19999523	0.00000000	24.64321000	1.66707700
83.39999522	0.00000000	23.80659000	0.51058070
83.59999521	0.00000000	23.75738000	0.51058070
83.79999520	0.00000000	24.18184000	1.66707700
83.99999518	0.00000000	25.33834000	3.66633800
84.19999517	0.00000000	26.83317000	6.77903500
84.39999516	0.00000000	27.98966000	10.58686000
84.59999515	0.00000000	28.41412000	13.69956000
84.79999514	0.00000000	28.41412000	15.64960000
84.99999512	0.00000000	28.03888000	16.39395000
85.19999511	0.00000000	27.34375000	15.18824000
85.39999510	0.00000000	27.34375000	12.11860000
85.59999509	0.00000000	28.03888000	7.89247000
85.79999508	0.00000000	28.41412000	3.62327700
85.99999506	0.00000000	28.45718000	0.13533460
86.19999505	0.00000000	28.41412000	-2.14074800
86.39999504	0.00000000	27.98966000	-2.14074800
86.59999503	0.00000000	26.87623000	0.17839570
86.79999502	0.00000000	25.71358000	4.04158400
86.99999501	0.00000000	24.92003000	9.05511800
87.19999499	0.00000000	24.18184000	13.65650000
87.39999498	0.00000000	24.22490000	16.72613000
87.59999497	0.00000000	25.29527000	17.50738000
87.79999496	0.00000000	26.50098000	15.60654000
87.99999495	0.00000000	27.66978000	12.11860000
88.19999493	0.00000000	29.20152000	7.47416300
88.39999492	0.00000000	29.94586000	2.50369100
88.59999491	0.00000000	29.99508000	-0.93503930
88.79999490	0.00000000	29.57062000	-2.09153500
88.99999489	0.00000000	28.41412000	-0.55979330
89.19999487	0.00000000	26.91929000	3.29109200
89.39999486	0.00000000	25.71358000	8.26771600
89.59999485	0.00000000	24.96309000	13.28125000
89.79999484	0.00000000	24.55093000	16.72613000
89.99999483	0.00000000	24.96309000	17.88263000
90.19999482	0.00000000	25.71358000	16.35089000
90.39999480	0.00000000	26.87623000	12.49385000
90.59999479	0.00000000	27.98966000	7.51722400
90.79999478	0.00000000	28.41412000	2.50369100
90.99999477	0.00000000	28.45718000	-0.93503930
91.19999476	0.00000000	28.45718000	-2.09153500
91.39999474	0.00000000	28.41412000	-0.55979330
91.59999473	0.00000000	28.03888000	3.29109200
91.79999472	0.00000000	27.29453000	8.22465500
91.99999471	0.00000000	26.96850000	12.86294000
92.19999470	0.00000000	27.29453000	15.56348000
92.39999468	0.00000000	27.98966000	16.34473000
92.59999467	0.00000000	27.98966000	14.76993000
92.79999466	0.00000000	27.25147000	10.91289000
92.99999465	0.00000000	26.45792000	5.98548200
93.19999464	0.00000000	25.29527000	1.39025600
93.39999463	0.00000000	24.18184000	-0.93503930
93.59999461	0.00000000	23.80659000	-0.97810030
93.79999460	0.00000000	24.18184000	0.97194880
93.99999459	0.00000000	25.38755000	4.82898600
94.19999458	0.00000000	27.29453000	9.38115100
94.39999457	0.00000000	29.61983000	13.23819000
94.59999455	0.00000000	31.52682000	15.14518000
94.79999454	0.00000000	32.64640000	14.76993000
94.99999453	0.00000000	32.27116000	12.11860000
95.19999452	0.00000000	30.32111000	8.22465500
95.39999451	0.00000000	27.66363000	4.07849400
95.59999449	0.00000000	24.50787000	0.65206690
95.79999448	0.00000000	21.85039000	0.22145670
95.99999447	0.00000000	19.90034000	1.62401600
96.19999446	0.00000000	19.52510000	3.61712600
96.39999445	0.00000000	20.68774000	6.36072800
96.59999444	0.00000000	23.01919000	9.42421200
96.79999442	0.00000000	26.54404000	12.07554000
96.99999441	0.00000000	30.37032000	13.23819000
97.19999440	0.00000000	33.85827000	12.49385000
97.39999439	0.00000000	35.77140000	10.62992000
97.59999438	0.00000000	35.77140000	8.31077700
97.79999436	0.00000000	33.85827000	6.36072800
97.99999435	0.00000000	30.37032000	4.82283400
98.19999434	0.00000000	26.50098000	4.04158400
98.39999433	0.00000000	22.60088000	4.40452700
98.59999432	0.00000000	19.56816000	5.15501900
98.79999430	0.00000000	18.36245000	6.31151500
98.99999429	0.00000000	19.10679000	7.47416300
99.19999428	0.00000000	21.06299000	8.26771600
99.39999427	0.00000000	24.18184000	9.00590400
99.59999426	0.00000000	28.03888000	9.05511800
99.79999425	0.00000000	31.48376000	8.72908400
99.99999423	0.00000000	33.80905000	9.09817800
100.19999422	0.00000000	34.27657000	9.47342500
100.39999421	0.00000000	33.48917000	9.84867000
100.59999420	0.00000000	31.89591000	10.16855000
100.79999419	0.00000000	28.78937000	9.38115100
100.99999417	0.00000000	25.38755000	7.89247000
101.19999416	0.00000000	22.64394000	6.31151500
101.39999415	0.00000000	21.06299000	4.73671200
101.59999414	0.00000000	20.64468000	3.24803100
101.79999413	0.00000000	21.06299000	2.50369100
101.99999411	0.00000000	22.60088000	3.29109200
102.19999410	0.00000000	24.92003000	5.19808000
102.39999409	0.00000000	27.25147000	7.89247000
102.59999408	0.00000000	29.57062000	10.58686000
102.79999407	0.00000000	31.10851000	12.53691000
102.99999406	0.00000000	31.52682000	13.65650000
103.19999404	0.00000000	31.15157000	13.28125000
103.39999403	0.00000000	29.99508000	11.38041000
103.59999402	0.00000000	28.41412000	9.05511800
103.79999401	0.00000000	26.45792000	6.26845500
103.99999400	0.00000000	24.18184000	3.24803100
104.19999398	0.00000000	22.64394000	0.97194880
104.39999397	0.00000000	22.22564000	0.59670270
104.59999396	0.00000000	22.60088000	2.08538400
104.79999395	0.00000000	23.75738000	4.77977300
104.99999394	0.00000000	25.29527000	7.84940900
105.19999392	0.00000000	26.87623000	10.53765000
105.39999391	0.00000000	28.36491000	12.11860000
105.59999390	0.00000000	29.15231000	12.49385000
105.79999389	0.00000000	28.78937000	11.70029000
105.99999388	0.00000000	28.03888000	9.42421200
106.19999387	0.00000000	26.87623000	6.77903500
106.39999385	0.00000000	25.71358000	4.82283400
106.59999384	0.00000000	24.96309000	3.66633800
106.79999383	0.00000000	24.60015000	3.66633800
106.99999382	0.00000000	25.33834000	4.77977300
107.19999381	0.00000000	26.45792000	6.31151500
107.39999379	0.00000000	27.25147000	7.89247000
107.59999378	0.00000000	28.03888000	9.42421200
107.79999377	0.00000000	28.36491000	10.53765000
107.99999376	0.00000000	28.03888000	10.53765000
108.19999375	0.00000000	27.25147000	9.42421200
108.39999374	0.00000000	26.45792000	7.89247000
108.59999372	0.00000000	25.29527000	6.31151500
108.79999371	0.00000000	24.18184000	4.82283400
108.99999370	0.00000000	23.80659000	4.08464600
109.19999369	0.00000000	24.18184000	4.82283400
109.39999368	0.00000000	25.33834000	6.31151500
109.59999366	0.00000000	26.83317000	7.84940900
109.79999365	0.00000000	28.03888000	9.05511800
109.99999364	0.00000000	28.78937000	9.84867000
110.19999363	0.00000000	29.20152000	10.58686000
110.39999362	0.00000000	28.78937000	10.53765000
110.59999360	0.00000000	28.03888000	9.42421200
110.79999359	0.00000000	26.87623000	7.89247000
110.99999358	0.00000000	25.71358000	6.36072800
111.19999357	0.00000000	24.96309000	5.19808000
111.39999356	0.00000000	24.55093000	4.77977300
111.59999355	0.00000000	24.96309000	4.77977300
111.79999353	0.00000000	25.67052000	5.19808000
111.99999352	0.00000000	26.45792000	6.31151500
112.19999351	0.00000000	26.83317000	7.47416300
112.39999350	0.00000000	26.87623000	8.26771600
112.59999349	0.00000000	26.87623000	9.05511800
112.79999347	0.00000000	26.87623000	9.38115100
112.99999346	0.00000000	26.87623000	9.05511800
113.19999345	0.00000000	26.83317000	8.31077700
113.39999344	0.00000000	26.45792000	7.93553100
113.59999343	0.00000000	25.71358000	7.84940900
113.79999341	0.00000000	25.33834000	7.47416300
113.99999340	0.00000000	25.33834000	6.72982200
114.19999339	0.00000000	25.71358000	6.35457700
114.39999338	0.00000000	26.45792000	6.31151500
114.59999337	0.00000000	26.83317000	6.31151500
114.79999336	0.00000000	26.87623000	6.31151500
114.99999334	0.00000000	26.87623000	6.31151500
115.19999333	0.00000000	26.87623000	6.31151500
115.39999332	0.00000000	26.87623000	6.35457700
115.59999331	0.00000000	26.87623000	6.72982200
115.79999330	0.00000000	26.87623000	7.51722400
115.99999328	0.00000000	26.83317000	8.26771600
116.19999327	0.00000000	26.45792000	9.05511800
116.39999326	0.00000000	25.71358000	9.43036400
116.59999325	0.00000000	25.33834000	9.47342500
116.79999324	0.00000000	25.29527000	9.43036400
116.99999322	0.00000000	25.33834000	9.00590400
117.19999321	0.00000000	25.71358000	7.84940900
117.39999320	0.00000000	26.50098000	6.36072800
117.59999319	0.00000000	27.25147000	5.19808000
117.79999318	0.00000000	28.03888000	4.77977300
117.99999317	0.00000000	28.36491000	4.77977300
118.19999315	0.00000000	28.03888000	5.15501900
118.39999314	0.00000000	27.25147000	5.93626900
118.59999313	0.00000000	26.45792000	6.68676100
118.79999312	0.00000000	25.29527000	7.51722400
118.99999311	0.00000000	24.18184000	8.26771600
119.19999309	0.00000000	23.71432000	9.05511800
119.39999308	0.00000000	23.38214000	9.43036400
119.59999307	0.00000000	23.39444000	9.43036400
119.79999306	0.00000000	24.54478000	9.05511800
119.99999305	0.00000000	25.67052000	8.26771600
120.19999303	0.00000000	26.91929000	7.51722400
120.39999302	0.00000000	28.36491000	6.72982200
120.59999301	0.00000000	29.20152000	6.35457700
120.79999300	0.00000000	29.20767000	6.31151500
120.99999299	0.00000000	29.20152000	6.31151500
121.19999298	0.00000000	28.36491000	6.31151500
121.39999296	0.00000000	26.87623000	6.31151500
121.59999295	0.00000000	25.33834000	6.35457700
121.79999294	0.00000000	24.18184000	6.72982200
121.99999293	0.00000000	23.75738000	7.47416300
122.19999292	0.00000000	23.75738000	7.84940900
122.39999290	0.00000000	24.13263000	7.89247000
122.59999289	0.00000000	24.92003000	7.89247000
122.79999288	0.00000000	25.71358000	7.93553100
122.99999287	0.00000000	26.87623000	8.26771600
123.19999286	0.00000000	27.98966000	8.63681000
123.39999284	0.00000000	28.41412000	8.22465500
123.59999283	0.00000000	28.45718000	7.51722400
123.79999282	0.00000000	28.41412000	6.72982200
123.99999281	0.00000000	28.03888000	6.35457700
124.19999280	0.00000000	27.25147000	6.31151500
124.39999279	0.00000000	26.45792000	6.31151500
124.59999277	0.00000000	25.29527000	6.31151500
124.79999276	0.00000000	24.18184000	6.35457700
124.99999275	0.00000000	23.75738000	6.72982200
125.19999274	0.00000000	23.75738000	7.47416300
125.39999273	0.00000000	24.13263000	7.84940900
125.59999271	0.00000000	24.92003000	7.89247000
125.79999270	0.00000000	25.67052000	7.89247000
125.99999269	0.00000000	26.50098000	7.89247000
126.19999268	0.00000000	27.25147000	7.89247000
126.39999267	0.00000000	27.98966000	7.84940900
126.59999265	0.00000000	28.03888000	7.47416300
126.79999264	0.00000000	27.66978000	6.72982200
126.99999263	0.00000000	27.62057000	6.35457700
127.19999262	0.00000000	26.78395000	6.31151500
127.39999261	0.00000000	25.33834000	6.31151500
127.59999260	0.00000000	24.18184000	6.31151500
127.79999258	0.00000000	23.75738000	6.35457700
127.99999257	0.00000000	23.75738000	6.72982200
128.19999256	0.00000000	24.18184000	7.47416300
128.39999255	0.00000000	25.29527000	7.84940900
128.59999254	0.00000000	26.45792000	7.89247000
128.79999252	0.00000000	27.25147000	7.89247000
128.99999251	0.00000000	28.03888000	7.89247000
129.19999250	0.00000000	28.36491000	7.89247000
129.39999249	0.00000000	27.98966000	7.84940900
129.59999248	0.00000000	26.87623000	7.47416300
129.79999246	0.00000000	25.71358000	6.72982200
129.99999245	0.00000000	24.92003000	6.35457700
130.19999244	0.00000000	24.13263000	6.31151500
130.39999243	0.00000000	23.80659000	6.35457700
130.59999242	0.00000000	24.13263000	6.72982200
130.79999241	0.00000000	24.92003000	7.47416300
130.99999239	0.00000000	25.67052000	7.84940900
131.19999238	0.00000000	26.45792000	7.89247000
131.39999237	0.00000000	26.83317000	7.84940900
131.59999236	0.00000000	26.87623000	7.47416300
131.79999235	0.00000000	26.83317000	6.72982200
131.99999233	0.00000000	26.45792000	6.31151500
132.19999232	0.00000000	25.67052000	5.93626900
132.39999231	0.00000000	24.96309000	5.57332700
132.59999230	0.00000000	24.55093000	5.98548200
132.79999229	0.00000000	24.92003000	6.68676100
132.99999227	0.00000000	25.25221000	7.51722400
133.19999226	0.00000000	25.29527000	8.26771600
133.39999225	0.00000000	25.29527000	9.05511800
133.59999224	0.00000000	25.29527000	9.43036400
133.79999223	0.00000000	25.29527000	9.43036400
133.99999222	0.00000000	25.29527000	9.00590400
134.19999220	0.00000000	25.29527000	7.89247000
134.39999219	0.00000000	25.29527000	6.72982200
134.59999218	0.00000000	25.33834000	5.93626900
134.79999217	0.00000000	25.71358000	5.15501900
134.99999216	0.00000000	26.45792000	4.77977300
135.19999214	0.00000000	26.83317000	4.77977300
135.39999213	0.00000000	26.87623000	5.15501900
135.59999212	0.00000000	26.83317000	5.93626900
135.79999211	0.00000000	26.45792000	6.68676100
135.99999210	0.00000000	25.71358000	7.47416300
136.19999208	0.00000000	25.29527000	7.84940900
136.39999207	0.00000000	24.87697000	7.89247000
136.59999206	0.00000000	24.18184000	7.89247000
136.79999205	0.00000000	24.18184000	7.84940900
136.99999204	0.00000000	24.87697000	7.47416300
137.19999203	0.00000000	25.29527000	6.72982200
137.39999201	0.00000000	25.71358000	6.31151500
137.59999200	0.00000000	26.45792000	5.93626900
137.79999199	0.00000000	26.83317000	5.53026500
137.99999198	0.00000000	26.83317000	5.51796200
138.19999197	0.00000000	26.45792000	5.15501900
138.39999195	0.00000000	25.71358000	5.24729300
138.59999194	0.00000000	25.29527000	6.31151500
138.79999193	0.00000000	24.87697000	7.42495000
138.99999192	0.00000000	24.13263000	7.84940900
139.19999191	0.00000000	23.80659000	7.89247000
139.39999189	0.00000000	24.13263000	7.89247000
139.59999188	0.00000000	24.92003000	7.89247000
139.79999187	0.00000000	25.67052000	7.89247000
139.99999186	0.00000000	26.45792000	7.84940900
140.19999185	0.00000000	26.83317000	7.47416300
140.39999184	0.00000000	26.87623000	6.72982200
140.59999182	0.00000000	26.83317000	6.31151500
140.79999181	0.00000000	26.45792000	5.93626900
140.99999180	0.00000000	25.71358000	5.57332700
141.19999179	0.00000000	25.33834000	5.93626900
141.39999178	0.00000000	25.29527000	6.31151500
141.59999176	0.00000000	25.29527000	6.72982200
141.79999175	0.00000000	25.29527000	7.47416300
141.99999174	0.00000000	25.33834000	7.89247000
142.19999173	0.00000000	25.71358000	8.31077700
142.39999172	0.00000000	26.45792000	9.00590400
142.59999170	0.00000000	26.78395000	9.00590400
142.79999169	0.00000000	26.45792000	8.26771600
142.99999168	0.00000000	25.71358000	7.51722400
143.19999167	0.00000000	25.33834000	6.68676100
143.39999166	0.00000000	25.29527000	5.93626900
143.59999165	0.00000000	25.29527000	5.19808000
143.79999163	0.00000000	25.29527000	5.19808000
143.99999162	0.00000000	25.29527000	5.89320800
144.19999161	0.00000000	25.33834000	6.31151500
144.39999160	0.00000000	25.71358000	6.72982200
144.59999159	0.00000000	26.45792000	7.47416300
144.79999157	0.00000000	26.78395000	7.84940900
144.99999156	0.00000000	26.45792000	7.89247000
145.19999155	0.00000000	25.71358000	7.89247000
145.39999154	0.00000000	25.33834000	7.84940900
145.59999153	0.00000000	25.29527000	7.47416300
145.79999151	0.00000000	25.29527000	6.72982200
145.99999150	0.00000000	25.29527000	6.35457700
146.19999149	0.00000000	25.29527000	6.31151500
146.39999148	0.00000000	25.29527000	6.31151500
146.59999147	0.00000000	25.29527000	6.31151500
146.79999146	0.00000000	25.33834000	6.31151500
146.99999144	0.00000000	25.71358000	6.35457700
147.19999143	0.00000000	26.45792000	6.72982200
147.39999142	0.00000000	26.78395000	7.47416300
147.59999141	0.00000000	26.45792000	7.84940900
147.79999140	0.00000000	25.71358000	7.89247000
147.99999138	0.00000000	25.33834000	7.89247000
148.19999137	0.00000000	25.29527000	7.84940900
148.39999136	0.00000000	25.29527000	7.47416300
148.59999135	0.00000000	25.29527000	6.72982200
148.79999134	0.00000000	25.29527000	6.35457700
148.99999132	0.00000000	25.29527000	6.31151500
149.19999131	0.00000000	25.29527000	6.31151500
149.39999130	0.00000000	25.33834000	6.31151500
149.59999129	0.00000000	25.67052000	6.31151500
149.79999128	0.00000000	26.08268000	6.35457700
149.99999127	0.00000000	26.04577000	6.72982200
150.19999125	0.00000000	26.08268000	7.47416300
150.39999124	0.00000000	25.67052000	7.84940900
150.59999123	0.00000000	25.33834000	7.89247000
150.79999122	0.00000000	25.29527000	7.89247000
150.99999121	0.00000000	25.29527000	7.89247000
151.19999119	0.00000000	25.29527000	7.84940900
151.39999118	0.00000000	25.29527000	7.47416300
151.59999117	0.00000000	25.29527000	6.72982200
151.79999116	0.00000000	25.29527000	6.35457700
151.99999115	0.00000000	25.29527000	6.31151500
152.19999113	0.00000000	25.33834000	6.31151500
152.39999112	0.00000000	25.67052000	6.31151500
152.59999111	0.00000000	26.08268000	6.31151500
152.79999110	0.00000000	26.08883000	6.35457700
152.99999109	0.00000000	26.45792000	6.72982200
153.19999108	0.00000000	26.40871000	7.47416300
153.39999106	0.00000000	25.71358000	7.84940900
153.59999105	0.00000000	25.29527000	7.84940900
153.79999104	0.00000000	24.92003000	7.51722400
153.99999103	0.00000000	24.50787000	7.14812900
154.19999102	0.00000000	24.50172000	7.51722400
154.39999100	0.00000000	24.13263000	7.80019600
154.59999099	0.00000000	24.18184000	7.47416300
154.79999098	0.00000000	24.87697000	6.72982200
154.99999097	0.00000000	25.25221000	6.35457700
155.19999096	0.00000000	25.29527000	6.31151500
155.39999094	0.00000000	25.33834000	6.31151500
155.59999093	0.00000000	25.71358000	6.31151500
155.79999092	0.00000000	26.40871000	6.31151500
155.99999091	0.00000000	26.40871000	6.31151500
156.19999090	0.00000000	25.71358000	6.35457700
156.39999089	0.00000000	25.33834000	6.72982200
156.59999087	0.00000000	25.29527000	7.47416300
156.79999086	0.00000000	25.25221000	7.84940900
156.99999085	0.00000000	24.87697000	7.89247000
157.19999084	0.00000000	24.18184000	7.89247000
157.39999083	0.00000000	24.18184000	7.84940900
157.59999081	0.00000000	24.87697000	7.47416300
157.79999080	0.00000000	25.25221000	6.72982200
157.99999079	0.00000000	25.29527000	6.35457700
158.19999078	0.00000000	25.33834000	6.31151500
158.39999077	0.00000000	25.67052000	6.31151500
158.59999075	0.00000000	26.03961000	6.31151500
158.79999074	0.00000000	25.67052000	6.31151500
158.99999073	0.00000000	25.33834000	6.31151500
159.19999072	0.00000000	25.29527000	6.35457700
159.39999071	0.00000000	25.29527000	6.72982200
159.59999070	0.00000000	25.29527000	7.47416300
159.79999068	0.00000000	25.29527000	7.84940900
159.99999067	0.00000000	25.25221000	7.89247000
160.19999066	0.00000000	24.87697000	7.89247000
160.39999065	0.00000000	24.18184000	7.84940900
160.59999064	0.00000000	24.18184000	7.47416300
160.79999062	0.00000000	24.87697000	6.72982200
160.99999061	0.00000000	25.25221000	6.35457700
161.19999060	0.00000000	25.29527000	6.31151500
161.39999059	0.00000000	25.29527000	6.31151500
161.59999058	0.00000000	25.29527000	6.31151500
161.79999056	0.00000000	25.29527000	6.35457700
161.99999055	0.00000000	25.29527000	6.72982200
162.19999054	0.00000000	25.29527000	7.47416300
162.39999053	0.00000000	25.29527000	7.84940900
162.59999052	0.00000000	25.29527000	7.89247000
162.79999051	0.00000000	25.29527000	7.89247000
162.99999049	0.00000000	25.25221000	7.89247000
163.19999048	0.00000000	24.92003000	7.84940900
163.39999047	0.00000000	24.50787000	7.47416300
163.59999046	0.00000000	24.50172000	6.72982200
163.79999045	0.00000000	24.08957000	6.35457700
163.99999043	0.00000000	23.80659000	6.31151500
164.19999042	0.00000000	24.13263000	6.31151500
164.39999041	0.00000000	24.87697000	6.31151500
164.59999040	0.00000000	25.25221000	6.31151500
164.79999039	0.00000000	25.29527000	6.31151500
164.99999037	0.00000000	25.29527000	6.31151500
165.19999036	0.00000000	25.29527000	6.31151500
165.39999035	0.00000000	25.29527000	6.31151500
165.59999034	0.00000000	25.29527000	6.35457700
165.79999033	0.00000000	25.29527000	6.68676100
165.99999032	0.00000000	25.25221000	7.05585600
166.19999030	0.00000000	24.87697000	6.68676100
166.39999029	0.00000000	24.18184000	6.35457700
166.59999028	0.00000000	24.13263000	6.31151500
166.79999027	0.00000000	24.45866000	6.31151500
166.99999026	0.00000000	24.13263000	6.31151500
167.19999024	0.00000000	24.18184000	6.31151500
167.39999023	0.00000000	24.87697000	6.31151500
167.59999022	0.00000000	25.25221000	6.31151500
167.79999021	0.00000000	25.29527000	6.31151500
167.99999020	0.00000000	25.29527000	6.31151500
168.19999018	0.00000000	25.29527000	6.31151500
168.39999017	0.00000000	25.29527000	6.31151500
168.59999016	0.00000000	25.29527000	6.31151500
168.79999015	0.00000000	25.29527000	6.31151500
168.99999014	0.00000000	25.29527000	6.31151500
169.19999013	0.00000000	25.29527000	6.31151500
169.39999011	0.00000000	25.25221000	6.31151500
169.59999010	0.00000000	24.92003000	6.31151500
169.79999009	0.00000000	24.55093000	6.31151500
169.99999008	0.00000000	24.87697000	6.35457700
170.19999007	0.00000000	24.87697000	6.68676100
170.39999005	0.00000000	24.55093000	7.05585600
170.59999004	0.00000000	24.92003000	6.68676100
170.79999003	0.00000000	25.25221000	6.35457700
170.99999002	0.00000000	25.29527000	6.31151500
171.19999001	0.00000000	25.29527000	6.31151500
171.39998999	0.00000000	25.29527000	6.31151500
171.59998998	0.00000000	25.29527000	6.31151500
171.79998997	0.00000000	25.29527000	6.31151500
171.99998996	0.00000000	25.29527000	6.31151500
172.19998995	0.00000000	25.29527000	6.31151500
172.39998994	0.00000000	25.29527000	6.31151500
172.59998992	0.00000000	25.29527000	6.35457700
172.79998991	0.00000000	25.29527000	6.68676100
172.99998990	0.00000000	25.29527000	7.05585600
173.19998989	0.00000000	25.29527000	6.68676100
173.39998988	0.00000000	25.29527000	6.35457700
173.59998986	0.00000000	25.29527000	6.31151500
173.79998985	0.00000000	25.29527000	6.31151500
173.99998984	0.00000000	25.29527000	6.31151500
174.19998983	0.00000000	25.25221000	6.31151500
174.39998982	0.00000000	24.92003000	6.31151500
174.59998980	0.00000000	24.55093000	6.31151500
174.79998979	0.00000000	24.92003000	6.31151500
174.99998978	0.00000000	25.25221000	6.31151500
175.19998977	0.00000000	25.29527000	6.31151500
175.39998976	0.00000000	25.25221000	6.31151500
175.59998975	0.00000000	24.92003000	6.31151500
175.79998973	0.00000000	24.55093000	6.31151500
175.99998972	0.00000000	24.92003000	6.31151500
176.19998971	0.00000000	25.25221000	6.31151500
176.39998970	0.00000000	25.29527000	6.31151500
176.59998969	0.00000000	25.29527000	6.31151500
176.79998967	0.00000000	25.29527000	6.31151500
176.99998966	0.00000000	25.29527000	6.31151500
177.19998965	0.00000000	25.29527000	6.31151500
177.39998964	0.00000000	25.29527000	6.31151500
177.59998963	0.00000000	25.29527000	6.31151500
177.79998961	0.00000000	25.29527000	6.31151500
177.99998960	0.00000000	25.25221000	6.31151500
178.19998959	0.00000000	24.92003000	6.31151500
178.39998958	0.00000000	24.55093000	6.31151500
178.59998957	0.00000000	24.92003000	6.31151500
178.79998956	0.00000000	25.25221000	6.31151500
178.99998954	0.00000000	25.29527000	6.31151500
179.19998953	0.00000000	25.25221000	6.31151500
179.39998952	0.00000000	24.92003000	6.31151500
179.59998951	0.00000000	24.55093000	6.31151500
179.79998950	0.00000000	24.92003000	6.31151500
179.99998948	0.00000000	25.25221000	6.31151500
180.19998947	0.00000000	25.25221000	6.31151500
180.39998946	0.00000000	24.92003000	6.31151500
180.59998945	0.00000000	24.50787000	6.31151500
180.79998944	0.00000000	24.54478000	6.31151500
180.99998942	0.00000000	24.46481000	6.31151500
181.19998941	0.00000000	24.50172000	6.31151500
181.39998940	0.00000000	24.08957000	6.31151500
181.59998939	0.00000000	23.75738000	6.31151500
181.79998938	0.00000000	23.75738000	6.31151500
181.99998937	0.00000000	24.13263000	6.31151500
182.19998935	0.00000000	24.87697000	6.31151500
182.39998934	0.00000000	25.25221000	6.35457700
182.59998933	0.00000000	25.29527000	6.68676100
182.79998932	0.00000000	25.29527000	7.05585600
182.99998931	0.00000000	25.29527000	6.68676100
183.19998929	0.00000000	25.29527000	6.35457700
183.39998928	0.00000000	25.29527000	6.31151500
183.59998927	0.00000000	25.29527000	6.31151500
183.79998926	0.00000000	25.29527000	6.31151500
183.99998925	0.00000000	25.25221000	6.31151500
184.19998923	0.00000000	24.87697000	6.31151500
184.39998922	0.00000000	24.13263000	6.31151500
184.59998921	0.00000000	23.75738000	6.31151500
184.79998920	0.00000000	23.71432000	6.31151500
184.99998919	0.00000000	23.71432000	6.31151500
185.19998918	0.00000000	23.75738000	6.31151500
185.39998916	0.00000000	24.13263000	6.31151500
185.59998915	0.00000000	24.87697000	6.31151500
185.79998914	0.00000000	25.25221000	6.26845500
185.99998913	0.00000000	25.29527000	5.89320800
186.19998912	0.00000000	25.29527000	5.19808000
186.39998910	0.00000000	25.29527000	5.19808000
186.59998909	0.00000000	25.25221000	5.89320800
186.79998908	0.00000000	24.87697000	6.26845500
186.99998907	0.00000000	24.13263000	6.31151500
187.19998906	0.00000000	23.75738000	6.31151500
187.39998904	0.00000000	23.71432000	6.35457700
187.59998903	0.00000000	23.71432000	6.72982200
187.79998902	0.00000000	23.75738000	7.42495000
187.99998901	0.00000000	24.13263000	7.47416300
188.19998900	0.00000000	24.82775000	7.10506800
188.39998899	0.00000000	24.87697000	7.09891700
188.59998897	0.00000000	24.55093000	6.68676100
188.79998896	0.00000000	24.92003000	6.35457700
188.99998895	0.00000000	25.25221000	6.31151500
189.19998894	0.00000000	25.25221000	6.31151500
189.39998893	0.00000000	24.87697000	6.31151500
189.59998891	0.00000000	24.13263000	6.31151500
189.79998890	0.00000000	23.75738000	6.31151500
189.99998889	0.00000000	23.71432000	6.31151500
190.19998888	0.00000000	23.71432000	6.31151500
190.39998887	0.00000000	23.71432000	6.35457700
190.59998885	0.00000000	23.71432000	6.68676100
190.79998884	0.00000000	23.75738000	7.05585600
190.99998883	0.00000000	24.13263000	6.68676100
191.19998882	0.00000000	24.87697000	6.35457700
191.39998881	0.00000000	25.25221000	6.31151500
191.59998880	0.00000000	25.29527000	6.31151500
191.79998878	0.00000000	25.29527000	6.31151500
191.99998877	0.00000000	25.25221000	6.31151500
192.19998876	0.00000000	24.87697000	6.31151500
192.39998875	0.00000000	24.13263000	6.31151500
192.59998874	0.00000000	23.75738000	6.31151500
192.79998872	0.00000000	23.71432000	6.31151500
192.99998871	0.00000000	23.71432000	6.31151500
193.19998870	0.00000000	23.71432000	6.31151500
193.39998869	0.00000000	23.71432000	6.31151500
193.59998868	0.00000000	23.71432000	6.31151500
193.79998866	0.00000000	23.71432000	6.31151500
193.99998865	0.00000000	23.75738000	6.31151500
194.19998864	0.00000000	24.08957000	6.31151500
194.39998863	0.00000000	24.50172000	6.31151500
194.59998862	0.00000000	24.50787000	6.31151500
194.79998861	0.00000000	24.87697000	6.31151500
194.99998859	0.00000000	24.87697000	6.31151500
195.19998858	0.00000000	24.50787000	6.31151500
195.39998857	0.00000000	24.50172000	6.31151500
195.59998856	0.00000000	24.08957000	6.31151500
195.79998855	0.00000000	23.75738000	6.31151500
195.99998853	0.00000000	23.71432000	6.31151500
