Time	Channel A	Channel B	Channel C
(us)	(V)	(mV)	(mV)

-4.49999956	0.00000000	33.61835000	11.04823000
-4.29999957	0.00000000	33.98745000	11.04823000
-4.09999958	0.00000000	33.99975000	11.04823000
-3.89999959	0.00000000	34.41191000	11.04823000
-3.69999960	0.00000000	34.69488000	11.04823000
-3.49999962	0.00000000	34.41191000	11.04823000
-3.29999963	0.00000000	33.99975000	11.04823000
-3.09999964	0.00000000	33.98745000	11.00517000
-2.89999965	0.00000000	33.57529000	10.67298000
-2.69999966	0.00000000	33.29232000	10.31004000
-2.49999968	0.00000000	33.61835000	10.58686000
-2.29999969	0.00000000	34.31963000	10.21161000
-2.09999970	0.00000000	34.36884000	9.19660400
-1.89999971	0.00000000	34.04282000	9.55954600
-1.69999972	0.00000000	34.36884000	10.53765000
-1.49999973	0.00000000	34.31963000	10.58686000
-1.29999975	0.00000000	33.61835000	9.89173200
-1.09999976	0.00000000	33.24311000	9.56569900
-0.89999977	0.00000000	33.20005000	9.89173200
-0.69999978	0.00000000	33.20005000	10.62992000
-0.49999979	0.00000000	33.20005000	11.00517000
-0.29999981	0.31803640	33.20005000	11.04823000
-0.09999982	0.63668800	33.20005000	11.00517000
0.10000017	0.95533960	33.20005000	10.62992000
0.30000016	0.95533960	33.20005000	9.93479300
0.50000015	0.95533960	33.20005000	9.93479300
0.70000013	0.47736220	33.20005000	10.62992000
0.90000012	-0.31803640	33.20005000	11.00517000
1.10000011	-1.43331700	33.20005000	11.04823000
1.30000010	-2.22994600	33.24311000	11.04823000
1.50000009	-2.70792300	33.57529000	11.04823000
1.70000008	-2.54859700	33.94439000	11.04823000
1.90000006	-1.43331700	33.57529000	11.04823000
2.10000005	0.31803640	33.29232000	11.04823000
2.30000004	2.38927200	33.57529000	11.04823000
2.50000003	4.30056600	33.94439000	11.00517000
2.70000002	5.25652100	33.57529000	10.62992000
2.90000000	5.09719500	33.24311000	9.93479300
3.09999999	3.18590100	33.20005000	9.93479300
3.29999998	0.31803640	33.20005000	10.58686000
3.49999997	-3.02657500	33.20005000	10.62992000
3.69999996	-6.05315000	33.20005000	10.31004000
3.89999994	-7.80511800	33.20005000	10.67298000
4.09999993	-7.64579200	33.24311000	11.04823000
4.29999992	-5.41584600	33.61835000	11.46653000
4.49999991	-1.59264300	34.36884000	12.16166000
4.69999990	2.70792300	34.74409000	12.16166000
4.89999989	6.69045300	34.74409000	11.46653000
5.09999987	9.07972400	34.36884000	11.09129000
5.29999986	9.23905000	33.61835000	11.04823000
5.49999985	7.00848900	33.24311000	11.00517000
5.69999984	3.02657500	33.20005000	10.62992000
5.89999983	-1.75196900	33.20005000	9.93479300
6.09999981	-6.21247500	33.20005000	9.93479300
6.29999980	-8.92039900	33.24311000	10.62992000
6.49999979	-9.39837600	33.57529000	11.00517000
6.69999978	-7.64579200	33.94439000	11.04823000
6.89999977	-3.98191400	33.57529000	11.04823000
7.09999975	0.47736220	33.24311000	11.04823000
7.29999974	4.45989200	33.20005000	11.04823000
7.49999973	7.00848900	33.20005000	11.04823000
7.69999972	7.80511800	33.20005000	11.00517000
7.89999971	6.53112700	33.20005000	10.62992000
8.09999970	3.82258900	33.20005000	9.89173200
8.29999968	0.47736220	33.20005000	9.56569900
8.49999967	-2.54859700	33.20005000	9.89173200
8.69999966	-4.61921700	33.20005000	10.62992000
8.89999965	-5.25652100	33.20005000	11.00517000
9.09999964	-4.61921700	33.20005000	11.04823000
9.29999962	-2.86724900	33.20005000	11.04823000
9.49999961	-0.95533960	33.20005000	11.04823000
9.69999960	0.79601380	33.24311000	11.04823000
9.89999959	2.07062000	33.61835000	11.04823000
10.09999958	2.54859700	34.31963000	11.00517000
10.29999956	2.22994600	34.31963000	10.62992000
10.49999955	1.59264300	33.61835000	9.93479300
10.69999954	0.63668800	33.24311000	9.89173200
10.89999953	-0.15871060	33.20005000	10.21161000
11.09999952	-0.63668800	33.20005000	9.84867000
11.29999951	-0.95533960	33.20005000	9.56569900
11.49999949	-0.95533960	33.24311000	9.89173200
11.69999948	-0.79601380	33.57529000	10.58686000
11.89999947	-0.47736220	33.98745000	10.62992000
12.09999946	-0.15871060	33.95054000	10.31004000
12.29999945	-0.15871060	33.98745000	10.67298000
12.49999943	-0.15871060	33.57529000	10.95595000
12.69999942	0.00000000	33.24311000	10.62992000
12.89999941	0.00000000	33.20005000	9.93479300
13.09999940	0.00000000	33.20005000	9.93479300
13.29999939	0.15871060	33.20005000	10.62992000
13.49999937	0.00000000	33.20005000	11.00517000
13.69999936	0.00000000	33.20005000	11.04823000
13.89999935	0.00000000	33.20005000	11.04823000
14.09999934	-0.15871060	33.20005000	11.04823000
14.29999933	-0.15871060	33.20005000	11.04823000
14.49999932	-0.15871060	33.20005000	11.04823000
14.69999930	0.00000000	33.20005000	11.04823000
14.89999929	0.00000000	33.20005000	11.04823000
15.09999928	0.00000000	33.20005000	11.04823000
15.29999927	0.00000000	33.20005000	11.04823000
15.49999926	0.00000000	33.20005000	11.04823000
15.69999924	0.00000000	33.20005000	11.04823000
15.89999923	0.00000000	33.20005000	11.04823000
16.09999922	0.00000000	33.20005000	11.04823000
16.29999921	0.00000000	33.20005000	11.04823000
16.49999920	-0.15871060	33.24311000	11.04823000
16.69999919	-0.15871060	33.61835000	11.04823000
16.89999917	0.00000000	34.36884000	11.04823000
17.09999916	0.00000000	34.78716000	11.04823000
17.29999915	0.00000000	35.20546000	11.04823000
17.49999914	0.00000000	35.90059000	11.04823000
17.69999913	0.00000000	35.90059000	11.04823000
17.89999911	0.00000000	35.16240000	11.04823000
18.09999910	0.00000000	34.36884000	11.04823000
18.29999909	0.00000000	33.11393000	11.04823000
18.49999908	0.00000000	31.24384000	11.04823000
18.69999907	0.00000000	29.34301000	11.04823000
18.89999905	0.00000000	28.54946000	11.04823000
19.09999904	0.00000000	28.54946000	11.04823000
19.29999903	0.00000000	29.42913000	11.04823000
19.49999902	0.00000000	32.12967000	11.04823000
19.69999901	0.00000000	35.99286000	11.04823000
19.89999900	0.00000000	39.86220000	11.04823000
20.09999898	0.00000000	43.34399000	11.04823000
20.29999897	0.00000000	45.16486000	11.04823000
20.49999896	0.00000000	44.41437000	11.04823000
20.69999895	0.00000000	40.84030000	11.04823000
20.89999894	0.00000000	35.01476000	11.04823000
21.09999892	0.00000000	27.25147000	11.04823000
21.29999891	0.00000000	19.61737000	11.04823000
21.49999890	0.00000000	14.22244000	11.00517000
21.69999889	0.00000000	12.72761000	10.62992000
21.89999888	0.00000000	15.88952000	9.89173200
22.09999886	0.00000000	23.66511000	9.56569900
22.29999885	0.00000000	34.87328000	9.89173200
22.49999884	0.00000000	46.92421000	10.58686000
22.69999883	0.00000000	57.67716000	10.62992000
22.89999882	0.00000000	64.51157000	10.31004000
23.09999881	0.00000000	64.05635000	10.67298000
23.29999879	0.00000000	56.28075000	11.00517000
23.49999878	0.00000000	42.27977000	11.09129000
23.69999877	0.00000000	24.18184000	11.46653000
23.89999876	0.00000000	6.87130900	12.21087000
24.09999875	0.00000000	-5.13041300	12.53691000
24.29999873	0.00000000	-9.31963500	12.16166000
24.49999872	0.00000000	-4.15846400	11.00517000
24.69999871	0.00000000	10.54380000	9.47342500
24.89999870	0.00000000	31.75443000	7.89247000
25.09999869	0.00000000	54.14001000	6.36072800
25.29999867	0.00000000	72.65625000	5.24729300
25.49999866	0.00000000	82.66486000	5.29035400
25.69999865	0.00000000	81.50221000	6.77903500
25.89999864	0.00000000	69.45128000	9.18430000
26.09999863	0.00000000	48.60359000	12.30930000
26.29999862	0.00000000	23.52977000	16.52928000
26.49999860	0.00000000	0.77509840	19.92495000
26.69999859	0.00000000	-14.71457000	21.50590000
26.89999858	0.00000000	-19.32210000	21.08760000
27.09999857	0.00000000	-12.02018000	18.30093000
27.29999856	0.00000000	5.38262700	13.18898000
27.49999854	0.00000000	28.92470000	5.89320800
27.69999853	0.00000000	53.25418000	-1.76550200
27.89999852	0.00000000	72.57013000	-7.16043300
28.09999851	0.00000000	82.66486000	-9.47957600
28.29999850	0.00000000	81.54527000	-7.81250000
28.49999848	0.00000000	70.00491000	-1.58710600
28.69999847	0.00000000	51.07037000	8.49532500
28.89999846	0.00000000	29.06004000	20.43553000
29.09999845	0.00000000	8.96284400	31.58834000
29.29999844	0.00000000	-4.66904500	38.88410000
29.49999843	0.00000000	-9.73794300	40.37278000
29.69999841	0.00000000	-5.87475300	35.30389000
29.89999840	0.00000000	6.45300100	24.10802000
30.09999839	0.00000000	23.76353000	9.43036400
30.29999838	0.00000000	41.57849000	-5.67175200
30.49999837	0.00000000	56.32997000	-18.39936000
30.69999835	0.00000000	65.31126000	-25.65207000
30.89999834	0.00000000	67.26746000	-25.23376000
31.09999833	0.00000000	62.27854000	-16.73228000
31.29999832	0.00000000	51.48868000	-2.09768700
31.49999831	0.00000000	37.94907000	15.32357000
31.69999829	0.00000000	24.36024000	31.95743000
31.89999828	0.00000000	13.15207000	44.69119000
32.09999827	0.00000000	6.96358300	50.44906000
32.29999826	0.00000000	6.87130900	47.76082000
32.49999825	0.00000000	12.26624000	37.30315000
32.69999824	0.00000000	21.52436000	21.13066000
32.89999822	0.00000000	32.73868000	2.97121000
33.09999821	0.00000000	43.15945000	-12.88140000
33.29999820	0.00000000	50.55979000	-23.78814000
33.49999819	0.00000000	53.67864000	-27.60211000
33.69999818	0.00000000	52.14074000	-23.74508000
33.89999816	0.00000000	46.37057000	-12.54921000
34.09999815	0.00000000	37.89985000	3.24803100
34.29999814	0.00000000	29.06004000	19.88189000
34.49999813	0.00000000	22.08415000	34.19045000
34.69999812	0.00000000	18.59006000	43.06717000
34.89999810	0.00000000	18.92224000	44.64198000
35.09999809	0.00000000	22.77928000	38.88410000
35.29999808	0.00000000	28.87549000	27.31299000
35.49999807	0.00000000	35.43922000	12.62918000
35.69999806	0.00000000	40.46506000	-2.00541300
35.89999805	0.00000000	43.16560000	-13.15207000
36.09999803	0.00000000	42.79035000	-17.84572000
36.29999802	0.00000000	39.39468000	-15.56963000
36.49999801	0.00000000	34.78716000	-7.52952700
36.69999800	0.00000000	30.08735000	4.40452700
36.89999799	0.00000000	25.89198000	16.67692000
37.09999797	0.00000000	23.61589000	26.34104000
37.29999796	0.00000000	24.36024000	30.98548000
37.49999795	0.00000000	27.38681000	29.87205000
37.69999794	0.00000000	31.66830000	23.68971000
37.89999793	0.00000000	36.27584000	13.74262000
38.09999791	0.00000000	40.13902000	3.10654500
38.29999790	0.00000000	42.09522000	-4.18922200
38.49999789	0.00000000	42.09522000	-6.18848400
38.69999788	0.00000000	40.13902000	-3.11884800
38.89999787	0.00000000	36.27584000	4.17691900
39.09999786	0.00000000	31.66830000	13.69956000
39.29999784	0.00000000	27.38681000	22.10876000
39.49999783	0.00000000	24.31102000	26.75935000
39.69999782	0.00000000	23.15453000	26.71629000
39.89999781	0.00000000	24.26796000	21.69045000
40.09999780	0.00000000	26.96850000	12.58612000
40.29999778	0.00000000	30.50566000	3.01427100
40.49999777	0.00000000	34.78716000	-4.00467500
40.69999776	0.00000000	39.01944000	-7.85556000
40.89999775	0.00000000	42.13828000	-7.34498000
41.09999774	0.00000000	43.67618000	-1.58710600
41.29999772	0.00000000	43.25172000	7.94168200
41.49999771	0.00000000	40.60039000	17.88263000
41.69999770	0.00000000	36.74335000	25.27067000
41.89999769	0.00000000	32.82480000	28.75861000
42.09999768	0.00000000	28.96776000	27.96506000
42.29999767	0.00000000	26.26722000	22.57628000
42.49999765	0.00000000	25.43061000	14.21014000
42.69999764	0.00000000	25.80585000	5.70866100
42.89999763	0.00000000	27.38681000	-0.84276570
43.09999762	0.00000000	30.03814000	-4.36761800
43.29999761	0.00000000	32.73868000	-3.99852300
43.49999759	0.00000000	34.69488000	-0.55979330
43.69999758	0.00000000	35.94980000	5.24729300
43.89999757	0.00000000	36.70029000	12.11860000
44.09999756	0.00000000	37.11245000	17.88263000
44.29999755	0.00000000	36.70029000	20.99532000
44.49999753	0.00000000	35.99286000	21.08760000
44.69999752	0.00000000	35.20546000	18.81152000
44.89999751	0.00000000	34.83022000	15.32357000
45.09999750	0.00000000	34.78716000	11.09129000
45.29999749	0.00000000	34.74409000	7.24040300
45.49999748	0.00000000	34.27657000	4.87204700
45.69999746	0.00000000	32.64640000	3.70939900
45.89999745	0.00000000	29.61983000	4.12770700
46.09999744	0.00000000	26.18110000	6.40378900
46.29999743	0.00000000	23.89271000	9.42421200
46.49999742	0.00000000	23.15453000	12.16781000
46.69999740	0.00000000	24.77854000	14.11786000
46.89999739	0.00000000	28.96776000	15.27436000
47.09999738	0.00000000	34.41191000	15.27436000
47.29999737	0.00000000	39.86220000	14.11786000
47.49999736	0.00000000	44.88189000	12.21087000
47.69999734	0.00000000	47.85925000	9.89173200
47.89999733	0.00000000	47.48400000	7.93553100
48.09999732	0.00000000	43.58390000	6.36072800
48.29999731	0.00000000	37.02018000	5.29035400
48.49999730	0.00000000	28.87549000	5.66560000
48.69999729	0.00000000	21.19833000	7.56643700
48.89999727	0.00000000	15.80339000	9.89173200
49.09999726	0.00000000	14.30856000	12.62918000
49.29999725	0.00000000	17.42741000	15.27436000
49.49999724	0.00000000	24.73548000	16.81225000
49.69999723	0.00000000	34.36884000	16.81225000
49.89999721	0.00000000	43.58390000	15.23130000
50.09999720	0.00000000	50.14148000	12.16166000
50.29999719	0.00000000	52.04847000	8.31077700
50.49999718	0.00000000	49.02190000	4.82283400
50.69999717	0.00000000	42.08907000	2.12844500
50.89999715	0.00000000	33.20005000	1.01501000
51.09999714	0.00000000	24.31102000	2.17765700
51.29999713	0.00000000	17.42741000	5.24729300
51.49999712	0.00000000	14.77608000	9.47342500
51.69999711	0.00000000	17.38435000	13.74262000
51.89999710	0.00000000	23.89271000	17.18750000
52.09999708	0.00000000	31.99434000	19.13140000
52.29999707	0.00000000	40.08981000	18.71924000
52.49999706	0.00000000	45.81693000	16.43701000
52.69999705	0.00000000	47.39788000	12.58612000
52.89999704	0.00000000	44.78961000	8.44611200
53.09999702	0.00000000	39.35162000	5.66560000
53.29999701	0.00000000	32.40649000	4.45374000
53.49999700	0.00000000	25.15379000	4.08464600
53.69999699	0.00000000	20.63238000	5.29035400
53.89999698	0.00000000	20.50320000	7.89247000
54.09999696	0.00000000	23.94193000	10.58686000
54.29999695	0.00000000	29.34301000	12.58612000
54.49999694	0.00000000	35.85752000	14.11786000
54.69999693	0.00000000	41.20940000	14.76993000
54.89999692	0.00000000	43.58390000	13.28125000
55.09999691	0.00000000	43.20866000	10.35310000
55.29999689	0.00000000	40.08981000	8.44611200
55.49999688	0.00000000	34.73794000	8.02780400
55.69999687	0.00000000	29.01082000	8.77214500
55.89999686	0.00000000	24.73548000	10.67298000
56.09999685	0.00000000	22.82234000	12.58612000
56.29999683	0.00000000	23.57283000	14.11786000
56.49999682	0.00000000	27.01156000	14.85605000
56.69999681	0.00000000	31.61909000	14.03174000
56.89999680	0.00000000	36.27584000	11.74951000
57.09999679	0.00000000	40.08981000	8.26771600
57.29999677	0.00000000	41.67076000	4.87204700
57.49999676	0.00000000	40.93258000	2.54675200
57.69999675	0.00000000	38.64419000	2.22071800
57.89999674	0.00000000	35.16240000	4.17076700
58.09999673	0.00000000	31.71137000	8.40305000
58.29999672	0.00000000	28.96776000	13.74262000
58.49999670	0.00000000	27.42987000	18.39321000
58.69999669	0.00000000	27.42987000	21.46284000
58.89999668	0.00000000	28.92470000	22.15797000
59.09999667	0.00000000	31.24384000	19.46358000
59.29999666	0.00000000	33.53223000	14.07480000
59.49999664	0.00000000	35.43922000	7.51722400
59.69999663	0.00000000	35.85752000	1.01501000
59.89999662	0.00000000	35.16240000	-3.21112200
60.09999661	0.00000000	34.36884000	-4.00467500
60.29999660	0.00000000	33.20005000	-1.67322800
60.49999658	0.00000000	32.08661000	3.75246000
60.69999657	0.00000000	31.66215000	11.04823000
60.89999656	0.00000000	31.66215000	18.35015000
61.09999655	0.00000000	32.03740000	23.73892000
61.29999654	0.00000000	32.78174000	25.64591000
61.49999653	0.00000000	33.15699000	23.73892000
61.69999651	0.00000000	33.20005000	18.35015000
61.89999650	0.00000000	33.15699000	11.00517000
62.09999649	0.00000000	32.78174000	3.29109200
62.29999648	0.00000000	31.99434000	-3.21112200
62.49999647	0.00000000	31.24384000	-6.27460600
62.69999645	0.00000000	30.45644000	-5.16117100
62.89999644	0.00000000	30.13041000	-0.55979330
63.09999643	0.00000000	30.50566000	6.40378900
63.29999642	0.00000000	31.66215000	14.07480000
63.49999641	0.00000000	33.20005000	20.66929000
63.69999639	0.00000000	34.73794000	24.52633000
63.89999638	0.00000000	35.85752000	25.31373000
64.09999637	0.00000000	35.90059000	22.61934000
64.29999636	0.00000000	35.11934000	17.23056000
64.49999635	0.00000000	33.94439000	10.67298000
64.69999634	0.00000000	32.03740000	4.12770700
64.89999632	0.00000000	30.54872000	-0.51673230
65.09999631	0.00000000	30.08120000	-2.50984200
65.29999630	0.00000000	30.08120000	-2.14074800
65.49999629	0.00000000	30.50566000	0.59670270
65.69999628	0.00000000	31.66215000	5.15501900
65.89999626	0.00000000	33.15699000	10.21161000
66.09999625	0.00000000	34.31963000	14.49311000
66.29999624	0.00000000	34.69488000	18.01796000
66.49999623	0.00000000	34.31963000	19.93110000
66.69999622	0.00000000	33.15699000	20.01722000
66.89999620	0.00000000	31.66215000	18.85458000
67.09999619	0.00000000	30.50566000	16.90453000
67.29999618	0.00000000	30.13041000	14.11786000
67.49999617	0.00000000	30.54872000	10.62992000
67.69999616	0.00000000	32.12967000	6.77903500
67.89999615	0.00000000	34.73794000	3.66633800
68.09999613	0.00000000	37.06324000	1.66707700
68.29999612	0.00000000	38.23203000	0.55364170
68.49999611	0.00000000	38.55807000	1.01501000
68.69999610	0.00000000	36.97096000	3.66633800
68.89999609	0.00000000	33.53223000	7.51722400
69.09999607	0.00000000	29.66289000	11.42347000
69.29999606	0.00000000	25.80585000	15.36663000
69.49999605	0.00000000	23.19759000	18.81152000
69.69999604	0.00000000	23.15453000	21.13066000
69.89999603	0.00000000	25.47367000	21.46284000
70.09999601	0.00000000	29.34301000	19.50664000
70.29999600	0.00000000	34.41191000	15.28051000
70.49999599	0.00000000	39.39468000	9.89173200
70.69999598	0.00000000	43.25172000	4.87204700
70.89999597	0.00000000	44.74655000	0.97194880
71.09999596	0.00000000	43.20866000	-0.93503930
71.29999594	0.00000000	38.97638000	-0.55979330
71.49999593	0.00000000	33.15699000	2.12844500
71.69999592	0.00000000	27.01156000	6.35457700
71.89999591	0.00000000	21.99188000	11.00517000
72.09999590	0.00000000	19.66043000	15.23130000
72.29999588	0.00000000	19.99262000	17.92569000
72.49999587	0.00000000	22.73007000	18.35015000
72.69999586	0.00000000	27.38681000	16.85531000
72.89999585	0.00000000	33.20005000	14.16092000
73.09999584	0.00000000	38.92716000	11.09744000
73.29999582	0.00000000	42.79035000	8.35383800
73.49999581	0.00000000	43.62696000	6.44685000
73.69999580	0.00000000	42.13828000	5.66560000
73.89999579	0.00000000	39.01944000	6.40378900
74.09999578	0.00000000	34.73794000	7.89247000
74.29999577	0.00000000	30.08735000	9.42421200
74.49999575	0.00000000	25.89198000	10.53765000
74.69999574	0.00000000	23.57283000	10.53765000
74.89999573	0.00000000	23.89271000	9.47342500
75.09999572	0.00000000	25.80585000	8.35998900
75.29999571	0.00000000	28.92470000	7.93553100
75.49999569	0.00000000	32.73868000	7.98474400
75.69999568	0.00000000	35.81446000	8.82135800
75.89999567	0.00000000	37.39542000	11.14050000
76.09999566	0.00000000	37.43848000	14.16092000
76.29999565	0.00000000	36.32505000	16.81225000
76.49999563	0.00000000	34.78716000	17.92569000
76.69999562	0.00000000	33.24926000	16.81225000
76.89999561	0.00000000	32.08661000	14.11786000
77.09999560	0.00000000	31.66215000	10.58686000
77.29999559	0.00000000	31.61909000	6.31151500
77.49999558	0.00000000	31.61909000	2.12844500
77.69999556	0.00000000	31.61909000	-0.51673230
77.89999555	0.00000000	31.61909000	-0.51673230
78.09999554	0.00000000	31.57603000	2.17765700
78.29999553	0.00000000	31.20078000	6.77903500
78.49999552	0.00000000	30.45644000	12.21087000
78.69999550	0.00000000	30.13041000	17.23056000
78.89999549	0.00000000	30.50566000	21.08760000
79.09999548	0.00000000	31.71137000	22.57628000
79.29999547	0.00000000	33.57529000	21.08760000
79.49999546	0.00000000	35.52534000	17.23056000
79.69999544	0.00000000	36.70029000	12.25394000
79.89999543	0.00000000	37.43848000	7.19734200
80.09999542	0.00000000	37.02018000	3.33415300
80.29999541	0.00000000	35.11319000	0.97194880
80.49999540	0.00000000	32.78174000	0.59670270
80.69999539	0.00000000	30.08120000	2.12844500
80.89999537	0.00000000	27.80512000	5.19808000
81.09999536	0.00000000	27.01156000	9.05511800
81.29999535	0.00000000	27.38681000	12.58612000
81.49999534	0.00000000	28.96776000	15.69882000
81.69999533	0.00000000	31.61909000	17.97490000
81.89999531	0.00000000	34.31963000	18.39321000
82.09999530	0.00000000	36.27584000	17.32283000
82.29999529	0.00000000	37.43848000	15.69882000
82.49999528	0.00000000	37.39542000	13.37352000
82.69999527	0.00000000	35.90059000	10.31004000
82.89999525	0.00000000	33.61835000	7.93553100
83.09999524	0.00000000	31.66215000	5.89320800
83.29999523	0.00000000	30.08120000	3.61712600
83.49999522	0.00000000	28.96776000	2.12844500
83.69999521	0.00000000	28.92470000	2.12844500
83.89999520	0.00000000	29.66289000	3.66633800
84.09999518	0.00000000	30.45644000	6.40378900
84.29999517	0.00000000	31.66215000	9.89173200
84.49999516	0.00000000	33.11393000	13.74262000
84.69999515	0.00000000	33.90133000	16.81225000
84.89999514	0.00000000	33.57529000	18.39321000
85.09999512	0.00000000	33.24311000	18.39321000
85.29999511	0.00000000	33.20005000	16.81225000
85.49999510	0.00000000	33.20005000	13.69956000
85.69999509	0.00000000	33.20005000	9.43036400
85.89999508	0.00000000	33.20005000	4.87204700
86.09999506	0.00000000	33.20005000	1.39025600
86.29999505	0.00000000	33.15699000	0.22145670
86.49999504	0.00000000	32.73252000	0.97194880
86.69999503	0.00000000	31.61909000	3.70939900
86.89999502	0.00000000	30.45644000	7.93553100
87.09999501	0.00000000	29.70595000	12.58612000
87.29999499	0.00000000	29.29380000	16.76919000
87.49999498	0.00000000	29.70595000	19.08834000
87.69999497	0.00000000	30.45644000	18.71924000
87.89999496	0.00000000	31.66215000	16.43701000
88.09999495	0.00000000	33.20005000	12.53691000
88.29999493	0.00000000	34.69488000	7.93553100
88.49999492	0.00000000	35.48228000	3.70939900
88.69999491	0.00000000	35.11934000	1.01501000
88.89999490	0.00000000	34.36884000	0.63976370
89.09999489	0.00000000	33.15699000	2.59596400
89.29999487	0.00000000	31.66215000	6.82209600
89.49999486	0.00000000	30.45644000	12.11860000
89.69999485	0.00000000	29.70595000	16.39395000
89.89999484	0.00000000	29.34301000	18.71924000
90.09999483	0.00000000	30.08120000	19.13140000
90.29999482	0.00000000	31.20078000	17.14444000
90.49999480	0.00000000	31.99434000	13.32431000
90.69999479	0.00000000	32.78174000	8.31077700
90.89999478	0.00000000	33.15699000	3.75246000
91.09999477	0.00000000	33.20005000	1.06422200
91.29999476	0.00000000	33.20005000	1.06422200
91.49999474	0.00000000	33.20005000	3.70939900
91.69999473	0.00000000	33.20005000	7.93553100
91.89999472	0.00000000	33.20005000	12.58612000
92.09999471	0.00000000	33.20005000	16.81225000
92.29999470	0.00000000	33.20005000	19.46358000
92.49999468	0.00000000	33.15699000	19.42052000
92.69999467	0.00000000	32.78174000	16.39395000
92.89999466	0.00000000	31.99434000	11.46653000
93.09999465	0.00000000	31.20078000	6.82209600
93.29999464	0.00000000	30.08120000	3.33415300
93.49999463	0.00000000	29.34301000	1.43331700
93.69999461	0.00000000	29.70595000	2.22071800
93.89999460	0.00000000	30.45644000	5.24729300
94.09999459	0.00000000	31.71137000	9.47342500
94.29999458	0.00000000	33.61835000	13.69956000
94.49999457	0.00000000	35.90059000	16.76919000
94.69999455	0.00000000	37.43848000	17.92569000
94.89999454	0.00000000	37.85679000	16.76919000
95.09999453	0.00000000	37.39542000	13.69956000
95.29999452	0.00000000	35.43922000	9.51648500
95.49999451	0.00000000	31.99434000	5.66560000
95.69999449	0.00000000	28.54946000	3.33415300
95.89999448	0.00000000	25.80585000	2.54675200
96.09999447	0.00000000	24.26796000	3.70939900
96.29999446	0.00000000	24.26796000	6.40378900
96.49999445	0.00000000	25.84892000	9.79945900
96.69999444	0.00000000	28.96776000	12.90600000
96.89999442	0.00000000	33.20005000	14.45005000
97.09999441	0.00000000	37.39542000	14.85605000
97.29999440	0.00000000	40.13902000	13.69956000
97.49999439	0.00000000	40.93258000	11.42347000
97.69999438	0.00000000	40.18209000	9.14124000
97.89999436	0.00000000	37.81373000	7.19734200
98.09999435	0.00000000	34.31963000	6.40378900
98.29999434	0.00000000	30.08735000	6.35457700
98.49999433	0.00000000	26.26722000	6.77903500
98.69999432	0.00000000	24.31102000	7.89247000
98.89999430	0.00000000	24.22490000	9.00590400
99.09999429	0.00000000	25.38755000	9.47342500
99.29999428	0.00000000	27.38681000	9.89173200
99.49999427	0.00000000	30.50566000	10.62992000
99.69999426	0.00000000	34.31963000	11.00517000
99.89999425	0.00000000	37.43848000	11.09129000
100.09999423	0.00000000	39.35162000	11.46653000
100.29999422	0.00000000	39.76377000	12.21087000
100.49999421	0.00000000	38.23203000	12.58612000
100.69999420	0.00000000	35.94980000	12.58612000
100.89999419	0.00000000	33.15699000	12.16166000
101.09999417	0.00000000	30.08120000	11.00517000
101.29999416	0.00000000	27.38681000	9.47342500
101.49999415	0.00000000	25.80585000	7.89247000
101.69999414	0.00000000	25.43061000	6.40378900
101.89999413	0.00000000	26.22416000	5.66560000
102.09999411	0.00000000	28.50024000	6.44685000
102.29999410	0.00000000	31.20078000	8.35383800
102.49999409	0.00000000	33.53223000	11.04823000
102.69999408	0.00000000	35.48228000	13.74262000
102.89999407	0.00000000	36.27584000	15.64960000
103.09999406	0.00000000	36.32505000	16.43701000
103.29999404	0.00000000	35.90059000	15.60654000
103.49999403	0.00000000	34.69488000	13.32431000
103.69999402	0.00000000	32.78174000	9.89173200
103.89999401	0.00000000	30.45644000	6.82209600
104.09999400	0.00000000	28.54946000	4.82283400
104.29999398	0.00000000	27.38681000	3.66633800
104.49999397	0.00000000	27.38681000	3.70939900
104.69999396	0.00000000	28.50024000	5.24729300
104.89999395	0.00000000	30.03814000	7.93553100
105.09999394	0.00000000	31.61909000	11.00517000
105.29999392	0.00000000	33.15699000	13.69956000
105.49999391	0.00000000	34.31963000	15.23130000
105.69999390	0.00000000	34.69488000	15.23130000
105.89999389	0.00000000	34.31963000	13.69956000
106.09999388	0.00000000	33.15699000	11.04823000
106.29999387	0.00000000	31.66215000	8.35383800
106.49999385	0.00000000	30.50566000	6.44685000
106.69999384	0.00000000	30.08120000	5.61638700
106.89999383	0.00000000	30.08120000	6.02854300
107.09999382	0.00000000	30.50566000	7.14812900
107.29999381	0.00000000	31.61909000	9.09817800
107.49999379	0.00000000	32.78174000	11.00517000
107.69999378	0.00000000	33.53223000	12.53691000
107.89999377	0.00000000	33.94439000	13.28125000
108.09999376	0.00000000	33.53223000	12.53691000
108.29999375	0.00000000	32.78174000	11.04823000
108.49999374	0.00000000	31.61909000	9.47342500
108.69999372	0.00000000	30.50566000	7.93553100
108.89999371	0.00000000	30.08120000	6.82209600
109.09999370	0.00000000	30.08120000	6.82209600
109.29999369	0.00000000	30.50566000	7.93553100
109.49999368	0.00000000	31.61909000	9.47342500
109.69999366	0.00000000	32.78174000	11.04823000
109.89999365	0.00000000	33.57529000	12.53691000
110.09999364	0.00000000	34.36884000	13.32431000
110.29999363	0.00000000	34.69488000	12.96137000
110.49999362	0.00000000	34.31963000	12.21087000
110.69999360	0.00000000	33.15699000	11.00517000
110.89999359	0.00000000	31.66215000	9.51648500
111.09999358	0.00000000	30.50566000	8.31077700
111.29999357	0.00000000	30.08120000	7.56028500
111.49999356	0.00000000	30.08120000	7.14812900
111.69999355	0.00000000	30.45644000	7.56028500
111.89999353	0.00000000	31.20078000	8.31077700
112.09999352	0.00000000	31.61909000	9.47342500
112.29999351	0.00000000	32.03740000	10.58686000
112.49999350	0.00000000	32.78174000	11.04823000
112.69999349	0.00000000	33.15699000	11.42347000
112.89999347	0.00000000	33.15699000	11.79257000
113.09999346	0.00000000	32.78174000	11.42347000
113.29999345	0.00000000	32.03740000	11.09129000
113.49999344	0.00000000	31.66215000	11.00517000
113.69999343	0.00000000	31.61909000	10.62992000
113.89999341	0.00000000	31.61909000	9.89173200
114.09999340	0.00000000	31.61909000	9.51648500
114.29999339	0.00000000	31.61909000	9.43036400
114.49999338	0.00000000	31.61909000	9.05511800
114.69999337	0.00000000	31.61909000	8.31077700
114.89999336	0.00000000	31.61909000	7.98474400
115.09999334	0.00000000	31.61909000	8.26771600
115.29999333	0.00000000	31.61909000	8.63681000
115.49999332	0.00000000	31.61909000	8.31077700
115.69999331	0.00000000	31.61909000	8.40305000
115.89999330	0.00000000	31.61909000	9.47342500
116.09999328	0.00000000	31.61909000	10.58686000
116.29999327	0.00000000	31.61909000	11.00517000
116.49999326	0.00000000	31.57603000	11.04823000
116.69999325	0.00000000	31.24384000	11.04823000
116.89999324	0.00000000	30.87475000	11.00517000
117.09999322	0.00000000	31.24384000	10.58686000
117.29999321	0.00000000	31.61909000	9.47342500
117.49999320	0.00000000	32.03740000	8.31077700
117.69999319	0.00000000	32.78174000	7.51722400
117.89999318	0.00000000	33.15699000	6.77903500
118.09999317	0.00000000	33.20005000	6.77903500
118.29999315	0.00000000	33.15699000	7.51722400
118.49999314	0.00000000	32.73252000	8.26771600
118.69999313	0.00000000	31.61909000	9.09817800
118.89999312	0.00000000	30.45644000	9.84867000
119.09999311	0.00000000	29.66289000	10.62992000
119.29999309	0.00000000	28.87549000	11.00517000
119.49999308	0.00000000	28.54946000	11.04823000
119.69999307	0.00000000	28.92470000	11.04823000
119.89999306	0.00000000	30.08120000	11.00517000
120.09999305	0.00000000	31.61909000	10.62992000
120.29999303	0.00000000	33.15699000	9.89173200
120.49999302	0.00000000	34.31963000	9.47342500
120.69999301	0.00000000	34.69488000	9.05511800
120.89999300	0.00000000	34.36884000	8.31077700
121.09999299	0.00000000	33.57529000	7.98474400
121.29999298	0.00000000	32.78174000	8.26771600
121.49999296	0.00000000	31.57603000	8.67987200
121.69999295	0.00000000	30.08120000	8.68602300
121.89999294	0.00000000	28.92470000	9.14124000
122.09999293	0.00000000	28.54946000	9.84867000
122.29999292	0.00000000	28.87549000	10.62992000
122.49999290	0.00000000	29.66289000	11.00517000
122.69999289	0.00000000	30.45644000	11.04823000
122.89999288	0.00000000	31.61909000	11.04823000
123.09999287	0.00000000	32.78174000	11.04823000
123.29999286	0.00000000	33.57529000	11.00517000
123.49999284	0.00000000	34.31963000	10.62992000
123.69999283	0.00000000	34.31963000	9.89173200
123.89999282	0.00000000	33.57529000	9.51648500
124.09999281	0.00000000	32.82480000	9.43036400
124.29999280	0.00000000	31.99434000	9.05511800
124.49999279	0.00000000	31.24384000	8.31077700
124.69999277	0.00000000	30.41338000	7.98474400
124.89999276	0.00000000	29.66289000	8.35998900
125.09999275	0.00000000	28.92470000	9.47342500
125.29999274	0.00000000	28.92470000	10.58686000
125.49999273	0.00000000	29.66289000	11.00517000
125.69999271	0.00000000	30.41338000	11.04823000
125.89999270	0.00000000	31.24384000	11.04823000
126.09999269	0.00000000	31.99434000	11.00517000
126.29999268	0.00000000	32.78174000	10.62992000
126.49999267	0.00000000	33.20005000	9.89173200
126.69999265	0.00000000	33.57529000	9.51648500
126.89999264	0.00000000	33.90133000	9.43036400
127.09999263	0.00000000	33.11393000	9.05511800
127.29999262	0.00000000	31.61909000	8.31077700
127.49999261	0.00000000	30.13041000	7.98474400
127.69999260	0.00000000	29.29380000	8.31077700
127.89999258	0.00000000	29.28765000	9.05511800
128.09999257	0.00000000	29.25074000	9.43036400
128.29999256	0.00000000	29.70595000	9.47342500
128.49999255	0.00000000	30.45644000	9.47342500
128.69999254	0.00000000	31.61909000	9.47342500
128.89999252	0.00000000	32.73252000	9.47342500
129.09999251	0.00000000	33.15699000	9.47342500
129.29999250	0.00000000	33.15699000	9.43036400
129.49999249	0.00000000	32.73252000	9.05511800
129.69999248	0.00000000	31.61909000	8.31077700
129.89999246	0.00000000	30.45644000	7.98474400
130.09999245	0.00000000	29.66289000	8.31077700
130.29999244	0.00000000	28.92470000	9.05511800
130.49999243	0.00000000	28.92470000	9.43036400
130.69999242	0.00000000	29.61983000	9.47342500
130.89999241	0.00000000	30.03814000	9.47342500
131.09999239	0.00000000	30.50566000	9.47342500
131.29999238	0.00000000	31.61909000	9.47342500
131.49999237	0.00000000	32.73252000	9.47342500
131.69999236	0.00000000	33.10777000	9.43036400
131.89999235	0.00000000	32.78174000	9.05511800
132.09999233	0.00000000	31.99434000	8.31077700
132.29999232	0.00000000	31.28691000	7.93553100
132.49999231	0.00000000	30.83169000	7.89247000
132.69999230	0.00000000	30.82554000	7.93553100
132.89999229	0.00000000	30.45644000	8.31077700
133.09999227	0.00000000	30.50566000	9.09817800
133.29999226	0.00000000	31.20078000	9.84867000
133.49999225	0.00000000	31.57603000	10.62992000
133.69999224	0.00000000	31.61909000	10.95595000
133.89999223	0.00000000	31.61909000	10.62992000
134.09999222	0.00000000	31.61909000	9.89173200
134.29999220	0.00000000	31.61909000	9.47342500
134.49999219	0.00000000	31.61909000	9.05511800
134.69999218	0.00000000	31.61909000	8.31077700
134.89999217	0.00000000	31.61909000	7.93553100
135.09999216	0.00000000	31.61909000	7.89247000
135.29999214	0.00000000	31.61909000	7.93553100
135.49999213	0.00000000	31.61909000	8.31077700
135.69999212	0.00000000	31.61909000	9.09817800
135.89999211	0.00000000	31.57603000	9.84867000
136.09999210	0.00000000	31.20078000	10.62992000
136.29999208	0.00000000	30.45644000	11.00517000
136.49999207	0.00000000	30.08120000	11.04823000
136.69999206	0.00000000	30.03814000	11.04823000
136.89999205	0.00000000	30.08120000	11.04823000
137.09999204	0.00000000	30.45644000	11.00517000
137.29999203	0.00000000	31.24384000	10.62992000
137.49999201	0.00000000	31.99434000	9.84867000
137.69999200	0.00000000	32.78174000	9.09817800
137.89999199	0.00000000	33.15699000	8.31077700
138.09999198	0.00000000	33.15699000	7.98474400
138.29999197	0.00000000	32.78174000	8.31077700
138.49999195	0.00000000	31.99434000	9.05511800
138.69999194	0.00000000	31.24384000	9.43036400
138.89999193	0.00000000	30.45644000	9.51648500
139.09999192	0.00000000	30.08120000	9.93479300
139.29999191	0.00000000	30.08120000	11.04823000
139.49999189	0.00000000	30.45644000	12.11860000
139.69999188	0.00000000	31.20078000	12.16166000
139.89999187	0.00000000	31.61909000	11.42347000
140.09999186	0.00000000	31.99434000	10.67298000
140.29999185	0.00000000	32.36343000	9.89173200
140.49999184	0.00000000	31.99434000	9.47342500
140.69999182	0.00000000	31.66215000	9.05511800
140.89999181	0.00000000	31.61909000	8.31077700
141.09999180	0.00000000	31.57603000	7.93553100
141.29999179	0.00000000	31.20078000	7.93553100
141.49999178	0.00000000	30.50566000	8.35998900
141.69999176	0.00000000	30.50566000	9.47342500
141.89999175	0.00000000	31.20078000	10.58686000
142.09999174	0.00000000	31.57603000	11.00517000
142.29999173	0.00000000	31.66215000	11.09129000
142.49999172	0.00000000	31.99434000	11.42347000
142.69999170	0.00000000	32.36343000	11.74336000
142.89999169	0.00000000	31.99434000	11.00517000
143.09999168	0.00000000	31.66215000	9.89173200
143.29999167	0.00000000	31.61909000	9.09817800
143.49999166	0.00000000	31.57603000	8.31077700
143.69999165	0.00000000	31.24384000	7.93553100
143.89999163	0.00000000	30.87475000	7.93553100
144.09999162	0.00000000	31.24384000	8.31077700
144.29999161	0.00000000	31.57603000	9.09817800
144.49999160	0.00000000	31.61909000	9.84867000
144.69999159	0.00000000	31.61909000	10.62992000
144.89999157	0.00000000	31.61909000	10.95595000
145.09999156	0.00000000	31.57603000	10.62992000
145.29999155	0.00000000	31.20078000	9.89173200
145.49999154	0.00000000	30.45644000	9.47342500
145.69999153	0.00000000	30.08120000	9.05511800
145.89999151	0.00000000	30.03814000	8.31077700
146.09999150	0.00000000	30.03814000	7.93553100
146.29999149	0.00000000	30.08120000	7.89247000
146.49999148	0.00000000	30.45644000	7.89247000
146.69999147	0.00000000	31.20078000	7.93553100
146.89999146	0.00000000	31.57603000	8.31077700
147.09999144	0.00000000	31.61909000	9.05511800
147.29999143	0.00000000	31.61909000	9.47342500
147.49999142	0.00000000	31.61909000	9.89173200
147.69999141	0.00000000	31.61909000	10.62992000
147.89999140	0.00000000	31.57603000	10.95595000
148.09999138	0.00000000	31.20078000	10.62992000
148.29999137	0.00000000	30.45644000	9.89173200
148.49999136	0.00000000	30.08120000	9.51648500
148.69999135	0.00000000	30.08120000	9.47342500
148.89999134	0.00000000	30.45644000	9.43036400
149.09999132	0.00000000	31.20078000	9.05511800
149.29999131	0.00000000	31.57603000	8.35998900
149.49999130	0.00000000	31.61909000	8.35998900
149.69999129	0.00000000	31.61909000	9.05511800
149.89999128	0.00000000	31.61909000	9.47342500
150.09999127	0.00000000	31.61909000	9.89173200
150.29999125	0.00000000	31.61909000	10.62992000
150.49999124	0.00000000	31.61909000	10.95595000
150.69999123	0.00000000	31.57603000	10.67298000
150.89999122	0.00000000	31.20078000	10.26698000
151.09999121	0.00000000	30.50566000	10.25467000
151.29999119	0.00000000	30.45644000	9.84867000
151.49999118	0.00000000	30.78248000	9.51648500
151.69999117	0.00000000	30.45644000	9.47342500
151.89999116	0.00000000	30.50566000	9.47342500
152.09999115	0.00000000	31.20078000	9.47342500
152.29999113	0.00000000	31.57603000	9.47342500
152.49999112	0.00000000	31.61909000	9.47342500
152.69999111	0.00000000	31.61909000	9.47342500
152.89999110	0.00000000	31.61909000	9.47342500
153.09999109	0.00000000	31.61909000	9.47342500
153.29999108	0.00000000	31.57603000	9.47342500
153.49999106	0.00000000	31.24384000	9.51648500
153.69999105	0.00000000	30.83169000	9.89173200
153.89999104	0.00000000	30.82554000	10.58686000
154.09999103	0.00000000	30.41338000	10.58686000
154.29999102	0.00000000	30.08120000	9.89173200
154.49999100	0.00000000	30.03814000	9.51648500
154.69999099	0.00000000	30.08120000	9.47342500
154.89999098	0.00000000	30.45644000	9.47342500
155.09999097	0.00000000	31.20078000	9.43036400
155.29999096	0.00000000	31.61909000	9.05511800
155.49999094	0.00000000	31.99434000	8.31077700
155.69999093	0.00000000	32.36343000	7.98474400
155.89999092	0.00000000	31.99434000	8.31077700
156.09999091	0.00000000	31.66215000	9.05511800
156.29999090	0.00000000	31.57603000	9.43036400
156.49999089	0.00000000	31.20078000	9.47342500
156.69999087	0.00000000	30.45644000	9.47342500
156.89999086	0.00000000	30.08120000	9.47342500
157.09999085	0.00000000	30.03814000	9.47342500
157.29999084	0.00000000	30.03814000	9.47342500
157.49999083	0.00000000	30.03814000	9.47342500
157.69999081	0.00000000	30.03814000	9.43036400
157.89999080	0.00000000	30.08120000	9.05511800
158.09999079	0.00000000	30.45644000	8.31077700
158.29999078	0.00000000	31.20078000	7.93553100
158.49999077	0.00000000	31.57603000	7.93553100
158.69999075	0.00000000	31.61909000	8.31077700
158.89999074	0.00000000	31.61909000	9.05511800
159.09999073	0.00000000	31.57603000	9.43036400
159.29999072	0.00000000	31.20078000	9.47342500
159.49999071	0.00000000	30.45644000	9.47342500
159.69999070	0.00000000	30.08120000	9.47342500
159.89999068	0.00000000	30.03814000	9.47342500
160.09999067	0.00000000	30.03814000	9.47342500
160.29999066	0.00000000	30.03814000	9.47342500
160.49999065	0.00000000	30.03814000	9.47342500
160.69999064	0.00000000	30.03814000	9.47342500
160.89999062	0.00000000	30.03814000	9.43036400
161.09999061	0.00000000	30.08120000	9.05511800
161.29999060	0.00000000	30.41338000	8.31077700
161.49999059	0.00000000	30.82554000	7.98474400
161.69999058	0.00000000	30.83169000	8.31077700
161.89999056	0.00000000	31.24384000	9.05511800
162.09999055	0.00000000	31.57603000	9.43036400
162.29999054	0.00000000	31.57603000	9.47342500
162.49999053	0.00000000	31.20078000	9.47342500
162.69999052	0.00000000	30.50566000	9.47342500
162.89999051	0.00000000	30.45644000	9.47342500
163.09999049	0.00000000	30.78248000	9.47342500
163.29999048	0.00000000	30.41338000	9.47342500
163.49999047	0.00000000	30.08120000	9.47342500
163.69999046	0.00000000	30.03814000	9.47342500
163.89999045	0.00000000	30.03814000	9.47342500
164.09999043	0.00000000	30.08120000	9.47342500
164.29999042	0.00000000	30.45644000	9.47342500
164.49999041	0.00000000	31.20078000	9.43036400
164.69999040	0.00000000	31.57603000	9.09817800
164.89999039	0.00000000	31.61909000	8.72908400
165.09999037	0.00000000	31.61909000	9.09817800
165.29999036	0.00000000	31.61909000	9.43036400
165.49999035	0.00000000	31.61909000	9.47342500
165.69999034	0.00000000	31.57603000	9.47342500
165.89999033	0.00000000	31.20078000	9.47342500
166.09999032	0.00000000	30.45644000	9.47342500
166.29999030	0.00000000	30.08120000	9.47342500
166.49999029	0.00000000	30.03814000	9.47342500
166.69999028	0.00000000	30.03814000	9.47342500
166.89999027	0.00000000	30.03814000	9.47342500
167.09999026	0.00000000	30.03814000	9.43036400
167.29999024	0.00000000	30.03814000	9.05511800
167.49999023	0.00000000	30.03814000	8.35998900
167.69999022	0.00000000	30.08120000	8.35998900
167.89999021	0.00000000	30.45644000	9.05511800
168.09999020	0.00000000	31.20078000	9.43036400
168.29999018	0.00000000	31.52682000	9.47342500
168.49999017	0.00000000	31.20078000	9.47342500
168.69999016	0.00000000	30.45644000	9.47342500
168.89999015	0.00000000	30.08120000	9.47342500
169.09999014	0.00000000	30.03814000	9.47342500
169.29999013	0.00000000	30.03814000	9.47342500
169.49999011	0.00000000	30.03814000	9.47342500
169.69999010	0.00000000	30.03814000	9.47342500
169.89999009	0.00000000	30.03814000	9.47342500
170.09999008	0.00000000	30.03814000	9.47342500
170.29999007	0.00000000	30.03814000	9.47342500
170.49999005	0.00000000	30.03814000	9.47342500
170.69999004	0.00000000	30.08120000	9.47342500
170.89999003	0.00000000	30.45644000	9.47342500
171.09999002	0.00000000	31.15157000	9.47342500
171.29999001	0.00000000	31.20078000	9.43036400
171.49998999	0.00000000	30.87475000	9.09817800
171.69998998	0.00000000	31.20078000	8.72908400
171.89998997	0.00000000	31.15157000	9.09817800
172.09998996	0.00000000	30.45644000	9.43036400
172.29998995	0.00000000	30.08120000	9.47342500
172.49998994	0.00000000	30.03814000	9.47342500
172.69998992	0.00000000	30.03814000	9.47342500
172.89998991	0.00000000	30.03814000	9.47342500
173.09998990	0.00000000	30.03814000	9.47342500
173.29998989	0.00000000	30.03814000	9.47342500
173.49998988	0.00000000	30.03814000	9.47342500
173.69998986	0.00000000	30.03814000	9.47342500
173.89998985	0.00000000	30.03814000	9.47342500
174.09998984	0.00000000	30.03814000	9.47342500
174.29998983	0.00000000	30.03814000	9.47342500
174.49998982	0.00000000	30.03814000	9.47342500
174.69998980	0.00000000	30.03814000	9.47342500
174.89998979	0.00000000	30.03814000	9.47342500
175.09998978	0.00000000	30.03814000	9.47342500
175.29998977	0.00000000	30.03814000	9.47342500
175.49998976	0.00000000	30.03814000	9.47342500
175.69998975	0.00000000	30.03814000	9.47342500
175.89998973	0.00000000	30.03814000	9.47342500
176.09998972	0.00000000	30.03814000	9.47342500
176.29998971	0.00000000	30.03814000	9.47342500
176.49998970	0.00000000	30.03814000	9.47342500
176.69998969	0.00000000	30.03814000	9.47342500
176.89998967	0.00000000	30.03814000	9.47342500
177.09998966	0.00000000	30.03814000	9.47342500
177.29998965	0.00000000	30.03814000	9.47342500
177.49998964	0.00000000	30.03814000	9.47342500
177.69998963	0.00000000	30.03814000	9.47342500
177.89998961	0.00000000	30.03814000	9.47342500
178.09998960	0.00000000	30.03814000	9.47342500
178.29998959	0.00000000	30.03814000	9.47342500
178.49998958	0.00000000	30.03814000	9.47342500
178.69998957	0.00000000	30.03814000	9.47342500
178.89998956	0.00000000	30.03814000	9.47342500
179.09998954	0.00000000	30.03814000	9.47342500
179.29998953	0.00000000	30.03814000	9.47342500
179.49998952	0.00000000	30.03814000	9.47342500
179.69998951	0.00000000	30.03814000	9.47342500
179.89998950	0.00000000	30.03814000	9.43036400
180.09998948	0.00000000	30.03814000	9.09817800
180.29998947	0.00000000	30.03814000	8.68602300
180.49998946	0.00000000	30.03814000	8.72293300
180.69998945	0.00000000	30.03814000	8.68602300
180.89998944	0.00000000	30.03814000	9.09817800
181.09998942	0.00000000	30.03814000	9.43036400
181.29998941	0.00000000	30.03814000	9.47342500
181.49998940	0.00000000	30.03814000	9.47342500
181.69998939	0.00000000	30.03814000	9.47342500
181.89998938	0.00000000	30.03814000	9.47342500
182.09998937	0.00000000	30.08120000	9.47342500
182.29998935	0.00000000	30.41338000	9.47342500
182.49998934	0.00000000	30.78248000	9.43036400
182.69998933	0.00000000	30.41338000	9.05511800
182.89998932	0.00000000	30.08120000	8.31077700
183.09998931	0.00000000	30.03814000	7.93553100
183.29998929	0.00000000	30.03814000	7.89247000
183.49998928	0.00000000	30.03814000	7.93553100
183.69998927	0.00000000	30.03814000	8.26771600
183.89998926	0.00000000	30.03814000	8.67987200
184.09998925	0.00000000	30.03814000	8.68602300
184.29998923	0.00000000	30.03814000	9.09817800
184.49998922	0.00000000	30.03814000	9.43036400
184.69998921	0.00000000	30.03814000	9.47342500
184.89998920	0.00000000	30.03814000	9.47342500
185.09998919	0.00000000	30.03814000	9.47342500
185.29998918	0.00000000	30.03814000	9.47342500
185.49998916	0.00000000	30.03814000	9.47342500
185.69998915	0.00000000	30.03814000	9.43036400
185.89998914	0.00000000	30.03814000	9.05511800
186.09998913	0.00000000	30.03814000	8.31077700
186.29998912	0.00000000	30.03814000	7.93553100
186.49998910	0.00000000	30.03814000	7.89247000
186.69998909	0.00000000	30.03814000	7.93553100
186.89998908	0.00000000	30.03814000	8.31077700
187.09998907	0.00000000	30.03814000	9.05511800
187.29998906	0.00000000	30.03814000	9.43036400
187.49998904	0.00000000	30.03814000	9.47342500
187.69998903	0.00000000	30.03814000	9.47342500
187.89998902	0.00000000	30.03814000	9.47342500
188.09998901	0.00000000	30.03814000	9.47342500
188.29998900	0.00000000	30.03814000	9.47342500
188.49998899	0.00000000	30.03814000	9.43036400
188.69998897	0.00000000	30.08120000	9.05511800
188.89998896	0.00000000	30.41338000	8.31077700
189.09998895	0.00000000	30.78248000	7.93553100
189.29998894	0.00000000	30.41338000	7.89247000
189.49998893	0.00000000	30.08120000	7.89247000
189.69998891	0.00000000	30.03814000	7.89247000
189.89998890	0.00000000	30.03814000	7.93553100
190.09998889	0.00000000	30.03814000	8.31077700
190.29998888	0.00000000	30.03814000	9.05511800
190.49998887	0.00000000	30.03814000	9.43036400
190.69998885	0.00000000	30.03814000	9.47342500
190.89998884	0.00000000	30.03814000	9.47342500
191.09998883	0.00000000	30.03814000	9.43036400
191.29998882	0.00000000	30.03814000	9.09817800
191.49998881	0.00000000	30.03814000	8.68602300
191.69998880	0.00000000	30.03814000	8.67987200
191.89998878	0.00000000	30.03814000	8.26771600
192.09998877	0.00000000	30.03814000	7.93553100
192.29998876	0.00000000	30.03814000	7.89247000
192.49998875	0.00000000	30.03814000	7.89247000
192.69998874	0.00000000	30.03814000	7.89247000
192.89998872	0.00000000	30.03814000	7.93553100
193.09998871	0.00000000	30.03814000	8.26771600
193.29998870	0.00000000	30.03814000	8.67987200
193.49998869	0.00000000	30.03814000	8.68602300
193.69998868	0.00000000	30.03814000	9.09817800
193.89998866	0.00000000	30.03814000	9.43036400
194.09998865	0.00000000	30.03814000	9.47342500
194.29998864	0.00000000	30.03814000	9.47342500
194.49998863	0.00000000	30.03814000	9.47342500
194.69998862	0.00000000	30.03814000	9.47342500
194.89998861	0.00000000	30.03814000	9.43036400
195.09998859	0.00000000	30.03814000	9.05511800
195.29998858	0.00000000	30.03814000	8.35998900
195.49998857	0.00000000	30.03814000	8.31077700
195.69998856	0.00000000	30.03814000	8.63681000
195.89998855	0.00000000	29.99508000	8.31077700
196.09998853	0.00000000	29.61983000	8.31077700
