Time	Channel A	Channel B	Channel C
(us)	(V)	(mV)	(mV)

-4.53333289	0.00000000	0.00000000	3.19881900
-4.33333290	0.00000000	0.00000000	3.53100400
-4.13333291	0.00000000	0.00000000	3.90009800
-3.93333293	0.00000000	0.00000000	3.53100400
-3.73333294	0.00000000	0.00000000	3.19881900
-3.53333295	0.00000000	0.00000000	3.15575800
-3.33333296	0.00000000	0.00000000	3.15575800
-3.13333297	0.00000000	0.00000000	3.15575800
-2.93333299	0.00000000	0.00000000	3.15575800
-2.73333300	0.00000000	0.00000000	3.15575800
-2.53333301	0.00000000	0.00000000	3.15575800
-2.33333302	0.00000000	0.00000000	3.15575800
-2.13333303	0.00000000	0.00000000	3.15575800
-1.93333304	0.00000000	0.00000000	3.15575800
-1.73333306	0.00000000	0.00000000	3.15575800
-1.53333307	0.00000000	0.00000000	3.15575800
-1.33333308	0.00000000	0.00000000	3.15575800
-1.13333309	0.00000000	0.00000000	3.15575800
-0.93333310	0.00000000	0.04306102	3.15575800
-0.73333312	0.00000000	0.37524600	3.15575800
-0.53333313	0.00000000	0.74434050	3.15575800
-0.33333314	0.15871060	0.37524600	3.15575800
-0.13333315	0.47736220	0.04306102	3.15575800
0.06666684	0.95533960	0.00000000	3.15575800
0.26666682	1.11466500	0.00000000	3.15575800
0.46666681	0.95533960	0.00000000	3.15575800
0.66666680	0.47736220	0.00000000	3.15575800
0.86666679	-0.31803640	0.00000000	3.15575800
1.06666678	-1.27399100	0.00000000	3.15575800
1.26666677	-2.22994600	0.00000000	3.15575800
1.46666675	-2.70792300	0.00000000	3.15575800
1.66666674	-2.54859700	0.00000000	3.15575800
1.86666673	-1.75196900	0.00000000	3.15575800
2.06666672	0.00000000	0.00000000	3.15575800
2.26666671	2.07062000	0.00000000	3.15575800
2.46666669	3.98191400	0.00000000	3.15575800
2.66666668	5.25652100	0.00000000	3.15575800
2.86666667	5.09719500	0.00000000	3.15575800
3.06666666	3.66326300	0.00000000	3.11269700
3.26666665	0.95533960	0.00000000	2.78051200
3.46666663	-2.54859700	0.04306102	2.41141700
3.66666662	-5.73449800	0.37524600	2.78051200
3.86666661	-7.64579200	0.74434050	3.11269700
4.06666660	-7.80511800	0.37524600	3.19881900
4.26666659	-5.89382400	0.04306102	3.57406500
4.46666658	-2.22994600	0.00000000	4.31840500
4.66666656	2.07062000	0.00000000	4.64443900
4.86666655	6.21247500	0.04306102	4.31840500
5.06666654	8.76107300	0.37524600	3.57406500
5.26666653	9.39837600	0.74434050	3.15575800
5.46666652	7.48646600	0.37524600	2.73745100
5.66666650	3.66326300	0.04306102	2.04232300
5.86666649	-0.95533960	0.00000000	2.04232300
6.06666648	-5.41584600	0.04306102	2.73745100
6.26666647	-8.60174700	0.37524600	3.11269700
6.46666646	-9.39837600	0.74434050	3.19881900
6.66666644	-7.96444400	0.37524600	3.57406500
6.86666643	-4.61921700	0.04306102	4.31840500
7.06666642	-0.31803640	0.04306102	4.64443900
7.26666641	3.82258900	0.37524600	4.31840500
7.46666640	6.69045300	0.78740150	3.57406500
7.66666639	7.80511800	0.75049200	3.19881900
7.86666637	6.84916400	0.78740150	3.15575800
8.06666636	4.30056600	0.37524600	3.15575800
8.26666635	1.11466500	0.04306102	3.15575800
8.46666634	-2.07062000	0.00000000	3.15575800
8.66666633	-4.30056600	0.00000000	3.15575800
8.86666631	-5.09719500	0.00000000	3.15575800
9.06666630	-4.77854300	0.00000000	3.15575800
9.26666629	-3.18590100	0.00000000	3.15575800
9.46666628	-1.27399100	0.00000000	3.15575800
9.66666627	0.63668800	0.00000000	3.15575800
9.86666625	1.91129400	0.00000000	3.15575800
10.06666624	2.54859700	0.00000000	3.15575800
10.26666623	2.38927200	0.00000000	3.15575800
10.46666622	1.75196900	0.00000000	3.15575800
10.66666621	0.79601380	0.04306102	3.15575800
10.86666620	0.00000000	0.37524600	3.15575800
11.06666618	-0.63668800	0.74434050	3.15575800
11.26666617	-0.95533960	0.37524600	3.15575800
11.46666616	-0.95533960	0.04306102	3.15575800
11.66666615	-0.79601380	0.00000000	3.15575800
11.86666614	-0.47736220	0.04306102	3.15575800
12.06666612	-0.15871060	0.37524600	3.15575800
12.26666611	-0.15871060	0.74434050	3.15575800
12.46666610	-0.15871060	0.37524600	3.15575800
12.66666609	0.00000000	0.04306102	3.15575800
12.86666608	0.00000000	0.00000000	3.15575800
13.06666606	0.00000000	0.00000000	3.15575800
13.26666605	0.00000000	0.00000000	3.15575800
13.46666604	0.00000000	0.00000000	3.15575800
13.66666603	0.00000000	0.00000000	3.15575800
13.86666602	0.00000000	0.00000000	3.15575800
14.06666601	0.00000000	0.00000000	3.15575800
14.26666599	-0.15871060	0.00000000	3.15575800
14.46666598	-0.15871060	0.00000000	3.15575800
14.66666597	-0.15871060	0.00000000	3.15575800
14.86666596	0.00000000	0.00000000	3.15575800
15.06666595	0.00000000	0.00000000	3.15575800
15.26666593	0.00000000	0.00000000	3.15575800
15.46666592	0.00000000	0.00000000	3.15575800
15.66666591	0.00000000	0.00000000	3.15575800
15.86666590	0.00000000	0.00000000	3.15575800
16.06666589	0.00000000	0.00000000	3.15575800
16.26666587	0.00000000	0.00000000	3.15575800
16.46666586	0.00000000	0.00000000	3.15575800
16.66666585	-0.15871060	0.04306102	3.15575800
16.86666584	0.00000000	0.41830710	3.15575800
17.06666583	0.00000000	1.16264800	3.15575800
17.26666582	0.00000000	1.53789400	3.15575800
17.46666580	0.00000000	1.62401600	3.15575800
17.66666579	0.00000000	1.95620100	3.15575800
17.86666578	0.00000000	2.27608300	3.15575800
18.06666577	0.00000000	1.48868100	3.15575800
18.26666576	0.00000000	0.00000000	3.15575800
18.46666574	0.00000000	-1.58095500	3.15575800
18.66666573	0.00000000	-3.11884800	3.19881900
18.86666572	0.00000000	-4.23228400	3.53100400
19.06666571	0.00000000	-4.27534400	3.90009800
19.26666570	0.00000000	-3.44488200	3.53100400
19.46666568	0.00000000	-1.81471400	3.19881900
19.66666567	0.00000000	1.71628900	3.15575800
19.86666566	0.00000000	6.23154500	3.15575800
20.06666565	0.00000000	10.09473000	3.15575800
20.26666564	0.00000000	12.00172000	3.15575800
20.46666563	0.00000000	11.58341000	3.15575800
20.66666561	0.00000000	8.42150500	3.15575800
20.86666560	0.00000000	2.60826800	3.15575800
21.06666559	0.00000000	-4.74286400	3.15575800
21.26666558	0.00000000	-12.09400000	3.15575800
21.46666557	0.00000000	-17.86417000	3.15575800
21.66666555	0.00000000	-20.47244000	3.15575800
21.86666554	0.00000000	-18.42397000	3.15575800
22.06666553	0.00000000	-11.02977000	3.15575800
22.26666552	0.00000000	0.55364170	3.15575800
22.46666551	0.00000000	13.67495000	3.15575800
22.66666549	0.00000000	25.21530000	3.15575800
22.86666548	0.00000000	32.10507000	3.19881900
23.06666547	0.00000000	32.05585000	3.57406500
23.26666546	0.00000000	24.66166000	4.31840500
23.46666545	0.00000000	11.07283000	4.69365100
23.66666544	0.00000000	-6.32381900	4.73671200
23.86666542	0.00000000	-23.67741000	4.73671200
24.06666541	0.00000000	-36.75566000	4.73671200
24.26666540	0.00000000	-42.10753000	4.69365100
24.46666539	0.00000000	-37.78297000	4.26919300
24.66666538	0.00000000	-24.19414000	3.11269700
24.86666536	0.00000000	-3.72170300	1.57480300
25.06666535	0.00000000	19.02682000	0.04306102
25.26666534	0.00000000	38.29355000	-1.11343500
25.46666533	0.00000000	49.50172000	-1.43946800
25.66666532	0.00000000	49.83390000	-0.64591530
25.86666530	0.00000000	38.98868000	1.71013800
26.06666529	0.00000000	18.89148000	5.15501900
26.26666528	0.00000000	-5.81323800	9.05511800
26.46666527	0.00000000	-29.35531000	12.49385000
26.66666526	0.00000000	-46.29060000	14.76993000
26.86666525	0.00000000	-52.10999000	14.67766000
27.06666523	0.00000000	-45.59547000	11.60802000
27.26666522	0.00000000	-29.02928000	6.13312000
27.46666521	0.00000000	-6.18848400	-0.83661410
27.66666520	0.00000000	17.77190000	-8.54453700
27.86666519	0.00000000	37.82603000	-14.63459000
28.06666517	0.00000000	49.08341000	-17.32899000
28.26666516	0.00000000	49.13262000	-15.70497000
28.46666515	0.00000000	39.12401000	-9.47957600
28.66666514	0.00000000	20.93381000	0.55364170
28.86666513	0.00000000	-1.02731300	12.16781000
29.06666511	0.00000000	-21.54281000	22.95152000
29.26666510	0.00000000	-36.24508000	30.61023000
29.46666509	0.00000000	-42.10753000	32.52337000
29.66666508	0.00000000	-38.33661000	28.24803000
29.86666507	0.00000000	-26.79626000	18.49163000
30.06666506	0.00000000	-10.51304000	4.18307100
30.26666504	0.00000000	7.25885800	-11.52190000
30.46666503	0.00000000	22.74852000	-24.29257000
30.66666502	0.00000000	32.43110000	-31.26845000
30.86666501	0.00000000	34.84252000	-31.63755000
31.06666500	0.00000000	29.86589000	-24.58169000
31.26666498	0.00000000	19.48819000	-11.10359000
31.46666497	0.00000000	6.28075700	5.89320800
31.66666496	0.00000000	-7.25885800	22.53322000
31.86666495	0.00000000	-18.46703000	35.67913000
32.06666494	0.00000000	-24.70472000	42.55659000
32.26666492	0.00000000	-25.16609000	41.02485000
32.46666491	0.00000000	-20.51550000	31.40379000
32.66666490	0.00000000	-11.67569000	16.35089000
32.86666489	0.00000000	-0.83661410	-1.11343500
33.06666488	0.00000000	9.21505800	-17.70423000
33.26666487	0.00000000	16.97834000	-30.05659000
33.46666485	0.00000000	20.42323000	-35.03321000
33.66666484	0.00000000	18.97761000	-31.63755000
33.86666483	0.00000000	13.58268000	-20.85999000
34.06666482	0.00000000	5.90551100	-5.80708600
34.26666481	0.00000000	-2.23302100	10.49459000
34.46666479	0.00000000	-8.79675100	25.17839000
34.66666478	0.00000000	-12.69685000	35.16855000
34.86666477	0.00000000	-13.07210000	37.91216000
35.06666476	0.00000000	-10.04552000	32.89862000
35.26666475	0.00000000	-4.65059000	21.78272000
35.46666473	0.00000000	1.48868100	7.10506800
35.66666472	0.00000000	6.88361200	-7.16043300
35.86666471	0.00000000	9.95939900	-18.39936000
36.06666470	0.00000000	10.00246000	-24.16338000
36.26666469	0.00000000	7.35113100	-23.04995000
36.46666468	0.00000000	3.11884800	-15.74803000
36.66666466	0.00000000	-1.48868100	-4.22613100
36.86666465	0.00000000	-5.35187000	8.45841400
37.06666464	0.00000000	-7.30807100	18.81767000
37.26666463	0.00000000	-7.30807100	24.24951000
37.46666462	0.00000000	-5.35187000	23.51132000
37.66666460	0.00000000	-1.48868100	17.42126000
37.86666459	0.00000000	3.11884800	7.84940900
38.06666458	0.00000000	7.35113100	-2.14074800
38.26666457	0.00000000	10.04552000	-9.80561000
38.46666456	0.00000000	10.42077000	-13.28740000
38.66666454	0.00000000	8.51377900	-11.34350000
38.86666453	0.00000000	4.65059000	-4.87819900
39.06666452	0.00000000	0.04306102	4.36146600
39.26666451	0.00000000	-4.23228400	13.47810000
39.46666450	0.00000000	-7.35113100	19.60507000
39.66666449	0.00000000	-8.88902600	20.34941000
39.86666447	0.00000000	-8.51377900	15.84030000
40.06666446	0.00000000	-6.18848400	7.75713500
40.26666445	0.00000000	-2.69439000	-1.48868100
40.46666444	0.00000000	1.58095500	-9.89788300
40.66666443	0.00000000	5.81323800	-14.81914000
40.86666441	0.00000000	8.93208600	-14.12401000
41.06666440	0.00000000	10.46998000	-8.78444900
41.26666439	0.00000000	10.09473000	-0.64591530
41.46666438	0.00000000	7.76943800	8.96284400
41.66666437	0.00000000	4.32455700	17.37820000
41.86666435	0.00000000	0.41830710	21.97957000
42.06666434	0.00000000	-3.06963600	21.64739000
42.26666433	0.00000000	-5.81323800	16.67692000
42.46666432	0.00000000	-7.35113100	9.00590400
42.66666431	0.00000000	-7.39419200	0.51058070
42.86666430	0.00000000	-6.18848400	-6.78518600
43.06666428	0.00000000	-3.85703700	-11.06053000
43.26666427	0.00000000	-0.41830710	-11.47884000
43.46666426	0.00000000	2.65132900	-8.40920300
43.66666425	0.00000000	4.60752900	-2.69439000
43.86666424	0.00000000	5.43799200	3.85703700
44.06666422	0.00000000	5.07504900	9.25196800
44.26666421	0.00000000	4.36761800	12.77067000
44.46666420	0.00000000	3.58021600	13.56422000
44.66666419	0.00000000	3.20497000	12.07554000
44.86666418	0.00000000	3.16190900	8.96284400
45.06666416	0.00000000	3.11884800	4.77977300
45.26666415	0.00000000	2.69439000	0.92888770
45.46666414	0.00000000	1.48868100	-1.43946800
45.66666413	0.00000000	-0.41830710	-2.64517700
45.86666412	0.00000000	-2.78666300	-2.60211600
46.06666411	0.00000000	-5.11811000	-1.07037400
46.26666409	0.00000000	-7.39419200	1.58095500
46.46666408	0.00000000	-8.46456700	4.26919300
46.66666407	0.00000000	-7.25885800	6.22539300
46.86666406	0.00000000	-3.77091500	7.42495000
47.06666405	0.00000000	1.62401600	7.80019600
47.26666403	0.00000000	7.43725300	7.38188900
47.46666402	0.00000000	12.46924000	5.80093500
47.66666401	0.00000000	15.85876000	3.15575800
47.86666400	0.00000000	15.81570000	0.51058070
48.06666399	0.00000000	11.95866000	-1.06422200
48.26666397	0.00000000	5.35187000	-1.48253000
48.46666396	0.00000000	-3.11884800	-1.06422200
48.66666395	0.00000000	-11.20817000	0.51058070
48.86666394	0.00000000	-16.56619000	3.19881900
49.06666393	0.00000000	-18.14099000	6.26845500
49.26666392	0.00000000	-14.98524000	8.96284400
49.46666390	0.00000000	-8.08932000	10.49459000
49.66666389	0.00000000	1.20570900	10.49459000
49.86666388	0.00000000	10.42077000	8.91978400
50.06666387	0.00000000	17.35359000	5.85014700
50.26666386	0.00000000	20.04798000	1.99311000
50.46666384	0.00000000	17.77190000	-1.48868100
50.66666383	0.00000000	11.58341000	-4.18307100
50.86666382	0.00000000	2.74360200	-5.29650500
51.06666381	0.00000000	-6.50836600	-4.18307100
51.26666380	0.00000000	-13.40428000	-1.48868100
51.46666379	0.00000000	-16.51083000	2.04232300
51.66666377	0.00000000	-14.56693000	6.26845500
51.86666376	0.00000000	-8.46456700	10.07628000
52.06666375	0.00000000	0.00000000	12.03248000
52.26666374	0.00000000	8.42150500	12.07554000
52.46666373	0.00000000	14.23474000	10.49459000
52.66666371	0.00000000	16.14788000	7.38188900
52.86666370	0.00000000	13.85950000	3.20497000
53.06666369	0.00000000	7.72637700	-0.64591530
53.26666368	0.00000000	0.09227362	-2.97736200
53.46666367	0.00000000	-6.88361200	-3.76476400
53.66666365	0.00000000	-11.49114000	-2.60211600
53.86666364	0.00000000	-12.65379000	0.04306102
54.06666363	0.00000000	-9.95939900	3.11269700
54.26666362	0.00000000	-4.23228400	5.80093500
54.46666361	0.00000000	2.69439000	7.38188900
54.66666360	0.00000000	8.83981200	7.80019600
54.86666358	0.00000000	12.69685000	7.38188900
55.06666357	0.00000000	13.07210000	5.85014700
55.26666356	0.00000000	10.00246000	3.61712600
55.46666355	0.00000000	4.27534400	2.08538400
55.66666354	0.00000000	-2.23302100	1.71013800
55.86666352	0.00000000	-7.21579700	2.46063000
56.06666351	0.00000000	-9.58415200	4.36146600
56.26666350	0.00000000	-8.83981200	6.22539300
56.46666349	0.00000000	-5.77017700	7.33882900
56.66666348	0.00000000	-1.16264800	6.96358300
56.86666346	0.00000000	3.85703700	5.06274600
57.06666345	0.00000000	7.72637700	2.73745100
57.26666344	0.00000000	10.04552000	0.04306102
57.46666343	0.00000000	10.00246000	-2.18380900
57.66666342	0.00000000	7.35113100	-2.55905500
57.86666341	0.00000000	3.16190900	-1.02116100
58.06666339	0.00000000	-1.07037400	2.08538400
58.26666338	0.00000000	-4.14616100	6.31151500
58.46666337	0.00000000	-5.39493100	10.53765000
58.66666336	0.00000000	-5.02583600	13.56422000
58.86666335	0.00000000	-3.85703700	14.30241000
59.06666333	0.00000000	-1.53789400	11.98327000
59.26666332	0.00000000	1.11343500	7.38188900
59.46666331	0.00000000	3.06963600	1.57480300
59.66666330	0.00000000	4.23228400	-4.18307100
59.86666329	0.00000000	4.27534400	-8.40920300
60.06666327	0.00000000	3.53715500	-9.89788300
60.26666326	0.00000000	2.74360200	-7.94783400
60.46666325	0.00000000	1.58095500	-2.55905500
60.66666324	0.00000000	0.46751960	4.69365100
60.86666323	0.00000000	0.04306102	11.65723000
61.06666322	0.00000000	0.04306102	16.67692000
61.26666320	0.00000000	0.41830710	18.95300000
61.46666319	0.00000000	1.16264800	17.37205000
61.66666318	0.00000000	1.53789400	12.03248000
61.86666317	0.00000000	1.53789400	4.73671200
62.06666316	0.00000000	1.16264800	-2.64517700
62.26666314	0.00000000	0.37524600	-8.78444900
62.46666313	0.00000000	-0.37524600	-12.26624000
62.66666312	0.00000000	-1.16264800	-11.85408000
62.86666311	0.00000000	-1.48868100	-8.03395600
63.06666310	0.00000000	-1.11343500	-1.44562000
63.26666308	0.00000000	0.04306102	6.22539300
63.46666307	0.00000000	1.53789400	13.18898000
63.66666306	0.00000000	2.69439000	17.79650000
63.86666305	0.00000000	3.11884800	19.00221000
64.06666304	0.00000000	3.11884800	16.67692000
64.26666303	0.00000000	2.74360200	11.70029000
64.46666301	0.00000000	1.95620100	5.11195900
64.66666300	0.00000000	1.16264800	-1.39640700
64.86666299	0.00000000	0.00000000	-6.45300100
65.06666298	0.00000000	-1.07037400	-8.78444900
65.26666297	0.00000000	-1.11343500	-8.50147600
65.46666295	0.00000000	-0.37524600	-6.13312000
65.66666294	0.00000000	0.41830710	-2.27608300
65.86666293	0.00000000	1.58095500	2.73745100
66.06666292	0.00000000	2.65132900	7.38188900
66.26666291	0.00000000	2.65132900	10.91289000
66.46666289	0.00000000	1.58095500	13.23819000
66.66666288	0.00000000	0.41830710	13.61343000
66.86666287	0.00000000	-0.37524600	12.11860000
67.06666286	0.00000000	-1.16264800	9.42421200
67.26666285	0.00000000	-1.44562000	6.31151500
67.46666284	0.00000000	-0.69512790	3.15575800
67.66666282	0.00000000	1.24877000	0.04306102
67.86666281	0.00000000	3.53715500	-2.69439000
68.06666280	0.00000000	5.85629900	-4.64443900
68.26666279	0.00000000	7.30807100	-5.75787400
68.46666278	0.00000000	6.93282500	-5.33956700
68.66666276	0.00000000	4.60752900	-3.06348400
68.86666275	0.00000000	1.16264800	0.04306102
69.06666274	0.00000000	-2.74360200	3.62327700
69.26666273	0.00000000	-6.14542300	7.84940900
69.46666272	0.00000000	-8.13853400	11.70029000
69.66666270	0.00000000	-8.10162400	14.03174000
69.86666269	0.00000000	-6.50836600	14.76993000
70.06666268	0.00000000	-2.60826800	13.14591000
70.26666267	0.00000000	2.74360200	8.96284400
70.46666266	0.00000000	7.76943800	3.57406500
70.66666265	0.00000000	11.62648000	-1.43946800
70.86666263	0.00000000	13.12131000	-5.33956700
71.06666262	0.00000000	11.62648000	-7.24655500
71.26666261	0.00000000	7.76943800	-6.92052100
71.46666260	0.00000000	2.69439000	-4.55831700
71.66666259	0.00000000	-3.11884800	-0.69512790
71.86666257	0.00000000	-8.46456700	4.31840500
72.06666256	0.00000000	-11.54035000	8.91978400
72.26666255	0.00000000	-11.58341000	12.03248000
72.46666254	0.00000000	-8.88902600	13.18898000
72.66666253	0.00000000	-4.23228400	12.03248000
72.86666251	0.00000000	1.53789400	9.00590400
73.06666250	0.00000000	6.97588500	5.19808000
73.26666249	0.00000000	10.83907000	2.08538400
73.46666248	0.00000000	12.78912000	0.09227362
73.66666247	0.00000000	11.95866000	-1.06422200
73.86666246	0.00000000	8.55684000	-1.02116100
74.06666244	0.00000000	3.53715500	0.41830710
74.26666243	0.00000000	-1.44562000	2.31914400
74.46666242	0.00000000	-5.35187000	3.43873000
74.66666241	0.00000000	-7.30807100	3.90009800
74.86666240	0.00000000	-7.35113100	3.48794300
75.06666238	0.00000000	-5.77017700	2.78051200
75.26666237	0.00000000	-2.69439000	1.99311000
75.46666236	0.00000000	1.11343500	1.71013800
75.66666235	0.00000000	4.18922200	2.46063000
75.86666234	0.00000000	5.81323800	4.40452700
76.06666232	0.00000000	6.23154500	6.68676100
76.26666231	0.00000000	5.81323800	9.00590400
76.46666230	0.00000000	4.32455700	10.45152000
76.66666229	0.00000000	2.41756900	10.07628000
76.86666228	0.00000000	1.24877000	7.75713500
77.06666227	0.00000000	0.46751960	4.31840500
77.26666225	0.00000000	0.46751960	0.41830710
77.46666224	0.00000000	1.16264800	-3.02042300
77.66666223	0.00000000	1.48868100	-5.33956700
77.86666222	0.00000000	1.16264800	-5.67175200
78.06666221	0.00000000	0.37524600	-3.76476400
78.26666219	0.00000000	-0.37524600	0.09227362
78.46666218	0.00000000	-1.16264800	4.73671200
78.66666217	0.00000000	-1.48868100	9.38115100
78.86666216	0.00000000	-1.11343500	13.18898000
79.06666215	0.00000000	0.04306102	14.72687000
79.26666213	0.00000000	1.62401600	13.60728000
79.46666212	0.00000000	3.53715500	10.53765000
79.66666211	0.00000000	5.43799200	6.26845500
79.86666210	0.00000000	6.18848400	1.62401600
80.06666209	0.00000000	5.81323800	-2.60211600
80.26666208	0.00000000	4.23228400	-5.29650500
80.46666206	0.00000000	1.58095500	-5.71481200
80.66666205	0.00000000	-1.11343500	-4.22613100
80.86666204	0.00000000	-3.06963600	-1.53174200
81.06666203	0.00000000	-4.23228400	1.58095500
81.26666202	0.00000000	-4.18922200	4.73671200
81.46666200	0.00000000	-2.65132900	7.80019600
81.66666199	0.00000000	0.00000000	10.11934000
81.86666198	0.00000000	2.69439000	10.91289000
82.06666197	0.00000000	4.65059000	10.58686000
82.26666196	0.00000000	5.81323800	9.38115100
82.46666194	0.00000000	5.81323800	7.43110200
82.66666193	0.00000000	4.65059000	4.73671200
82.86666192	0.00000000	2.74360200	1.99311000
83.06666191	0.00000000	0.41830710	-0.37524600
83.26666190	0.00000000	-1.44562000	-2.64517700
83.46666189	0.00000000	-2.27608300	-3.80782500
83.66666187	0.00000000	-1.91314000	-3.43873000
83.86666186	0.00000000	-1.16264800	-2.27608300
84.06666185	0.00000000	0.00000000	0.13533460
84.26666184	0.00000000	1.11343500	3.53100400
84.46666183	0.00000000	1.53789400	7.05585600
84.66666181	0.00000000	1.58095500	9.75639700
84.86666180	0.00000000	1.58095500	11.70029000
85.06666179	0.00000000	1.58095500	12.03248000
85.26666178	0.00000000	1.58095500	10.49459000
85.46666177	0.00000000	1.58095500	7.38188900
85.66666175	0.00000000	1.62401600	3.15575800
85.86666174	0.00000000	1.99926200	-1.07037400
86.06666173	0.00000000	2.65132900	-4.18307100
86.26666172	0.00000000	2.27608300	-5.71481200
86.46666171	0.00000000	0.83661410	-5.29650500
86.66666170	0.00000000	0.04306102	-2.60211600
86.86666168	0.00000000	-0.41830710	1.62401600
87.06666167	0.00000000	-1.16264800	6.26845500
87.26666166	0.00000000	-1.48868100	10.49459000
87.46666165	0.00000000	-1.16264800	13.14591000
87.66666164	0.00000000	-0.33218500	13.14591000
87.86666162	0.00000000	0.83661410	10.49459000
88.06666161	0.00000000	2.74360200	6.26845500
88.26666160	0.00000000	4.18922200	1.62401600
88.46666159	0.00000000	4.27534400	-2.60211600
88.66666158	0.00000000	3.53715500	-5.29650500
88.86666156	0.00000000	2.74360200	-5.67175200
89.06666155	0.00000000	1.53789400	-3.71555100
89.26666154	0.00000000	0.04306102	0.51058070
89.46666153	0.00000000	-1.11343500	5.85014700
89.66666152	0.00000000	-1.48868100	10.45152000
89.86666151	0.00000000	-1.16264800	13.18898000
90.06666149	0.00000000	-0.37524600	13.56422000
90.26666148	0.00000000	0.37524600	11.65723000
90.46666147	0.00000000	1.20570900	7.75713500
90.66666146	0.00000000	1.95620100	2.78051200
90.86666145	0.00000000	2.69439000	-2.18380900
91.06666143	0.00000000	2.69439000	-5.24729300
91.26666142	0.00000000	1.99926200	-5.67175200
91.46666141	0.00000000	1.62401600	-3.71555100
91.66666140	0.00000000	1.58095500	0.51058070
91.86666139	0.00000000	1.62401600	5.85014700
92.06666137	0.00000000	1.95620100	10.45152000
92.26666136	0.00000000	2.32529500	13.14591000
92.46666135	0.00000000	1.95620100	13.14591000
92.66666134	0.00000000	1.58095500	10.49459000
92.86666133	0.00000000	1.11343500	6.21924200
93.06666132	0.00000000	0.00000000	1.24877000
93.26666130	0.00000000	-1.11343500	-3.34645700
93.46666129	0.00000000	-1.53789400	-5.62253900
93.66666128	0.00000000	-1.53789400	-5.29650500
93.86666127	0.00000000	-1.11343500	-2.55905500
94.06666126	0.00000000	0.09227362	1.99311000
94.26666124	0.00000000	1.99926200	6.96358300
94.46666123	0.00000000	4.32455700	10.45152000
94.66666122	0.00000000	6.18848400	12.03248000
94.86666121	0.00000000	6.97588500	11.61417000
95.06666120	0.00000000	6.18848400	8.91978400
95.26666118	0.00000000	4.27534400	4.73671200
95.46666117	0.00000000	1.53789400	0.51058070
95.66666116	0.00000000	-1.53789400	-2.55905500
95.86666115	0.00000000	-4.23228400	-3.71555100
96.06666114	0.00000000	-5.77017700	-2.60211600
96.26666113	0.00000000	-5.77017700	0.04306102
96.46666111	0.00000000	-4.23228400	3.15575800
96.66666110	0.00000000	-1.48868100	6.22539300
96.86666109	0.00000000	1.99926200	8.50147600
97.06666108	0.00000000	5.85629900	8.91978400
97.26666107	0.00000000	8.93208600	7.80019600
97.46666105	0.00000000	10.46998000	5.89320800
97.66666104	0.00000000	10.09473000	3.57406500
97.86666103	0.00000000	7.76943800	1.66707700
98.06666102	0.00000000	4.27534400	0.51058070
98.26666101	0.00000000	0.04306102	0.46136810
98.46666099	0.00000000	-3.81397600	1.19955700
98.66666098	0.00000000	-6.14542300	1.99311000
98.86666097	0.00000000	-6.97588500	3.15575800
99.06666096	0.00000000	-6.14542300	4.26919300
99.26666095	0.00000000	-3.85703700	4.69365100
99.46666094	0.00000000	-0.37524600	4.73671200
99.66666092	0.00000000	3.11884800	4.77977300
99.86666091	0.00000000	6.23154500	5.15501900
100.06666090	0.00000000	8.51377900	5.89320800
100.26666089	0.00000000	8.93208600	6.26845500
100.46666088	0.00000000	7.81250000	6.31151500
100.66666086	0.00000000	5.81323800	6.21924200
100.86666085	0.00000000	2.74360200	5.43184000
101.06666084	0.00000000	-0.69512790	3.53100400
101.26666083	0.00000000	-3.02657500	1.66707700
101.46666082	0.00000000	-4.27534400	0.46136810
101.66666080	0.00000000	-4.60752900	0.04306102
101.86666079	0.00000000	-3.85703700	0.04306102
102.06666078	0.00000000	-1.91314000	0.51058070
102.26666077	0.00000000	0.37524600	2.08538400
102.46666076	0.00000000	2.74360200	4.73671200
102.66666075	0.00000000	4.65059000	7.43110200
102.86666073	0.00000000	5.85629900	9.33809000
103.06666072	0.00000000	6.23154500	10.11934000
103.26666071	0.00000000	5.85629900	9.33809000
103.46666070	0.00000000	4.65059000	7.43110200
103.66666069	0.00000000	2.74360200	4.68750000
103.86666067	0.00000000	0.41830710	1.62401600
104.06666066	0.00000000	-1.48868100	-1.07037400
104.26666065	0.00000000	-2.65132900	-2.55905500
104.46666064	0.00000000	-2.65132900	-2.22687000
104.66666063	0.00000000	-1.53789400	-0.28297240
104.86666061	0.00000000	0.00000000	2.36835600
105.06666060	0.00000000	1.58095500	5.47490100
105.26666059	0.00000000	3.11884800	7.75713500
105.46666058	0.00000000	4.27534400	8.96284400
105.66666057	0.00000000	4.65059000	8.91978400
105.86666056	0.00000000	4.27534400	7.43110200
106.06666054	0.00000000	3.11884800	5.11195900
106.26666053	0.00000000	1.58095500	2.82972400
106.46666052	0.00000000	0.04306102	0.87967510
106.66666051	0.00000000	-1.07037400	0.13533460
106.86666050	0.00000000	-1.07037400	0.46136810
107.06666048	0.00000000	0.00000000	1.62401600
107.26666047	0.00000000	1.16264800	3.15575800
107.46666046	0.00000000	1.95620100	4.73671200
107.66666045	0.00000000	2.74360200	6.22539300
107.86666044	0.00000000	3.11884800	7.00664300
108.06666042	0.00000000	3.11884800	6.59448800
108.26666041	0.00000000	2.69439000	5.47490100
108.46666040	0.00000000	1.53789400	3.53100400
108.66666039	0.00000000	0.04306102	1.66707700
108.86666038	0.00000000	-1.07037400	0.51058070
109.06666037	0.00000000	-1.11343500	0.51058070
109.26666035	0.00000000	-0.37524600	1.62401600
109.46666034	0.00000000	0.41830710	3.15575800
109.66666033	0.00000000	1.58095500	4.73671200
109.86666032	0.00000000	2.69439000	6.26845500
110.06666031	0.00000000	3.11884800	7.38188900
110.26666029	0.00000000	3.16190900	7.38188900
110.46666028	0.00000000	3.11884800	6.26845500
110.66666027	0.00000000	2.74360200	4.73671200
110.86666026	0.00000000	1.95620100	3.15575800
111.06666025	0.00000000	1.20570900	1.62401600
111.26666023	0.00000000	0.41830710	0.46136810
111.46666022	0.00000000	0.04306102	0.09227362
111.66666021	0.00000000	0.00000000	0.46136810
111.86666020	0.00000000	0.04306102	1.62401600
112.06666019	0.00000000	0.46751960	3.11269700
112.26666018	0.00000000	1.58095500	4.31840500
112.46666016	0.00000000	2.69439000	5.06274600
112.66666015	0.00000000	3.11884800	5.51796200
112.86666014	0.00000000	3.11884800	5.48105300
113.06666013	0.00000000	2.74360200	5.51796200
113.26666012	0.00000000	1.99926200	5.06274600
113.46666010	0.00000000	1.62401600	4.36146600
113.66666009	0.00000000	1.58095500	3.57406500
113.86666008	0.00000000	1.58095500	3.19881900
114.06666007	0.00000000	1.58095500	3.15575800
114.26666006	0.00000000	1.58095500	3.11269700
114.46666004	0.00000000	1.58095500	2.73745100
114.66666003	0.00000000	1.53789400	1.99311000
114.86666002	0.00000000	1.20570900	1.61786400
115.06666001	0.00000000	0.83661410	1.61786400
115.26666000	0.00000000	1.20570900	1.99311000
115.46665999	0.00000000	1.53789400	2.78051200
115.66665997	0.00000000	1.58095500	3.53100400
115.86665996	0.00000000	1.58095500	4.36146600
116.06665995	0.00000000	1.58095500	5.11195900
116.26665994	0.00000000	1.58095500	5.89320800
116.46665993	0.00000000	1.53789400	6.26845500
116.66665991	0.00000000	1.20570900	6.26845500
116.86665990	0.00000000	0.83661410	5.85014700
117.06665989	0.00000000	1.20570900	4.73671200
117.26665988	0.00000000	1.53789400	3.57406500
117.46665987	0.00000000	1.62401600	2.78051200
117.66665985	0.00000000	1.99926200	1.99311000
117.86665984	0.00000000	2.74360200	1.61786400
118.06665983	0.00000000	3.11884800	1.61786400
118.26665982	0.00000000	3.11884800	1.99311000
118.46665981	0.00000000	2.74360200	2.78051200
118.66665980	0.00000000	1.95620100	3.57406500
118.86665978	0.00000000	1.20570900	4.73671200
119.06665977	0.00000000	0.37524600	5.85014700
119.26665976	0.00000000	-0.37524600	6.26845500
119.46665975	0.00000000	-1.11343500	6.26845500
119.66665974	0.00000000	-1.07037400	5.89320800
119.86665972	0.00000000	0.04306102	5.11195900
120.06665971	0.00000000	1.53789400	4.36146600
120.26665970	0.00000000	2.74360200	3.57406500
120.46665969	0.00000000	3.53715500	3.15575800
120.66665968	0.00000000	4.32455700	2.73745100
120.86665966	0.00000000	4.65059000	2.04232300
121.06665965	0.00000000	4.27534400	2.04232300
121.26665964	0.00000000	3.11884800	2.73745100
121.46665963	0.00000000	1.58095500	3.11269700
121.66665962	0.00000000	0.04306102	3.15575800
121.86665961	0.00000000	-1.11343500	3.19881900
122.06665959	0.00000000	-1.53789400	3.57406500
122.26665958	0.00000000	-1.53789400	4.31840500
122.46665957	0.00000000	-1.11343500	4.73671200
122.66665956	0.00000000	0.04306102	5.11195900
122.86665955	0.00000000	1.53789400	5.47490100
123.06665953	0.00000000	2.74360200	5.11195900
123.26665952	0.00000000	3.53715500	4.77977300
123.46665951	0.00000000	4.27534400	4.69365100
123.66665950	0.00000000	4.23228400	4.26919300
123.86665949	0.00000000	3.16190900	3.15575800
124.06665947	0.00000000	2.04847400	2.08538400
124.26665946	0.00000000	1.58095500	1.99311000
124.46665945	0.00000000	1.16264800	2.36220500
124.66665944	0.00000000	0.37524600	2.36835600
124.86665943	0.00000000	-0.37524600	2.78051200
125.06665942	0.00000000	-1.11343500	3.11269700
125.26665940	0.00000000	-1.11343500	3.19881900
125.46665939	0.00000000	-0.37524600	3.57406500
125.66665938	0.00000000	0.37524600	4.31840500
125.86665937	0.00000000	1.20570900	4.69365100
126.06665936	0.00000000	1.95620100	4.73671200
126.26665934	0.00000000	2.78666300	4.73671200
126.46665933	0.00000000	3.49409400	4.69365100
126.66665932	0.00000000	3.90625000	4.31840500
126.86665931	0.00000000	3.49409400	3.57406500
127.06665930	0.00000000	2.74360200	3.19881900
127.26665928	0.00000000	1.58095500	3.15575800
127.46665927	0.00000000	0.41830710	3.15575800
127.66665926	0.00000000	-0.33218500	3.15575800
127.86665925	0.00000000	-0.74434050	3.15575800
128.06665924	0.00000000	-0.37524600	3.15575800
128.26665923	0.00000000	0.00000000	3.19881900
128.46665921	0.00000000	0.46751960	3.57406500
128.66665920	0.00000000	1.58095500	4.31840500
128.86665919	0.00000000	2.74360200	4.64443900
129.06665918	0.00000000	3.49409400	4.31840500
129.26665917	0.00000000	3.90625000	3.57406500
129.46665915	0.00000000	3.49409400	3.19881900
129.66665914	0.00000000	2.74360200	3.15575800
129.86665913	0.00000000	1.58095500	3.15575800
130.06665912	0.00000000	0.46751960	3.19881900
130.26665911	0.00000000	0.04306102	3.57406500
130.46665909	0.00000000	0.00000000	4.31840500
130.66665908	0.00000000	0.04306102	4.69365100
130.86665907	0.00000000	0.46751960	4.73671200
131.06665906	0.00000000	1.58095500	4.73671200
131.26665905	0.00000000	2.69439000	4.69365100
131.46665904	0.00000000	3.11884800	4.31840500
131.66665902	0.00000000	3.16190900	3.57406500
131.86665901	0.00000000	3.11884800	3.19881900
132.06665900	0.00000000	2.74360200	3.15575800
132.26665899	0.00000000	1.95620100	3.11269700
132.46665898	0.00000000	1.24877000	2.78051200
132.66665896	0.00000000	0.83661410	2.41141700
132.86665895	0.00000000	1.20570900	2.82357300
133.06665894	0.00000000	1.53789400	3.53100400
133.26665893	0.00000000	1.58095500	4.31840500
133.46665892	0.00000000	1.58095500	4.73671200
133.66665890	0.00000000	1.58095500	5.11195900
133.86665889	0.00000000	1.58095500	5.47490100
134.06665888	0.00000000	1.58095500	5.06274600
134.26665887	0.00000000	1.58095500	4.36146600
134.46665886	0.00000000	1.58095500	3.53100400
134.66665885	0.00000000	1.58095500	2.78051200
134.86665883	0.00000000	1.62401600	1.99311000
135.06665882	0.00000000	1.99926200	1.61786400
135.26665881	0.00000000	2.74360200	1.61786400
135.46665880	0.00000000	3.06963600	2.04232300
135.66665879	0.00000000	2.74360200	3.15575800
135.86665877	0.00000000	1.95620100	4.26919300
136.06665876	0.00000000	1.20570900	4.69365100
136.26665875	0.00000000	0.41830710	4.77977300
136.46665874	0.00000000	0.04306102	5.11195900
136.66665873	0.00000000	0.04306102	5.47490100
136.86665871	0.00000000	0.41830710	5.06274600
137.06665870	0.00000000	1.16264800	4.36146600
137.26665869	0.00000000	1.58095500	3.57406500
137.46665868	0.00000000	1.99926200	3.19881900
137.66665867	0.00000000	2.74360200	3.11269700
137.86665866	0.00000000	3.11884800	2.73745100
138.06665864	0.00000000	3.11884800	1.99311000
138.26665863	0.00000000	2.74360200	1.66707700
138.46665862	0.00000000	1.99926200	1.99311000
138.66665861	0.00000000	1.58095500	2.78051200
138.86665860	0.00000000	1.16264800	3.53100400
139.06665858	0.00000000	0.41830710	4.31840500
139.26665857	0.00000000	0.09227362	4.69365100
139.46665856	0.00000000	0.41830710	4.73671200
139.66665855	0.00000000	1.16264800	4.73671200
139.86665854	0.00000000	1.58095500	4.73671200
140.06665852	0.00000000	1.99926200	4.69365100
140.26665851	0.00000000	2.69439000	4.31840500
140.46665850	0.00000000	2.69439000	3.53100400
140.66665849	0.00000000	1.99926200	2.78051200
140.86665848	0.00000000	1.62401600	2.04232300
141.06665847	0.00000000	1.58095500	2.04232300
141.26665845	0.00000000	1.58095500	2.73745100
141.46665844	0.00000000	1.58095500	3.15575800
141.66665843	0.00000000	1.58095500	3.57406500
141.86665842	0.00000000	1.58095500	4.36146600
142.06665841	0.00000000	1.58095500	5.06274600
142.26665839	0.00000000	1.58095500	5.47490100
142.46665838	0.00000000	1.58095500	5.11195900
142.66665837	0.00000000	1.58095500	4.77977300
142.86665836	0.00000000	1.58095500	4.69365100
143.06665835	0.00000000	1.58095500	4.26919300
143.26665834	0.00000000	1.58095500	3.15575800
143.46665832	0.00000000	1.58095500	2.04232300
143.66665831	0.00000000	1.58095500	1.66707700
143.86665830	0.00000000	1.62401600	1.99311000
144.06665829	0.00000000	1.95620100	2.73745100
144.26665828	0.00000000	2.32529500	3.15575800
144.46665826	0.00000000	1.99926200	3.57406500
144.66665825	0.00000000	2.04847400	4.31840500
144.86665824	0.00000000	2.74360200	4.69365100
145.06665823	0.00000000	3.11884800	4.73671200
145.26665822	0.00000000	3.11884800	4.73671200
145.46665820	0.00000000	2.74360200	4.69365100
145.66665819	0.00000000	1.99926200	4.31840500
145.86665818	0.00000000	1.58095500	3.57406500
146.06665817	0.00000000	1.20570900	3.19881900
146.26665816	0.00000000	0.83661410	3.15575800
146.46665815	0.00000000	1.20570900	3.15575800
146.66665813	0.00000000	1.53789400	3.15575800
146.86665812	0.00000000	1.62401600	3.19881900
147.06665811	0.00000000	1.99926200	3.57406500
147.26665810	0.00000000	2.69439000	4.31840500
147.46665809	0.00000000	2.69439000	4.69365100
147.66665807	0.00000000	1.99926200	4.73671200
147.86665806	0.00000000	1.62401600	4.73671200
148.06665805	0.00000000	1.58095500	4.73671200
148.26665804	0.00000000	1.53789400	4.69365100
148.46665803	0.00000000	1.20570900	4.31840500
148.66665801	0.00000000	0.83661410	3.57406500
148.86665800	0.00000000	1.20570900	3.19881900
149.06665799	0.00000000	1.53789400	3.15575800
149.26665798	0.00000000	1.58095500	3.15575800
149.46665797	0.00000000	1.62401600	3.15575800
149.66665796	0.00000000	1.99926200	3.19881900
149.86665794	0.00000000	2.74360200	3.57406500
150.06665793	0.00000000	3.11884800	4.31840500
150.26665792	0.00000000	3.11884800	4.69365100
150.46665791	0.00000000	2.74360200	4.73671200
150.66665790	0.00000000	1.99926200	4.73671200
150.86665788	0.00000000	1.58095500	4.73671200
151.06665787	0.00000000	1.20570900	4.73671200
151.26665786	0.00000000	0.83661410	4.69365100
151.46665785	0.00000000	1.20570900	4.31840500
151.66665784	0.00000000	1.53789400	3.62327700
151.86665782	0.00000000	1.58095500	3.57406500
152.06665781	0.00000000	1.62401600	3.90009800
152.26665780	0.00000000	1.95620100	3.53100400
152.46665779	0.00000000	2.36835600	3.19881900
152.66665778	0.00000000	2.37450800	3.15575800
152.86665777	0.00000000	2.78666300	3.19881900
153.06665775	0.00000000	3.06963600	3.57406500
153.26665774	0.00000000	2.74360200	4.31840500
153.46665773	0.00000000	1.99926200	4.69365100
153.66665772	0.00000000	1.62401600	4.73671200
153.86665771	0.00000000	1.53789400	4.73671200
154.06665769	0.00000000	1.20570900	4.73671200
154.26665768	0.00000000	0.83661410	4.73671200
154.46665767	0.00000000	1.20570900	4.69365100
154.66665766	0.00000000	1.53789400	4.31840500
154.86665765	0.00000000	1.58095500	3.57406500
155.06665763	0.00000000	1.62401600	3.19881900
155.26665762	0.00000000	1.99926200	3.15575800
155.46665761	0.00000000	2.74360200	3.15575800
155.66665760	0.00000000	3.11884800	3.15575800
155.86665759	0.00000000	3.11884800	3.15575800
156.06665758	0.00000000	2.74360200	3.19881900
156.26665756	0.00000000	1.99926200	3.57406500
156.46665755	0.00000000	1.62401600	4.31840500
156.66665754	0.00000000	1.53789400	4.69365100
156.86665753	0.00000000	1.20570900	4.73671200
157.06665752	0.00000000	0.79355310	4.73671200
157.26665750	0.00000000	0.83046260	4.73671200
157.46665749	0.00000000	0.79355310	4.73671200
157.66665748	0.00000000	1.20570900	4.69365100
157.86665747	0.00000000	1.53789400	4.31840500
158.06665746	0.00000000	1.62401600	3.57406500
158.26665744	0.00000000	1.99926200	3.19881900
158.46665743	0.00000000	2.74360200	3.15575800
158.66665742	0.00000000	3.11884800	3.15575800
158.86665741	0.00000000	3.11884800	3.19881900
159.06665740	0.00000000	2.74360200	3.57406500
159.26665739	0.00000000	1.99926200	4.31840500
159.46665737	0.00000000	1.62401600	4.69365100
159.66665736	0.00000000	1.58095500	4.73671200
159.86665735	0.00000000	1.53789400	4.73671200
160.06665734	0.00000000	1.20570900	4.73671200
160.26665733	0.00000000	0.83661410	4.73671200
160.46665731	0.00000000	1.20570900	4.69365100
160.66665730	0.00000000	1.53789400	4.31840500
160.86665729	0.00000000	1.58095500	3.57406500
161.06665728	0.00000000	1.58095500	3.19881900
161.26665727	0.00000000	1.58095500	3.15575800
161.46665725	0.00000000	1.58095500	3.15575800
161.66665724	0.00000000	1.62401600	3.15575800
161.86665723	0.00000000	1.95620100	3.19881900
162.06665722	0.00000000	2.36835600	3.57406500
162.26665721	0.00000000	2.33144700	4.31840500
162.46665720	0.00000000	2.36835600	4.69365100
162.66665718	0.00000000	1.95620100	4.73671200
162.86665717	0.00000000	1.62401600	4.73671200
163.06665716	0.00000000	1.58095500	4.73671200
163.26665715	0.00000000	1.58095500	4.73671200
163.46665714	0.00000000	1.58095500	4.73671200
163.66665712	0.00000000	1.58095500	4.69365100
163.86665711	0.00000000	1.58095500	4.36146600
164.06665710	0.00000000	1.58095500	3.94931100
164.26665709	0.00000000	1.58095500	3.94315900
164.46665708	0.00000000	1.62401600	3.53100400
164.66665706	0.00000000	1.99926200	3.19881900
164.86665705	0.00000000	2.74360200	3.19881900
165.06665704	0.00000000	3.11884800	3.53100400
165.26665703	0.00000000	3.16190900	3.94315900
165.46665702	0.00000000	3.11884800	3.94931100
165.66665701	0.00000000	2.74360200	4.36146600
165.86665699	0.00000000	1.99926200	4.69365100
166.06665698	0.00000000	1.62401600	4.73671200
166.26665697	0.00000000	1.58095500	4.73671200
166.46665696	0.00000000	1.58095500	4.73671200
166.66665695	0.00000000	1.58095500	4.69365100
166.86665693	0.00000000	1.58095500	4.31840500
167.06665692	0.00000000	1.58095500	3.57406500
167.26665691	0.00000000	1.58095500	3.19881900
167.46665690	0.00000000	1.62401600	3.19881900
167.66665689	0.00000000	1.95620100	3.53100400
167.86665687	0.00000000	2.36835600	3.94315900
168.06665686	0.00000000	2.37450800	3.94931100
168.26665685	0.00000000	2.74360200	4.31840500
168.46665684	0.00000000	2.69439000	4.26919300
168.66665683	0.00000000	1.99926200	3.57406500
168.86665682	0.00000000	1.62401600	3.19881900
169.06665680	0.00000000	1.58095500	3.15575800
169.26665679	0.00000000	1.58095500	3.15575800
169.46665678	0.00000000	1.58095500	3.19881900
169.66665677	0.00000000	1.58095500	3.57406500
169.86665676	0.00000000	1.58095500	4.26919300
170.06665674	0.00000000	1.58095500	4.31840500
170.26665673	0.00000000	1.58095500	3.94931100
170.46665672	0.00000000	1.58095500	3.94315900
170.66665671	0.00000000	1.58095500	3.53100400
170.86665670	0.00000000	1.62401600	3.19881900
171.06665668	0.00000000	1.95620100	3.15575800
171.26665667	0.00000000	2.36835600	3.15575800
171.46665666	0.00000000	2.33144700	3.15575800
171.66665665	0.00000000	2.36835600	3.15575800
171.86665664	0.00000000	1.99926200	3.19881900
172.06665663	0.00000000	1.99926200	3.57406500
172.26665661	0.00000000	2.32529500	4.31840500
172.46665660	0.00000000	1.95620100	4.69365100
172.66665659	0.00000000	1.62401600	4.73671200
172.86665658	0.00000000	1.62401600	4.73671200
173.06665657	0.00000000	1.95620100	4.73671200
173.26665655	0.00000000	2.32529500	4.73671200
173.46665654	0.00000000	1.95620100	4.69365100
173.66665653	0.00000000	1.62401600	4.31840500
173.86665652	0.00000000	1.58095500	3.57406500
174.06665651	0.00000000	1.58095500	3.19881900
174.26665649	0.00000000	1.58095500	3.15575800
174.46665648	0.00000000	1.58095500	3.15575800
174.66665647	0.00000000	1.58095500	3.15575800
174.86665646	0.00000000	1.58095500	3.15575800
175.06665645	0.00000000	1.58095500	3.15575800
175.26665644	0.00000000	1.58095500	3.19881900
175.46665642	0.00000000	1.58095500	3.57406500
175.66665641	0.00000000	1.58095500	4.26919300
175.86665640	0.00000000	1.58095500	4.26919300
176.06665639	0.00000000	1.58095500	3.62327700
176.26665638	0.00000000	1.58095500	3.57406500
176.46665636	0.00000000	1.58095500	3.94315900
176.66665635	0.00000000	1.58095500	3.94931100
176.86665634	0.00000000	1.58095500	4.36146600
177.06665633	0.00000000	1.58095500	4.64443900
177.26665632	0.00000000	1.58095500	4.36146600
177.46665630	0.00000000	1.58095500	3.94931100
177.66665629	0.00000000	1.58095500	3.94315900
177.86665628	0.00000000	1.58095500	3.57406500
178.06665627	0.00000000	1.58095500	3.57406500
178.26665626	0.00000000	1.58095500	3.94315900
178.46665625	0.00000000	1.58095500	3.94931100
178.66665623	0.00000000	1.62401600	4.36146600
178.86665622	0.00000000	1.95620100	4.69365100
179.06665621	0.00000000	2.32529500	4.69365100
179.26665620	0.00000000	1.99926200	4.36146600
179.46665619	0.00000000	1.99926200	3.94931100
179.66665617	0.00000000	2.32529500	3.94315900
179.86665616	0.00000000	1.95620100	3.57406500
180.06665615	0.00000000	1.62401600	3.57406500
180.26665614	0.00000000	1.62401600	3.90009800
180.46665613	0.00000000	1.95620100	3.57406500
180.66665611	0.00000000	2.32529500	3.57406500
180.86665610	0.00000000	1.95620100	3.90009800
181.06665609	0.00000000	1.62401600	3.57406500
181.26665608	0.00000000	1.58095500	3.57406500
181.46665607	0.00000000	1.58095500	3.94315900
181.66665606	0.00000000	1.58095500	3.94931100
181.86665604	0.00000000	1.62401600	4.36146600
182.06665603	0.00000000	1.95620100	4.69365100
182.26665602	0.00000000	2.32529500	4.73671200
182.46665601	0.00000000	1.99926200	4.69365100
182.66665600	0.00000000	2.04847400	4.31840500
182.86665598	0.00000000	2.69439000	3.57406500
183.06665597	0.00000000	2.69439000	3.19881900
183.26665596	0.00000000	1.99926200	3.15575800
183.46665595	0.00000000	1.62401600	3.15575800
183.66665594	0.00000000	1.58095500	3.15575800
183.86665592	0.00000000	1.58095500	3.19881900
184.06665591	0.00000000	1.58095500	3.57406500
184.26665590	0.00000000	1.58095500	4.31840500
184.46665589	0.00000000	1.62401600	4.69365100
184.66665588	0.00000000	1.95620100	4.73671200
184.86665587	0.00000000	2.32529500	4.73671200
185.06665585	0.00000000	1.99926200	4.73671200
185.26665584	0.00000000	1.99926200	4.73671200
185.46665583	0.00000000	2.32529500	4.69365100
185.66665582	0.00000000	1.99926200	4.31840500
185.86665581	0.00000000	2.04847400	3.57406500
186.06665579	0.00000000	2.69439000	3.19881900
186.26665578	0.00000000	2.69439000	3.19881900
186.46665577	0.00000000	1.99926200	3.53100400
186.66665576	0.00000000	1.62401600	3.90009800
186.86665575	0.00000000	1.58095500	3.57406500
187.06665573	0.00000000	1.58095500	3.62327700
187.26665572	0.00000000	1.58095500	4.31840500
187.46665571	0.00000000	1.58095500	4.69365100
187.66665570	0.00000000	1.58095500	4.73671200
187.86665569	0.00000000	1.58095500	4.73671200
188.06665568	0.00000000	1.62401600	4.69365100
188.26665566	0.00000000	1.99926200	4.31840500
188.46665565	0.00000000	2.74360200	3.57406500
188.66665564	0.00000000	3.11884800	3.19881900
188.86665563	0.00000000	3.16190900	3.15575800
189.06665562	0.00000000	3.11884800	3.15575800
189.26665560	0.00000000	2.74360200	3.15575800
189.46665559	0.00000000	1.99926200	3.15575800
189.66665558	0.00000000	1.62401600	3.19881900
189.86665557	0.00000000	1.58095500	3.57406500
190.06665556	0.00000000	1.58095500	4.31840500
190.26665554	0.00000000	1.58095500	4.69365100
190.46665553	0.00000000	1.58095500	4.73671200
190.66665552	0.00000000	1.58095500	4.73671200
190.86665551	0.00000000	1.58095500	4.73671200
191.06665550	0.00000000	1.62401600	4.73671200
191.26665549	0.00000000	1.95620100	4.73671200
191.46665547	0.00000000	2.32529500	4.73671200
191.66665546	0.00000000	1.99926200	4.73671200
191.86665545	0.00000000	2.04847400	4.69365100
192.06665544	0.00000000	2.69439000	4.31840500
192.26665543	0.00000000	2.69439000	3.57406500
192.46665541	0.00000000	1.99926200	3.19881900
192.66665540	0.00000000	1.62401600	3.15575800
192.86665539	0.00000000	1.58095500	3.15575800
193.06665538	0.00000000	1.58095500	3.19881900
193.26665537	0.00000000	1.58095500	3.57406500
193.46665535	0.00000000	1.58095500	4.31840500
193.66665534	0.00000000	1.58095500	4.69365100
193.86665533	0.00000000	1.62401600	4.73671200
194.06665532	0.00000000	1.99926200	4.73671200
194.26665531	0.00000000	2.74360200	4.73671200
194.46665530	0.00000000	3.11884800	4.73671200
194.66665528	0.00000000	3.11884800	4.73671200
194.86665527	0.00000000	2.74360200	4.73671200
195.06665526	0.00000000	1.99926200	4.73671200
195.26665525	0.00000000	1.62401600	4.69365100
195.46665524	0.00000000	1.58095500	4.36146600
195.66665522	0.00000000	1.58095500	3.94931100
195.86665521	0.00000000	1.58095500	3.98622000
196.06665520	0.00000000	1.58095500	3.94931100
