Time	Channel A	Channel B	Channel C
(us)	(V)	(mV)	(mV)

-4.53333289	0.00000000	12.64764000	-3.15575800
-4.33333290	0.00000000	12.64764000	-3.15575800
-4.13333291	0.00000000	12.64764000	-3.15575800
-3.93333293	0.00000000	12.64764000	-3.15575800
-3.73333294	0.00000000	12.64764000	-3.15575800
-3.53333295	0.00000000	12.64764000	-3.15575800
-3.33333296	0.00000000	12.64764000	-3.15575800
-3.13333297	0.00000000	12.64764000	-3.15575800
-2.93333299	0.00000000	12.64764000	-3.15575800
-2.73333300	0.00000000	12.64764000	-3.15575800
-2.53333301	0.00000000	12.64764000	-3.15575800
-2.33333302	0.00000000	12.64764000	-3.15575800
-2.13333303	0.00000000	12.64764000	-3.15575800
-1.93333304	0.00000000	12.64764000	-3.15575800
-1.73333306	0.00000000	12.64764000	-3.15575800
-1.53333307	0.00000000	12.64764000	-3.15575800
-1.33333308	0.00000000	12.64764000	-3.15575800
-1.13333309	0.00000000	12.64764000	-3.15575800
-0.93333310	0.00000000	12.64764000	-3.15575800
-0.73333312	0.00000000	12.64764000	-3.15575800
-0.53333313	0.00000000	12.64764000	-3.15575800
-0.33333314	0.15871060	12.64764000	-3.15575800
-0.13333315	0.47736220	12.64764000	-3.15575800
0.06666684	0.95533960	12.64764000	-3.15575800
0.26666682	0.95533960	12.64764000	-3.15575800
0.46666681	0.95533960	12.64764000	-3.15575800
0.66666680	0.47736220	12.64764000	-3.15575800
0.86666679	-0.15871060	12.64764000	-3.15575800
1.06666678	-1.11466500	12.64764000	-3.15575800
1.26666677	-2.07062000	12.64764000	-3.15575800
1.46666675	-2.70792300	12.64764000	-3.15575800
1.66666674	-2.70792300	12.64764000	-3.15575800
1.86666673	-1.75196900	12.64764000	-3.15575800
2.06666672	-0.15871060	12.64764000	-3.15575800
2.26666671	1.91129400	12.64764000	-3.15575800
2.46666669	3.98191400	12.64764000	-3.15575800
2.66666668	5.25652100	12.64764000	-3.15575800
2.86666667	5.25652100	12.64764000	-3.15575800
3.06666666	3.66326300	12.64764000	-3.15575800
3.26666665	0.95533960	12.64764000	-3.15575800
3.46666663	-2.38927200	12.64764000	-3.15575800
3.66666662	-5.57517200	12.64764000	-3.15575800
3.86666661	-7.64579200	12.64764000	-3.15575800
4.06666660	-7.80511800	12.64764000	-3.11269700
4.26666659	-6.05315000	12.64764000	-2.78051200
4.46666658	-2.38927200	12.64764000	-2.41141700
4.66666656	1.91129400	12.64764000	-2.78051200
4.86666655	6.05315000	12.64764000	-3.11269700
5.06666654	8.76107300	12.64764000	-3.15575800
5.26666653	9.39837600	12.64764000	-3.15575800
5.46666652	7.64579200	12.64764000	-3.15575800
5.66666650	3.98191400	12.64764000	-3.19881900
5.86666649	-0.79601380	12.64764000	-3.53100400
6.06666648	-5.25652100	12.64764000	-3.90009800
6.26666647	-8.44242100	12.64764000	-3.53100400
6.46666646	-9.39837600	12.64764000	-3.19881900
6.66666644	-8.12377000	12.64764000	-3.11269700
6.86666643	-4.77854300	12.64764000	-2.78051200
7.06666642	-0.47736220	12.64764000	-2.41141700
7.26666641	3.66326300	12.64764000	-2.78051200
7.46666640	6.69045300	12.64764000	-3.11269700
7.66666639	7.80511800	12.64764000	-3.15575800
7.86666637	6.84916400	12.64764000	-3.15575800
8.06666636	4.45989200	12.64764000	-3.15575800
8.26666635	1.11466500	12.64764000	-3.15575800
8.46666634	-1.91129400	12.64764000	-3.15575800
8.66666633	-4.30056600	12.64764000	-3.15575800
8.86666631	-5.09719500	12.64764000	-3.15575800
9.06666630	-4.77854300	12.64764000	-3.15575800
9.26666629	-3.34522600	12.64764000	-3.15575800
9.46666628	-1.27399100	12.64764000	-3.15575800
9.66666627	0.63668800	12.64764000	-3.15575800
9.86666625	1.91129400	12.64764000	-3.15575800
10.06666624	2.54859700	12.64764000	-3.15575800
10.26666623	2.38927200	12.64764000	-3.15575800
10.46666622	1.75196900	12.64764000	-3.15575800
10.66666621	0.79601380	12.64764000	-3.15575800
10.86666620	0.00000000	12.64764000	-3.15575800
11.06666618	-0.63668800	12.64764000	-3.15575800
11.26666617	-0.95533960	12.64764000	-3.15575800
11.46666616	-0.95533960	12.64764000	-3.15575800
11.66666615	-0.79601380	12.64764000	-3.15575800
11.86666614	-0.47736220	12.64764000	-3.15575800
12.06666612	-0.15871060	12.64764000	-3.15575800
12.26666611	-0.15871060	12.64764000	-3.15575800
12.46666610	-0.15871060	12.64764000	-3.15575800
12.66666609	0.00000000	12.64764000	-3.15575800
12.86666608	0.00000000	12.64764000	-3.15575800
13.06666606	0.00000000	12.60458000	-3.15575800
13.26666605	0.00000000	12.27239000	-3.15575800
13.46666604	0.00000000	11.90330000	-3.15575800
13.66666603	0.00000000	12.27239000	-3.15575800
13.86666602	0.00000000	12.60458000	-3.15575800
14.06666601	-0.15871060	12.64764000	-3.15575800
14.26666599	-0.15871060	12.64764000	-3.15575800
14.46666598	-0.15871060	12.64764000	-3.15575800
14.66666597	-0.15871060	12.64764000	-3.15575800
14.86666596	0.00000000	12.64764000	-3.15575800
15.06666595	0.00000000	12.64764000	-3.15575800
15.26666593	0.00000000	12.64764000	-3.15575800
15.46666592	0.00000000	12.64764000	-3.15575800
15.66666591	0.00000000	12.64764000	-3.15575800
15.86666590	0.00000000	12.64764000	-3.15575800
16.06666589	0.00000000	12.64764000	-3.15575800
16.26666587	0.00000000	12.64764000	-3.15575800
16.46666586	0.00000000	12.64764000	-3.15575800
16.66666585	-0.15871060	12.64764000	-3.15575800
16.86666584	0.00000000	12.69070000	-3.15575800
17.06666583	0.00000000	13.06594000	-3.15575800
17.26666582	0.00000000	13.81028000	-3.15575800
17.46666580	0.00000000	14.18553000	-3.15575800
17.66666579	0.00000000	14.18553000	-3.15575800
17.86666578	0.00000000	13.81028000	-3.15575800
18.06666577	0.00000000	12.97982000	-3.15575800
18.26666576	0.00000000	11.81102000	-3.15575800
18.46666574	0.00000000	9.90403500	-3.15575800
18.66666573	0.00000000	8.37229300	-3.15575800
18.86666572	0.00000000	7.57258800	-3.15575800
19.06666571	0.00000000	7.20964500	-3.15575800
19.26666570	0.00000000	8.04010800	-3.15575800
19.46666568	0.00000000	9.99630800	-3.15575800
19.66666567	0.00000000	13.15822000	-3.15575800
19.86666566	0.00000000	17.39050000	-3.15575800
20.06666565	0.00000000	21.57972000	-3.15575800
20.26666564	0.00000000	24.23105000	-3.15575800
20.46666563	0.00000000	24.18799000	-3.15575800
20.66666561	0.00000000	21.11220000	-3.15575800
20.86666560	0.00000000	15.67421000	-3.15575800
21.06666559	0.00000000	9.01820900	-3.15575800
21.26666558	0.00000000	1.62401600	-3.15575800
21.46666557	0.00000000	-5.21653500	-3.15575800
21.66666555	0.00000000	-8.93823700	-3.15575800
21.86666554	0.00000000	-7.35728300	-3.15575800
22.06666553	0.00000000	-0.47367120	-3.15575800
22.26666552	0.00000000	9.71333600	-3.15575800
22.46666551	0.00000000	21.72121000	-3.15575800
22.66666549	0.00000000	34.04282000	-3.15575800
22.86666548	0.00000000	42.38435000	-3.15575800
23.06666547	0.00000000	44.33440000	-3.11269700
23.26666546	0.00000000	38.80413000	-2.73745100
23.46666545	0.00000000	26.37795000	-1.99311000
23.66666544	0.00000000	9.01820900	-1.61786400
23.86666542	0.00000000	-9.07357200	-1.57480300
24.06666541	0.00000000	-22.98843000	-1.57480300
24.26666540	0.00000000	-29.91511000	-1.61786400
24.46666539	0.00000000	-27.82972000	-2.04232300
24.66666538	0.00000000	-15.82185000	-3.19881900
24.86666536	0.00000000	3.89394600	-4.73671200
25.06666535	0.00000000	26.60556000	-6.31151500
25.26666534	0.00000000	47.07185000	-7.80019600
25.46666533	0.00000000	59.78100000	-8.54453700
25.66666532	0.00000000	62.10630000	-7.75713500
25.86666530	0.00000000	53.13115000	-5.80093500
26.06666529	0.00000000	34.23966000	-2.69439000
26.26666528	0.00000000	9.90403500	1.15649600
26.46666527	0.00000000	-14.01329000	4.64443900
26.66666526	0.00000000	-32.19734000	7.33882900
26.86666525	0.00000000	-40.29896000	8.36614100
27.06666523	0.00000000	-36.85408000	6.40994000
27.26666522	0.00000000	-22.52707000	1.35334600
27.46666521	0.00000000	-0.51673230	-5.57332700
27.66666520	0.00000000	24.18799000	-13.33046000
27.86666519	0.00000000	45.82308000	-19.83883000
28.06666517	0.00000000	59.36269000	-23.68971000
28.26666516	0.00000000	62.10630000	-23.56053000
28.46666515	0.00000000	53.63558000	-18.53469000
28.66666514	0.00000000	36.33120000	-9.25196800
28.86666513	0.00000000	14.69611000	1.99311000
29.06666511	0.00000000	-6.19463500	13.56422000
29.26666510	0.00000000	-22.10261000	22.76083000
29.46666509	0.00000000	-29.87205000	26.58095000
29.66666508	0.00000000	-28.42643000	24.20645000
29.86666507	0.00000000	-18.79921000	15.23745000
30.06666506	0.00000000	-3.72170300	1.02116100
30.26666504	0.00000000	13.71801000	-14.81299000
30.46666503	0.00000000	29.95817000	-28.71555000
30.66666502	0.00000000	41.59080000	-37.95522000
30.86666501	0.00000000	46.29060000	-39.86220000
31.06666500	0.00000000	43.63311000	-34.05511000
31.26666498	0.00000000	34.79330000	-21.64739000
31.46666497	0.00000000	21.99803000	-4.64443900
31.66666496	0.00000000	8.08316900	13.10285000
31.86666495	0.00000000	-4.33070900	27.78666000
32.06666494	0.00000000	-12.43233000	36.23893000
32.26666492	0.00000000	-14.84375000	36.23893000
32.46666491	0.00000000	-11.40502000	27.78666000
32.66666490	0.00000000	-3.67864200	13.10285000
32.86666489	0.00000000	6.79133800	-4.69365100
33.06666488	0.00000000	17.99951000	-22.11491000
33.26666487	0.00000000	27.25763000	-35.58686000
33.46666485	0.00000000	32.70177000	-42.18134000
33.66666484	0.00000000	33.12008000	-40.28051000
33.86666483	0.00000000	28.88779000	-31.02854000
34.06666482	0.00000000	21.20448000	-16.35089000
34.26666481	0.00000000	11.95251000	0.64591530
34.46666479	0.00000000	3.85088600	16.12328000
34.66666478	0.00000000	-1.58710600	27.31914000
34.86666477	0.00000000	-3.16806100	31.55143000
35.06666476	0.00000000	-0.89197830	27.73745000
35.26666475	0.00000000	4.13385800	17.37820000
35.46666473	0.00000000	11.06668000	3.06963600
35.66666472	0.00000000	17.95029000	-11.94021000
35.86666471	0.00000000	22.55782000	-24.29257000
36.06666470	0.00000000	23.76353000	-30.89321000
36.26666469	0.00000000	21.48745000	-30.94242000
36.46666468	0.00000000	16.92298000	-24.76009000
36.66666466	0.00000000	11.53420000	-13.65650000
36.86666465	0.00000000	6.87746000	-0.97194880
37.06666464	0.00000000	3.75861200	9.85482200
37.26666463	0.00000000	2.64517700	16.77534000
37.46666462	0.00000000	4.18307100	17.93799000
37.66666460	0.00000000	8.04010800	12.96752000
37.86666459	0.00000000	12.97982000	3.80782500
38.06666458	0.00000000	17.62426000	-6.92052100
38.26666457	0.00000000	20.37401000	-15.70497000
38.46666456	0.00000000	21.53666000	-19.98031000
38.66666454	0.00000000	20.69390000	-18.81767000
38.86666453	0.00000000	17.29823000	-12.72761000
39.06666452	0.00000000	13.06594000	-3.53100400
39.26666451	0.00000000	9.15354300	5.62253900
39.46666450	0.00000000	5.62869100	12.17397000
39.66666449	0.00000000	3.34030500	14.03789000
39.86666447	0.00000000	2.55290300	10.59301000
40.06666446	0.00000000	3.75861200	2.55905500
40.26666445	0.00000000	6.79133800	-7.38188900
40.46666444	0.00000000	10.69144000	-16.21555000
40.66666443	0.00000000	14.60384000	-21.60433000
40.86666441	0.00000000	18.46087000	-21.97957000
41.06666440	0.00000000	21.11220000	-17.37820000
41.26666439	0.00000000	21.57972000	-8.91978400
41.46666438	0.00000000	20.46014000	1.06422200
41.66666437	0.00000000	18.46087000	9.89788300
41.86666435	0.00000000	15.29897000	15.28666000
42.06666434	0.00000000	11.10974000	15.66191000
42.26666433	0.00000000	7.25270600	11.10359000
42.46666432	0.00000000	4.92125900	3.06963600
42.66666431	0.00000000	4.09079700	-5.80708600
42.86666430	0.00000000	4.87819900	-13.52116000
43.06666428	0.00000000	6.74212600	-18.53469000
43.26666427	0.00000000	9.11048200	-19.32825000
43.46666426	0.00000000	11.44193000	-16.30167000
43.66666425	0.00000000	13.81028000	-10.53765000
43.86666424	0.00000000	15.71727000	-3.62327700
44.06666422	0.00000000	16.87992000	2.51599400
44.26666421	0.00000000	16.92298000	6.40994000
44.46666420	0.00000000	16.22785000	7.24655500
44.66666419	0.00000000	15.80955000	5.75787400
44.86666418	0.00000000	15.39124000	2.64517700
45.06666416	0.00000000	14.64690000	-1.53174200
45.26666415	0.00000000	14.13632000	-5.38262700
45.46666414	0.00000000	12.96752000	-7.75713500
45.66666413	0.00000000	10.65453000	-8.96284400
45.86666412	0.00000000	8.69217500	-8.96284400
46.06666411	0.00000000	6.28075700	-7.80019600
46.26666409	0.00000000	3.67249000	-5.89320800
46.46666408	0.00000000	2.17765700	-3.57406500
46.66666407	0.00000000	2.64517700	-1.62401600
46.86666406	0.00000000	5.76402500	-0.04306102
47.06666405	0.00000000	11.15896000	1.06422200
47.26666403	0.00000000	17.34744000	1.06422200
47.46666402	0.00000000	23.11762000	-0.09227362
47.66666401	0.00000000	26.97465000	-1.99311000
47.86666400	0.00000000	27.72515000	-4.31840500
48.06666399	0.00000000	25.34449000	-6.22539300
48.26666397	0.00000000	19.48819000	-7.42495000
48.46666396	0.00000000	11.06668000	-7.80019600
48.66666395	0.00000000	2.55290300	-7.38188900
48.86666394	0.00000000	-3.96161400	-5.80093500
49.06666393	0.00000000	-7.07431000	-3.11269700
49.26666392	0.00000000	-5.49950700	-0.09227362
49.46666390	0.00000000	-0.09842519	2.22687000
49.66666389	0.00000000	8.41535400	3.02042300
49.86666388	0.00000000	18.04257000	2.60211600
50.06666387	0.00000000	26.09498000	0.64591530
50.26666386	0.00000000	30.73942000	-2.82972400
50.46666384	0.00000000	30.32726000	-6.64370100
50.66666383	0.00000000	25.39370000	-10.11934000
50.86666382	0.00000000	17.29823000	-12.03248000
51.06666381	0.00000000	8.41535400	-12.03248000
51.26666380	0.00000000	0.68897630	-10.07628000
51.46666379	0.00000000	-4.28764700	-6.21924200
51.66666377	0.00000000	-4.66289300	-1.62401600
51.86666376	0.00000000	-0.47367120	2.60211600
52.06666375	0.00000000	6.79133800	5.29650500
52.26666374	0.00000000	14.88066000	5.71481200
52.46666373	0.00000000	21.44439000	4.18307100
52.66666371	0.00000000	25.30143000	1.07037400
52.86666370	0.00000000	25.30143000	-3.15575800
53.06666369	0.00000000	21.48745000	-7.33882900
53.26666368	0.00000000	15.34203000	-10.03322000
53.46666367	0.00000000	8.41535400	-10.49459000
53.66666365	0.00000000	2.68823800	-9.38115100
53.86666364	0.00000000	-0.00615157	-7.43110200
54.06666363	0.00000000	1.06422200	-4.73671200
54.26666362	0.00000000	4.92125900	-2.04232300
54.46666361	0.00000000	10.32234000	-0.13533460
54.66666360	0.00000000	16.41855000	0.60285430
54.86666358	0.00000000	20.65084000	-0.51058070
55.06666357	0.00000000	21.86270000	-2.73745100
55.26666356	0.00000000	20.69390000	-4.64443900
55.46666355	0.00000000	16.83686000	-5.80093500
55.66666354	0.00000000	11.53420000	-5.75787400
55.86666352	0.00000000	6.87746000	-4.26919300
56.06666351	0.00000000	3.75861200	-1.99311000
56.26666350	0.00000000	2.64517700	-0.09227362
56.46666349	0.00000000	4.18307100	1.06422200
56.66666348	0.00000000	7.99704600	0.97810030
56.86666346	0.00000000	12.55536000	-0.92888770
57.06666345	0.00000000	16.46161000	-4.36146600
57.26666344	0.00000000	18.79306000	-7.84940900
57.46666343	0.00000000	19.58046000	-10.91289000
57.66666342	0.00000000	18.41781000	-12.72761000
57.86666341	0.00000000	15.71727000	-11.52190000
58.06666339	0.00000000	12.27239000	-7.38188900
58.26666338	0.00000000	8.83366100	-1.95004900
58.46666337	0.00000000	6.92052100	3.44488200
58.66666336	0.00000000	6.83439900	8.03395600
58.86666335	0.00000000	7.94783400	9.89788300
59.06666333	0.00000000	9.52879000	8.36614100
59.26666332	0.00000000	11.44193000	3.72170300
59.46666331	0.00000000	13.34276000	-3.19881900
59.66666330	0.00000000	14.13632000	-10.49459000
59.86666329	0.00000000	14.18553000	-16.25861000
60.06666327	0.00000000	13.76107000	-18.95300000
60.26666326	0.00000000	12.64764000	-17.79650000
60.46666325	0.00000000	11.53420000	-13.14591000
60.66666324	0.00000000	11.15896000	-5.80708600
60.86666323	0.00000000	11.48499000	2.60211600
61.06666322	0.00000000	12.22933000	9.52263600
61.26666320	0.00000000	12.64764000	13.01058000
61.46666319	0.00000000	13.06594000	12.63533000
61.66666318	0.00000000	13.76107000	8.36614100
61.86666317	0.00000000	13.71801000	1.07037400
62.06666316	0.00000000	12.60458000	-7.38188900
62.26666314	0.00000000	11.06668000	-14.72687000
62.46666313	0.00000000	9.52879000	-19.37131000
62.66666312	0.00000000	8.37229300	-20.48474000
62.86666311	0.00000000	7.99704600	-17.42126000
63.06666310	0.00000000	8.37229300	-10.91289000
63.26666308	0.00000000	9.57800100	-3.19881900
63.46666307	0.00000000	11.48499000	4.14000900
63.66666306	0.00000000	13.76107000	9.56569900
63.86666305	0.00000000	15.34203000	11.89715000
64.06666304	0.00000000	16.09252000	11.10359000
64.26666303	0.00000000	16.08637000	6.87746000
64.46666301	0.00000000	14.51156000	0.37524600
64.66666300	0.00000000	12.27239000	-6.22539300
64.86666299	0.00000000	9.90403500	-12.03248000
65.06666298	0.00000000	8.04010800	-15.84030000
65.26666297	0.00000000	7.25270600	-16.30167000
65.46666295	0.00000000	7.99704600	-14.07480000
65.66666294	0.00000000	9.52879000	-10.58686000
65.86666293	0.00000000	11.48499000	-6.26845500
66.06666292	0.00000000	13.76107000	-1.66707700
66.26666291	0.00000000	15.25591000	2.22687000
66.46666289	0.00000000	15.29897000	4.60137700
66.66666288	0.00000000	14.13632000	5.80093500
66.86666287	0.00000000	12.22933000	5.75787400
67.06666286	0.00000000	9.95324800	4.22613100
67.26666285	0.00000000	8.41535400	1.53174200
67.46666284	0.00000000	8.04010800	-1.58095500
67.66666282	0.00000000	8.83366100	-4.73671200
67.86666281	0.00000000	11.10974000	-7.84940900
68.06666280	0.00000000	13.81028000	-10.53765000
68.26666279	0.00000000	16.09252000	-12.11860000
68.46666278	0.00000000	17.62426000	-12.49385000
68.66666276	0.00000000	17.21210000	-11.70029000
68.86666275	0.00000000	15.29897000	-9.29502900
69.06666274	0.00000000	12.13706000	-5.47490100
69.26666273	0.00000000	7.94783400	-0.79355310
69.46666272	0.00000000	4.13385800	3.43873000
69.66666270	0.00000000	2.22687000	6.92052100
69.86666269	0.00000000	2.60211600	8.40920300
70.06666268	0.00000000	5.33956700	7.29576700
70.26666267	0.00000000	9.95324800	4.18307100
70.46666266	0.00000000	15.34203000	-0.46136810
70.66666265	0.00000000	19.99877000	-5.85014700
70.86666263	0.00000000	23.06841000	-10.49459000
71.06666262	0.00000000	23.81275000	-13.60728000
71.26666261	0.00000000	21.48745000	-14.72687000
71.46666260	0.00000000	16.87992000	-13.18898000
71.66666259	0.00000000	11.06668000	-9.38115100
71.86666257	0.00000000	5.25344500	-4.73671200
72.06666256	0.00000000	0.64591530	-0.09227362
72.26666255	0.00000000	-1.63016700	3.71555100
72.46666254	0.00000000	-0.51673230	5.29650500
72.66666253	0.00000000	3.34030500	4.60137700
72.86666251	0.00000000	8.74138700	2.64517700
73.06666250	0.00000000	14.92372000	-0.41830710
73.26666249	0.00000000	19.90650000	-3.85088600
73.46666248	0.00000000	22.69316000	-6.17618100
73.66666247	0.00000000	23.06841000	-7.33882900
73.86666246	0.00000000	21.11220000	-6.96358300
74.06666244	0.00000000	16.87992000	-5.15501900
74.26666243	0.00000000	11.53420000	-3.66633800
74.46666242	0.00000000	6.87746000	-3.19881900
74.66666241	0.00000000	3.75861200	-3.24803100
74.86666240	0.00000000	2.60211600	-4.03543200
75.06666238	0.00000000	3.71555100	-5.89320800
75.26666237	0.00000000	6.36687900	-7.33882900
75.46666236	0.00000000	9.48572700	-7.38188900
75.66666235	0.00000000	12.60458000	-6.17618100
75.86666234	0.00000000	15.29897000	-3.85088600
76.06666232	0.00000000	16.83686000	-0.41830710
76.26666231	0.00000000	16.87992000	2.64517700
76.46666230	0.00000000	15.76649000	4.55831700
76.66666229	0.00000000	14.22859000	4.92125900
76.86666228	0.00000000	12.69070000	2.97736200
77.06666227	0.00000000	11.53420000	-0.51058070
77.26666225	0.00000000	11.06668000	-5.19808000
77.46666224	0.00000000	10.69144000	-10.49459000
77.66666223	0.00000000	10.32234000	-14.30241000
77.86666222	0.00000000	10.64838000	-15.14518000
78.06666221	0.00000000	10.59916000	-13.60728000
78.26666219	0.00000000	9.90403500	-10.07628000
78.46666218	0.00000000	9.48572700	-4.69365100
78.66666217	0.00000000	9.11048200	1.06422200
78.86666216	0.00000000	8.79060000	5.71481200
79.06666215	0.00000000	9.57800100	8.45226300
79.26666213	0.00000000	11.10974000	8.78444900
79.46666212	0.00000000	13.06594000	6.50221400
79.66666211	0.00000000	15.34203000	1.86392700
79.86666210	0.00000000	16.83686000	-3.48794300
80.06666209	0.00000000	16.87992000	-8.54453700
80.26666208	0.00000000	15.71727000	-12.03248000
80.46666206	0.00000000	13.76107000	-13.65650000
80.66666205	0.00000000	11.06668000	-13.61343000
80.86666204	0.00000000	8.41535400	-11.65723000
81.06666203	0.00000000	6.83439900	-7.84940900
81.26666202	0.00000000	6.41609200	-3.62327700
81.46666200	0.00000000	6.83439900	-0.09227362
81.66666199	0.00000000	8.41535400	2.64517700
81.86666198	0.00000000	11.06668000	4.22613100
82.06666197	0.00000000	13.76107000	4.60137700
82.26666196	0.00000000	15.67421000	3.85088600
82.46666194	0.00000000	16.46161000	1.90698800
82.66666193	0.00000000	15.71727000	-0.41830710
82.86666192	0.00000000	14.22859000	-3.19881900
83.06666191	0.00000000	12.64764000	-6.31151500
83.26666190	0.00000000	11.06668000	-9.38115100
83.46666189	0.00000000	9.57800100	-11.65723000
83.66666187	0.00000000	8.79060000	-12.07554000
83.86666186	0.00000000	9.15354300	-10.96211000
84.06666185	0.00000000	9.86097400	-8.96284400
84.26666184	0.00000000	10.69144000	-5.85014700
84.46666183	0.00000000	11.39887000	-1.99311000
84.66666181	0.00000000	11.85408000	1.48868100
84.86666180	0.00000000	11.81717000	4.22613100
85.06666179	0.00000000	11.85408000	5.71481200
85.26666178	0.00000000	11.48499000	5.29650500
85.46666177	0.00000000	11.53420000	2.60211600
85.66666175	0.00000000	12.27239000	-1.62401600
85.86666174	0.00000000	13.02288000	-6.26845500
86.06666173	0.00000000	13.76107000	-10.49459000
86.26666172	0.00000000	13.76107000	-13.18898000
86.46666171	0.00000000	13.02288000	-13.56422000
86.66666170	0.00000000	12.22933000	-11.65723000
86.86666168	0.00000000	11.02362000	-7.80019600
87.06666167	0.00000000	9.52879000	-3.20497000
87.26666166	0.00000000	8.37229300	1.07037400
87.46666165	0.00000000	7.99704600	4.18307100
87.66666164	0.00000000	8.37229300	5.71481200
87.86666162	0.00000000	9.52879000	5.29650500
88.06666161	0.00000000	11.06668000	2.60211600
88.26666160	0.00000000	12.60458000	-1.62401600
88.46666159	0.00000000	13.81028000	-6.21924200
88.66666158	0.00000000	14.56078000	-10.07628000
88.86666156	0.00000000	14.88066000	-11.98327000
89.06666155	0.00000000	13.71801000	-11.61417000
89.26666154	0.00000000	11.53420000	-8.91978400
89.46666153	0.00000000	9.95324800	-4.73671200
89.66666152	0.00000000	9.11048200	-0.46751960
89.86666151	0.00000000	8.37229300	2.97736200
90.06666149	0.00000000	8.41535400	4.87819900
90.26666148	0.00000000	9.48572700	4.09079700
90.46666147	0.00000000	10.64838000	1.07037400
90.66666146	0.00000000	11.44193000	-3.15575800
90.86666145	0.00000000	12.22933000	-7.38188900
91.06666143	0.00000000	12.60458000	-10.45152000
91.26666142	0.00000000	12.64764000	-11.60802000
91.46666141	0.00000000	12.64764000	-10.45152000
91.66666140	0.00000000	12.60458000	-7.38188900
91.86666139	0.00000000	12.22933000	-3.15575800
92.06666137	0.00000000	11.48499000	1.02116100
92.26666136	0.00000000	11.10974000	3.76476400
92.46666135	0.00000000	11.06668000	4.50910400
92.66666134	0.00000000	11.06668000	3.34645700
92.86666133	0.00000000	11.02362000	-0.13533460
93.06666132	0.00000000	10.64838000	-4.69365100
93.26666130	0.00000000	9.86097400	-8.91978400
93.46666129	0.00000000	9.15354300	-11.61417000
93.66666128	0.00000000	8.74138700	-11.98327000
93.86666127	0.00000000	9.15354300	-10.07628000
94.06666126	0.00000000	9.95324800	-6.26845500
94.26666124	0.00000000	11.53420000	-2.04232300
94.46666123	0.00000000	13.81028000	1.44562000
94.66666122	0.00000000	15.71727000	3.76476400
94.86666121	0.00000000	16.87992000	4.09079700
95.06666120	0.00000000	16.83686000	2.18380900
95.26666118	0.00000000	15.29897000	-1.62401600
95.46666117	0.00000000	12.60458000	-5.80093500
95.66666116	0.00000000	9.52879000	-8.91978400
95.86666115	0.00000000	6.79133800	-10.45152000
96.06666114	0.00000000	4.87819900	-10.07628000
96.26666113	0.00000000	4.09079700	-7.80019600
96.46666111	0.00000000	4.92125900	-4.73671200
96.66666110	0.00000000	7.20964500	-1.62401600
96.86666109	0.00000000	10.69144000	1.02116100
97.06666108	0.00000000	14.18553000	2.18380900
97.26666107	0.00000000	17.29823000	1.43946800
97.46666105	0.00000000	19.58046000	-0.41830710
97.66666104	0.00000000	19.95571000	-2.78051200
97.86666103	0.00000000	18.41781000	-5.06274600
98.06666102	0.00000000	15.29897000	-6.96358300
98.26666101	0.00000000	11.10974000	-7.38188900
98.46666099	0.00000000	7.25270600	-6.64370100
98.66666098	0.00000000	4.87819900	-5.51796200
98.86666097	0.00000000	3.67249000	-3.94931100
99.06666096	0.00000000	3.71555100	-2.82357300
99.26666095	0.00000000	5.29650500	-2.04232300
99.46666094	0.00000000	8.37229300	-2.04232300
99.66666092	0.00000000	12.22933000	-2.73745100
99.86666091	0.00000000	15.67421000	-3.06348400
100.06666090	0.00000000	18.04257000	-2.73745100
100.26666089	0.00000000	18.83612000	-1.99311000
100.46666088	0.00000000	18.46087000	-1.61786400
100.66666086	0.00000000	16.87992000	-1.57480300
100.86666085	0.00000000	14.18553000	-1.61786400
101.06666084	0.00000000	11.10974000	-2.04232300
101.26666083	0.00000000	8.32308000	-3.24803100
101.46666082	0.00000000	6.04084600	-5.11195900
101.66666080	0.00000000	4.50910400	-7.01279500
101.86666079	0.00000000	4.92125900	-7.75713500
102.06666078	0.00000000	6.74212600	-7.42495000
102.26666077	0.00000000	9.11048200	-6.22539300
102.46666076	0.00000000	11.44193000	-4.26919300
102.66666075	0.00000000	13.81028000	-1.58095500
102.86666073	0.00000000	15.67421000	1.07037400
103.06666072	0.00000000	16.50467000	2.60211600
103.26666071	0.00000000	16.14173000	2.60211600
103.46666070	0.00000000	15.34203000	1.11343500
103.66666069	0.00000000	13.76107000	-1.24877000
103.86666067	0.00000000	11.48499000	-3.94931100
104.06666066	0.00000000	9.52879000	-7.05585600
104.26666065	0.00000000	7.99704600	-9.29502900
104.46666064	0.00000000	7.20964500	-10.11934000
104.66666063	0.00000000	7.57258800	-9.33809000
104.86666061	0.00000000	8.37229300	-7.43110200
105.06666060	0.00000000	9.90403500	-4.68750000
105.26666059	0.00000000	11.81102000	-1.66707700
105.46666058	0.00000000	12.97982000	0.64591530
105.66666057	0.00000000	13.76107000	1.39640700
105.86666056	0.00000000	13.71801000	0.69512790
106.06666054	0.00000000	12.64764000	-1.24877000
106.26666053	0.00000000	11.48499000	-3.48179100
106.46666052	0.00000000	10.69144000	-5.47490100
106.66666051	0.00000000	9.90403500	-6.59448800
106.86666050	0.00000000	9.57800100	-7.00664300
107.06666048	0.00000000	9.95324800	-6.22539300
107.26666047	0.00000000	11.06668000	-4.73671200
107.46666046	0.00000000	12.18012000	-3.15575800
107.66666045	0.00000000	12.60458000	-1.66707700
107.86666044	0.00000000	12.64764000	-0.87967510
108.06666042	0.00000000	12.60458000	-1.24877000
108.26666041	0.00000000	12.18012000	-2.04232300
108.46666040	0.00000000	11.06668000	-3.57406500
108.66666039	0.00000000	9.95324800	-5.43184000
108.86666038	0.00000000	9.52879000	-6.21924200
109.06666037	0.00000000	9.52879000	-6.26845500
109.26666035	0.00000000	9.90403500	-5.85014700
109.46666034	0.00000000	10.69144000	-4.68750000
109.66666033	0.00000000	11.48499000	-3.15575800
109.86666032	0.00000000	12.64764000	-1.62401600
110.06666031	0.00000000	13.71801000	-0.46136810
110.26666029	0.00000000	13.76107000	-0.09227362
110.46666028	0.00000000	13.02288000	-0.46136810
110.66666027	0.00000000	12.22933000	-1.62401600
110.86666026	0.00000000	11.02362000	-3.15575800
111.06666025	0.00000000	9.52879000	-4.73671200
111.26666023	0.00000000	8.41535400	-6.22539300
111.46666022	0.00000000	8.37229300	-7.00664300
111.66666021	0.00000000	9.11048200	-6.64370100
111.86666020	0.00000000	9.90403500	-5.89320800
112.06666019	0.00000000	11.06668000	-4.73671200
112.26666018	0.00000000	12.18012000	-3.57406500
112.46666016	0.00000000	12.60458000	-2.78051200
112.66666015	0.00000000	12.64764000	-1.99311000
112.86666014	0.00000000	12.60458000	-1.66707700
113.06666013	0.00000000	12.22933000	-1.99311000
113.26666012	0.00000000	11.48499000	-2.78051200
113.46666010	0.00000000	11.06668000	-3.48794300
113.66666009	0.00000000	10.69144000	-3.90009800
113.86666008	0.00000000	10.32234000	-3.53100400
114.06666007	0.00000000	10.69144000	-3.19881900
114.26666006	0.00000000	11.02362000	-3.19881900
114.46666004	0.00000000	11.06668000	-3.57406500
114.66666003	0.00000000	11.10974000	-4.31840500
114.86666002	0.00000000	11.48499000	-4.69365100
115.06666001	0.00000000	12.18012000	-4.73671200
115.26666000	0.00000000	12.18012000	-4.73671200
115.46665999	0.00000000	11.48499000	-4.73671200
115.66665997	0.00000000	11.10974000	-4.69365100
115.86665996	0.00000000	11.06668000	-4.31840500
116.06665995	0.00000000	11.02362000	-3.53100400
116.26665994	0.00000000	10.64838000	-2.78051200
116.46665993	0.00000000	9.90403500	-1.99311000
116.66665991	0.00000000	9.52879000	-1.61786400
116.86665990	0.00000000	9.52879000	-1.61786400
117.06665989	0.00000000	9.90403500	-1.99311000
117.26665988	0.00000000	10.69144000	-2.78051200
117.46665987	0.00000000	11.44193000	-3.53100400
117.66665985	0.00000000	12.22933000	-4.36146600
117.86665984	0.00000000	12.60458000	-5.11195900
118.06665983	0.00000000	12.64764000	-5.89320800
118.26665982	0.00000000	12.64764000	-6.21924200
118.46665981	0.00000000	12.60458000	-5.85014700
118.66665980	0.00000000	12.18012000	-4.73671200
118.86665978	0.00000000	11.06668000	-3.57406500
119.06665977	0.00000000	9.90403500	-2.78051200
119.26665976	0.00000000	9.11048200	-2.04232300
119.46665975	0.00000000	8.37229300	-1.99311000
119.66665974	0.00000000	8.41535400	-2.36220500
119.86665972	0.00000000	9.48572700	-2.36835600
120.06665971	0.00000000	10.64838000	-2.78051200
120.26665970	0.00000000	11.48499000	-3.11269700
120.46665969	0.00000000	12.64764000	-3.19881900
120.66665968	0.00000000	13.76107000	-3.57406500
120.86665966	0.00000000	14.13632000	-4.31840500
121.06665965	0.00000000	13.76107000	-4.69365100
121.26665964	0.00000000	12.60458000	-4.73671200
121.46665963	0.00000000	11.06668000	-4.73671200
121.66665962	0.00000000	9.52879000	-4.69365100
121.86665961	0.00000000	8.37229300	-4.31840500
122.06665959	0.00000000	7.94783400	-3.57406500
122.26665958	0.00000000	7.94783400	-3.19881900
122.46665957	0.00000000	8.32308000	-3.11269700
122.66665956	0.00000000	9.11048200	-2.73745100
122.86665955	0.00000000	9.90403500	-1.99311000
123.06665953	0.00000000	11.06668000	-1.61786400
123.26665952	0.00000000	12.18012000	-1.61786400
123.46665951	0.00000000	12.60458000	-1.99311000
123.66665950	0.00000000	12.64764000	-2.78051200
123.86665949	0.00000000	12.64764000	-3.53100400
124.06665947	0.00000000	12.60458000	-4.31840500
124.26665946	0.00000000	12.18012000	-4.69365100
124.46665945	0.00000000	11.06668000	-4.73671200
124.66665944	0.00000000	9.95324800	-4.73671200
124.86665943	0.00000000	9.52879000	-4.69365100
125.06665942	0.00000000	9.48572700	-4.31840500
125.26665940	0.00000000	9.48572700	-3.57406500
125.46665939	0.00000000	9.48572700	-3.19881900
125.66665938	0.00000000	9.52879000	-3.11269700
125.86665937	0.00000000	9.95324800	-2.78051200
126.06665936	0.00000000	11.06668000	-2.41141700
126.26665934	0.00000000	12.18012000	-2.78051200
126.46665933	0.00000000	12.60458000	-3.11269700
126.66665932	0.00000000	12.64764000	-3.19881900
126.86665931	0.00000000	12.64764000	-3.57406500
127.06665930	0.00000000	12.60458000	-4.31840500
127.26665928	0.00000000	12.13706000	-4.69365100
127.46665927	0.00000000	10.64838000	-4.73671200
127.66665926	0.00000000	8.83366100	-4.69365100
127.86665925	0.00000000	8.41535400	-4.31840500
128.06665924	0.00000000	9.06742000	-3.57406500
128.26665923	0.00000000	9.48572700	-3.19881900
128.46665921	0.00000000	9.95324800	-3.15575800
128.66665920	0.00000000	11.06668000	-3.15575800
128.86665919	0.00000000	12.18012000	-3.15575800
129.06665918	0.00000000	12.60458000	-3.15575800
129.26665917	0.00000000	12.64764000	-3.15575800
129.46665915	0.00000000	12.60458000	-3.19881900
129.66665914	0.00000000	12.22933000	-3.57406500
129.86665913	0.00000000	11.44193000	-4.31840500
130.06665912	0.00000000	10.69144000	-4.69365100
130.26665911	0.00000000	9.86097400	-4.69365100
130.46665909	0.00000000	9.15354300	-4.31840500
130.66665908	0.00000000	8.79060000	-3.57406500
130.86665907	0.00000000	9.52879000	-3.19881900
131.06665906	0.00000000	10.64838000	-3.15575800
131.26665905	0.00000000	11.44193000	-3.15575800
131.46665904	0.00000000	12.22933000	-3.19881900
131.66665902	0.00000000	12.60458000	-3.57406500
131.86665901	0.00000000	12.60458000	-4.31840500
132.06665900	0.00000000	12.22933000	-4.69365100
132.26665899	0.00000000	11.44193000	-4.73671200
132.46665898	0.00000000	10.69144000	-4.73671200
132.66665896	0.00000000	9.90403500	-4.69365100
132.86665895	0.00000000	9.52879000	-4.31840500
133.06665894	0.00000000	9.52879000	-3.53100400
133.26665893	0.00000000	9.90403500	-2.78051200
133.46665892	0.00000000	10.64838000	-1.99311000
133.66665890	0.00000000	11.02362000	-1.61786400
133.86665889	0.00000000	11.06668000	-1.61786400
134.06665888	0.00000000	11.06668000	-1.99311000
134.26665887	0.00000000	11.06668000	-2.78051200
134.46665886	0.00000000	11.02362000	-3.53100400
134.66665885	0.00000000	10.69144000	-4.31840500
134.86665883	0.00000000	10.32234000	-4.73671200
135.06665882	0.00000000	10.69144000	-5.11195900
135.26665881	0.00000000	11.02362000	-5.47490100
135.46665880	0.00000000	11.10974000	-5.06274600
135.66665879	0.00000000	11.44193000	-4.36146600
135.86665877	0.00000000	11.81102000	-3.57406500
136.06665876	0.00000000	11.39887000	-3.15575800
136.26665875	0.00000000	10.69144000	-2.73745100
136.46665874	0.00000000	9.90403500	-2.04232300
136.66665873	0.00000000	9.52879000	-2.04232300
136.86665871	0.00000000	9.48572700	-2.73745100
137.06665870	0.00000000	9.52879000	-3.15575800
137.26665869	0.00000000	9.90403500	-3.57406500
137.46665868	0.00000000	10.69144000	-4.31840500
137.66665867	0.00000000	11.44193000	-4.69365100
137.86665866	0.00000000	12.22933000	-4.73671200
138.06665864	0.00000000	12.60458000	-4.73671200
138.26665863	0.00000000	12.60458000	-4.73671200
138.46665862	0.00000000	12.22933000	-4.73671200
138.66665861	0.00000000	11.44193000	-4.69365100
138.86665860	0.00000000	10.69144000	-4.31840500
139.06665858	0.00000000	9.90403500	-3.57406500
139.26665857	0.00000000	9.52879000	-3.15575800
139.46665856	0.00000000	9.52879000	-2.73745100
139.66665855	0.00000000	9.90403500	-1.99311000
139.86665854	0.00000000	10.64838000	-1.66707700
140.06665852	0.00000000	11.06668000	-1.99311000
140.26665851	0.00000000	11.48499000	-2.78051200
140.46665850	0.00000000	12.18012000	-3.53100400
140.66665849	0.00000000	12.18012000	-4.36146600
140.86665848	0.00000000	11.48499000	-5.11195900
141.06665847	0.00000000	11.06668000	-5.85014700
141.26665845	0.00000000	10.64838000	-5.85014700
141.46665844	0.00000000	9.90403500	-5.11195900
141.66665843	0.00000000	9.57800100	-4.36146600
141.86665842	0.00000000	9.90403500	-3.53100400
142.06665841	0.00000000	10.64838000	-2.78051200
142.26665839	0.00000000	11.02362000	-1.99311000
142.46665838	0.00000000	11.06668000	-1.61786400
142.66665837	0.00000000	11.06668000	-1.61786400
142.86665836	0.00000000	11.06668000	-2.04232300
143.06665835	0.00000000	11.06668000	-3.15575800
143.26665834	0.00000000	11.06668000	-4.26919300
143.46665832	0.00000000	11.02362000	-4.73671200
143.66665831	0.00000000	10.64838000	-5.15501900
143.86665830	0.00000000	9.95324800	-5.85014700
144.06665829	0.00000000	9.95324800	-5.85014700
144.26665828	0.00000000	10.64838000	-5.11195900
144.46665826	0.00000000	11.02362000	-4.36146600
144.66665825	0.00000000	11.06668000	-3.53100400
144.86665824	0.00000000	11.06668000	-2.78051200
145.06665823	0.00000000	11.06668000	-1.99311000
145.26665822	0.00000000	11.06668000	-1.66707700
145.46665820	0.00000000	11.06668000	-1.99311000
145.66665819	0.00000000	11.02362000	-2.78051200
145.86665818	0.00000000	10.64838000	-3.53100400
146.06665817	0.00000000	9.90403500	-4.31840500
146.26665816	0.00000000	9.57800100	-4.69365100
146.46665815	0.00000000	9.90403500	-4.73671200
146.66665813	0.00000000	10.64838000	-4.73671200
146.86665812	0.00000000	11.02362000	-4.73671200
147.06665811	0.00000000	11.06668000	-4.69365100
147.26665810	0.00000000	11.06668000	-4.31840500
147.46665809	0.00000000	11.06668000	-3.57406500
147.66665807	0.00000000	11.06668000	-3.19881900
147.86665806	0.00000000	11.06668000	-3.15575800
148.06665805	0.00000000	11.02362000	-3.15575800
148.26665804	0.00000000	10.64838000	-3.15575800
148.46665803	0.00000000	9.90403500	-3.15575800
148.66665801	0.00000000	9.52879000	-3.19881900
148.86665800	0.00000000	9.52879000	-3.57406500
149.06665799	0.00000000	9.90403500	-4.31840500
149.26665798	0.00000000	10.64838000	-4.69365100
149.46665797	0.00000000	11.02362000	-4.73671200
149.66665796	0.00000000	11.06668000	-4.69365100
149.86665794	0.00000000	11.06668000	-4.31840500
150.06665793	0.00000000	11.06668000	-3.57406500
150.26665792	0.00000000	11.02362000	-3.19881900
150.46665791	0.00000000	10.69144000	-3.11269700
150.66665790	0.00000000	10.32234000	-2.73745100
150.86665788	0.00000000	10.64838000	-2.04232300
151.06665787	0.00000000	10.64838000	-2.04232300
151.26665786	0.00000000	10.27928000	-2.78051200
151.46665785	0.00000000	10.27313000	-3.53100400
151.66665784	0.00000000	9.90403500	-4.31840500
151.86665782	0.00000000	9.95324800	-4.69365100
152.06665781	0.00000000	10.64838000	-4.73671200
152.26665780	0.00000000	11.02362000	-4.73671200
152.46665779	0.00000000	11.06668000	-4.73671200
152.66665778	0.00000000	11.06668000	-4.73671200
152.86665777	0.00000000	11.06668000	-4.73671200
153.06665775	0.00000000	11.06668000	-4.69365100
153.26665774	0.00000000	11.02362000	-4.31840500
153.46665773	0.00000000	10.64838000	-3.57406500
153.66665772	0.00000000	9.90403500	-3.19881900
153.86665771	0.00000000	9.52879000	-3.15575800
154.06665769	0.00000000	9.48572700	-3.15575800
154.26665768	0.00000000	9.48572700	-3.15575800
154.46665767	0.00000000	9.48572700	-3.15575800
154.66665766	0.00000000	9.48572700	-3.15575800
154.86665765	0.00000000	9.52879000	-3.15575800
155.06665763	0.00000000	9.90403500	-3.15575800
155.26665762	0.00000000	10.64838000	-3.19881900
155.46665761	0.00000000	11.02362000	-3.57406500
155.66665760	0.00000000	11.06668000	-4.31840500
155.86665759	0.00000000	11.06668000	-4.69365100
156.06665758	0.00000000	11.06668000	-4.69365100
156.26665756	0.00000000	11.06668000	-4.31840500
156.46665755	0.00000000	11.06668000	-3.57406500
156.66665754	0.00000000	11.02362000	-3.19881900
156.86665753	0.00000000	10.64838000	-3.15575800
157.06665752	0.00000000	9.90403500	-3.15575800
157.26665750	0.00000000	9.52879000	-3.15575800
157.46665749	0.00000000	9.48572700	-3.15575800
157.66665748	0.00000000	9.52879000	-3.15575800
157.86665747	0.00000000	9.90403500	-3.19881900
158.06665746	0.00000000	10.64838000	-3.57406500
158.26665744	0.00000000	11.02362000	-4.31840500
158.46665743	0.00000000	11.06668000	-4.69365100
158.66665742	0.00000000	11.06668000	-4.73671200
158.86665741	0.00000000	11.06668000	-4.73671200
159.06665740	0.00000000	11.06668000	-4.69365100
159.26665739	0.00000000	11.06668000	-4.31840500
159.46665737	0.00000000	11.06668000	-3.57406500
159.66665736	0.00000000	11.02362000	-3.19881900
159.86665735	0.00000000	10.64838000	-3.15575800
160.06665734	0.00000000	9.90403500	-3.15575800
160.26665733	0.00000000	9.52879000	-3.15575800
160.46665731	0.00000000	9.48572700	-3.15575800
160.66665730	0.00000000	9.52879000	-3.19881900
160.86665729	0.00000000	9.90403500	-3.57406500
161.06665728	0.00000000	10.64838000	-4.31840500
161.26665727	0.00000000	11.02362000	-4.69365100
161.46665725	0.00000000	11.06668000	-4.73671200
161.66665724	0.00000000	11.06668000	-4.73671200
161.86665723	0.00000000	11.06668000	-4.69365100
162.06665722	0.00000000	11.06668000	-4.31840500
162.26665721	0.00000000	11.06668000	-3.57406500
162.46665720	0.00000000	11.06668000	-3.19881900
162.66665718	0.00000000	11.06668000	-3.15575800
162.86665717	0.00000000	11.06668000	-3.15575800
163.06665716	0.00000000	11.06668000	-3.15575800
163.26665715	0.00000000	11.02362000	-3.15575800
163.46665714	0.00000000	10.64838000	-3.15575800
163.66665712	0.00000000	9.90403500	-3.15575800
163.86665711	0.00000000	9.52879000	-3.19881900
164.06665710	0.00000000	9.48572700	-3.57406500
164.26665709	0.00000000	9.52879000	-4.31840500
164.46665708	0.00000000	9.90403500	-4.69365100
164.66665706	0.00000000	10.64838000	-4.73671200
164.86665705	0.00000000	11.06668000	-4.69365100
165.06665704	0.00000000	11.44193000	-4.31840500
165.26665703	0.00000000	11.81102000	-3.57406500
165.46665702	0.00000000	11.44193000	-3.19881900
165.66665701	0.00000000	11.10974000	-3.15575800
165.86665699	0.00000000	11.02362000	-3.15575800
166.06665698	0.00000000	10.64838000	-3.15575800
166.26665697	0.00000000	9.90403500	-3.19881900
166.46665696	0.00000000	9.52879000	-3.53100400
166.66665695	0.00000000	9.48572700	-3.90009800
166.86665693	0.00000000	9.48572700	-3.57406500
167.06665692	0.00000000	9.52879000	-3.57406500
167.26665691	0.00000000	9.90403500	-3.94315900
167.46665690	0.00000000	10.64838000	-3.94931100
167.66665689	0.00000000	11.02362000	-4.36146600
167.86665687	0.00000000	11.06668000	-4.69365100
168.06665686	0.00000000	11.06668000	-4.69365100
168.26665685	0.00000000	11.06668000	-4.31840500
168.46665684	0.00000000	11.06668000	-3.57406500
168.66665683	0.00000000	11.06668000	-3.24803100
168.86665682	0.00000000	11.06668000	-3.53100400
169.06665680	0.00000000	11.06668000	-3.90009800
169.26665679	0.00000000	11.02362000	-3.53100400
169.46665678	0.00000000	10.64838000	-3.19881900
169.66665677	0.00000000	9.90403500	-3.19881900
169.86665676	0.00000000	9.52879000	-3.53100400
170.06665674	0.00000000	9.52879000	-3.90009800
170.26665673	0.00000000	9.90403500	-3.57406500
170.46665672	0.00000000	10.59916000	-3.57406500
170.66665671	0.00000000	10.59916000	-3.90009800
170.86665670	0.00000000	9.95324800	-3.53100400
171.06665668	0.00000000	9.95324800	-3.19881900
171.26665667	0.00000000	10.64838000	-3.19881900
171.46665666	0.00000000	11.02362000	-3.57406500
171.66665665	0.00000000	11.06668000	-4.26919300
171.86665664	0.00000000	11.06668000	-4.31840500
172.06665663	0.00000000	11.06668000	-3.99237200
172.26665661	0.00000000	11.02362000	-4.31840500
172.46665660	0.00000000	10.69144000	-4.31840500
172.66665659	0.00000000	10.27928000	-3.99237200
172.86665658	0.00000000	10.27313000	-4.31840500
173.06665657	0.00000000	9.90403500	-4.26919300
173.26665655	0.00000000	9.95324800	-3.57406500
173.46665654	0.00000000	10.59916000	-3.24803100
173.66665653	0.00000000	10.64838000	-3.53100400
173.86665652	0.00000000	10.32234000	-3.94315900
174.06665651	0.00000000	10.69144000	-3.94931100
174.26665649	0.00000000	11.02362000	-4.36146600
174.46665648	0.00000000	11.06668000	-4.69365100
174.66665647	0.00000000	11.06668000	-4.73671200
174.86665646	0.00000000	11.06668000	-4.73671200
175.06665645	0.00000000	11.02362000	-4.69365100
175.26665644	0.00000000	10.64838000	-4.31840500
175.46665642	0.00000000	9.95324800	-3.57406500
175.66665641	0.00000000	9.95324800	-3.19881900
175.86665640	0.00000000	10.64838000	-3.15575800
176.06665639	0.00000000	11.02362000	-3.15575800
176.26665638	0.00000000	11.06668000	-3.15575800
176.46665636	0.00000000	11.06668000	-3.15575800
176.66665635	0.00000000	11.06668000	-3.15575800
176.86665634	0.00000000	11.06668000	-3.19881900
177.06665633	0.00000000	11.06668000	-3.57406500
177.26665632	0.00000000	11.06668000	-4.31840500
177.46665630	0.00000000	11.06668000	-4.69365100
177.66665629	0.00000000	11.02362000	-4.73671200
177.86665628	0.00000000	10.69144000	-4.69365100
178.06665627	0.00000000	10.32234000	-4.31840500
178.26665626	0.00000000	10.69144000	-3.57406500
178.46665625	0.00000000	11.02362000	-3.19881900
178.66665623	0.00000000	11.06668000	-3.15575800
178.86665622	0.00000000	11.06668000	-3.15575800
179.06665621	0.00000000	11.06668000	-3.15575800
179.26665620	0.00000000	11.06668000	-3.15575800
179.46665619	0.00000000	11.06668000	-3.15575800
179.66665617	0.00000000	11.06668000	-3.19881900
179.86665616	0.00000000	11.06668000	-3.57406500
180.06665615	0.00000000	11.06668000	-4.31840500
180.26665614	0.00000000	11.02362000	-4.69365100
180.46665613	0.00000000	10.64838000	-4.73671200
180.66665611	0.00000000	9.90403500	-4.73671200
180.86665610	0.00000000	9.57800100	-4.69365100
181.06665609	0.00000000	9.86097400	-4.31840500
181.26665608	0.00000000	10.23007000	-3.57406500
181.46665607	0.00000000	9.90403500	-3.19881900
181.66665606	0.00000000	9.95324800	-3.15575800
181.86665604	0.00000000	10.64838000	-3.15575800
182.06665603	0.00000000	11.02362000	-3.15575800
182.26665602	0.00000000	11.02362000	-3.15575800
182.46665601	0.00000000	10.64838000	-3.15575800
182.66665600	0.00000000	9.95324800	-3.19881900
182.86665598	0.00000000	9.90403500	-3.57406500
183.06665597	0.00000000	10.27313000	-4.31840500
183.26665596	0.00000000	10.27928000	-4.69365100
183.46665595	0.00000000	10.69144000	-4.73671200
183.66665594	0.00000000	11.02362000	-4.73671200
183.86665592	0.00000000	11.02362000	-4.69365100
184.06665591	0.00000000	10.64838000	-4.31840500
184.26665590	0.00000000	9.95324800	-3.57406500
184.46665589	0.00000000	9.90403500	-3.19881900
184.66665588	0.00000000	10.23007000	-3.15575800
184.86665587	0.00000000	9.86097400	-3.15575800
185.06665585	0.00000000	9.52879000	-3.15575800
185.26665584	0.00000000	9.52879000	-3.15575800
185.46665583	0.00000000	9.90403500	-3.15575800
185.66665582	0.00000000	10.64838000	-3.19881900
185.86665581	0.00000000	11.02362000	-3.57406500
186.06665579	0.00000000	11.06668000	-4.31840500
186.26665578	0.00000000	11.06668000	-4.69365100
186.46665577	0.00000000	11.06668000	-4.73671200
186.66665576	0.00000000	11.06668000	-4.73671200
186.86665575	0.00000000	11.02362000	-4.69365100
187.06665573	0.00000000	10.64838000	-4.31840500
187.26665572	0.00000000	9.90403500	-3.57406500
187.46665571	0.00000000	9.52879000	-3.19881900
187.66665570	0.00000000	9.48572700	-3.15575800
187.86665569	0.00000000	9.48572700	-3.15575800
188.06665568	0.00000000	9.52879000	-3.15575800
188.26665566	0.00000000	9.90403500	-3.15575800
188.46665565	0.00000000	10.64838000	-3.15575800
188.66665564	0.00000000	11.02362000	-3.19881900
188.86665563	0.00000000	11.06668000	-3.57406500
189.06665562	0.00000000	11.06668000	-4.31840500
189.26665560	0.00000000	11.06668000	-4.69365100
189.46665559	0.00000000	11.06668000	-4.73671200
189.66665558	0.00000000	11.02362000	-4.73671200
189.86665557	0.00000000	10.64838000	-4.73671200
190.06665556	0.00000000	9.90403500	-4.69365100
190.26665554	0.00000000	9.52879000	-4.31840500
190.46665553	0.00000000	9.48572700	-3.57406500
190.66665552	0.00000000	9.48572700	-3.19881900
190.86665551	0.00000000	9.52879000	-3.15575800
191.06665550	0.00000000	9.90403500	-3.15575800
191.26665549	0.00000000	10.64838000	-3.15575800
191.46665547	0.00000000	11.02362000	-3.15575800
191.66665546	0.00000000	11.06668000	-3.19881900
191.86665545	0.00000000	11.06668000	-3.53100400
192.06665544	0.00000000	11.06668000	-3.94315900
192.26665543	0.00000000	11.06668000	-3.94931100
192.46665541	0.00000000	11.02362000	-4.36146600
192.66665540	0.00000000	10.64838000	-4.69365100
192.86665539	0.00000000	9.90403500	-4.73671200
193.06665538	0.00000000	9.52879000	-4.73671200
193.26665537	0.00000000	9.48572700	-4.69365100
193.46665535	0.00000000	9.48572700	-4.31840500
193.66665534	0.00000000	9.48572700	-3.57406500
193.86665533	0.00000000	9.52879000	-3.19881900
194.06665532	0.00000000	9.90403500	-3.15575800
194.26665531	0.00000000	10.64838000	-3.15575800
194.46665530	0.00000000	11.02362000	-3.15575800
194.66665528	0.00000000	11.06668000	-3.15575800
194.86665527	0.00000000	11.06668000	-3.15575800
195.06665526	0.00000000	11.06668000	-3.15575800
195.26665525	0.00000000	11.06668000	-3.19881900
195.46665524	0.00000000	11.02362000	-3.57406500
195.66665522	0.00000000	10.64838000	-4.26919300
195.86665521	0.00000000	9.90403500	-4.31840500
196.06665520	0.00000000	9.52879000	-3.99237200
