Time	Channel A	Channel B	Channel C
(us)	(V)	(mV)	(mV)

-4.49999956	0.00000000	-49.39099000	-11.04823000
-4.29999957	0.00000000	-49.05881000	-11.04823000
-4.09999958	0.00000000	-49.01575000	-11.04823000
-3.89999959	0.00000000	-49.01575000	-11.04823000
-3.69999960	0.00000000	-49.05881000	-11.04823000
-3.49999962	0.00000000	-49.39099000	-11.04823000
-3.29999963	0.00000000	-49.76009000	-11.04823000
-3.09999964	0.00000000	-49.39099000	-11.04823000
-2.89999965	0.00000000	-49.10802000	-11.04823000
-2.69999966	0.00000000	-49.39099000	-11.04823000
-2.49999968	0.00000000	-49.76009000	-11.04823000
-2.29999969	0.00000000	-49.39099000	-11.04823000
-2.09999970	0.00000000	-49.10802000	-11.04823000
-1.89999971	0.00000000	-49.39099000	-11.04823000
-1.69999972	0.00000000	-49.76009000	-11.04823000
-1.49999973	0.00000000	-49.39099000	-11.04823000
-1.29999975	0.00000000	-49.05881000	-11.04823000
-1.09999976	0.00000000	-49.01575000	-11.04823000
-0.89999977	0.00000000	-49.05881000	-11.04823000
-0.69999978	0.00000000	-49.39099000	-11.04823000
-0.49999979	0.00000000	-49.76009000	-11.00517000
-0.29999981	0.15871060	-49.39099000	-10.67298000
-0.09999982	0.63668800	-49.05881000	-10.31004000
0.10000017	0.95533960	-49.05881000	-10.67298000
0.30000016	0.95533960	-49.39099000	-11.00517000
0.50000015	0.95533960	-49.76009000	-11.04823000
0.70000013	0.47736220	-49.39099000	-11.04823000
0.90000012	-0.31803640	-49.05881000	-11.04823000
1.10000011	-1.27399100	-49.01575000	-11.04823000
1.30000010	-2.22994600	-49.01575000	-11.00517000
1.50000009	-2.70792300	-49.01575000	-10.62992000
1.70000008	-2.54859700	-49.01575000	-9.89173200
1.90000006	-1.59264300	-49.01575000	-9.51648500
2.10000005	0.15871060	-49.01575000	-9.51648500
2.30000004	2.22994600	-49.01575000	-9.89173200
2.50000003	4.14124000	-49.01575000	-10.62992000
2.70000002	5.25652100	-49.01575000	-11.00517000
2.90000000	5.09719500	-49.01575000	-11.04823000
3.09999999	3.50393700	-49.01575000	-11.04823000
3.29999998	0.63668800	-49.01575000	-11.04823000
3.49999997	-2.86724900	-49.01575000	-11.04823000
3.69999996	-5.89382400	-49.01575000	-11.00517000
3.89999994	-7.80511800	-49.01575000	-10.62992000
4.09999993	-7.80511800	-49.01575000	-9.89173200
4.29999992	-5.57517200	-49.01575000	-9.51648500
4.49999991	-1.91129400	-49.05881000	-9.47342500
4.69999990	2.38927200	-49.39099000	-9.51648500
4.89999989	6.53112700	-49.76009000	-9.89173200
5.09999987	8.92039900	-49.39099000	-10.62992000
5.29999986	9.39837600	-49.10802000	-11.00517000
5.49999985	7.16781500	-49.39099000	-11.04823000
5.69999984	3.34522600	-49.76009000	-11.04823000
5.89999983	-1.43331700	-49.43405000	-11.04823000
6.09999981	-5.73449800	-49.43405000	-11.04823000
6.29999980	-8.76107300	-49.76009000	-11.00517000
6.49999979	-9.39837600	-49.39099000	-10.62992000
6.69999978	-7.80511800	-49.05881000	-9.89173200
6.89999977	-4.30056600	-49.01575000	-9.51648500
7.09999975	0.00000000	-49.01575000	-9.51648500
7.29999974	4.14124000	-49.01575000	-9.89173200
7.49999973	6.84916400	-49.01575000	-10.62992000
7.69999972	7.80511800	-49.05881000	-11.00517000
7.89999971	6.69045300	-49.39099000	-11.04823000
8.09999970	4.14124000	-49.80315000	-11.09129000
8.29999968	0.79601380	-49.76624000	-11.42347000
8.49999967	-2.22994600	-49.80315000	-11.79257000
8.69999966	-4.45989200	-49.39099000	-11.42347000
8.89999965	-5.25652100	-49.05881000	-11.04823000
9.09999964	-4.61921700	-49.01575000	-10.67298000
9.29999962	-3.02657500	-49.01575000	-10.31004000
9.49999961	-1.11466500	-49.05881000	-10.72219000
9.69999960	0.79601380	-49.39099000	-11.38041000
9.89999959	2.07062000	-49.76009000	-11.79257000
10.09999958	2.54859700	-49.39099000	-11.42347000
10.29999956	2.22994600	-49.05881000	-11.09129000
10.49999955	1.59264300	-49.01575000	-11.04823000
10.69999954	0.63668800	-49.01575000	-11.04823000
10.89999953	0.00000000	-49.01575000	-11.04823000
11.09999952	-0.63668800	-49.01575000	-11.04823000
11.29999951	-0.95533960	-49.01575000	-11.04823000
11.49999949	-0.95533960	-49.01575000	-11.04823000
11.69999948	-0.79601380	-49.01575000	-11.04823000
11.89999947	-0.47736220	-49.01575000	-11.04823000
12.09999946	-0.15871060	-49.01575000	-11.04823000
12.29999945	-0.15871060	-49.01575000	-11.04823000
12.49999943	0.00000000	-49.01575000	-11.04823000
12.69999942	0.00000000	-49.01575000	-11.04823000
12.89999941	0.00000000	-49.01575000	-11.04823000
13.09999940	0.00000000	-49.01575000	-11.04823000
13.29999939	0.00000000	-49.01575000	-11.04823000
13.49999937	0.00000000	-49.01575000	-11.04823000
13.69999936	0.00000000	-49.01575000	-11.04823000
13.89999935	0.00000000	-49.01575000	-11.04823000
14.09999934	-0.15871060	-49.01575000	-11.04823000
14.29999933	-0.15871060	-49.01575000	-11.04823000
14.49999932	0.00000000	-49.01575000	-11.04823000
14.69999930	-0.15871060	-49.01575000	-11.04823000
14.89999929	0.00000000	-49.01575000	-11.04823000
15.09999928	0.00000000	-49.01575000	-11.04823000
15.29999927	0.00000000	-49.01575000	-11.04823000
15.49999926	0.15871060	-49.01575000	-11.04823000
15.69999924	0.00000000	-49.01575000	-11.04823000
15.89999923	0.00000000	-49.01575000	-11.04823000
16.09999922	0.00000000	-49.01575000	-11.04823000
16.29999921	0.00000000	-49.01575000	-11.00517000
16.49999920	0.00000000	-49.01575000	-10.67298000
16.69999919	-0.15871060	-49.01575000	-10.31004000
16.89999917	0.00000000	-48.97269000	-10.67298000
17.09999916	0.00000000	-48.59744000	-11.00517000
17.29999915	0.00000000	-47.85310000	-11.04823000
17.49999914	0.00000000	-47.47785000	-11.04823000
17.69999913	0.00000000	-47.47785000	-11.04823000
17.89999911	0.00000000	-47.85310000	-11.04823000
18.09999910	0.00000000	-48.64050000	-11.04823000
18.29999909	0.00000000	-49.48326000	-11.04823000
18.49999908	0.00000000	-51.01501000	-11.04823000
18.69999907	0.00000000	-52.92200000	-11.04823000
18.89999905	0.00000000	-54.04158000	-11.04823000
19.09999904	0.00000000	-54.45374000	-11.04823000
19.29999903	0.00000000	-53.58022000	-11.04823000
19.49999902	0.00000000	-51.29183000	-11.00517000
19.69999901	0.00000000	-47.76698000	-10.67298000
19.89999900	0.00000000	-43.94069000	-10.31004000
20.09999898	0.00000000	-40.41584000	-10.67298000
20.29999897	0.00000000	-38.17667000	-11.00517000
20.49999896	0.00000000	-37.85064000	-11.04823000
20.69999895	0.00000000	-40.63730000	-11.04823000
20.89999894	0.00000000	-46.40748000	-11.04823000
21.09999892	0.00000000	-53.80167000	-11.04823000
21.29999891	0.00000000	-61.52805000	-11.04823000
21.49999890	0.00000000	-67.99950000	-11.04823000
21.69999889	0.00000000	-70.65083000	-11.04823000
21.89999888	0.00000000	-68.28247000	-11.04823000
22.09999886	0.00000000	-61.30044000	-11.04823000
22.29999885	0.00000000	-50.41830000	-11.04823000
22.49999884	0.00000000	-38.03519000	-11.04823000
22.69999883	0.00000000	-26.45177000	-11.04823000
22.89999882	0.00000000	-18.49163000	-11.00517000
23.09999881	0.00000000	-17.42126000	-10.62992000
23.29999879	0.00000000	-24.39714000	-9.89173200
23.49999878	0.00000000	-37.94291000	-9.47342500
23.69999877	0.00000000	-55.33957000	-9.05511800
23.89999876	0.00000000	-72.69930000	-8.35998900
24.09999875	0.00000000	-85.82062000	-8.35998900
24.29999873	0.00000000	-91.54157000	-9.09817800
24.49999872	0.00000000	-87.96136000	-9.89173200
24.69999871	0.00000000	-74.79699000	-11.09744000
24.89999870	0.00000000	-54.69365000	-12.62918000
25.09999869	0.00000000	-32.30807000	-14.16092000
25.29999867	0.00000000	-12.63533000	-15.32357000
25.49999866	0.00000000	-0.71973420	-15.64960000
25.69999865	0.00000000	0.44291340	-14.90526000
25.89999864	0.00000000	-9.69488100	-12.86909000
26.09999863	0.00000000	-29.37992000	-9.79330600
26.29999862	0.00000000	-54.45374000	-5.53026500
26.49999860	0.00000000	-78.33414000	-1.75935000
26.69999859	0.00000000	-95.40477000	0.60285430
26.89999858	0.00000000	-101.96850000	0.88582670
27.09999857	0.00000000	-96.94267000	-1.43946800
27.29999856	0.00000000	-81.07775000	-6.53912400
27.49999854	0.00000000	-57.94783000	-13.46580000
27.69999853	0.00000000	-33.23696000	-21.22293000
27.89999852	0.00000000	-12.72146000	-27.68824000
28.09999851	0.00000000	-0.71973420	-31.12082000
28.29999850	0.00000000	0.48597440	-29.91511000
28.49999848	0.00000000	-9.14124000	-24.10802000
28.69999847	0.00000000	-26.91314000	-14.76993000
28.89999846	0.00000000	-48.88041000	-3.15575800
29.09999845	0.00000000	-69.76501000	8.36614100
29.29999844	0.00000000	-84.56570000	16.81841000
29.49999843	0.00000000	-91.58464000	19.84498000
29.69999841	0.00000000	-89.62844000	16.31397000
29.89999840	0.00000000	-78.88779000	6.27460600
30.09999839	0.00000000	-62.69069000	-7.98474400
30.29999838	0.00000000	-44.86958000	-23.12992000
30.49999837	0.00000000	-28.96161000	-36.60802000
30.69999835	0.00000000	-18.11639000	-45.42937000
30.89999834	0.00000000	-14.21629000	-46.55511000
31.09999833	0.00000000	-18.03026000	-39.99754000
31.29999832	0.00000000	-27.98966000	-26.80241000
31.49999831	0.00000000	-41.15403000	-9.43036400
31.69999829	0.00000000	-54.74286000	8.32308000
31.89999828	0.00000000	-66.37549000	22.58243000
32.09999827	0.00000000	-73.76968000	29.87820000
32.29999826	0.00000000	-75.72588000	28.38951000
32.49999825	0.00000000	-72.27484000	18.77460000
32.69999824	0.00000000	-64.13631000	3.67249000
32.89999822	0.00000000	-53.34030000	-14.16708000
33.09999821	0.00000000	-42.12598000	-31.49606000
33.29999820	0.00000000	-33.23696000	-44.26673000
33.49999819	0.00000000	-28.53716000	-49.71087000
33.69999818	0.00000000	-28.53716000	-47.38558000
33.89999816	0.00000000	-33.15083000	-37.30315000
34.09999815	0.00000000	-41.19709000	-21.54897000
34.29999814	0.00000000	-50.08612000	-4.17691900
34.49999813	0.00000000	-57.81250000	10.92520000
34.69999812	0.00000000	-62.87524000	21.00148000
34.89999810	0.00000000	-64.04404000	24.11417000
35.09999809	0.00000000	-61.76181000	19.88804000
35.29999808	0.00000000	-56.36687000	9.43036400
35.49999807	0.00000000	-49.48326000	-5.20423200
35.69999806	0.00000000	-43.28863000	-20.57702000
35.89999805	0.00000000	-39.05635000	-32.52337000
36.09999803	0.00000000	-37.89985000	-38.37352000
36.29999802	0.00000000	-40.12672000	-37.26009000
36.49999801	0.00000000	-44.36515000	-30.00738000
36.69999800	0.00000000	-49.39099000	-18.81152000
36.89999799	0.00000000	-54.36761000	-6.49606300
37.09999797	0.00000000	-57.43725000	4.27534400
37.29999796	0.00000000	-57.85556000	10.41462000
37.49999795	0.00000000	-55.89936000	10.50074000
37.69999794	0.00000000	-51.71013000	5.11811000
37.89999793	0.00000000	-46.73966000	-4.08464600
38.09999791	0.00000000	-42.82726000	-14.76993000
38.29999790	0.00000000	-40.08366000	-23.17913000
38.49999789	0.00000000	-38.97022000	-26.71629000
38.69999788	0.00000000	-40.12672000	-25.17839000
38.89999787	0.00000000	-43.24557000	-19.04527000
39.09999786	0.00000000	-47.81004000	-9.84867000
39.29999784	0.00000000	-52.45448000	-0.73203740
39.49999783	0.00000000	-55.57948000	5.43799200
39.69999782	0.00000000	-57.57259000	6.56373000
39.89999781	0.00000000	-57.90477000	2.74360200
40.09999780	0.00000000	-56.36687000	-5.33341500
40.29999778	0.00000000	-53.29109000	-15.28051000
40.49999777	0.00000000	-49.39099000	-24.06496000
40.69999776	0.00000000	-45.52165000	-29.07849000
40.89999775	0.00000000	-42.03986000	-28.71555000
41.09999774	0.00000000	-40.08366000	-23.73892000
41.29999772	0.00000000	-39.66535000	-15.23130000
41.49999771	0.00000000	-40.45890000	-5.29035400
41.69999770	0.00000000	-42.82726000	3.16806100
41.89999769	0.00000000	-46.32135000	7.76943800
42.09999768	0.00000000	-50.55364000	7.48031400
42.29999767	0.00000000	-54.36761000	2.84202700
42.49999765	0.00000000	-56.36687000	-4.50295200
42.69999764	0.00000000	-56.78519000	-13.69956000
42.89999763	0.00000000	-56.03469000	-21.69045000
43.09999762	0.00000000	-54.09079000	-25.63976000
43.29999761	0.00000000	-51.75935000	-25.73203000
43.49999759	0.00000000	-49.05881000	-22.61934000
43.69999758	0.00000000	-46.73966000	-16.85531000
43.89999757	0.00000000	-45.52165000	-9.98400600
44.09999756	0.00000000	-44.69119000	-4.17691900
44.29999755	0.00000000	-44.36515000	-0.64591530
44.49999753	0.00000000	-44.69119000	0.51673230
44.69999752	0.00000000	-45.43553000	-1.02116100
44.89999751	0.00000000	-45.81078000	-4.77977300
45.09999750	0.00000000	-45.89690000	-9.00590400
45.29999749	0.00000000	-46.36442000	-12.53691000
45.49999748	0.00000000	-47.90231000	-15.27436000
45.69999746	0.00000000	-50.22145000	-16.81225000
45.89999745	0.00000000	-52.59596000	-16.81225000
46.09999744	0.00000000	-55.29650000	-15.27436000
46.29999743	0.00000000	-57.57259000	-12.62918000
46.49999742	0.00000000	-58.32308000	-9.93479300
46.69999740	0.00000000	-57.48031000	-7.98474400
46.89999739	0.00000000	-54.31840000	-6.77903500
47.09999738	0.00000000	-48.92347000	-6.40378900
47.29999737	0.00000000	-42.78420000	-6.77903500
47.49999736	0.00000000	-37.34006000	-7.93553100
47.69999734	0.00000000	-33.88902000	-9.51648500
47.89999733	0.00000000	-33.15083000	-11.46653000
48.09999732	0.00000000	-35.93750000	-13.74262000
48.29999731	0.00000000	-42.13213000	-15.23130000
48.49999730	0.00000000	-50.59670000	-15.27436000
48.69999729	0.00000000	-59.06127000	-14.11786000
48.89999727	0.00000000	-65.20669000	-12.16781000
49.09999726	0.00000000	-67.53198000	-9.42421200
49.29999725	0.00000000	-65.20669000	-6.40378900
49.49999724	0.00000000	-59.01821000	-4.08464600
49.69999723	0.00000000	-50.12918000	-3.33415300
49.89999721	0.00000000	-40.54502000	-4.08464600
50.09999720	0.00000000	-33.19390000	-6.44685000
50.29999719	0.00000000	-29.69980000	-9.89173200
50.49999718	0.00000000	-30.49951000	-13.79183000
50.69999717	0.00000000	-35.89444000	-17.18750000
50.89999715	0.00000000	-44.31594000	-19.13140000
51.09999714	0.00000000	-53.20496000	-18.71924000
51.29999713	0.00000000	-60.55610000	-16.43701000
51.49999712	0.00000000	-64.78838000	-12.53691000
51.69999711	0.00000000	-64.78838000	-7.98474400
51.89999710	0.00000000	-60.55610000	-4.08464600
52.09999708	0.00000000	-53.24803000	-1.75319900
52.29999707	0.00000000	-44.82652000	-1.01501000
52.49999706	0.00000000	-37.94291000	-2.59596400
52.69999705	0.00000000	-34.82406000	-6.35457700
52.89999704	0.00000000	-35.89444000	-10.58686000
53.09999702	0.00000000	-40.12672000	-14.07480000
53.29999701	0.00000000	-46.27214000	-16.39395000
53.49999700	0.00000000	-52.82972000	-16.81225000
53.69999699	0.00000000	-57.81250000	-15.69882000
53.89999698	0.00000000	-60.13164000	-13.74262000
54.09999696	0.00000000	-58.97515000	-11.04823000
54.29999695	0.00000000	-54.78592000	-8.40305000
54.49999694	0.00000000	-49.01575000	-6.86515700
54.69999693	0.00000000	-43.24557000	-6.82209600
54.89999692	0.00000000	-39.05635000	-7.98474400
55.09999691	0.00000000	-37.89985000	-9.89173200
55.29999689	0.00000000	-40.12672000	-12.11860000
55.49999688	0.00000000	-44.36515000	-13.23819000
55.69999687	0.00000000	-49.39099000	-12.53691000
55.89999686	0.00000000	-54.36761000	-11.00517000
56.09999685	0.00000000	-57.43725000	-9.05511800
56.29999683	0.00000000	-57.85556000	-6.82209600
56.49999682	0.00000000	-55.94857000	-5.70866100
56.69999681	0.00000000	-52.13459000	-6.44685000
56.89999680	0.00000000	-47.90231000	-8.40305000
57.09999679	0.00000000	-44.40821000	-11.51575000
57.29999677	0.00000000	-42.08292000	-15.32357000
57.49999676	0.00000000	-41.70767000	-18.35015000
57.69999675	0.00000000	-43.20251000	-19.46358000
57.89999674	0.00000000	-45.89690000	-17.88263000
58.09999673	0.00000000	-48.92347000	-13.69956000
58.29999672	0.00000000	-51.29183000	-8.26771600
58.49999670	0.00000000	-52.46062000	-2.87278500
58.69999669	0.00000000	-52.87278000	1.67322800
58.89999668	0.00000000	-52.08538000	3.16190900
59.09999667	0.00000000	-50.59670000	0.89197830
59.29999666	0.00000000	-49.01575000	-4.12770700
59.49999664	0.00000000	-47.47785000	-11.04823000
59.69999663	0.00000000	-46.32135000	-17.97490000
59.89999662	0.00000000	-45.94611000	-22.99459000
60.09999661	0.00000000	-46.32135000	-25.27067000
60.29999660	0.00000000	-47.43479000	-23.68971000
60.49999658	0.00000000	-48.54823000	-18.35015000
60.69999657	0.00000000	-48.92347000	-11.00517000
60.89999656	0.00000000	-48.59744000	-3.29109200
61.09999655	0.00000000	-47.85310000	3.25418300
61.29999654	0.00000000	-47.43479000	6.64985200
61.49999653	0.00000000	-47.01648000	5.89936000
61.69999651	0.00000000	-46.32135000	0.89197830
61.89999650	0.00000000	-46.36442000	-6.77903500
62.09999649	0.00000000	-47.47785000	-15.27436000
62.29999648	0.00000000	-49.01575000	-22.57628000
62.49999647	0.00000000	-50.55364000	-26.80241000
62.69999645	0.00000000	-51.71013000	-26.84547000
62.89999644	0.00000000	-52.08538000	-22.99459000
63.09999643	0.00000000	-51.66707000	-16.43701000
63.29999642	0.00000000	-50.12918000	-8.35998900
63.49999641	0.00000000	-47.81004000	-1.06422200
63.69999639	0.00000000	-45.52165000	3.62942900
63.89999638	0.00000000	-43.62082000	5.20423200
64.09999637	0.00000000	-43.24557000	3.62942900
64.29999636	0.00000000	-44.31594000	-0.97194880
64.49999635	0.00000000	-45.89690000	-7.51722400
64.69999634	0.00000000	-47.85310000	-14.07480000
64.89999632	0.00000000	-50.17839000	-19.50664000
65.09999631	0.00000000	-52.04232000	-22.61934000
65.29999630	0.00000000	-52.82972000	-23.03765000
65.49999629	0.00000000	-52.08538000	-21.13066000
65.69999628	0.00000000	-50.55364000	-17.27362000
65.89999626	0.00000000	-48.59744000	-12.62918000
66.09999625	0.00000000	-46.32135000	-7.98474400
66.29999624	0.00000000	-44.82652000	-4.08464600
66.49999623	0.00000000	-44.78346000	-1.75319900
66.69999622	0.00000000	-45.94611000	-0.92888770
66.89999620	0.00000000	-47.85310000	-1.66707700
67.09999619	0.00000000	-50.12918000	-3.24803100
67.29999618	0.00000000	-51.66707000	-5.61638700
67.49999617	0.00000000	-52.04232000	-9.09817800
67.69999616	0.00000000	-51.24877000	-12.58612000
67.89999615	0.00000000	-48.92347000	-15.69882000
68.09999613	0.00000000	-45.89690000	-18.06102000
68.29999612	0.00000000	-43.24557000	-19.22982000
68.49999611	0.00000000	-42.08292000	-19.59892000
68.69999610	0.00000000	-42.87032000	-18.35015000
68.89999609	0.00000000	-45.15871000	-15.32357000
69.09999607	0.00000000	-48.68356000	-11.42347000
69.29999606	0.00000000	-52.50984000	-7.47416300
69.49999605	0.00000000	-55.99163000	-3.24803100
69.69999604	0.00000000	-57.85556000	0.18454720
69.89999603	0.00000000	-57.48031000	1.30413400
70.09999601	0.00000000	-54.74286000	0.18454720
70.29999600	0.00000000	-50.08612000	-3.33415300
70.49999599	0.00000000	-44.31594000	-8.31077700
70.69999598	0.00000000	-38.97022000	-13.74262000
70.89999597	0.00000000	-35.89444000	-18.35015000
71.09999596	0.00000000	-35.85138000	-21.03838000
71.29999594	0.00000000	-38.59498000	-21.08760000
71.49999593	0.00000000	-43.62082000	-18.81152000
71.69999592	0.00000000	-50.17839000	-15.27436000
71.89999591	0.00000000	-56.32381000	-10.62992000
72.09999590	0.00000000	-60.59916000	-5.70866100
72.29999588	0.00000000	-62.08784000	-2.59596400
72.49999587	0.00000000	-60.22392000	-1.71013800
72.69999586	0.00000000	-55.62254000	-2.12844500
72.89999585	0.00000000	-50.17839000	-4.08464600
73.09999584	0.00000000	-44.36515000	-7.47416300
73.29999582	0.00000000	-39.34547000	-10.53765000
73.49999581	0.00000000	-36.63877000	-12.49385000
73.69999580	0.00000000	-36.22662000	-13.28125000
73.89999579	0.00000000	-38.59498000	-12.53691000
74.09999578	0.00000000	-43.15945000	-11.09744000
74.29999577	0.00000000	-48.50517000	-9.93479300
74.49999575	0.00000000	-52.82972000	-9.56569900
74.69999574	0.00000000	-55.57948000	-9.89173200
74.89999573	0.00000000	-57.10506000	-10.72219000
75.09999572	0.00000000	-56.27460000	-11.84178000
75.29999571	0.00000000	-53.29109000	-13.32431000
75.49999569	0.00000000	-49.48326000	-13.65650000
75.69999568	0.00000000	-46.36442000	-12.49385000
75.89999567	0.00000000	-44.36515000	-10.16855000
76.09999566	0.00000000	-43.20251000	-6.72982200
76.29999565	0.00000000	-43.20251000	-3.70939900
76.49999563	0.00000000	-44.31594000	-2.12844500
76.69999562	0.00000000	-45.85384000	-2.12844500
76.89999561	0.00000000	-47.39173000	-3.75246000
77.09999560	0.00000000	-48.54823000	-7.24040300
77.29999559	0.00000000	-48.92347000	-12.25394000
77.49999558	0.00000000	-48.64050000	-17.18750000
77.69999556	0.00000000	-48.27140000	-20.66314000
77.89999555	0.00000000	-48.64050000	-21.46284000
78.09999554	0.00000000	-49.01575000	-19.92495000
78.29999553	0.00000000	-49.43405000	-16.39395000
78.49999552	0.00000000	-50.17839000	-11.00517000
78.69999550	0.00000000	-50.55364000	-5.24729300
78.89999549	0.00000000	-50.50443000	-0.59670270
79.09999548	0.00000000	-49.71087000	2.09153500
79.29999547	0.00000000	-47.81004000	2.09153500
79.49999546	0.00000000	-45.89690000	-0.59670270
79.69999544	0.00000000	-44.31594000	-5.19808000
79.89999543	0.00000000	-43.20251000	-10.62992000
80.09999542	0.00000000	-43.20251000	-15.64960000
80.29999541	0.00000000	-44.36515000	-19.50664000
80.49999540	0.00000000	-46.32135000	-21.08760000
80.69999539	0.00000000	-49.01575000	-20.34941000
80.89999537	0.00000000	-51.66707000	-18.01796000
81.09999536	0.00000000	-53.24803000	-14.16708000
81.29999535	0.00000000	-53.62328000	-9.93479300
81.49999534	0.00000000	-52.82972000	-6.40378900
81.69999533	0.00000000	-50.50443000	-3.66633800
81.89999531	0.00000000	-47.47785000	-2.08538400
82.09999530	0.00000000	-44.78346000	-1.71013800
82.29999529	0.00000000	-43.20251000	-2.50369100
82.49999528	0.00000000	-42.78420000	-4.82283400
82.69999527	0.00000000	-43.20251000	-7.89247000
82.89999525	0.00000000	-44.74040000	-11.04823000
83.09999524	0.00000000	-47.01648000	-14.16092000
83.29999523	0.00000000	-48.92347000	-16.85531000
83.49999522	0.00000000	-50.12918000	-18.43627000
83.69999521	0.00000000	-50.55364000	-18.76845000
83.89999520	0.00000000	-50.50443000	-17.59966000
84.09999518	0.00000000	-49.76009000	-14.53617000
84.29999517	0.00000000	-48.27140000	-11.04823000
84.49999516	0.00000000	-47.52707000	-7.47416300
84.69999515	0.00000000	-47.43479000	-3.66633800
84.89999514	0.00000000	-47.43479000	-0.97194880
85.09999512	0.00000000	-47.43479000	-0.17839570
85.29999511	0.00000000	-47.43479000	-1.01501000
85.49999510	0.00000000	-47.39173000	-4.12770700
85.69999509	0.00000000	-47.01648000	-9.05511800
85.89999508	0.00000000	-46.27214000	-13.69956000
86.09999506	0.00000000	-45.89690000	-17.23056000
86.29999505	0.00000000	-45.89690000	-19.55585000
86.49999504	0.00000000	-46.32135000	-19.88189000
86.69999503	0.00000000	-47.47785000	-17.97490000
86.89999502	0.00000000	-48.97269000	-14.11786000
87.09999501	0.00000000	-50.17839000	-9.47342500
87.29999499	0.00000000	-50.92888000	-4.82898600
87.49999498	0.00000000	-51.29183000	-1.02116100
87.69999497	0.00000000	-50.50443000	0.51673230
87.89999496	0.00000000	-48.97269000	-0.64591530
88.09999495	0.00000000	-47.05954000	-4.08464600
88.29999493	0.00000000	-45.15871000	-9.05511800
88.49999492	0.00000000	-44.36515000	-13.69956000
88.69999491	0.00000000	-44.31594000	-17.18750000
88.89999490	0.00000000	-44.74040000	-19.08834000
89.09999489	0.00000000	-45.89690000	-18.25787000
89.29999487	0.00000000	-47.43479000	-14.85605000
89.49999486	0.00000000	-49.01575000	-9.89173200
89.69999485	0.00000000	-50.50443000	-5.29035400
89.89999484	0.00000000	-51.24877000	-2.17765700
90.09999483	0.00000000	-50.55364000	-1.01501000
90.29999482	0.00000000	-49.43405000	-2.17765700
90.49999480	0.00000000	-48.64050000	-5.24729300
90.69999479	0.00000000	-47.81004000	-9.47342500
90.89999478	0.00000000	-47.05954000	-13.69956000
91.09999477	0.00000000	-46.27214000	-16.76919000
91.29999476	0.00000000	-45.89690000	-17.92569000
91.49999474	0.00000000	-45.89690000	-16.76919000
91.69999473	0.00000000	-46.27214000	-13.69956000
91.89999472	0.00000000	-47.01648000	-9.47342500
92.09999471	0.00000000	-47.39173000	-5.24729300
92.29999470	0.00000000	-47.43479000	-2.17765700
92.49999468	0.00000000	-47.43479000	-1.05807100
92.69999467	0.00000000	-47.47785000	-2.63902500
92.89999466	0.00000000	-47.85310000	-6.77903500
93.09999465	0.00000000	-48.64050000	-11.74336000
93.29999464	0.00000000	-49.39099000	-15.60654000
93.49999463	0.00000000	-50.17839000	-17.97490000
93.69999461	0.00000000	-50.50443000	-18.30093000
93.89999460	0.00000000	-50.12918000	-16.39395000
94.09999459	0.00000000	-48.92347000	-12.53691000
94.29999458	0.00000000	-47.01648000	-7.98474400
94.49999457	0.00000000	-44.74040000	-4.12770700
94.69999455	0.00000000	-43.20251000	-2.22071800
94.89999454	0.00000000	-42.78420000	-2.59596400
95.09999453	0.00000000	-43.15945000	-5.24729300
95.29999452	0.00000000	-44.36515000	-9.05511800
95.49999451	0.00000000	-46.32135000	-12.53691000
95.69999449	0.00000000	-49.05881000	-15.27436000
95.89999448	0.00000000	-52.08538000	-16.76919000
96.09999447	0.00000000	-54.36761000	-16.39395000
96.29999446	0.00000000	-54.78592000	-14.07480000
96.49999445	0.00000000	-53.62328000	-10.67298000
96.69999444	0.00000000	-51.29183000	-7.19734200
96.89999442	0.00000000	-47.76698000	-4.91510800
97.09999441	0.00000000	-43.94069000	-4.08464600
97.29999440	0.00000000	-40.45890000	-4.87204700
97.49999439	0.00000000	-38.59498000	-6.77903500
97.69999438	0.00000000	-38.92101000	-9.47342500
97.89999436	0.00000000	-41.20325000	-12.11860000
98.09999435	0.00000000	-44.31594000	-13.65650000
98.29999434	0.00000000	-47.85310000	-13.74262000
98.49999433	0.00000000	-51.71013000	-13.00443000
98.69999432	0.00000000	-54.74286000	-12.21087000
98.89999430	0.00000000	-55.94857000	-11.00517000
99.09999429	0.00000000	-55.20423000	-9.51648500
99.29999428	0.00000000	-53.24803000	-8.35998900
99.49999427	0.00000000	-50.12918000	-7.98474400
99.69999426	0.00000000	-46.27214000	-8.26771600
99.89999425	0.00000000	-42.82726000	-8.63681000
100.09999423	0.00000000	-40.45890000	-8.26771600
100.29999422	0.00000000	-39.66535000	-7.89247000
100.49999421	0.00000000	-40.04060000	-7.47416300
100.69999420	0.00000000	-41.66461000	-6.77903500
100.89999419	0.00000000	-44.74040000	-6.82209600
101.09999417	0.00000000	-48.54823000	-7.93553100
101.29999416	0.00000000	-51.66707000	-9.51648500
101.49999415	0.00000000	-53.62328000	-11.42347000
101.69999414	0.00000000	-54.41068000	-13.32431000
101.89999413	0.00000000	-53.62328000	-14.11786000
102.09999411	0.00000000	-51.75935000	-14.11786000
102.29999410	0.00000000	-49.39099000	-13.28125000
102.49999409	0.00000000	-47.05954000	-10.96211000
102.69999408	0.00000000	-44.74040000	-7.93553100
102.89999407	0.00000000	-43.20251000	-5.24729300
103.09999406	0.00000000	-42.78420000	-3.70939900
103.29999404	0.00000000	-43.15945000	-3.70939900
103.49999403	0.00000000	-44.31594000	-5.24729300
103.69999402	0.00000000	-45.89690000	-7.93553100
103.89999401	0.00000000	-47.81004000	-11.00517000
104.09999400	0.00000000	-49.76009000	-13.74262000
104.29999398	0.00000000	-50.87967000	-15.64960000
104.49999397	0.00000000	-51.34104000	-16.39395000
104.69999396	0.00000000	-50.87967000	-15.23130000
104.89999395	0.00000000	-49.76009000	-12.58612000
105.09999394	0.00000000	-47.81004000	-9.51648500
105.29999392	0.00000000	-45.94611000	-6.77903500
105.49999391	0.00000000	-44.74040000	-4.87204700
105.69999390	0.00000000	-44.36515000	-4.08464600
105.89999389	0.00000000	-44.74040000	-4.87204700
106.09999388	0.00000000	-45.85384000	-6.72982200
106.29999387	0.00000000	-47.01648000	-9.05511800
106.49999385	0.00000000	-47.81004000	-11.00517000
106.69999384	0.00000000	-48.54823000	-12.53691000
106.89999383	0.00000000	-48.54823000	-13.28125000
107.09999382	0.00000000	-47.81004000	-12.53691000
107.29999381	0.00000000	-47.05954000	-11.04823000
107.49999379	0.00000000	-46.27214000	-9.47342500
107.69999378	0.00000000	-45.89690000	-7.93553100
107.89999377	0.00000000	-45.85384000	-6.82209600
108.09999376	0.00000000	-45.89690000	-6.82209600
108.29999375	0.00000000	-46.32135000	-7.93553100
108.49999374	0.00000000	-47.43479000	-9.47342500
108.69999372	0.00000000	-48.59744000	-11.00517000
108.89999371	0.00000000	-49.34793000	-12.16166000
109.09999370	0.00000000	-49.71087000	-12.53691000
109.29999369	0.00000000	-48.92347000	-12.16166000
109.49999368	0.00000000	-47.43479000	-10.96211000
109.69999366	0.00000000	-45.89690000	-9.09817800
109.89999365	0.00000000	-44.74040000	-7.19734200
110.09999364	0.00000000	-44.36515000	-6.40378900
110.29999363	0.00000000	-44.69119000	-6.35457700
110.49999362	0.00000000	-45.47859000	-6.77903500
110.69999360	0.00000000	-46.27214000	-7.93553100
110.89999359	0.00000000	-47.43479000	-9.47342500
111.09999358	0.00000000	-48.59744000	-11.00517000
111.29999357	0.00000000	-49.34793000	-12.16166000
111.49999356	0.00000000	-49.76009000	-12.58612000
111.69999355	0.00000000	-49.34793000	-12.58612000
111.89999353	0.00000000	-48.59744000	-12.16166000
112.09999352	0.00000000	-47.43479000	-11.00517000
112.29999351	0.00000000	-46.32135000	-9.51648500
112.49999350	0.00000000	-45.89690000	-8.35998900
112.69999349	0.00000000	-45.85384000	-7.93553100
112.89999347	0.00000000	-45.89690000	-7.93553100
113.09999346	0.00000000	-46.27214000	-8.31077700
113.29999345	0.00000000	-47.01648000	-9.05511800
113.49999344	0.00000000	-47.39173000	-9.43036400
113.69999343	0.00000000	-47.43479000	-9.47342500
113.89999341	0.00000000	-47.43479000	-9.47342500
114.09999340	0.00000000	-47.43479000	-9.47342500
114.29999339	0.00000000	-47.39173000	-9.51648500
114.49999338	0.00000000	-47.01648000	-9.89173200
114.69999337	0.00000000	-46.27214000	-10.62992000
114.89999336	0.00000000	-45.89690000	-11.00517000
115.09999334	0.00000000	-45.85384000	-11.04823000
115.29999333	0.00000000	-45.85384000	-11.04823000
115.49999332	0.00000000	-45.89690000	-11.00517000
115.69999331	0.00000000	-46.27214000	-10.62992000
115.89999330	0.00000000	-47.05954000	-9.89173200
116.09999328	0.00000000	-47.76698000	-9.47342500
116.29999327	0.00000000	-48.17913000	-9.05511800
116.49999326	0.00000000	-47.85310000	-8.31077700
116.69999325	0.00000000	-47.85310000	-7.93553100
116.89999324	0.00000000	-48.17913000	-7.93553100
117.09999322	0.00000000	-47.81004000	-8.31077700
117.29999321	0.00000000	-47.43479000	-9.09817800
117.49999320	0.00000000	-47.01648000	-9.84867000
117.69999319	0.00000000	-46.22908000	-10.62992000
117.89999318	0.00000000	-45.47859000	-11.00517000
118.09999317	0.00000000	-44.74040000	-11.04823000
118.29999315	0.00000000	-44.74040000	-11.00517000
118.49999314	0.00000000	-45.47859000	-10.62992000
118.69999313	0.00000000	-46.27214000	-9.84867000
118.89999312	0.00000000	-47.43479000	-9.09817800
119.09999311	0.00000000	-48.59744000	-8.31077700
119.29999309	0.00000000	-49.34793000	-7.93553100
119.49999308	0.00000000	-49.76009000	-7.89247000
119.69999307	0.00000000	-49.34793000	-7.89247000
119.89999306	0.00000000	-48.59744000	-7.93553100
120.09999305	0.00000000	-47.39173000	-8.31077700
120.29999303	0.00000000	-45.89690000	-9.05511800
120.49999302	0.00000000	-44.74040000	-9.47342500
120.69999301	0.00000000	-44.31594000	-9.89173200
120.89999300	0.00000000	-44.31594000	-10.62992000
121.09999299	0.00000000	-44.69119000	-11.00517000
121.29999298	0.00000000	-45.47859000	-11.04823000
121.49999296	0.00000000	-46.27214000	-11.04823000
121.69999295	0.00000000	-47.47785000	-11.00517000
121.89999294	0.00000000	-48.92347000	-10.62992000
122.09999293	0.00000000	-49.71087000	-9.89173200
122.29999292	0.00000000	-49.39099000	-9.47342500
122.49999290	0.00000000	-49.01575000	-9.05511800
122.69999289	0.00000000	-48.54823000	-8.31077700
122.89999288	0.00000000	-47.39173000	-7.93553100
123.09999287	0.00000000	-45.89690000	-7.93553100
123.29999286	0.00000000	-44.74040000	-8.31077700
123.49999284	0.00000000	-44.31594000	-9.05511800
123.69999283	0.00000000	-44.31594000	-9.47342500
123.89999282	0.00000000	-44.69119000	-9.89173200
124.09999281	0.00000000	-45.47859000	-10.62992000
124.29999280	0.00000000	-46.22908000	-11.00517000
124.49999279	0.00000000	-47.05954000	-11.04823000
124.69999277	0.00000000	-47.81004000	-11.00517000
124.89999276	0.00000000	-48.59744000	-10.62992000
125.09999275	0.00000000	-48.97269000	-9.84867000
125.29999274	0.00000000	-48.97269000	-9.09817800
125.49999273	0.00000000	-48.59744000	-8.31077700
125.69999271	0.00000000	-47.85310000	-7.93553100
125.89999270	0.00000000	-47.43479000	-7.89247000
126.09999269	0.00000000	-47.01648000	-7.89247000
126.29999268	0.00000000	-46.22908000	-7.93553100
126.49999267	0.00000000	-45.47859000	-8.31077700
126.69999265	0.00000000	-44.74040000	-9.05511800
126.89999264	0.00000000	-44.74040000	-9.43036400
127.09999263	0.00000000	-45.47859000	-9.51648500
127.29999262	0.00000000	-46.22908000	-9.84867000
127.49999261	0.00000000	-47.05954000	-10.25467000
127.69999260	0.00000000	-47.81004000	-10.21776000
127.89999258	0.00000000	-48.59744000	-10.25467000
128.09999257	0.00000000	-48.92347000	-9.84867000
128.29999256	0.00000000	-48.54823000	-9.51648500
128.49999255	0.00000000	-47.43479000	-9.47342500
128.69999254	0.00000000	-46.27214000	-9.43036400
128.89999252	0.00000000	-45.47859000	-9.09817800
129.09999251	0.00000000	-44.69119000	-8.72908400
129.29999250	0.00000000	-44.36515000	-9.09817800
129.49999249	0.00000000	-44.74040000	-9.43036400
129.69999248	0.00000000	-45.85384000	-9.47342500
129.89999246	0.00000000	-47.01648000	-9.47342500
130.09999245	0.00000000	-47.81004000	-9.47342500
130.29999244	0.00000000	-48.54823000	-9.47342500
130.49999243	0.00000000	-48.54823000	-9.47342500
130.69999242	0.00000000	-47.81004000	-9.43036400
130.89999241	0.00000000	-47.05954000	-9.09817800
131.09999239	0.00000000	-46.22908000	-8.72908400
131.29999238	0.00000000	-45.52165000	-9.09817800
131.49999237	0.00000000	-45.10950000	-9.43036400
131.69999236	0.00000000	-45.47859000	-9.47342500
131.89999235	0.00000000	-45.81078000	-9.51648500
132.09999233	0.00000000	-45.89690000	-9.89173200
132.29999232	0.00000000	-46.27214000	-10.62992000
132.49999231	0.00000000	-47.01648000	-10.95595000
132.69999230	0.00000000	-47.39173000	-10.62992000
132.89999229	0.00000000	-47.43479000	-9.89173200
133.09999227	0.00000000	-47.39173000	-9.47342500
133.29999226	0.00000000	-47.01648000	-9.05511800
133.49999225	0.00000000	-46.27214000	-8.31077700
133.69999224	0.00000000	-45.89690000	-7.93553100
133.89999223	0.00000000	-45.89690000	-7.89247000
134.09999222	0.00000000	-46.27214000	-7.93553100
134.29999220	0.00000000	-47.01648000	-8.31077700
134.49999219	0.00000000	-47.34252000	-9.09817800
134.69999218	0.00000000	-47.01648000	-9.84867000
134.89999217	0.00000000	-46.27214000	-10.62992000
135.09999216	0.00000000	-45.89690000	-11.00517000
135.29999214	0.00000000	-45.85384000	-11.00517000
135.49999213	0.00000000	-45.85384000	-10.62992000
135.69999212	0.00000000	-45.85384000	-9.84867000
135.89999211	0.00000000	-45.85384000	-9.09817800
136.09999210	0.00000000	-45.89690000	-8.31077700
136.29999208	0.00000000	-46.27214000	-7.93553100
136.49999207	0.00000000	-47.01648000	-7.89247000
136.69999206	0.00000000	-47.39173000	-7.93553100
136.89999205	0.00000000	-47.43479000	-8.31077700
137.09999204	0.00000000	-47.43479000	-9.05511800
137.29999203	0.00000000	-47.39173000	-9.43036400
137.49999201	0.00000000	-47.01648000	-9.51648500
137.69999200	0.00000000	-46.22908000	-9.89173200
137.89999199	0.00000000	-45.47859000	-10.62992000
138.09999198	0.00000000	-44.74040000	-10.95595000
138.29999197	0.00000000	-44.74040000	-10.67298000
138.49999195	0.00000000	-45.47859000	-10.26698000
138.69999194	0.00000000	-46.22908000	-10.25467000
138.89999193	0.00000000	-47.01648000	-9.84867000
139.09999192	0.00000000	-47.39173000	-9.43036400
139.29999191	0.00000000	-47.43479000	-8.67987200
139.49999189	0.00000000	-47.43479000	-7.57258800
139.69999188	0.00000000	-47.39173000	-7.56028500
139.89999187	0.00000000	-47.01648000	-7.84940900
140.09999186	0.00000000	-46.27214000	-7.93553100
140.29999185	0.00000000	-45.89690000	-8.31077700
140.49999184	0.00000000	-45.85384000	-9.09817800
140.69999182	0.00000000	-45.85384000	-9.84867000
140.89999181	0.00000000	-45.89690000	-10.62992000
141.09999180	0.00000000	-46.27214000	-11.00517000
141.29999179	0.00000000	-47.01648000	-11.04823000
141.49999178	0.00000000	-47.39173000	-11.00517000
141.69999176	0.00000000	-47.43479000	-10.58686000
141.89999175	0.00000000	-47.39173000	-9.47342500
142.09999174	0.00000000	-47.01648000	-8.31077700
142.29999173	0.00000000	-46.27214000	-7.51722400
142.49999172	0.00000000	-45.89690000	-6.77903500
142.69999170	0.00000000	-45.85384000	-6.77903500
142.89999169	0.00000000	-45.85384000	-7.51722400
143.09999168	0.00000000	-45.85384000	-8.26771600
143.29999167	0.00000000	-45.89690000	-9.09817800
143.49999166	0.00000000	-46.27214000	-9.84867000
143.69999165	0.00000000	-46.96727000	-10.62992000
143.89999163	0.00000000	-46.96727000	-11.00517000
144.09999162	0.00000000	-46.27214000	-11.00517000
144.29999161	0.00000000	-45.89690000	-10.58686000
144.49999160	0.00000000	-45.85384000	-9.47342500
144.69999159	0.00000000	-45.85384000	-8.35998900
144.89999157	0.00000000	-45.85384000	-7.93553100
145.09999156	0.00000000	-45.85384000	-7.89247000
145.29999155	0.00000000	-45.85384000	-7.89247000
145.49999154	0.00000000	-45.85384000	-7.93553100
145.69999153	0.00000000	-45.89690000	-8.31077700
145.89999151	0.00000000	-46.27214000	-9.05511800
146.09999150	0.00000000	-46.96727000	-9.47342500
146.29999149	0.00000000	-46.96727000	-9.84867000
146.49999148	0.00000000	-46.27214000	-10.21161000
146.69999147	0.00000000	-45.89690000	-9.84867000
146.89999146	0.00000000	-45.85384000	-9.51648500
147.09999144	0.00000000	-45.85384000	-9.43036400
147.29999143	0.00000000	-45.85384000	-9.05511800
147.49999142	0.00000000	-45.85384000	-8.35998900
147.69999141	0.00000000	-45.85384000	-8.31077700
147.89999140	0.00000000	-45.89690000	-8.67987200
148.09999138	0.00000000	-46.27214000	-8.64296200
148.29999137	0.00000000	-46.96727000	-8.72293300
148.49999136	0.00000000	-47.01648000	-8.68602300
148.69999135	0.00000000	-46.64739000	-9.09817800
148.89999134	0.00000000	-46.64124000	-9.43036400
149.09999132	0.00000000	-46.22908000	-9.47342500
149.29999131	0.00000000	-45.89690000	-9.47342500
149.49999130	0.00000000	-45.85384000	-9.47342500
149.69999129	0.00000000	-45.85384000	-9.47342500
149.89999128	0.00000000	-45.85384000	-9.47342500
150.09999127	0.00000000	-45.85384000	-9.43036400
150.29999125	0.00000000	-45.85384000	-9.05511800
150.49999124	0.00000000	-45.85384000	-8.31077700
150.69999123	0.00000000	-45.85384000	-7.93553100
150.89999122	0.00000000	-45.85384000	-7.93553100
151.09999121	0.00000000	-45.89690000	-8.26771600
151.29999119	0.00000000	-46.27214000	-8.67987200
151.49999118	0.00000000	-46.96727000	-8.68602300
151.69999117	0.00000000	-46.96727000	-9.09817800
151.89999116	0.00000000	-46.27214000	-9.43036400
152.09999115	0.00000000	-45.89690000	-9.47342500
152.29999113	0.00000000	-45.85384000	-9.47342500
152.49999112	0.00000000	-45.85384000	-9.47342500
152.69999111	0.00000000	-45.85384000	-9.47342500
152.89999110	0.00000000	-45.85384000	-9.47342500
153.09999109	0.00000000	-45.85384000	-9.47342500
153.29999108	0.00000000	-45.85384000	-9.47342500
153.49999106	0.00000000	-45.85384000	-9.43036400
153.69999105	0.00000000	-45.85384000	-9.05511800
153.89999104	0.00000000	-45.89690000	-8.31077700
154.09999103	0.00000000	-46.27214000	-7.93553100
154.29999102	0.00000000	-47.01648000	-7.93553100
154.49999100	0.00000000	-47.39173000	-8.31077700
154.69999099	0.00000000	-47.39173000	-9.05511800
154.89999098	0.00000000	-47.01648000	-9.43036400
155.09999097	0.00000000	-46.27214000	-9.47342500
155.29999096	0.00000000	-45.85384000	-9.47342500
155.49999094	0.00000000	-45.43553000	-9.47342500
155.69999093	0.00000000	-44.69119000	-9.47342500
155.89999092	0.00000000	-44.36515000	-9.47342500
156.09999091	0.00000000	-44.69119000	-9.47342500
156.29999090	0.00000000	-45.43553000	-9.47342500
156.49999089	0.00000000	-45.81078000	-9.43036400
156.69999087	0.00000000	-45.85384000	-9.05511800
156.89999086	0.00000000	-45.89690000	-8.31077700
157.09999085	0.00000000	-46.27214000	-7.93553100
157.29999084	0.00000000	-47.01648000	-7.89247000
157.49999083	0.00000000	-47.34252000	-7.89247000
157.69999081	0.00000000	-47.01648000	-7.93553100
157.89999080	0.00000000	-46.27214000	-8.31077700
158.09999079	0.00000000	-45.89690000	-9.05511800
158.29999078	0.00000000	-45.81078000	-9.43036400
158.49999077	0.00000000	-45.47859000	-9.47342500
158.69999075	0.00000000	-45.10950000	-9.47342500
158.89999074	0.00000000	-45.47859000	-9.47342500
159.09999073	0.00000000	-45.81078000	-9.47342500
159.29999072	0.00000000	-45.85384000	-9.43036400
159.49999071	0.00000000	-45.85384000	-9.05511800
159.69999070	0.00000000	-45.85384000	-8.31077700
159.89999068	0.00000000	-45.85384000	-7.93553100
160.09999067	0.00000000	-45.85384000	-7.89247000
160.29999066	0.00000000	-45.85384000	-7.93553100
160.49999065	0.00000000	-45.85384000	-8.26771600
160.69999064	0.00000000	-45.85384000	-8.67987200
160.89999062	0.00000000	-45.85384000	-8.68602300
161.09999061	0.00000000	-45.85384000	-9.09817800
161.29999060	0.00000000	-45.85384000	-9.43036400
161.49999059	0.00000000	-45.85384000	-9.47342500
161.69999058	0.00000000	-45.85384000	-9.47342500
161.89999056	0.00000000	-45.81078000	-9.47342500
162.09999055	0.00000000	-45.43553000	-9.43036400
162.29999054	0.00000000	-44.74040000	-9.05511800
162.49999053	0.00000000	-44.74040000	-8.35998900
162.69999052	0.00000000	-45.43553000	-8.31077700
162.89999051	0.00000000	-45.81078000	-8.63681000
163.09999049	0.00000000	-45.85384000	-8.26771600
163.29999048	0.00000000	-45.85384000	-7.98474400
163.49999047	0.00000000	-45.89690000	-8.31077700
163.69999046	0.00000000	-46.22908000	-9.05511800
163.89999045	0.00000000	-46.59818000	-9.43036400
164.09999043	0.00000000	-46.22908000	-9.47342500
164.29999042	0.00000000	-45.89690000	-9.47342500
164.49999041	0.00000000	-45.81078000	-9.47342500
164.69999040	0.00000000	-45.47859000	-9.47342500
164.89999039	0.00000000	-45.06644000	-9.47342500
165.09999037	0.00000000	-45.06028000	-9.47342500
165.29999036	0.00000000	-44.69119000	-9.47342500
165.49999035	0.00000000	-44.74040000	-9.43036400
165.69999034	0.00000000	-45.43553000	-9.09817800
165.89999033	0.00000000	-45.81078000	-8.68602300
166.09999032	0.00000000	-45.85384000	-8.72293300
166.29999030	0.00000000	-45.85384000	-8.64296200
166.49999029	0.00000000	-45.85384000	-8.72293300
166.69999028	0.00000000	-45.85384000	-8.68602300
166.89999027	0.00000000	-45.85384000	-9.09817800
167.09999026	0.00000000	-45.85384000	-9.43036400
167.29999024	0.00000000	-45.85384000	-9.47342500
167.49999023	0.00000000	-45.81078000	-9.47342500
167.69999022	0.00000000	-45.43553000	-9.47342500
167.89999021	0.00000000	-44.69119000	-9.43036400
168.09999020	0.00000000	-44.31594000	-9.09817800
168.29999018	0.00000000	-44.31594000	-8.72908400
168.49999017	0.00000000	-44.69119000	-9.05511800
168.69999016	0.00000000	-45.43553000	-9.05511800
168.89999015	0.00000000	-45.81078000	-8.72908400
169.09999014	0.00000000	-45.85384000	-9.09817800
169.29999013	0.00000000	-45.85384000	-9.43036400
169.49999011	0.00000000	-45.85384000	-9.47342500
169.69999010	0.00000000	-45.85384000	-9.47342500
169.89999009	0.00000000	-45.85384000	-9.47342500
170.09999008	0.00000000	-45.85384000	-9.47342500
170.29999007	0.00000000	-45.85384000	-9.43036400
170.49999005	0.00000000	-45.85384000	-9.05511800
170.69999004	0.00000000	-45.85384000	-8.35998900
170.89999003	0.00000000	-45.81078000	-8.31077700
171.09999002	0.00000000	-45.47859000	-8.67987200
171.29999001	0.00000000	-45.10950000	-8.68602300
171.49998999	0.00000000	-45.43553000	-9.09817800
171.69998998	0.00000000	-45.43553000	-9.43036400
171.89998997	0.00000000	-45.10950000	-9.47342500
172.09998996	0.00000000	-45.47859000	-9.47342500
172.29998995	0.00000000	-45.81078000	-9.47342500
172.49998994	0.00000000	-45.85384000	-9.43036400
172.69998992	0.00000000	-45.85384000	-9.05511800
172.89998991	0.00000000	-45.85384000	-8.31077700
173.09998990	0.00000000	-45.85384000	-7.93553100
173.29998989	0.00000000	-45.85384000	-7.89247000
173.49998988	0.00000000	-45.81078000	-7.89247000
173.69998986	0.00000000	-45.43553000	-7.89247000
173.89998985	0.00000000	-44.74040000	-7.93553100
174.09998984	0.00000000	-44.74040000	-8.31077700
174.29998983	0.00000000	-45.43553000	-9.05511800
174.49998982	0.00000000	-45.81078000	-9.43036400
174.69998980	0.00000000	-45.85384000	-9.47342500
174.89998979	0.00000000	-45.85384000	-9.47342500
175.09998978	0.00000000	-45.85384000	-9.47342500
175.29998977	0.00000000	-45.85384000	-9.47342500
175.49998976	0.00000000	-45.85384000	-9.47342500
175.69998975	0.00000000	-45.85384000	-9.47342500
175.89998973	0.00000000	-45.85384000	-9.43036400
176.09998972	0.00000000	-45.85384000	-9.09817800
176.29998971	0.00000000	-45.85384000	-8.68602300
176.49998970	0.00000000	-45.81078000	-8.72293300
176.69998969	0.00000000	-45.47859000	-8.64296200
176.89998967	0.00000000	-45.10950000	-8.72293300
177.09998966	0.00000000	-45.47859000	-8.68602300
177.29998965	0.00000000	-45.81078000	-9.09817800
177.49998964	0.00000000	-45.85384000	-9.43036400
177.69998963	0.00000000	-45.85384000	-9.47342500
177.89998961	0.00000000	-45.85384000	-9.47342500
178.09998960	0.00000000	-45.85384000	-9.43036400
178.29998959	0.00000000	-45.85384000	-9.05511800
178.49998958	0.00000000	-45.85384000	-8.35998900
178.69998957	0.00000000	-45.85384000	-8.31077700
178.89998956	0.00000000	-45.85384000	-8.63681000
179.09998954	0.00000000	-45.85384000	-8.26771600
179.29998953	0.00000000	-45.81078000	-7.93553100
179.49998952	0.00000000	-45.47859000	-7.89247000
179.69998951	0.00000000	-45.06644000	-7.93553100
179.89998950	0.00000000	-45.06028000	-8.31077700
180.09998948	0.00000000	-44.64813000	-9.05511800
180.29998947	0.00000000	-44.36515000	-9.43036400
180.49998946	0.00000000	-44.69119000	-9.47342500
180.69998945	0.00000000	-45.43553000	-9.47342500
180.89998944	0.00000000	-45.81078000	-9.43036400
181.09998942	0.00000000	-45.85384000	-9.05511800
181.29998941	0.00000000	-45.85384000	-8.31077700
181.49998940	0.00000000	-45.81078000	-7.93553100
181.69998939	0.00000000	-45.47859000	-7.89247000
181.89998938	0.00000000	-45.10950000	-7.89247000
182.09998937	0.00000000	-45.43553000	-7.89247000
182.29998935	0.00000000	-45.43553000	-7.93553100
182.49998934	0.00000000	-45.10950000	-8.31077700
182.69998933	0.00000000	-45.43553000	-9.05511800
182.89998932	0.00000000	-45.43553000	-9.43036400
183.09998931	0.00000000	-45.06644000	-9.47342500
183.29998929	0.00000000	-45.06028000	-9.47342500
183.49998928	0.00000000	-44.64813000	-9.47342500
183.69998927	0.00000000	-44.36515000	-9.47342500
183.89998926	0.00000000	-44.69119000	-9.43036400
184.09998925	0.00000000	-45.43553000	-9.05511800
184.29998923	0.00000000	-45.81078000	-8.31077700
184.49998922	0.00000000	-45.85384000	-7.93553100
184.69998921	0.00000000	-45.85384000	-7.89247000
184.89998920	0.00000000	-45.85384000	-7.89247000
185.09998919	0.00000000	-45.81078000	-7.89247000
185.29998918	0.00000000	-45.43553000	-7.89247000
185.49998916	0.00000000	-44.69119000	-7.89247000
185.69998915	0.00000000	-44.31594000	-7.93553100
185.89998914	0.00000000	-44.27288000	-8.31077700
186.09998913	0.00000000	-44.27288000	-9.05511800
186.29998912	0.00000000	-44.27288000	-9.43036400
186.49998910	0.00000000	-44.27288000	-9.47342500
186.69998909	0.00000000	-44.31594000	-9.47342500
186.89998908	0.00000000	-44.69119000	-9.47342500
187.09998907	0.00000000	-45.43553000	-9.43036400
187.29998906	0.00000000	-45.76156000	-9.05511800
187.49998904	0.00000000	-45.47859000	-8.31077700
187.69998903	0.00000000	-45.10950000	-7.93553100
187.89998902	0.00000000	-45.47859000	-7.89247000
188.09998901	0.00000000	-45.76156000	-7.89247000
188.29998900	0.00000000	-45.43553000	-7.89247000
188.49998899	0.00000000	-44.69119000	-7.93553100
188.69998897	0.00000000	-44.31594000	-8.31077700
188.89998896	0.00000000	-44.31594000	-9.05511800
189.09998895	0.00000000	-44.64813000	-9.43036400
189.29998894	0.00000000	-45.01722000	-9.47342500
189.49998893	0.00000000	-44.69119000	-9.47342500
189.69998891	0.00000000	-44.69119000	-9.43036400
189.89998890	0.00000000	-45.06028000	-9.05511800
190.09998889	0.00000000	-45.06644000	-8.31077700
190.29998888	0.00000000	-45.47859000	-7.93553100
190.49998887	0.00000000	-45.81078000	-7.89247000
190.69998885	0.00000000	-45.81078000	-7.89247000
190.89998884	0.00000000	-45.47859000	-7.89247000
191.09998883	0.00000000	-45.06644000	-7.89247000
191.29998882	0.00000000	-45.06028000	-7.89247000
191.49998881	0.00000000	-44.64813000	-7.89247000
191.69998880	0.00000000	-44.31594000	-7.89247000
191.89998878	0.00000000	-44.27288000	-7.93553100
192.09998877	0.00000000	-44.27288000	-8.31077700
192.29998876	0.00000000	-44.27288000	-9.00590400
192.49998875	0.00000000	-44.27288000	-9.05511800
192.69998874	0.00000000	-44.31594000	-8.72908400
192.89998872	0.00000000	-44.69119000	-9.05511800
193.09998871	0.00000000	-45.43553000	-9.00590400
193.29998870	0.00000000	-45.81078000	-8.31077700
193.49998869	0.00000000	-45.85384000	-7.93553100
193.69998868	0.00000000	-45.81078000	-7.89247000
193.89998866	0.00000000	-45.43553000	-7.89247000
194.09998865	0.00000000	-44.69119000	-7.89247000
194.29998864	0.00000000	-44.31594000	-7.89247000
194.49998863	0.00000000	-44.27288000	-7.89247000
194.69998862	0.00000000	-44.27288000	-7.89247000
194.89998861	0.00000000	-44.27288000	-7.89247000
195.09998859	0.00000000	-44.27288000	-7.89247000
195.29998858	0.00000000	-44.27288000	-7.89247000
195.49998857	0.00000000	-44.31594000	-7.93553100
195.69998856	0.00000000	-44.69119000	-8.31077700
195.89998855	0.00000000	-45.43553000	-9.00590400
196.09998853	0.00000000	-45.81078000	-9.00590400
