Time	Channel A	Channel B	Channel C
(us)	(V)	(mV)	(mV)

-4.59999956	0.00000000	38.69341000	22.10261000
-4.39999957	0.00000000	38.32431000	22.10261000
-4.19999958	0.00000000	37.99213000	22.10261000
-3.99999959	0.00000000	37.94907000	22.05955000
-3.79999960	0.00000000	37.94907000	21.72736000
-3.59999962	0.00000000	37.94907000	21.36442000
-3.39999963	0.00000000	37.94907000	21.68430000
-3.19999964	0.00000000	37.94907000	21.64124000
-2.99999965	0.00000000	37.94907000	20.98917000
-2.79999966	0.00000000	37.94907000	20.98917000
-2.59999968	0.00000000	37.94907000	21.64124000
-2.39999969	0.00000000	37.94907000	21.68430000
-2.19999970	0.00000000	37.94907000	21.32136000
-1.99999971	0.00000000	37.94907000	21.30905000
-1.79999972	0.00000000	37.94907000	20.90305000
-1.59999973	0.00000000	37.94907000	20.62008000
-1.39999975	0.00000000	37.94907000	20.94611000
-1.19999976	0.00000000	37.94907000	21.68430000
-0.99999977	0.00000000	37.94907000	22.01033000
-0.79999978	0.00000000	37.94907000	21.72736000
-0.59999979	0.00000000	37.94907000	21.36442000
-0.39999981	0.15871060	37.94907000	21.68430000
-0.19999982	0.47736220	37.94907000	21.68430000
0.00000017	0.79601380	37.94907000	21.36442000
0.20000016	0.95533960	37.94907000	21.68430000
0.40000015	0.95533960	37.94907000	21.64124000
0.60000013	0.47736220	37.94907000	20.98917000
0.80000012	-0.31803640	37.94907000	20.98917000
1.00000011	-1.27399100	37.94907000	21.64124000
1.20000010	-2.22994600	37.94907000	21.68430000
1.40000009	-2.86724900	37.94907000	21.36442000
1.60000008	-2.54859700	37.94907000	21.72736000
1.80000006	-1.59264300	37.94907000	22.05955000
2.00000005	0.00000000	37.94907000	22.10261000
2.20000004	2.07062000	37.94907000	22.10261000
2.40000003	4.14124000	37.94907000	22.10261000
2.60000002	5.25652100	37.94907000	22.05955000
2.80000000	5.09719500	37.94907000	21.68430000
2.99999999	3.50393700	37.94907000	20.94611000
3.19999998	0.63668800	37.94907000	20.57087000
3.39999997	-2.86724900	37.94907000	20.52780000
3.59999996	-5.89382400	37.94907000	20.57087000
3.79999994	-7.80511800	37.94907000	20.94611000
3.99999993	-7.80511800	37.94907000	21.68430000
4.19999992	-5.73449800	37.94907000	22.05955000
4.39999991	-2.07062000	37.94907000	22.10261000
4.59999990	2.38927200	37.94907000	22.10261000
4.79999989	6.37180100	37.94907000	22.05955000
4.99999987	8.92039900	37.94907000	21.68430000
5.19999986	9.39837600	37.94907000	20.94611000
5.39999985	7.32714100	37.94907000	20.57087000
5.59999984	3.34522600	37.94907000	20.52780000
5.79999983	-1.43331700	37.94907000	20.52780000
5.99999981	-5.73449800	37.94907000	20.52780000
6.19999980	-8.76107300	37.94907000	20.57087000
6.39999979	-9.39837600	37.94907000	20.94611000
6.59999978	-7.80511800	37.94907000	21.68430000
6.79999977	-4.30056600	37.94907000	22.05955000
6.99999975	0.00000000	37.94907000	22.10261000
7.19999974	3.98191400	37.94907000	22.05955000
7.39999973	6.84916400	37.94907000	21.72736000
7.59999972	7.80511800	37.94907000	21.32136000
7.79999971	6.69045300	37.94907000	21.30905000
7.99999970	4.14124000	37.94907000	20.90305000
8.19999968	0.79601380	37.94907000	20.57087000
8.39999967	-2.22994600	37.94907000	20.57087000
8.59999966	-4.45989200	37.94907000	20.94611000
8.79999965	-5.25652100	37.94907000	21.68430000
8.99999964	-4.61921700	37.94907000	22.05955000
9.19999962	-3.18590100	37.94907000	22.10261000
9.39999961	-1.11466500	37.94907000	22.10261000
9.59999960	0.79601380	37.94907000	22.10261000
9.79999959	1.91129400	37.94907000	22.10261000
9.99999958	2.54859700	37.94907000	22.10261000
10.19999956	2.38927200	37.94907000	22.05955000
10.39999955	1.59264300	37.94907000	21.72736000
10.59999954	0.63668800	37.99213000	21.36442000
10.79999953	-0.15871060	38.32431000	21.72736000
10.99999952	-0.63668800	38.69341000	22.05955000
11.19999951	-0.95533960	38.32431000	22.10261000
11.39999949	-0.95533960	37.99213000	22.10261000
11.59999948	-0.79601380	37.99213000	22.10261000
11.79999947	-0.47736220	38.32431000	22.10261000
11.99999946	-0.15871060	38.69341000	22.10261000
12.19999945	-0.15871060	38.32431000	22.10261000
12.39999943	-0.15871060	37.99213000	22.10261000
12.59999942	0.00000000	37.99213000	22.10261000
12.79999941	0.00000000	38.32431000	22.10261000
12.99999940	0.00000000	38.69341000	22.10261000
13.19999939	0.00000000	38.32431000	22.10261000
13.39999937	0.00000000	37.99213000	22.10261000
13.59999936	0.00000000	37.99213000	22.10261000
13.79999935	-0.15871060	38.32431000	22.10261000
13.99999934	-0.15871060	38.69341000	22.10261000
14.19999933	-0.15871060	38.32431000	22.10261000
14.39999932	-0.15871060	37.99213000	22.10261000
14.59999930	-0.15871060	37.94907000	22.10261000
14.79999929	0.00000000	37.94907000	22.10261000
14.99999928	0.00000000	37.94907000	22.10261000
15.19999927	0.00000000	37.94907000	22.10261000
15.39999926	0.00000000	37.94907000	22.10261000
15.59999924	0.00000000	37.94907000	22.10261000
15.79999923	0.00000000	37.94907000	22.10261000
15.99999922	0.00000000	37.94907000	22.10261000
16.19999921	-0.15871060	37.94907000	22.10261000
16.39999920	-0.15871060	37.99213000	22.05955000
16.59999919	-0.15871060	38.32431000	21.68430000
16.79999917	-0.15871060	38.73647000	20.94611000
16.99999916	-0.15871060	38.78568000	20.62008000
17.19999915	0.00000000	39.57308000	20.94611000
17.39999914	0.00000000	40.60039000	21.64124000
17.59999913	0.00000000	40.64345000	21.64124000
17.79999911	0.00000000	39.90526000	20.94611000
17.99999910	0.00000000	39.11171000	20.57087000
18.19999909	0.00000000	37.90600000	20.57087000
18.39999908	0.00000000	36.36811000	20.90305000
18.59999907	-0.15871060	34.83022000	21.26599000
18.79999905	-0.15871060	33.71063000	20.90305000
18.99999904	-0.15871060	33.71063000	20.62008000
19.19999903	0.00000000	34.92249000	20.94611000
19.39999902	0.00000000	37.25394000	21.68430000
19.59999901	0.00000000	40.77879000	22.05955000
19.79999900	0.00000000	44.60506000	22.10261000
19.99999898	0.00000000	48.08686000	22.10261000
20.19999897	0.00000000	49.95078000	22.10261000
20.39999896	0.00000000	49.53248000	22.10261000
20.59999895	0.00000000	46.32751000	22.05955000
20.79999894	0.00000000	40.13287000	21.72736000
20.99999892	0.00000000	32.08661000	21.36442000
21.19999891	0.00000000	24.73548000	21.72736000
21.39999890	0.00000000	19.70349000	22.05955000
21.59999889	0.00000000	17.84572000	22.10261000
21.79999888	0.00000000	20.68159000	22.10261000
21.99999886	0.00000000	28.45103000	22.10261000
22.19999885	0.00000000	40.08366000	22.05955000
22.39999884	0.00000000	53.20496000	21.72736000
22.59999883	0.00000000	64.70226000	21.36442000
22.79999882	0.00000000	71.16756000	21.72736000
22.99999881	0.00000000	70.00491000	22.10261000
23.19999879	0.00000000	61.44808000	22.52091000
23.39999878	0.00000000	47.06569000	23.26525000
23.59999877	-0.15871060	28.92470000	23.64050000
23.79999876	0.00000000	11.61417000	23.68356000
23.99999875	0.00000000	-0.34448820	23.64050000
24.19999873	0.00000000	-4.15846400	23.21604000
24.39999872	0.00000000	1.74704700	22.10261000
24.59999871	0.00000000	16.86762000	20.94611000
24.79999870	0.00000000	38.45964000	20.10950000
24.99999869	0.00000000	61.20817000	18.94685000
25.19999867	0.00000000	79.35531000	17.83341000
25.39999866	0.00000000	88.98868000	17.50123000
25.59999865	0.00000000	87.40771000	18.33784000
25.79999864	0.00000000	74.61245000	21.03838000
25.99999863	0.00000000	53.34645000	24.88927000
26.19999862	0.00000000	27.89739000	28.75246000
26.39999860	0.00000000	4.81668300	32.22810000
26.59999859	0.00000000	-9.92864100	34.09203000
26.79999858	0.00000000	-13.41658000	33.63066000
26.99999857	0.00000000	-5.32111200	30.14272000
27.19999856	0.00000000	12.86909000	23.96653000
27.39999854	0.00000000	36.74335000	16.99065000
27.59999853	0.00000000	60.74065000	9.98400600
27.79999852	0.00000000	79.31225000	4.31225400
27.99999851	0.00000000	88.98868000	2.03617100
28.19999850	0.00000000	87.45078000	4.39837600
28.39999848	0.00000000	75.12303000	10.99901000
28.59999847	0.00000000	55.48105000	21.08145000
28.79999846	0.00000000	33.05856000	32.64640000
28.99999845	0.00000000	13.33046000	43.05487000
29.19999844	0.00000000	0.12303150	49.93233000
29.39999843	0.00000000	-4.15846400	51.05191000
29.59999841	0.00000000	1.19340500	45.61392000
29.79999840	0.00000000	14.26550000	34.74409000
29.99999839	0.00000000	31.66830000	20.06029000
30.19999838	0.00000000	49.48326000	4.63828700
30.39999837	0.00000000	64.19168000	-7.67716500
30.59999835	0.00000000	72.74852000	-14.22244000
30.79999834	0.00000000	73.59129000	-13.01673000
30.99999833	0.00000000	67.44586000	-4.14000900
31.19999832	0.00000000	55.85630000	10.53765000
31.39999831	0.00000000	41.62155000	27.95891000
31.59999829	0.00000000	28.40797000	44.50664000
31.79999828	0.00000000	18.68233000	56.48376000
31.99999827	0.00000000	13.57037000	60.76525000
32.19999826	0.00000000	13.98253000	57.32037000
32.39999825	0.00000000	19.34055000	46.81963000
32.59999824	0.00000000	28.63558000	30.97933000
32.79999822	0.00000000	39.43774000	13.22589000
32.99999821	0.00000000	49.48942000	-2.60826800
33.19999820	0.00000000	56.46530000	-13.06594000
33.39999819	0.00000000	58.83981000	-16.17864000
33.59999818	0.00000000	56.92667000	-11.52805000
33.79999816	0.00000000	51.15649000	0.03690945
33.99999815	0.00000000	43.11023000	15.87721000
34.19999814	-0.15871060	35.38385000	32.46801000
34.39999813	0.00000000	29.52141000	46.40133000
34.59999812	0.00000000	26.45177000	54.49680000
34.79999810	0.00000000	26.82701000	55.32726000
34.99999809	0.00000000	30.64099000	48.77583000
35.19999808	0.00000000	36.36811000	36.82948000
35.39999807	0.00000000	42.18134000	22.14567000
35.59999806	0.00000000	46.78888000	7.88631800
35.79999805	0.00000000	49.11417000	-2.47908400
35.99999803	0.00000000	48.32677000	-6.42224400
36.19999802	0.00000000	44.96801000	-3.35876000
36.39999801	0.00000000	40.32357000	5.05659400
36.59999800	0.00000000	36.07898000	17.03986000
36.79999799	0.00000000	32.59719000	29.26919000
36.99999797	0.00000000	31.10236000	38.55192000
37.19999796	0.00000000	32.22195000	42.41511000
37.39999795	0.00000000	35.29773000	40.55118000
37.59999794	0.00000000	39.53002000	33.67372000
37.79999793	0.00000000	43.80536000	24.10187000
37.99999791	0.00000000	47.25640000	14.84990000
38.19999790	0.00000000	49.15723000	7.97244000
38.39999789	0.00000000	48.36983000	5.70251000
38.59999788	0.00000000	45.38631000	9.13508800
38.79999787	0.00000000	41.48622000	16.75689000
38.99999786	0.00000000	37.57381000	26.32874000
39.19999784	0.00000000	33.71063000	34.74409000
39.39999783	0.00000000	31.05930000	39.34547000
39.59999782	0.00000000	30.59178000	38.92716000
39.79999781	0.00000000	31.75443000	33.21235000
39.99999780	0.00000000	34.12894000	24.01575000
40.19999778	0.00000000	37.99213000	14.43159000
40.39999777	0.00000000	42.22441000	6.72367100
40.59999776	0.00000000	45.76156000	3.32800200
40.79999775	0.00000000	48.46210000	5.23499000
40.99999774	0.00000000	49.62475000	12.11245000
41.19999772	0.00000000	48.83735000	21.68430000
41.39999771	0.00000000	46.54896000	30.93627000
41.59999770	0.00000000	43.02411000	37.89985000
41.79999769	0.00000000	39.15477000	40.96949000
41.99999768	0.00000000	35.29773000	39.43774000
42.19999767	0.00000000	32.59719000	33.67372000
42.39999765	0.00000000	31.79749000	25.26452000
42.59999764	0.00000000	32.54798000	16.84916000
42.79999763	0.00000000	34.87328000	10.95595000
42.99999762	0.00000000	37.90600000	8.24926100
43.19999761	0.00000000	40.64345000	8.63065900
43.39999759	0.00000000	42.59965000	12.85679000
43.59999758	0.00000000	43.80536000	18.90379000
43.79999757	0.00000000	44.22982000	24.75394000
43.99999756	0.00000000	44.22982000	29.40452000
44.19999755	0.00000000	43.85457000	32.09276000
44.39999753	0.00000000	43.11023000	32.14198000
44.59999752	0.00000000	42.73499000	29.86589000
44.79999751	0.00000000	42.69193000	26.42101000
44.99999750	0.00000000	42.64886000	22.52091000
45.19999749	0.00000000	42.18134000	19.08218000
45.39999748	0.00000000	40.64345000	16.71383000
45.59999746	0.00000000	38.32431000	15.96334000
45.79999745	0.00000000	35.94980000	16.71383000
45.99999744	0.00000000	33.24926000	18.98991000
46.19999743	0.00000000	31.01009000	21.64124000
46.39999742	0.00000000	30.63484000	23.64050000
46.59999740	0.00000000	32.22195000	25.21530000
46.79999739	0.00000000	35.80217000	26.37795000
46.99999738	0.00000000	41.57849000	26.70398000
47.19999737	0.00000000	48.08686000	25.91043000
47.39999736	0.00000000	53.11269000	23.64050000
47.59999734	0.00000000	55.81324000	20.98917000
47.79999733	0.00000000	55.30265000	18.98991000
47.99999732	0.00000000	50.64591000	17.45817000
48.19999731	0.00000000	42.59965000	16.71383000
48.39999730	0.00000000	33.71063000	17.50123000
48.59999729	0.00000000	25.98425000	19.40822000
48.79999727	0.00000000	21.00763000	22.15182000
48.99999726	0.00000000	20.68159000	25.21530000
49.19999725	0.00000000	25.28912000	27.90969000
49.39999724	0.00000000	33.75369000	29.44759000
49.59999723	0.00000000	43.76230000	29.44759000
49.79999721	0.00000000	52.65133000	27.86663000
49.99999720	0.00000000	58.46457000	24.79700000
50.19999719	0.00000000	59.95324000	20.94611000
50.39999718	0.00000000	56.50836000	17.45817000
50.59999717	0.00000000	48.78814000	14.76378000
50.79999715	0.00000000	39.19783000	13.69340000
50.99999714	0.00000000	29.93971000	15.18209000
51.19999713	0.00000000	23.79429000	18.61466000
51.39999712	0.00000000	22.21334000	22.47785000
51.59999711	0.00000000	25.28912000	26.37795000
51.79999710	0.00000000	32.22195000	29.44759000
51.99999708	0.00000000	41.06176000	30.97933000
52.19999707	0.00000000	49.48942000	30.60408000
52.39999706	0.00000000	54.88435000	28.28494000
52.59999705	0.00000000	55.67790000	24.84621000
52.79999704	0.00000000	52.22687000	20.94611000
52.99999702	0.00000000	45.34325000	17.54429000
53.19999701	0.00000000	37.29700000	15.55733000
53.39999700	0.00000000	30.77633000	15.59424000
53.59999699	0.00000000	27.24532000	17.04601000
53.79999698	0.00000000	27.65748000	19.77731000
53.99999696	0.00000000	31.43455000	22.43479000
54.19999695	0.00000000	37.61687000	24.79700000
54.39999694	0.00000000	44.13755000	26.28568000
54.59999693	0.00000000	49.53248000	26.28568000
54.79999692	0.00000000	52.18381000	24.79700000
54.99999691	0.00000000	51.07037000	22.57013000
55.19999689	0.00000000	46.88115000	21.03838000
55.39999688	0.00000000	41.11097000	20.62008000
55.59999687	0.00000000	35.34079000	20.98917000
55.79999686	0.00000000	31.10236000	22.15182000
55.99999685	0.00000000	29.56447000	23.68356000
56.19999683	0.00000000	31.05930000	25.17224000
56.39999682	0.00000000	34.92249000	25.91043000
56.59999681	0.00000000	39.90526000	25.12918000
56.79999680	0.00000000	44.92495000	23.22219000
56.99999679	0.00000000	48.36983000	20.47859000
57.19999677	0.00000000	49.57554000	17.45817000
57.39999676	-0.15871060	48.41904000	15.22515000
57.59999675	0.00000000	45.38631000	15.27436000
57.79999674	0.00000000	41.52928000	17.91953000
57.99999673	0.00000000	38.04134000	22.14567000
58.19999672	0.00000000	35.34079000	26.79626000
58.39999670	0.00000000	34.22121000	31.02239000
58.59999669	0.00000000	35.29773000	33.67372000
58.79999668	0.00000000	37.57381000	33.63066000
58.99999667	0.00000000	39.90526000	30.56102000
59.19999666	0.00000000	42.27362000	25.17224000
59.39999664	0.00000000	44.13755000	19.03912000
59.59999663	0.00000000	44.92495000	13.60113000
59.79999662	0.00000000	44.18061000	10.16240000
59.99999661	0.00000000	42.69193000	9.46727400
60.19999660	0.00000000	41.15403000	12.53076000
60.39999658	0.00000000	39.99754000	18.66388000
60.59999657	0.00000000	39.57308000	25.59055000
60.79999656	0.00000000	39.57308000	32.18504000
60.99999655	0.00000000	39.94832000	36.74335000
61.19999654	0.00000000	40.73573000	37.89985000
61.39999653	0.00000000	41.48622000	35.20546000
61.59999651	0.00000000	42.27362000	29.44759000
61.79999650	0.00000000	42.59965000	22.10261000
61.99999649	0.00000000	42.22441000	14.76378000
62.19999648	0.00000000	41.11097000	8.99975300
62.39999647	0.00000000	39.94832000	6.35457700
62.59999645	0.00000000	39.15477000	7.88631800
62.79999644	0.00000000	38.41658000	13.22589000
62.99999643	0.00000000	38.45964000	20.52780000
63.19999642	0.00000000	39.57308000	27.86663000
63.39999641	0.00000000	41.11097000	33.67372000
63.59999639	0.00000000	42.64886000	36.78642000
63.79999638	0.00000000	43.76230000	36.78642000
63.99999637	0.00000000	43.76230000	33.67372000
64.19999636	0.00000000	42.64886000	27.90969000
64.39999635	0.00000000	41.15403000	20.98917000
64.59999634	0.00000000	39.94832000	14.80684000
64.79999632	0.00000000	39.15477000	10.53765000
64.99999631	0.00000000	38.41658000	8.95669300
65.19999630	0.00000000	38.41658000	10.07013000
65.39999629	0.00000000	39.15477000	13.18282000
65.59999628	0.00000000	39.94832000	17.78420000
65.79999626	0.00000000	41.11097000	22.84695000
65.99999625	0.00000000	42.22441000	27.12229000
66.19999624	0.00000000	42.59965000	30.60408000
66.39999623	0.00000000	42.22441000	32.13582000
66.59999622	0.00000000	41.06791000	31.48991000
66.79999620	0.00000000	39.57308000	29.95201000
66.99999619	0.00000000	38.45964000	27.95891000
67.19999618	0.00000000	38.45964000	25.21530000
67.39999617	0.00000000	39.62229000	22.10261000
67.59999616	0.00000000	41.52928000	18.98991000
67.79999615	0.00000000	43.85457000	16.25246000
67.99999613	0.00000000	45.71850000	14.34547000
68.19999612	0.00000000	46.50590000	13.55807000
68.39999611	0.00000000	45.71850000	14.38853000
68.59999610	0.00000000	43.76230000	16.67077000
68.79999609	0.00000000	40.64345000	20.23868000
68.99999607	0.00000000	36.82948000	24.47712000
69.19999606	0.00000000	33.75369000	29.11540000
69.39999605	-0.15871060	32.22195000	32.56028000
69.59999604	0.00000000	32.64025000	34.14124000
69.79999603	0.00000000	35.34079000	33.71678000
69.99999601	0.00000000	39.62229000	30.97933000
70.19999600	0.00000000	44.64813000	26.37795000
70.39999599	0.00000000	49.62475000	20.94611000
70.59999598	0.00000000	52.69439000	15.96334000
70.79999597	0.00000000	53.11269000	12.43848000
70.99999596	0.00000000	51.15649000	11.31890000
71.19999594	0.00000000	46.88115000	12.43848000
71.39999593	-0.15871060	41.11097000	15.96334000
71.59999592	0.00000000	35.29773000	20.89690000
71.79999591	0.00000000	30.68405000	25.95964000
71.99999590	0.00000000	28.40797000	29.82283000
72.19999588	0.00000000	29.52141000	32.14198000
72.39999587	0.00000000	33.33538000	32.14198000
72.59999586	0.00000000	38.41043000	29.90895000
72.79999585	0.00000000	44.22982000	26.79626000
72.99999584	0.00000000	49.57554000	23.35138000
73.19999582	0.00000000	52.69439000	20.29404000
73.39999581	0.00000000	53.11269000	19.12524000
73.59999580	0.00000000	51.20571000	19.41437000
73.79999579	0.00000000	47.29946000	20.57087000
73.99999578	0.00000000	42.31668000	22.05955000
74.19999577	0.00000000	37.29700000	23.21604000
74.39999575	0.00000000	33.84596000	23.64050000
74.59999574	0.00000000	32.64025000	23.64050000
74.79999573	0.00000000	33.75369000	23.21604000
74.99999572	0.00000000	36.41117000	22.10261000
75.19999571	0.00000000	39.53002000	21.03838000
75.39999569	0.00000000	42.64886000	21.03838000
75.59999568	0.00000000	45.30019000	22.19488000
75.79999567	0.00000000	46.50590000	24.14493000
75.99999566	0.00000000	46.18602000	26.79626000
76.19999565	0.00000000	45.38631000	29.02928000
76.39999563	0.00000000	43.85457000	29.44759000
76.59999562	0.00000000	41.99680000	28.28494000
76.79999561	0.00000000	41.20325000	25.91043000
76.99999560	0.00000000	41.11097000	22.05955000
77.19999559	0.00000000	41.11097000	17.83341000
77.39999558	0.00000000	41.11097000	14.38853000
77.59999556	0.00000000	41.11097000	12.48770000
77.79999555	0.00000000	41.06791000	13.26895000
77.99999554	0.00000000	40.69267000	16.29552000
78.19999553	0.00000000	39.90526000	20.57087000
78.39999552	0.00000000	39.19783000	25.22145000
78.59999550	0.00000000	38.83489000	29.49065000
78.79999549	0.00000000	39.62229000	32.51722000
78.99999548	0.00000000	41.11097000	33.29847000
79.19999547	0.00000000	42.73499000	31.39763000
79.39999546	0.00000000	44.64813000	27.95275000
79.59999544	0.00000000	46.50590000	23.64050000
79.79999543	0.00000000	46.88115000	19.03912000
79.99999542	0.00000000	45.76156000	15.18209000
80.19999541	0.00000000	43.80536000	13.27510000
80.39999540	0.00000000	41.11097000	13.60113000
80.59999539	0.00000000	38.41658000	15.87721000
80.79999537	0.00000000	36.50344000	18.94685000
80.99999536	0.00000000	35.71604000	22.10261000
81.19999535	0.00000000	36.50344000	25.21530000
81.39999534	0.00000000	38.41658000	27.90969000
81.59999533	0.00000000	41.15403000	29.49065000
81.79999531	0.00000000	44.18061000	29.90895000
81.99999530	0.00000000	46.46284000	29.49065000
82.19999529	0.00000000	46.92421000	27.95891000
82.39999528	0.00000000	46.18602000	25.63976000
82.59999527	0.00000000	44.96801000	23.26525000
82.79999525	0.00000000	42.69193000	20.52780000
82.99999524	0.00000000	40.41584000	17.87647000
83.19999523	0.00000000	39.24704000	16.29552000
83.39999522	0.00000000	38.78568000	15.87721000
83.59999521	0.00000000	39.19783000	16.29552000
83.79999520	0.00000000	39.94832000	17.87647000
83.99999518	0.00000000	41.11097000	20.61393000
84.19999517	0.00000000	42.22441000	24.10187000
84.39999516	0.00000000	42.64886000	27.95275000
84.59999515	0.00000000	42.69193000	31.02239000
84.79999514	0.00000000	42.69193000	32.56028000
84.99999512	0.00000000	42.69193000	32.14198000
85.19999511	0.00000000	42.69193000	29.44759000
85.39999510	0.00000000	42.69193000	25.22145000
85.59999509	0.00000000	42.69193000	20.61393000
85.79999508	0.00000000	42.69193000	16.71383000
85.99999506	0.00000000	42.69193000	14.38853000
86.19999505	0.00000000	42.64886000	13.65034000
86.39999504	0.00000000	42.22441000	15.22515000
86.59999503	0.00000000	41.11097000	19.03912000
86.79999502	0.00000000	39.99754000	23.64050000
86.99999501	0.00000000	39.57308000	27.90969000
87.19999499	0.00000000	39.57308000	31.02239000
87.39999498	0.00000000	39.99754000	32.56028000
87.59999497	0.00000000	41.15403000	32.14198000
87.79999496	0.00000000	42.69193000	29.40452000
87.99999495	0.00000000	44.22982000	24.84621000
88.19999493	0.00000000	45.34325000	19.82652000
88.39999492	0.00000000	45.38631000	16.01255000
88.59999491	0.00000000	44.64813000	14.06865000
88.79999490	0.00000000	43.85457000	14.84990000
88.99999489	0.00000000	42.69193000	17.91953000
89.19999487	0.00000000	41.52928000	22.52091000
89.39999486	0.00000000	40.73573000	27.49138000
89.59999485	0.00000000	39.99754000	30.97933000
89.79999484	0.00000000	39.99754000	32.51107000
89.99999483	0.00000000	40.73573000	31.71752000
90.19999482	0.00000000	41.52928000	28.28494000
90.39999480	0.00000000	42.64886000	23.68356000
90.59999479	0.00000000	43.38705000	19.03912000
90.79999478	0.00000000	43.06717000	15.22515000
90.99999477	0.00000000	42.73499000	13.69340000
91.19999476	0.00000000	42.69193000	14.84990000
91.39999474	0.00000000	42.69193000	18.29478000
91.59999473	0.00000000	42.69193000	23.26525000
91.79999472	0.00000000	42.73499000	27.86663000
91.99999471	0.00000000	43.11023000	30.97933000
92.19999470	0.00000000	43.80536000	32.13582000
92.39999468	0.00000000	43.76230000	30.93627000
92.59999467	0.00000000	42.69193000	27.49138000
92.79999466	0.00000000	41.52928000	22.52091000
92.99999465	0.00000000	40.73573000	17.91953000
93.19999464	0.00000000	39.94832000	14.84990000
93.39999463	0.00000000	39.57308000	14.06865000
93.59999461	0.00000000	39.62229000	15.96334000
93.79999460	0.00000000	40.41584000	19.40822000
93.99999459	0.00000000	42.31668000	23.64050000
94.19999458	0.00000000	44.22982000	27.49138000
94.39999457	0.00000000	45.85384000	29.77362000
94.59999455	0.00000000	47.34252000	30.18578000
94.79999454	0.00000000	48.04380000	28.24188000
94.99999453	0.00000000	46.88115000	24.84621000
95.19999452	0.00000000	44.22982000	20.98917000
95.39999451	0.00000000	41.11097000	17.91953000
95.59999449	0.00000000	38.04134000	16.33858000
95.79999448	0.00000000	35.71604000	16.33858000
95.99999447	0.00000000	34.92249000	17.91953000
96.19999446	0.00000000	35.34079000	20.94611000
96.39999445	0.00000000	37.29700000	24.37869000
96.59999444	0.00000000	40.77879000	26.70398000
96.79999442	0.00000000	44.60506000	27.90969000
96.99999441	0.00000000	48.12992000	27.86663000
97.19999440	0.00000000	50.41830000	26.37795000
97.39999439	0.00000000	51.20571000	24.10187000
97.59999438	0.00000000	50.04306000	22.15182000
97.79999436	0.00000000	47.34252000	20.57087000
97.99999435	0.00000000	43.85457000	19.45743000
98.19999434	0.00000000	39.94832000	19.45743000
98.39999433	0.00000000	36.50344000	20.57087000
98.59999432	0.00000000	34.17815000	22.05955000
98.79999430	0.00000000	33.84596000	23.21604000
98.99999429	0.00000000	35.71604000	23.68356000
99.19999428	0.00000000	39.15477000	24.10187000
99.39999427	0.00000000	42.64886000	24.84621000
99.59999426	0.00000000	45.81078000	25.22145000
99.79999425	-0.15871060	48.50517000	25.26452000
99.99999423	0.00000000	50.04306000	25.26452000
100.19999422	0.00000000	50.04306000	25.30758000
100.39999421	0.00000000	48.50517000	25.63976000
100.59999420	0.00000000	45.81078000	25.95964000
100.79999419	0.00000000	42.73499000	25.17224000
100.99999417	0.00000000	39.99754000	23.68356000
101.19999416	0.00000000	38.04134000	22.10261000
101.39999415	0.00000000	36.87869000	20.57087000
101.59999414	0.00000000	36.87869000	19.45743000
101.79999413	0.00000000	38.04134000	19.50049000
101.99999411	0.00000000	39.99754000	20.98917000
102.19999410	-0.15871060	42.69193000	23.30832000
102.39999409	0.00000000	45.38631000	25.63976000
102.59999408	0.00000000	47.29946000	28.00197000
102.79999407	0.00000000	48.12992000	29.86589000
102.99999406	0.00000000	47.76698000	30.60408000
103.19999404	0.00000000	46.96727000	29.39837000
103.39999403	0.00000000	45.38631000	26.37795000
103.59999402	0.00000000	43.11023000	22.57013000
103.79999401	0.00000000	41.15403000	19.50049000
103.99999400	0.00000000	39.62229000	17.87647000
104.19999398	0.00000000	38.83489000	17.50123000
104.39999397	0.00000000	39.19783000	18.29478000
104.59999396	0.00000000	39.94832000	20.61393000
104.79999395	0.00000000	41.15403000	23.64050000
104.99999394	0.00000000	42.69193000	26.37795000
105.19999392	0.00000000	44.22982000	28.28494000
105.39999391	0.00000000	45.38631000	29.07234000
105.59999390	0.00000000	45.76156000	28.28494000
105.79999389	0.00000000	45.38631000	26.42101000
105.99999388	0.00000000	44.22982000	24.10187000
106.19999387	0.00000000	42.73499000	22.15182000
106.39999385	0.00000000	41.57849000	20.57087000
106.59999384	0.00000000	41.15403000	19.50049000
106.79999383	0.00000000	41.15403000	19.87574000
106.99999382	0.00000000	41.57849000	21.72736000
107.19999381	0.00000000	42.69193000	23.64050000
107.39999379	0.00000000	43.85457000	25.17224000
107.59999378	0.00000000	44.60506000	26.00270000
107.79999377	0.00000000	44.96801000	25.96580000
107.99999376	0.00000000	44.22982000	25.58440000
108.19999375	0.00000000	43.11023000	24.00960000
108.39999374	0.00000000	42.31668000	22.19488000
108.59999372	0.00000000	41.52928000	20.98917000
108.79999371	0.00000000	41.15403000	20.62008000
108.99999370	0.00000000	41.15403000	20.98917000
109.19999369	0.00000000	41.57849000	22.15182000
109.39999368	0.00000000	42.69193000	23.68356000
109.59999366	0.00000000	43.85457000	25.21530000
109.79999365	0.00000000	44.64813000	26.37795000
109.99999364	0.00000000	45.38631000	26.74705000
110.19999363	0.00000000	45.34325000	26.37795000
110.39999362	0.00000000	44.27288000	25.21530000
110.59999360	0.00000000	43.11023000	23.68356000
110.79999359	0.00000000	42.31668000	22.15182000
110.99999358	0.00000000	41.52928000	20.94611000
111.19999357	0.00000000	41.15403000	20.19562000
111.39999356	0.00000000	41.15403000	19.83268000
111.59999355	0.00000000	41.52928000	20.57087000
111.79999353	0.00000000	42.27362000	21.68430000
111.99999352	0.00000000	42.69193000	22.52091000
112.19999351	0.00000000	43.11023000	23.68356000
112.39999350	0.00000000	43.85457000	24.79700000
112.59999349	0.00000000	44.22982000	25.22145000
112.79999347	0.00000000	44.27288000	25.22145000
112.99999346	0.00000000	44.22982000	24.84621000
113.19999345	0.00000000	43.85457000	24.10187000
113.39999344	0.00000000	43.11023000	23.72662000
113.59999343	0.00000000	42.73499000	23.64050000
113.79999341	0.00000000	42.69193000	23.26525000
113.99999340	0.00000000	42.69193000	22.52091000
114.19999339	0.00000000	42.69193000	22.14567000
114.39999338	0.00000000	42.69193000	22.10261000
114.59999337	0.00000000	42.69193000	22.10261000
114.79999336	0.00000000	42.69193000	22.10261000
114.99999334	0.00000000	42.73499000	22.10261000
115.19999333	0.00000000	43.11023000	22.14567000
115.39999332	0.00000000	43.85457000	22.57013000
115.59999331	0.00000000	44.22982000	23.68356000
115.79999330	0.00000000	44.22982000	24.79700000
115.99999328	0.00000000	43.85457000	25.22145000
116.19999327	0.00000000	43.11023000	25.30758000
116.39999326	0.00000000	42.73499000	25.63976000
116.59999325	0.00000000	42.69193000	26.00270000
116.79999324	0.00000000	42.69193000	25.59055000
116.99999322	0.00000000	42.73499000	24.84621000
117.19999321	0.00000000	43.11023000	23.68356000
117.39999320	0.00000000	43.89763000	22.57013000
117.59999319	0.00000000	44.64813000	22.14567000
117.79999318	0.00000000	45.43553000	22.10261000
117.99999317	0.00000000	45.76156000	22.14567000
118.19999315	0.00000000	45.43553000	22.52091000
118.39999314	0.00000000	44.64813000	23.30832000
118.59999313	0.00000000	43.85457000	24.05881000
118.79999312	0.00000000	42.69193000	24.88927000
118.99999311	0.00000000	41.57849000	25.59055000
119.19999309	0.00000000	41.15403000	26.00270000
119.39999308	0.00000000	41.15403000	25.63976000
119.59999307	0.00000000	41.57849000	25.26452000
119.79999306	0.00000000	42.73499000	24.84621000
119.99999305	0.00000000	44.27288000	24.10187000
120.19999303	0.00000000	45.81078000	23.68356000
120.39999302	0.00000000	46.92421000	23.26525000
120.59999301	0.00000000	46.96727000	22.52091000
120.79999300	0.00000000	46.22908000	22.19488000
120.99999299	0.00000000	45.43553000	22.52091000
121.19999298	0.00000000	44.27288000	23.26525000
121.39999296	0.00000000	43.11023000	23.64050000
121.59999295	0.00000000	42.31668000	23.68356000
121.79999294	-0.15871060	41.52928000	23.68356000
121.99999293	0.00000000	41.15403000	23.68356000
122.19999292	0.00000000	41.15403000	23.72662000
122.39999290	0.00000000	41.57849000	24.10187000
122.59999289	0.00000000	42.73499000	24.84621000
122.79999288	0.00000000	44.22982000	25.17224000
122.99999287	-0.15871060	45.38631000	24.84621000
123.19999286	0.00000000	45.81078000	24.10187000
123.39999284	0.00000000	45.85384000	23.68356000
123.59999283	0.00000000	45.85384000	23.30832000
123.79999282	0.00000000	45.81078000	22.89616000
123.99999281	0.00000000	45.38631000	22.89001000
124.19999280	0.00000000	44.27288000	22.47785000
124.39999279	0.00000000	43.11023000	22.14567000
124.59999277	0.00000000	42.31668000	22.14567000
124.79999276	0.00000000	41.52928000	22.52091000
124.99999275	0.00000000	41.15403000	23.30832000
125.19999274	0.00000000	41.15403000	24.05881000
125.39999273	0.00000000	41.57849000	24.84621000
125.59999271	0.00000000	42.69193000	25.22145000
125.79999270	0.00000000	43.85457000	25.26452000
125.99999269	0.00000000	44.64813000	25.26452000
126.19999268	0.00000000	45.43553000	25.22145000
126.39999267	0.00000000	45.81078000	24.79700000
126.59999265	0.00000000	45.81078000	23.68356000
126.79999264	0.00000000	45.38631000	22.57013000
126.99999263	0.00000000	44.22982000	22.14567000
127.19999262	0.00000000	42.73499000	22.10261000
127.39999261	0.00000000	41.57849000	22.10261000
127.59999260	0.00000000	41.15403000	22.14567000
127.79999258	0.00000000	41.15403000	22.52091000
127.99999257	0.00000000	41.57849000	23.26525000
128.19999256	0.00000000	42.69193000	23.64050000
128.39999255	0.00000000	43.85457000	23.72662000
128.59999254	0.00000000	44.64813000	24.05881000
128.79999252	0.00000000	45.43553000	24.42790000
128.99999251	0.00000000	45.76156000	24.05881000
129.19999250	0.00000000	45.43553000	23.72662000
129.39999249	0.00000000	44.64813000	23.68356000
129.59999248	0.00000000	43.85457000	23.68356000
129.79999246	0.00000000	42.69193000	23.68356000
129.99999245	0.00000000	41.62155000	23.68356000
130.19999244	0.00000000	41.57849000	23.72662000
130.39999243	0.00000000	42.31668000	24.10187000
130.59999242	0.00000000	43.06717000	24.84621000
130.79999241	0.00000000	43.89763000	25.22145000
130.99999239	0.00000000	44.64813000	25.26452000
131.19999238	0.00000000	45.43553000	25.22145000
131.39999237	0.00000000	45.81078000	24.84621000
131.59999236	0.00000000	45.81078000	24.10187000
131.79999235	0.00000000	45.43553000	23.72662000
131.99999233	0.00000000	44.69119000	23.68356000
132.19999232	0.00000000	44.27288000	23.68356000
132.39999231	0.00000000	43.85457000	23.68356000
132.59999230	0.00000000	43.15945000	23.72662000
132.79999229	0.00000000	43.15945000	24.10187000
132.99999227	0.00000000	43.85457000	24.88927000
133.19999226	0.00000000	44.22982000	25.63976000
133.39999225	0.00000000	44.27288000	26.37795000
133.59999224	0.00000000	44.27288000	26.37795000
133.79999223	0.00000000	44.27288000	25.68282000
133.99999222	0.00000000	44.27288000	25.26452000
134.19999220	0.00000000	44.27288000	24.79700000
134.39999219	0.00000000	44.31594000	23.68356000
134.59999218	0.00000000	44.69119000	22.57013000
134.79999217	0.00000000	45.43553000	22.14567000
134.99999216	0.00000000	45.81078000	22.14567000
135.19999214	0.00000000	45.81078000	22.52091000
135.39999213	0.00000000	45.43553000	23.30832000
135.59999212	0.00000000	44.69119000	24.05881000
135.79999211	-0.15871060	44.27288000	24.84621000
135.99999210	0.00000000	43.85457000	25.22145000
136.19999208	0.00000000	43.11023000	25.26452000
136.39999207	0.00000000	42.73499000	25.22145000
136.59999206	0.00000000	42.73499000	24.84621000
136.79999205	0.00000000	43.11023000	24.10187000
136.99999204	0.00000000	43.89763000	23.72662000
137.19999203	0.00000000	44.64813000	23.64050000
137.39999201	0.00000000	45.43553000	23.26525000
137.59999200	0.00000000	45.81078000	22.52091000
137.79999199	0.00000000	45.81078000	22.14567000
137.99999198	0.00000000	45.43553000	22.10261000
138.19999197	0.00000000	44.64813000	22.14567000
138.39999195	0.00000000	43.89763000	22.52091000
138.59999194	0.00000000	43.11023000	23.26525000
138.79999193	0.00000000	42.73499000	23.68356000
138.99999192	0.00000000	42.69193000	24.10187000
139.19999191	0.00000000	42.73499000	24.84621000
139.39999189	0.00000000	43.11023000	25.22145000
139.59999188	0.00000000	43.85457000	25.22145000
139.79999187	0.00000000	44.22982000	24.84621000
139.99999186	0.00000000	44.31594000	24.10187000
140.19999185	0.00000000	44.64813000	23.68356000
140.39999184	0.00000000	45.01722000	23.26525000
140.59999182	0.00000000	44.64813000	22.52091000
140.79999181	0.00000000	44.31594000	22.14567000
140.99999180	0.00000000	44.22982000	22.14567000
141.19999179	0.00000000	43.89763000	22.52091000
141.39999178	0.00000000	43.52854000	23.30832000
141.59999176	0.00000000	43.89763000	24.05881000
141.79999175	0.00000000	44.22982000	24.84621000
141.99999174	0.00000000	44.31594000	25.22145000
142.19999173	0.00000000	44.69119000	25.26452000
142.39999172	0.00000000	45.38631000	25.22145000
142.59999170	0.00000000	45.38631000	24.84621000
142.79999169	0.00000000	44.69119000	24.05881000
142.99999168	0.00000000	44.31594000	23.30832000
143.19999167	0.00000000	44.27288000	22.52091000
143.39999166	0.00000000	44.27288000	22.19488000
143.59999165	0.00000000	44.27288000	22.52091000
143.79999163	0.00000000	44.27288000	23.26525000
143.99999162	0.00000000	44.31594000	23.68356000
144.19999161	0.00000000	44.69119000	24.10187000
144.39999160	0.00000000	45.43553000	24.84621000
144.59999159	0.00000000	45.81078000	25.22145000
144.79999157	0.00000000	45.81078000	25.26452000
144.99999156	0.00000000	45.43553000	25.26452000
145.19999155	0.00000000	44.69119000	25.22145000
145.39999154	0.00000000	44.31594000	24.84621000
145.59999153	0.00000000	44.27288000	24.10187000
145.79999151	0.00000000	44.27288000	23.72662000
145.99999150	0.00000000	44.27288000	23.68356000
146.19999149	0.00000000	44.27288000	23.68356000
146.39999148	0.00000000	44.31594000	23.68356000
146.59999147	0.00000000	44.69119000	23.68356000
146.79999146	0.00000000	45.43553000	23.72662000
146.99999144	0.00000000	45.81078000	24.10187000
147.19999143	0.00000000	45.85384000	24.84621000
147.39999142	0.00000000	45.81078000	25.22145000
147.59999141	0.00000000	45.43553000	25.26452000
147.79999140	0.00000000	44.69119000	25.26452000
147.99999138	0.00000000	44.31594000	25.26452000
148.19999137	-0.15871060	44.27288000	25.22145000
148.39999136	0.00000000	44.27288000	24.84621000
148.59999135	0.00000000	44.27288000	24.10187000
148.79999134	0.00000000	44.31594000	23.72662000
148.99999132	0.00000000	44.69119000	23.68356000
149.19999131	0.00000000	45.43553000	23.68356000
149.39999130	0.00000000	45.81078000	23.68356000
149.59999129	0.00000000	45.85384000	23.72662000
149.79999128	0.00000000	45.85384000	24.10187000
149.99999127	0.00000000	45.85384000	24.84621000
150.19999125	0.00000000	45.81078000	25.22145000
150.39999124	0.00000000	45.43553000	25.26452000
150.59999123	0.00000000	44.69119000	25.26452000
150.79999122	0.00000000	44.31594000	25.26452000
150.99999121	0.00000000	44.27288000	25.26452000
151.19999119	0.00000000	44.27288000	25.22145000
151.39999118	0.00000000	44.27288000	24.84621000
151.59999117	0.00000000	44.31594000	24.10187000
151.79999116	0.00000000	44.69119000	23.72662000
151.99999115	0.00000000	45.43553000	23.68356000
152.19999113	0.00000000	45.81078000	23.68356000
152.39999112	0.00000000	45.85384000	23.68356000
152.59999111	0.00000000	45.85384000	23.68356000
152.79999110	0.00000000	45.85384000	23.72662000
152.99999109	0.00000000	45.85384000	24.10187000
153.19999108	0.00000000	45.81078000	24.84621000
153.39999106	0.00000000	45.43553000	25.22145000
153.59999105	0.00000000	44.69119000	25.26452000
153.79999104	0.00000000	44.31594000	25.26452000
153.99999103	0.00000000	44.27288000	25.26452000
154.19999102	0.00000000	44.27288000	25.22145000
154.39999100	0.00000000	44.27288000	24.84621000
154.59999099	0.00000000	44.31594000	24.10187000
154.79999098	0.00000000	44.69119000	23.72662000
154.99999097	0.00000000	45.43553000	23.68356000
155.19999096	0.00000000	45.81078000	23.68356000
155.39999094	0.00000000	45.85384000	23.68356000
155.59999093	0.00000000	45.85384000	23.68356000
155.79999092	0.00000000	45.81078000	23.68356000
155.99999091	0.00000000	45.47859000	23.72662000
156.19999090	0.00000000	45.06644000	24.10187000
156.39999089	0.00000000	45.06028000	24.84621000
156.59999087	0.00000000	44.64813000	25.22145000
156.79999086	0.00000000	44.31594000	25.26452000
156.99999085	0.00000000	44.27288000	25.26452000
157.19999084	0.00000000	44.27288000	25.22145000
157.39999083	0.00000000	44.27288000	24.84621000
157.59999081	0.00000000	44.31594000	24.10187000
157.79999080	0.00000000	44.69119000	23.72662000
157.99999079	0.00000000	45.43553000	23.68356000
158.19999078	0.00000000	45.81078000	23.68356000
158.39999077	0.00000000	45.85384000	23.68356000
158.59999075	0.00000000	45.85384000	23.68356000
158.79999074	0.00000000	45.85384000	23.72662000
158.99999073	0.00000000	45.81078000	24.10187000
159.19999072	0.00000000	45.43553000	24.84621000
159.39999071	0.00000000	44.69119000	25.22145000
159.59999070	0.00000000	44.36515000	25.26452000
159.79999068	0.00000000	44.64813000	25.26452000
159.99999067	0.00000000	45.01722000	25.26452000
160.19999066	0.00000000	44.64813000	25.22145000
160.39999065	0.00000000	44.31594000	24.84621000
160.59999064	0.00000000	44.31594000	24.10187000
160.79999062	0.00000000	44.69119000	23.72662000
160.99999061	0.00000000	45.43553000	23.68356000
161.19999060	0.00000000	45.81078000	23.68356000
161.39999059	0.00000000	45.85384000	23.68356000
161.59999058	0.00000000	45.85384000	23.72662000
161.79999056	0.00000000	45.85384000	24.10187000
161.99999055	0.00000000	45.85384000	24.84621000
162.19999054	0.00000000	45.85384000	25.22145000
162.39999053	0.00000000	45.85384000	25.26452000
162.59999052	0.00000000	45.85384000	25.26452000
162.79999051	0.00000000	45.81078000	25.26452000
162.99999049	0.00000000	45.43553000	25.26452000
163.19999048	0.00000000	44.69119000	25.26452000
163.39999047	0.00000000	44.31594000	25.26452000
163.59999046	0.00000000	44.31594000	25.26452000
163.79999045	0.00000000	44.69119000	25.26452000
163.99999043	0.00000000	45.43553000	25.26452000
164.19999042	0.00000000	45.81078000	25.26452000
164.39999041	0.00000000	45.85384000	25.22145000
164.59999040	0.00000000	45.85384000	24.88927000
164.79999039	0.00000000	45.89690000	24.52018000
164.99999037	0.00000000	46.22908000	24.88927000
165.19999036	0.00000000	46.59818000	25.22145000
165.39999035	0.00000000	46.22908000	25.26452000
165.59999034	0.00000000	45.89690000	25.26452000
165.79999033	0.00000000	45.81078000	25.26452000
165.99999032	0.00000000	45.43553000	25.26452000
166.19999030	0.00000000	44.74040000	25.26452000
166.39999029	0.00000000	44.74040000	25.22145000
166.59999028	0.00000000	45.43553000	24.88927000
166.79999027	0.00000000	45.81078000	24.52018000
166.99999026	0.00000000	45.85384000	24.88927000
167.19999024	0.00000000	45.89690000	25.17224000
167.39999023	0.00000000	46.22908000	24.84621000
167.59999022	0.00000000	46.59818000	24.10187000
167.79999021	-0.15871060	46.22908000	23.72662000
167.99999020	0.00000000	45.89690000	23.72662000
168.19999018	0.00000000	45.85384000	24.10187000
168.39999017	0.00000000	45.85384000	24.84621000
168.59999016	0.00000000	45.85384000	25.22145000
168.79999015	0.00000000	45.85384000	25.26452000
168.99999014	0.00000000	45.85384000	25.26452000
169.19999013	0.00000000	45.85384000	25.22145000
169.39999011	0.00000000	45.85384000	24.84621000
169.59999010	0.00000000	45.85384000	24.15108000
169.79999009	0.00000000	45.85384000	24.10187000
169.99999008	0.00000000	45.81078000	24.42790000
170.19999007	0.00000000	45.47859000	24.05881000
170.39999005	0.00000000	45.10950000	23.72662000
170.59999004	0.00000000	45.47859000	23.72662000
170.79999003	0.00000000	45.81078000	24.05881000
170.99999002	0.00000000	45.85384000	24.42790000
171.19999001	0.00000000	45.85384000	24.05881000
171.39998999	0.00000000	45.85384000	23.72662000
171.59998998	0.00000000	45.85384000	23.68356000
171.79998997	0.00000000	45.85384000	23.68356000
171.99998996	0.00000000	45.85384000	23.68356000
172.19998995	0.00000000	45.81078000	23.68356000
172.39998994	0.00000000	45.47859000	23.72662000
172.59998992	0.00000000	45.10950000	24.05881000
172.79998991	0.00000000	45.47859000	24.42790000
172.99998990	0.00000000	45.81078000	24.05881000
173.19998989	0.00000000	45.85384000	23.72662000
173.39998988	0.00000000	45.85384000	23.68356000
173.59998986	0.00000000	45.85384000	23.68356000
173.79998985	0.00000000	45.85384000	23.68356000
173.99998984	0.00000000	45.85384000	23.68356000
174.19998983	0.00000000	45.85384000	23.68356000
174.39998982	0.00000000	45.85384000	23.72662000
174.59998980	0.00000000	45.85384000	24.10187000
174.79998979	0.00000000	45.85384000	24.79700000
174.99998978	0.00000000	45.85384000	24.84621000
175.19998977	0.00000000	45.85384000	24.52018000
175.39998976	0.00000000	45.85384000	24.88927000
175.59998975	0.00000000	45.85384000	25.22145000
175.79998973	0.00000000	45.85384000	25.26452000
175.99998972	0.00000000	45.85384000	25.26452000
176.19998971	0.00000000	45.85384000	25.26452000
176.39998970	0.00000000	45.85384000	25.26452000
176.59998969	0.00000000	45.85384000	25.26452000
176.79998967	0.00000000	45.85384000	25.26452000
176.99998966	0.00000000	45.85384000	25.26452000
177.19998965	0.00000000	45.85384000	25.26452000
177.39998964	0.00000000	45.85384000	25.26452000
177.59998963	0.00000000	45.85384000	25.26452000
177.79998961	0.00000000	45.85384000	25.26452000
177.99998960	0.00000000	45.85384000	25.26452000
178.19998959	0.00000000	45.85384000	25.26452000
178.39998958	0.00000000	45.85384000	25.26452000
178.59998957	0.00000000	45.85384000	25.26452000
178.79998956	0.00000000	45.85384000	25.26452000
178.99998954	0.00000000	45.85384000	25.26452000
179.19998953	0.00000000	45.89690000	25.26452000
179.39998952	0.00000000	46.27214000	25.26452000
179.59998951	0.00000000	46.96727000	25.26452000
179.79998950	0.00000000	46.96727000	25.22145000
179.99998948	0.00000000	46.32135000	24.88927000
180.19998947	0.00000000	46.27214000	24.52018000
180.39998946	0.00000000	46.59818000	24.88927000
180.59998945	0.00000000	46.22908000	25.22145000
180.79998944	0.00000000	45.89690000	25.26452000
180.99998942	0.00000000	45.85384000	25.26452000
181.19998941	0.00000000	45.85384000	25.26452000
181.39998940	0.00000000	45.85384000	25.26452000
181.59998939	0.00000000	45.85384000	25.26452000
181.79998938	0.00000000	45.85384000	25.26452000
181.99998937	0.00000000	45.89690000	25.26452000
182.19998935	0.00000000	46.27214000	25.26452000
182.39998934	0.00000000	47.01648000	25.26452000
182.59998933	0.00000000	47.39173000	25.22145000
182.79998932	0.00000000	47.43479000	24.84621000
182.99998931	0.00000000	47.39173000	24.15108000
183.19998929	0.00000000	47.01648000	24.15108000
183.39998928	0.00000000	46.27214000	24.84621000
183.59998927	0.00000000	45.89690000	25.22145000
183.79998926	0.00000000	45.85384000	25.26452000
183.99998925	0.00000000	45.85384000	25.26452000
184.19998923	0.00000000	45.85384000	25.26452000
184.39998922	0.00000000	45.85384000	25.26452000
184.59998921	0.00000000	45.85384000	25.26452000
184.79998920	0.00000000	45.85384000	25.22145000
184.99998919	0.00000000	45.89690000	24.84621000
185.19998918	0.00000000	46.22908000	24.10187000
185.39998916	0.00000000	46.64124000	23.72662000
185.59998915	0.00000000	46.64739000	23.68356000
185.79998914	0.00000000	47.05954000	23.68356000
185.99998913	0.00000000	47.34252000	23.68356000
186.19998912	0.00000000	47.01648000	23.68356000
186.39998910	0.00000000	46.27214000	23.68356000
186.59998909	0.00000000	45.89690000	23.68356000
186.79998908	0.00000000	45.85384000	23.72662000
186.99998907	0.00000000	45.85384000	24.10187000
187.19998906	0.00000000	45.85384000	24.84621000
187.39998904	0.00000000	45.89690000	25.22145000
187.59998903	0.00000000	46.27214000	25.26452000
187.79998902	0.00000000	47.01648000	25.26452000
187.99998901	0.00000000	47.39173000	25.26452000
188.19998900	0.00000000	47.43479000	25.22145000
188.39998899	0.00000000	47.43479000	24.84621000
188.59998897	0.00000000	47.39173000	24.10187000
188.79998896	0.00000000	47.05954000	23.77584000
188.99998895	0.00000000	46.69045000	24.05881000
189.19998894	0.00000000	47.05954000	24.42790000
189.39998893	0.00000000	47.34252000	24.10187000
189.59998891	0.00000000	47.01648000	24.15108000
189.79998890	0.00000000	46.27214000	24.84621000
189.99998889	0.00000000	45.94611000	25.22145000
190.19998888	0.00000000	46.22908000	25.26452000
190.39998887	0.00000000	46.64124000	25.26452000
190.59998885	0.00000000	46.64739000	25.26452000
190.79998884	0.00000000	47.05954000	25.26452000
190.99998883	0.00000000	47.39173000	25.26452000
191.19998882	0.00000000	47.43479000	25.26452000
191.39998881	0.00000000	47.43479000	25.26452000
191.59998880	0.00000000	47.43479000	25.26452000
191.79998878	0.00000000	47.43479000	25.26452000
191.99998877	0.00000000	47.43479000	25.26452000
192.19998876	0.00000000	47.43479000	25.26452000
192.39998875	0.00000000	47.43479000	25.26452000
192.59998874	0.00000000	47.39173000	25.26452000
192.79998872	0.00000000	47.01648000	25.26452000
192.99998871	0.00000000	46.27214000	25.26452000
193.19998870	0.00000000	45.94611000	25.26452000
193.39998869	0.00000000	46.27214000	25.26452000
193.59998868	0.00000000	47.01648000	25.26452000
193.79998866	0.00000000	47.39173000	25.26452000
193.99998865	0.00000000	47.43479000	25.26452000
194.19998864	0.00000000	47.43479000	25.26452000
194.39998863	0.00000000	47.43479000	25.26452000
194.59998862	-0.15871060	47.43479000	25.26452000
194.79998861	0.00000000	47.43479000	25.26452000
194.99998859	0.00000000	47.43479000	25.26452000
195.19998858	0.00000000	47.43479000	25.26452000
195.39998857	0.00000000	47.43479000	25.26452000
195.59998856	0.00000000	47.43479000	25.26452000
195.79998855	-0.15871060	47.43479000	25.26452000
195.99998853	0.00000000	47.43479000	25.26452000
