Time	Channel A	Channel B	Channel C
(us)	(V)	(mV)	(mV)

-4.49999956	0.00000000	-12.64764000	0.00000000
-4.29999957	0.00000000	-12.64764000	0.00000000
-4.09999958	0.00000000	-12.64764000	0.00000000
-3.89999959	0.00000000	-12.64764000	0.00000000
-3.69999960	0.00000000	-12.64764000	0.00000000
-3.49999962	0.00000000	-12.64764000	0.00000000
-3.29999963	0.00000000	-12.64764000	0.00000000
-3.09999964	0.00000000	-12.64764000	0.00000000
-2.89999965	0.00000000	-12.64764000	0.00000000
-2.69999966	0.00000000	-12.64764000	0.00000000
-2.49999968	0.00000000	-12.64764000	0.00000000
-2.29999969	0.00000000	-12.64764000	0.00000000
-2.09999970	0.00000000	-12.64764000	0.00000000
-1.89999971	0.00000000	-12.64764000	0.00000000
-1.69999972	0.00000000	-12.64764000	0.00000000
-1.49999973	0.00000000	-12.64764000	0.00000000
-1.29999975	0.00000000	-12.64764000	0.00000000
-1.09999976	0.00000000	-12.64764000	0.00000000
-0.89999977	0.00000000	-12.60458000	0.00000000
-0.69999978	0.00000000	-12.27239000	0.00000000
-0.49999979	0.00000000	-11.90330000	0.00000000
-0.29999981	0.31803640	-12.27239000	0.00000000
-0.09999982	0.63668800	-12.60458000	0.00000000
0.10000017	0.95533960	-12.64764000	0.00000000
0.30000016	0.95533960	-12.64764000	0.00000000
0.50000015	0.79601380	-12.64764000	0.00000000
0.70000013	0.15871060	-12.64764000	0.00000000
0.90000012	-0.63668800	-12.64764000	0.00000000
1.10000011	-1.75196900	-12.64764000	0.00000000
1.30000010	-2.54859700	-12.64764000	0.00000000
1.50000009	-2.86724900	-12.64764000	0.00000000
1.70000008	-2.22994600	-12.64764000	0.00000000
1.90000006	-0.95533960	-12.64764000	0.00000000
2.10000005	0.95533960	-12.64764000	0.00000000
2.30000004	3.02657500	-12.64764000	0.00000000
2.50000003	4.77854300	-12.64764000	0.00000000
2.70000002	5.41584600	-12.64764000	0.00000000
2.90000000	4.61921700	-12.64764000	0.00000000
3.09999999	2.38927200	-12.64764000	0.00000000
3.29999998	-0.79601380	-12.64764000	0.00000000
3.49999997	-4.14124000	-12.64764000	0.00000000
3.69999996	-6.84916400	-12.64764000	0.00000000
3.89999994	-8.12377000	-12.64764000	0.04306102
4.09999993	-7.16781500	-12.64764000	0.41830710
4.29999992	-4.30056600	-12.64764000	1.15649600
4.49999991	-0.15871060	-12.60458000	1.48253000
4.69999990	4.14124000	-12.27239000	1.15649600
4.89999989	7.64579200	-11.90330000	0.41830710
5.09999987	9.39837600	-12.27239000	0.04306102
5.29999986	8.76107300	-12.60458000	0.00000000
5.49999985	5.89382400	-12.64764000	0.00000000
5.69999984	1.43331700	-12.64764000	0.00000000
5.89999983	-3.34522600	-12.64764000	0.00000000
6.09999981	-7.16781500	-12.64764000	0.00000000
6.29999980	-9.39837600	-12.64764000	0.04306102
6.49999979	-9.07972400	-12.64764000	0.41830710
6.69999978	-6.53112700	-12.64764000	1.15649600
6.89999977	-2.70792300	-12.64764000	1.48253000
7.09999975	1.75196900	-12.64764000	1.15649600
7.29999974	5.41584600	-12.64764000	0.41830710
7.49999973	7.48646600	-12.64764000	0.04306102
7.69999972	7.48646600	-12.64764000	0.00000000
7.89999971	5.73449800	-12.64764000	0.00000000
8.09999970	2.86724900	-12.64764000	0.00000000
8.29999968	-0.47736220	-12.64764000	0.00000000
8.49999967	-3.34522600	-12.64764000	0.00000000
8.69999966	-4.93786900	-12.64764000	0.00000000
8.89999965	-5.09719500	-12.64764000	0.00000000
9.09999964	-4.14124000	-12.64764000	0.00000000
9.29999962	-2.22994600	-12.64764000	0.00000000
9.49999961	-0.31803640	-12.64764000	0.00000000
9.69999960	1.27399100	-12.64764000	0.00000000
9.89999959	2.38927200	-12.60458000	0.00000000
10.09999958	2.54859700	-12.27239000	0.00000000
10.29999956	2.07062000	-11.90330000	0.00000000
10.49999955	1.27399100	-12.27239000	0.00000000
10.69999954	0.31803640	-12.60458000	0.00000000
10.89999953	-0.31803640	-12.64764000	0.00000000
11.09999952	-0.79601380	-12.64764000	0.00000000
11.29999951	-0.95533960	-12.64764000	0.00000000
11.49999949	-0.95533960	-12.64764000	0.00000000
11.69999948	-0.63668800	-12.64764000	0.00000000
11.89999947	-0.31803640	-12.64764000	0.00000000
12.09999946	-0.15871060	-12.64764000	0.00000000
12.29999945	-0.15871060	-12.64764000	0.00000000
12.49999943	0.00000000	-12.64764000	0.00000000
12.69999942	0.00000000	-12.64764000	0.00000000
12.89999941	0.00000000	-12.64764000	0.00000000
13.09999940	0.00000000	-12.64764000	0.00000000
13.29999939	0.00000000	-12.64764000	0.00000000
13.49999937	0.00000000	-12.64764000	0.00000000
13.69999936	0.00000000	-12.64764000	0.00000000
13.89999935	-0.15871060	-12.64764000	0.00000000
14.09999934	-0.15871060	-12.64764000	0.00000000
14.29999933	-0.15871060	-12.64764000	0.00000000
14.49999932	-0.15871060	-12.64764000	0.00000000
14.69999930	-0.15871060	-12.64764000	0.00000000
14.89999929	0.00000000	-12.64764000	0.00000000
15.09999928	0.00000000	-12.60458000	0.04306102
15.29999927	0.00000000	-12.27239000	0.41830710
15.49999926	0.00000000	-11.90330000	1.11343500
15.69999924	0.00000000	-12.27239000	1.11343500
15.89999923	0.00000000	-12.60458000	0.41830710
16.09999922	0.00000000	-12.64764000	0.04306102
16.29999921	-0.15871060	-12.64764000	0.00000000
16.49999920	-0.15871060	-12.60458000	0.00000000
16.69999919	-0.15871060	-12.22933000	0.00000000
16.89999917	0.00000000	-11.48499000	0.00000000
17.09999916	0.00000000	-11.06668000	0.00000000
17.29999915	0.00000000	-10.69144000	0.00000000
17.49999914	0.00000000	-10.32234000	0.00000000
17.69999913	0.00000000	-10.73450000	0.00000000
17.89999911	0.00000000	-11.48499000	0.00000000
18.09999910	0.00000000	-12.69070000	0.00000000
18.29999909	0.00000000	-14.22859000	0.00000000
18.49999908	0.00000000	-15.76649000	0.00000000
18.69999907	-0.15871060	-16.92298000	0.00000000
18.89999905	-0.15871060	-17.29823000	0.00000000
19.09999904	0.00000000	-16.87992000	0.00000000
19.29999903	0.00000000	-15.25591000	0.00000000
19.49999902	0.00000000	-12.18012000	0.00000000
19.69999901	0.00000000	-8.28001900	0.00000000
19.89999900	0.00000000	-4.45989200	0.00000000
20.09999898	0.00000000	-1.39640700	0.00000000
20.29999897	0.00000000	-0.68897630	0.00000000
20.49999896	0.00000000	-2.64517700	0.00000000
20.69999895	0.00000000	-7.34498000	0.00000000
20.89999894	0.00000000	-14.27165000	0.00000000
21.09999892	-0.15871060	-21.66585000	0.00000000
21.29999891	0.00000000	-28.23573000	0.00000000
21.49999890	0.00000000	-32.79404000	0.00000000
21.69999889	0.00000000	-33.03395000	0.00000000
21.89999888	0.00000000	-28.00197000	0.00000000
22.09999886	0.00000000	-18.28248000	0.00000000
22.29999885	0.00000000	-5.90551100	0.00000000
22.49999884	0.00000000	6.79749000	0.00000000
22.69999883	0.00000000	16.37549000	0.00000000
22.89999882	0.00000000	19.82652000	0.04306102
23.09999881	0.00000000	16.28937000	0.41830710
23.29999879	0.00000000	5.73326700	1.15649600
23.49999878	0.00000000	-10.50689000	1.57480300
23.69999877	0.00000000	-28.97392000	1.99311000
23.89999876	0.00000000	-44.79576000	2.68823800
24.09999875	0.00000000	-54.01082000	2.64517700
24.29999873	0.00000000	-54.28764000	1.53174200
24.49999872	0.00000000	-44.19291000	0.00000000
24.69999871	0.00000000	-25.67667000	-1.57480300
24.89999870	0.00000000	-3.29724400	-3.15575800
25.09999869	0.00000000	17.96260000	-4.64443900
25.29999867	0.00000000	32.99704000	-5.38262700
25.49999866	0.00000000	38.34277000	-4.60137700
25.69999865	0.00000000	32.11122000	-2.69439000
25.89999864	0.00000000	15.12672000	0.09227362
26.09999863	0.00000000	-8.41535400	3.62327700
26.29999862	0.00000000	-33.16929000	7.80019600
26.49999860	0.00000000	-53.59251000	11.18971000
26.69999859	0.00000000	-64.76377000	11.94021000
26.89999858	0.00000000	-63.64419000	10.03322000
27.09999857	0.00000000	-50.94119000	5.71481200
27.29999856	0.00000000	-30.04429000	-0.51058070
27.49999854	0.00000000	-5.29650500	-7.84940900
27.69999853	0.00000000	17.82726000	-14.76993000
27.89999852	0.00000000	33.64296000	-19.32825000
28.09999851	0.00000000	38.34277000	-20.02337000
28.29999850	0.00000000	31.50221000	-15.70497000
28.49999848	0.00000000	15.68651000	-6.87746000
28.69999847	0.00000000	-5.21038300	4.36146600
28.89999846	0.00000000	-26.83932000	15.56348000
29.09999845	0.00000000	-44.24212000	24.80315000
29.29999844	0.00000000	-53.59251000	29.36146000
29.49999843	0.00000000	-53.68479000	27.78666000
29.69999841	0.00000000	-45.21407000	20.02337000
29.89999840	0.00000000	-30.51181000	7.25270600
30.09999839	0.00000000	-12.73991000	-7.80634800
30.29999838	0.00000000	4.28764700	-22.11491000
30.49999837	0.00000000	16.66462000	-32.47416000
30.69999835	0.00000000	22.14567000	-36.28814000
30.89999834	0.00000000	19.96186000	-32.01279000
31.09999833	0.00000000	11.82333000	-20.48474000
31.29999832	0.00000000	-0.19069880	-4.55831700
31.49999831	0.00000000	-14.50541000	12.82603000
31.69999829	0.00000000	-27.21457000	28.61097000
31.89999828	0.00000000	-35.82062000	38.19513000
32.09999827	0.00000000	-38.89025000	39.44390000
32.29999826	-0.15871060	-35.86368000	32.47416000
32.49999825	0.00000000	-27.81742000	19.00221000
32.69999824	0.00000000	-17.39050000	1.95004900
32.89999822	0.00000000	-6.92052100	-15.05290000
33.09999821	0.00000000	1.63016700	-28.98622000
33.29999820	0.00000000	6.66215500	-36.65723000
33.49999819	0.00000000	7.44955700	-36.33120000
33.69999818	0.00000000	3.58636800	-28.24803000
33.89999816	0.00000000	-3.62942900	-14.72687000
34.09999815	0.00000000	-11.76181000	1.53174200
34.29999814	0.00000000	-18.74385000	17.32899000
34.49999813	0.00000000	-23.81275000	28.94316000
34.69999812	0.00000000	-25.67667000	34.00591000
34.89999810	0.00000000	-23.81275000	32.05585000
35.09999809	0.00000000	-18.83612000	23.18528000
35.29999808	0.00000000	-12.69070000	9.33809000
35.49999807	0.00000000	-6.92052100	-5.67175200
35.69999806	0.00000000	-3.06348400	-18.44242000
35.89999805	0.00000000	-2.26993100	-26.16265000
36.09999803	0.00000000	-4.13385800	-27.36835000
36.29999802	0.00000000	-7.99704600	-21.97957000
36.49999801	0.00000000	-12.60458000	-11.61417000
36.69999800	0.00000000	-16.87992000	1.02116100
36.89999799	0.00000000	-19.90650000	12.21703000
37.09999797	0.00000000	-20.65084000	19.19291000
37.29999796	0.00000000	-18.37475000	21.13681000
37.49999795	0.00000000	-14.22859000	17.28592000
37.69999794	0.00000000	-9.95324800	8.87672100
37.89999793	0.00000000	-6.41609200	-1.43946800
38.09999791	0.00000000	-3.71555100	-10.63607000
38.29999790	0.00000000	-2.60211600	-15.61270000
38.49999789	0.00000000	-3.75861200	-15.28666000
38.69999788	0.00000000	-6.83439900	-9.94094400
38.89999787	0.00000000	-11.10974000	-1.53174200
39.09999786	-0.15871060	-15.71727000	7.29576700
39.29999784	0.00000000	-19.58046000	14.16708000
39.49999783	0.00000000	-21.53666000	16.81841000
39.69999782	0.00000000	-21.57972000	14.12401000
39.89999781	0.00000000	-19.99877000	6.87746000
40.09999780	0.00000000	-16.87992000	-2.69439000
40.29999778	0.00000000	-12.64764000	-11.52190000
40.49999777	0.00000000	-8.37229300	-17.28592000
40.69999776	0.00000000	-4.87819900	-18.39936000
40.89999775	0.00000000	-2.55290300	-14.21629000
41.09999774	0.00000000	-2.17765700	-6.13312000
41.29999772	0.00000000	-3.71555100	3.48794300
41.49999771	0.00000000	-6.79133800	12.68455000
41.69999770	0.00000000	-10.69144000	18.44857000
41.89999769	0.00000000	-14.56078000	19.24212000
42.09999768	0.00000000	-18.04257000	15.46506000
42.29999767	0.00000000	-19.99877000	8.13238100
42.49999765	0.00000000	-20.41708000	-0.33218500
42.69999764	0.00000000	-19.58046000	-8.40920300
42.89999763	0.00000000	-16.92298000	-13.79798000
43.09999762	0.00000000	-13.53346000	-15.00984000
43.29999761	0.00000000	-11.15896000	-12.77067000
43.49999759	0.00000000	-9.52879000	-7.75713500
43.69999758	0.00000000	-8.37229300	-1.62401600
43.89999757	0.00000000	-7.99704600	4.18307100
44.09999756	0.00000000	-8.32308000	8.45226300
44.29999755	0.00000000	-9.06742000	10.35925000
44.49999753	0.00000000	-9.44266700	9.65797200
44.69999752	0.00000000	-9.48572700	6.59448800
44.89999751	0.00000000	-9.48572700	2.78051200
45.09999750	0.00000000	-9.52879000	-1.11343500
45.29999749	0.00000000	-9.99630800	-4.18307100
45.49999748	0.00000000	-11.57726000	-5.75787400
45.69999746	0.00000000	-14.27165000	-5.75787400
45.89999745	-0.15871060	-17.34744000	-4.26919300
46.09999744	0.00000000	-20.04183000	-1.95004900
46.29999743	0.00000000	-21.53666000	0.37524600
46.49999742	0.00000000	-21.11220000	2.69439000
46.69999740	0.00000000	-18.37475000	4.22613100
46.89999739	0.00000000	-13.71801000	4.64443900
47.09999738	0.00000000	-7.86171200	4.26919300
47.29999737	0.00000000	-1.71628900	3.06348400
47.49999736	0.00000000	3.21112200	1.15649600
47.69999734	0.00000000	4.70595500	-1.15649600
47.89999733	0.00000000	2.00541300	-3.06348400
48.09999732	0.00000000	-4.18307100	-4.22613100
48.29999731	0.00000000	-12.69070000	-4.22613100
48.49999730	0.00000000	-21.53666000	-3.06348400
48.69999729	0.00000000	-28.46333000	-1.11343500
48.89999727	0.00000000	-31.53912000	1.58095500
49.09999726	0.00000000	-29.95817000	4.26919300
49.29999725	0.00000000	-23.81275000	6.22539300
49.49999724	0.00000000	-14.56078000	7.33882900
49.69999723	0.00000000	-4.92125900	6.87746000
49.89999721	0.00000000	3.21112200	4.22613100
50.09999720	0.00000000	7.77559000	0.41830710
50.29999719	0.00000000	7.40034400	-3.06348400
50.49999718	0.00000000	2.00541300	-5.80093500
50.69999717	0.00000000	-6.83439900	-7.33882900
50.89999715	0.00000000	-16.79380000	-7.29576700
51.09999714	0.00000000	-24.88312000	-5.38262700
51.29999713	0.00000000	-28.79552000	-1.90698800
51.49999712	0.00000000	-28.42027000	1.95004900
51.69999711	0.00000000	-23.76353000	5.80093500
51.89999710	0.00000000	-15.71727000	8.45226300
52.09999708	0.00000000	-6.92052100	8.87672100
52.29999707	0.00000000	0.00615157	7.38188900
52.49999706	0.00000000	3.12500000	4.64443900
52.69999705	0.00000000	2.00541300	1.15649600
52.89999704	0.00000000	-2.60211600	-2.69439000
53.09999702	0.00000000	-9.52879000	-5.71481200
53.29999701	-0.15871060	-16.83686000	-6.92052100
53.49999700	0.00000000	-22.55782000	-6.13312000
53.69999699	0.00000000	-24.88312000	-3.90009800
53.89999698	0.00000000	-22.98228000	-0.79355310
54.09999696	0.00000000	-18.04257000	1.86392700
54.29999695	0.00000000	-11.48499000	3.80782500
54.49999694	0.00000000	-5.33956700	4.18307100
54.69999693	0.00000000	-1.10728300	3.11269700
54.89999692	0.00000000	0.04921259	1.57480300
55.09999691	0.00000000	-2.22687000	0.04306102
55.29999689	0.00000000	-6.83439900	-1.06422200
55.49999688	0.00000000	-12.60458000	-1.06422200
55.69999687	0.00000000	-17.99951000	0.04306102
55.89999686	0.00000000	-21.44439000	1.57480300
56.09999685	0.00000000	-22.23179000	3.11269700
56.29999683	0.00000000	-19.90650000	4.22613100
56.49999682	0.00000000	-15.34203000	4.18307100
56.69999681	0.00000000	-9.99630800	2.64517700
56.89999680	0.00000000	-5.71481200	-0.04306102
57.09999679	0.00000000	-3.38951800	-3.11269700
57.29999677	0.00000000	-2.97736200	-5.75787400
57.49999676	0.00000000	-4.92125900	-6.87130900
57.69999675	0.00000000	-8.32308000	-5.71481200
57.89999674	0.00000000	-12.22933000	-2.64517700
58.09999673	0.00000000	-15.67421000	1.62401600
58.29999672	0.00000000	-17.99951000	6.21924200
58.49999670	0.00000000	-18.37475000	10.03322000
58.69999669	0.00000000	-16.87992000	11.52190000
58.89999668	0.00000000	-14.22859000	9.98400600
59.09999667	0.00000000	-11.53420000	5.75787400
59.29999666	0.00000000	-9.57800100	0.00000000
59.49999664	0.00000000	-8.37229300	-5.80093500
59.69999663	0.00000000	-8.04010800	-10.40846000
59.89999662	0.00000000	-8.74138700	-12.72761000
60.09999661	0.00000000	-10.27313000	-11.85408000
60.29999660	0.00000000	-11.44193000	-7.66486200
60.49999658	0.00000000	-12.64764000	-0.75049200
60.69999657	0.00000000	-13.71801000	6.17618100
60.89999656	0.00000000	-13.71801000	11.98327000
61.09999655	0.00000000	-12.64764000	15.37278000
61.29999654	0.00000000	-11.53420000	14.63459000
61.49999653	0.00000000	-11.10974000	10.40846000
61.69999651	0.00000000	-11.06668000	3.80782500
61.89999650	0.00000000	-11.10974000	-4.22613100
62.09999649	0.00000000	-11.48499000	-11.14665000
62.29999648	0.00000000	-12.27239000	-15.05290000
62.49999647	0.00000000	-13.02288000	-15.79109000
62.69999645	0.00000000	-13.76107000	-12.68455000
62.89999644	0.00000000	-13.76107000	-6.18233200
63.09999643	0.00000000	-13.02288000	1.53174200
63.29999642	0.00000000	-12.22933000	8.87057000
63.49999641	0.00000000	-11.02362000	14.25935000
63.69999639	0.00000000	-9.52879000	16.16634000
63.89999638	0.00000000	-8.41535400	14.30241000
64.09999637	0.00000000	-8.41535400	9.33809000
64.29999636	0.00000000	-9.52879000	3.15575800
64.49999635	0.00000000	-11.06668000	-3.06963600
64.69999634	0.00000000	-12.60458000	-8.45226300
64.89999632	0.00000000	-13.76107000	-11.56496000
65.09999631	0.00000000	-14.13632000	-11.98327000
65.29999630	0.00000000	-13.76107000	-10.07628000
65.49999629	0.00000000	-12.60458000	-6.21924200
65.69999628	0.00000000	-11.10974000	-1.57480300
65.89999626	0.00000000	-9.95324800	3.06963600
66.09999625	0.00000000	-9.57800100	6.96358300
66.29999624	0.00000000	-9.95324800	9.29502900
66.49999623	0.00000000	-11.10974000	10.11934000
66.69999622	0.00000000	-12.60458000	9.33809000
66.89999620	0.00000000	-13.76107000	7.43110200
67.09999619	0.00000000	-14.13632000	4.68750000
67.29999618	0.00000000	-13.71801000	1.58095500
67.49999617	0.00000000	-12.18012000	-1.58095500
67.69999616	0.00000000	-9.90403500	-4.68750000
67.89999615	0.00000000	-7.99704600	-7.38188900
68.09999613	0.00000000	-6.79133800	-8.91978400
68.29999612	0.00000000	-6.45915300	-8.91978400
68.49999611	0.00000000	-7.29576700	-7.33882900
68.69999610	0.00000000	-9.99630800	-4.22613100
68.89999609	0.00000000	-13.81028000	0.04306102
69.09999607	0.00000000	-17.29823000	4.69365100
69.29999606	0.00000000	-19.99877000	8.91978400
69.49999605	0.00000000	-21.06914000	11.61417000
69.69999604	0.00000000	-19.53125000	12.03248000
69.89999603	0.00000000	-15.71727000	10.49459000
70.09999601	0.00000000	-11.06668000	7.33882900
70.29999600	0.00000000	-6.36687900	2.64517700
70.49999599	0.00000000	-2.17765700	-3.06963600
70.69999598	0.00000000	0.09842519	-8.07701800
70.89999597	0.00000000	-0.64591530	-10.77756000
71.09999596	0.00000000	-3.71555100	-11.18971000
71.29999594	0.00000000	-8.41535400	-8.82750900
71.49999593	0.00000000	-14.18553000	-4.27534400
71.69999592	0.00000000	-19.58046000	1.11343500
71.89999591	0.00000000	-23.06841000	5.75787400
72.09999590	0.00000000	-24.23105000	8.87057000
72.29999588	0.00000000	-22.65010000	10.03322000
72.49999587	0.00000000	-18.41781000	8.87057000
72.69999586	-0.15871060	-12.64764000	5.85014700
72.89999585	0.00000000	-6.83439900	2.04232300
73.09999584	0.00000000	-2.22687000	-1.07037400
73.29999582	0.00000000	0.09842519	-3.02042300
73.49999581	0.00000000	-0.64591530	-3.80782500
73.69999580	0.00000000	-3.67249000	-3.06348400
73.89999579	0.00000000	-7.94783400	-1.57480300
74.09999578	0.00000000	-12.60458000	-0.04306102
74.29999577	0.00000000	-16.83686000	1.11343500
74.49999575	0.00000000	-19.53125000	1.48253000
74.69999574	0.00000000	-19.95571000	1.11343500
74.89999573	0.00000000	-18.46087000	0.00000000
75.09999572	0.00000000	-15.76649000	-1.11343500
75.29999571	0.00000000	-12.69070000	-1.48253000
75.49999569	0.00000000	-9.95324800	-1.06422200
75.69999568	0.00000000	-7.99704600	0.51058070
75.89999567	0.00000000	-6.83439900	3.15575800
76.09999566	0.00000000	-6.83439900	5.80093500
76.29999565	0.00000000	-7.94783400	7.33882900
76.49999563	0.00000000	-9.48572700	7.29576700
76.69999562	0.00000000	-11.02362000	5.38262700
76.89999561	0.00000000	-12.18012000	1.90698800
77.09999560	0.00000000	-12.55536000	-1.95004900
77.29999559	0.00000000	-12.22933000	-5.80093500
77.49999558	0.00000000	-11.53420000	-8.45226300
77.69999556	0.00000000	-11.53420000	-8.87672100
77.89999555	0.00000000	-12.27239000	-7.33882900
78.09999554	0.00000000	-13.02288000	-4.18307100
78.29999553	0.00000000	-13.81028000	0.41830710
78.49999552	0.00000000	-14.18553000	5.43184000
78.69999550	0.00000000	-14.13632000	9.24581600
78.89999549	0.00000000	-13.34276000	11.18971000
79.09999548	0.00000000	-11.44193000	10.45152000
79.29999547	0.00000000	-9.52879000	7.75713500
79.49999546	0.00000000	-7.94783400	3.90009800
79.69999544	0.00000000	-6.83439900	-0.73818890
79.89999543	0.00000000	-6.83439900	-4.60137700
80.09999542	0.00000000	-7.99704600	-7.33882900
80.29999541	0.00000000	-9.95324800	-8.45226300
80.49999540	0.00000000	-12.64764000	-7.33882900
80.69999539	0.00000000	-15.29897000	-4.68750000
80.89999537	0.00000000	-16.83686000	-1.58095500
81.09999536	0.00000000	-16.87992000	1.53174200
81.29999535	0.00000000	-15.71727000	4.26919300
81.49999534	0.00000000	-13.76107000	6.22539300
81.69999533	0.00000000	-11.06668000	7.38188900
81.89999531	0.00000000	-8.37229300	7.38188900
82.09999530	0.00000000	-6.45915300	6.26845500
82.29999529	0.00000000	-5.71481200	4.68750000
82.49999528	0.00000000	-6.83439900	2.69439000
82.69999527	0.00000000	-9.11048200	0.00000000
82.89999525	0.00000000	-11.39887000	-2.69439000
83.09999524	0.00000000	-13.39198000	-4.68750000
83.29999523	0.00000000	-14.51156000	-6.22539300
83.49999522	0.00000000	-14.92372000	-6.92052100
83.69999521	0.00000000	-14.13632000	-5.75787400
83.89999520	0.00000000	-12.69070000	-3.11269700
84.09999518	0.00000000	-11.48499000	0.00000000
84.29999517	0.00000000	-10.73450000	3.15575800
84.49999516	0.00000000	-10.27928000	6.26845500
84.69999515	0.00000000	-10.31619000	8.91978400
84.89999514	0.00000000	-10.27928000	10.03322000
85.09999512	0.00000000	-10.69144000	8.87057000
85.29999511	0.00000000	-11.02362000	5.80093500
85.49999510	0.00000000	-11.06668000	1.53174200
85.69999509	0.00000000	-11.06668000	-3.06963600
85.89999508	0.00000000	-11.06668000	-6.92052100
86.09999506	0.00000000	-11.10974000	-8.82750900
86.29999505	0.00000000	-11.48499000	-8.50147600
86.49999504	0.00000000	-12.22933000	-6.13312000
86.69999503	0.00000000	-12.64764000	-2.27608300
86.89999502	0.00000000	-13.06594000	2.69439000
87.09999501	0.00000000	-13.76107000	6.92052100
87.29999499	0.00000000	-13.71801000	9.24581600
87.49999498	0.00000000	-12.64764000	9.65797200
87.69999497	0.00000000	-11.48499000	7.71407400
87.89999496	0.00000000	-10.64838000	4.26919300
88.09999495	0.00000000	-9.48572700	-0.04306102
88.29999493	0.00000000	-8.41535400	-4.60137700
88.49999492	0.00000000	-8.41535400	-8.03395600
88.69999491	0.00000000	-9.52879000	-8.78444900
88.89999490	0.00000000	-11.02362000	-6.92052100
89.09999489	0.00000000	-12.22933000	-3.06963600
89.29999487	0.00000000	-13.02288000	1.53174200
89.49999486	0.00000000	-13.76107000	5.80093500
89.69999485	0.00000000	-13.76107000	8.87057000
89.89999484	0.00000000	-13.02288000	9.99015700
90.09999483	0.00000000	-12.27239000	8.45226300
90.29999482	0.00000000	-11.44193000	4.64443900
90.49999480	0.00000000	-10.73450000	0.00000000
90.69999479	0.00000000	-10.32234000	-4.60137700
90.89999478	0.00000000	-10.69144000	-8.03395600
91.09999477	0.00000000	-11.02362000	-8.78444900
91.29999476	0.00000000	-11.06668000	-6.92052100
91.49999474	0.00000000	-11.06668000	-3.02042300
91.69999473	0.00000000	-11.02362000	1.95004900
91.89999472	0.00000000	-10.64838000	6.92052100
92.09999471	0.00000000	-9.95324800	9.94094400
92.29999470	0.00000000	-9.95324800	9.98400600
92.49999468	0.00000000	-10.69144000	7.33882900
92.69999467	0.00000000	-11.44193000	3.11269700
92.89999466	0.00000000	-12.27239000	-1.53174200
93.09999465	0.00000000	-13.02288000	-5.71481200
93.29999464	0.00000000	-13.81028000	-8.03395600
93.49999463	0.00000000	-14.13632000	-7.66486200
93.69999461	0.00000000	-13.76107000	-5.38262700
93.89999460	0.00000000	-12.55536000	-1.48868100
94.09999459	0.00000000	-10.64838000	3.06963600
94.29999458	0.00000000	-8.32308000	6.92052100
94.49999457	0.00000000	-6.36687900	8.82750900
94.69999455	0.00000000	-4.87819900	8.45226300
94.89999454	0.00000000	-4.55831700	5.75787400
95.09999453	0.00000000	-6.45915300	1.57480300
95.29999452	0.00000000	-9.48572700	-2.60211600
95.49999451	0.00000000	-12.64764000	-5.33956700
95.69999449	0.00000000	-15.71727000	-6.13312000
95.89999448	0.00000000	-17.99951000	-5.38262700
96.09999447	0.00000000	-18.41781000	-3.06348400
96.29999446	0.00000000	-17.25517000	0.00000000
96.49999445	0.00000000	-14.88066000	3.06348400
96.69999444	0.00000000	-11.02362000	5.33956700
96.89999442	0.00000000	-6.83439900	5.75787400
97.09999441	0.00000000	-3.71555100	4.64443900
97.29999440	0.00000000	-2.17765700	2.73745100
97.49999439	0.00000000	-2.55290300	0.41830710
97.69999438	0.00000000	-4.87819900	-1.48868100
97.89999436	0.00000000	-8.37229300	-2.68823800
98.09999435	0.00000000	-12.60458000	-3.06348400
98.29999434	0.00000000	-16.46161000	-2.68823800
98.49999433	0.00000000	-18.79306000	-1.53174200
98.69999432	0.00000000	-19.62352000	-0.04306102
98.89999430	0.00000000	-18.79306000	1.11343500
99.09999429	0.00000000	-16.50467000	1.53174200
99.29999428	0.00000000	-13.02288000	1.57480300
99.49999427	0.00000000	-9.52879000	1.61786400
99.69999426	0.00000000	-6.41609200	1.99311000
99.89999425	0.00000000	-4.09079700	2.73745100
100.09999423	0.00000000	-3.34030500	3.11269700
100.29999422	0.00000000	-4.09079700	3.11269700
100.49999421	0.00000000	-6.41609200	2.73745100
100.69999420	0.00000000	-9.48572700	1.95004900
100.89999419	0.00000000	-12.60458000	1.15649600
101.09999417	0.00000000	-15.29897000	-0.04306102
101.29999416	0.00000000	-16.87992000	-1.57480300
101.49999415	0.00000000	-17.29823000	-3.06348400
101.69999414	0.00000000	-16.87992000	-3.80782500
101.89999413	0.00000000	-15.29897000	-3.02042300
102.09999411	0.00000000	-12.64764000	-1.11343500
102.29999410	0.00000000	-9.95324800	1.58095500
102.49999409	0.00000000	-7.99704600	4.26919300
102.69999408	0.00000000	-6.79133800	6.22539300
102.89999407	0.00000000	-6.41609200	7.33882900
103.09999406	0.00000000	-6.79133800	6.92052100
103.29999404	0.00000000	-7.94783400	4.64443900
103.49999403	0.00000000	-9.52879000	1.58095500
103.69999402	0.00000000	-11.48499000	-1.53174200
103.89999401	0.00000000	-13.76107000	-4.22613100
104.09999400	0.00000000	-15.25591000	-5.75787400
104.29999398	0.00000000	-15.29897000	-5.75787400
104.49999397	0.00000000	-14.18553000	-4.22613100
104.69999396	0.00000000	-12.64764000	-1.53174200
104.89999395	0.00000000	-11.06668000	1.53174200
105.09999394	0.00000000	-9.52879000	4.22613100
105.29999392	0.00000000	-8.37229300	5.75787400
105.49999391	0.00000000	-7.99704600	5.80093500
105.69999390	0.00000000	-8.37229300	4.64443900
105.89999389	0.00000000	-9.52879000	2.69439000
106.09999388	0.00000000	-11.06668000	0.00000000
106.29999387	0.00000000	-12.55536000	-2.60211600
106.49999385	0.00000000	-13.34276000	-3.76476400
106.69999384	0.00000000	-13.02288000	-3.06348400
106.89999383	0.00000000	-12.64764000	-1.57480300
107.09999382	0.00000000	-12.18012000	0.00000000
107.29999381	0.00000000	-11.06668000	1.57480300
107.49999379	0.00000000	-9.95324800	3.06348400
107.69999378	0.00000000	-9.52879000	3.80782500
107.89999377	0.00000000	-9.52879000	3.06348400
108.09999376	0.00000000	-9.95324800	1.57480300
108.29999375	0.00000000	-11.06668000	0.04306102
108.49999374	0.00000000	-12.18012000	-1.15649600
108.69999372	0.00000000	-12.60458000	-1.90698800
108.89999371	0.00000000	-12.64764000	-2.26993100
109.09999370	0.00000000	-12.60458000	-1.48868100
109.29999369	0.00000000	-12.18012000	0.00000000
109.49999368	0.00000000	-11.06668000	1.57480300
109.69999366	0.00000000	-9.95324800	3.11269700
109.89999365	0.00000000	-9.52879000	4.22613100
110.09999364	0.00000000	-9.48572700	4.22613100
110.29999363	0.00000000	-9.48572700	3.15575800
110.49999362	0.00000000	-9.52879000	1.99311000
110.69999360	0.00000000	-9.95324800	1.15649600
110.89999359	0.00000000	-11.06668000	-0.04306102
111.09999358	0.00000000	-12.18012000	-1.53174200
111.29999357	0.00000000	-12.60458000	-2.64517700
111.49999356	0.00000000	-12.60458000	-2.64517700
111.69999355	0.00000000	-12.22933000	-1.57480300
111.89999353	0.00000000	-11.48499000	-0.41830710
112.09999352	0.00000000	-11.06668000	0.37524600
112.29999351	0.00000000	-10.64838000	1.19955700
112.49999350	0.00000000	-9.95324800	1.90698800
112.69999349	0.00000000	-9.90403500	2.31914400
112.89999347	0.00000000	-10.27313000	1.95004900
113.09999346	0.00000000	-10.27928000	1.57480300
113.29999345	0.00000000	-10.69144000	1.19955700
113.49999344	0.00000000	-11.02362000	0.79355310
113.69999343	0.00000000	-11.06668000	0.78124990
113.89999341	0.00000000	-11.06668000	0.37524600
114.09999340	0.00000000	-11.06668000	0.04306102
114.29999339	0.00000000	-11.06668000	-0.04306102
114.49999338	0.00000000	-11.06668000	-0.41830710
114.69999337	0.00000000	-11.06668000	-1.15649600
114.89999336	0.00000000	-11.06668000	-1.48253000
115.09999334	0.00000000	-11.06668000	-1.15649600
115.29999333	0.00000000	-11.02362000	-0.37524600
115.49999332	0.00000000	-10.69144000	0.37524600
115.69999331	0.00000000	-10.32234000	1.19955700
115.89999330	0.00000000	-10.69144000	1.95004900
116.09999328	0.00000000	-11.02362000	2.73745100
116.29999327	0.00000000	-11.06668000	3.11269700
116.49999326	0.00000000	-11.06668000	3.11269700
116.69999325	0.00000000	-11.06668000	2.68823800
116.89999324	0.00000000	-11.06668000	1.57480300
117.09999322	0.00000000	-11.06668000	0.41830710
117.29999321	0.00000000	-11.02362000	-0.37524600
117.49999320	0.00000000	-10.64838000	-1.15649600
117.69999319	0.00000000	-9.86097400	-1.53174200
117.89999318	0.00000000	-9.15354300	-1.53174200
118.09999317	0.00000000	-8.74138700	-1.15649600
118.29999315	0.00000000	-9.15354300	-0.37524600
118.49999314	0.00000000	-9.90403500	0.37524600
118.69999313	0.00000000	-11.06668000	1.19955700
118.89999312	0.00000000	-12.22933000	1.95004900
119.09999311	0.00000000	-13.02288000	2.73745100
119.29999309	0.00000000	-13.76107000	3.06348400
119.49999308	0.00000000	-13.71801000	2.73745100
119.69999307	0.00000000	-12.60458000	1.99311000
119.89999306	0.00000000	-11.10974000	1.57480300
120.09999305	0.00000000	-9.90403500	1.15649600
120.29999303	0.00000000	-9.11048200	0.41830710
120.49999302	0.00000000	-8.32308000	0.04306102
120.69999301	0.00000000	-7.99704600	0.00000000
120.89999300	0.00000000	-8.37229300	0.00000000
121.09999299	0.00000000	-9.52879000	0.00000000
121.29999298	0.00000000	-11.02362000	0.00000000
121.49999296	0.00000000	-12.22933000	0.00000000
121.69999295	0.00000000	-13.02288000	0.04306102
121.89999294	0.00000000	-13.76107000	0.41830710
122.09999293	0.00000000	-13.76107000	1.15649600
122.29999292	0.00000000	-13.02288000	1.53174200
122.49999290	0.00000000	-12.22933000	1.57480300
122.69999289	0.00000000	-11.06668000	1.57480300
122.89999288	0.00000000	-9.90403500	1.57480300
123.09999287	0.00000000	-9.11048200	1.57480300
123.29999286	0.00000000	-8.32308000	1.53174200
123.49999284	0.00000000	-7.99704600	1.15649600
123.69999283	0.00000000	-8.32308000	0.41830710
123.89999282	0.00000000	-9.11048200	0.04306102
124.09999281	0.00000000	-9.86097400	0.00000000
124.29999280	0.00000000	-10.69144000	0.00000000
124.49999279	0.00000000	-11.44193000	0.00000000
124.69999277	0.00000000	-12.22933000	0.00000000
124.89999276	0.00000000	-12.60458000	0.04306102
125.09999275	0.00000000	-12.64764000	0.41830710
125.29999274	0.00000000	-12.60458000	1.15649600
125.49999273	0.00000000	-12.18012000	1.53174200
125.69999271	0.00000000	-11.06668000	1.57480300
125.89999270	0.00000000	-9.95324800	1.57480300
126.09999269	0.00000000	-9.48572700	1.57480300
126.29999268	0.00000000	-9.06742000	1.57480300
126.49999267	0.00000000	-8.37229300	1.53174200
126.69999265	0.00000000	-8.37229300	1.15649600
126.89999264	0.00000000	-9.11048200	0.41830710
127.09999263	0.00000000	-9.90403500	0.04306102
127.29999262	0.00000000	-11.10974000	0.00000000
127.49999261	0.00000000	-12.60458000	0.00000000
127.69999260	0.00000000	-13.71801000	0.04306102
127.89999258	0.00000000	-13.71801000	0.41830710
128.09999257	0.00000000	-12.64764000	1.15649600
128.29999256	0.00000000	-11.48499000	1.53174200
128.49999255	0.00000000	-10.64838000	1.57480300
128.69999254	0.00000000	-9.48572700	1.57480300
128.89999252	0.00000000	-8.41535400	1.57480300
129.09999251	0.00000000	-8.37229300	1.53174200
129.29999250	0.00000000	-9.11048200	1.15649600
129.49999249	0.00000000	-9.90403500	0.41830710
129.69999248	0.00000000	-11.06668000	0.04306102
129.89999246	0.00000000	-12.18012000	0.00000000
130.09999245	0.00000000	-12.60458000	0.04306102
130.29999244	0.00000000	-12.60458000	0.41830710
130.49999243	0.00000000	-12.22933000	1.15649600
130.69999242	0.00000000	-11.44193000	1.53174200
130.89999241	0.00000000	-10.69144000	1.57480300
131.09999239	0.00000000	-9.90403500	1.57480300
131.29999238	0.00000000	-9.52879000	1.53174200
131.49999237	0.00000000	-9.48572700	1.15649600
131.69999236	0.00000000	-9.52879000	0.41830710
131.89999235	0.00000000	-9.90403500	0.04306102
132.09999233	0.00000000	-10.69144000	0.00000000
132.29999232	0.00000000	-11.39887000	0.00000000
132.49999231	0.00000000	-11.81102000	0.04306102
132.69999230	0.00000000	-11.44193000	0.41830710
132.89999229	0.00000000	-11.10974000	1.15649600
133.09999227	0.00000000	-11.06668000	1.57480300
133.29999226	0.00000000	-11.06668000	1.99311000
133.49999225	0.00000000	-11.06668000	2.68823800
133.69999224	0.00000000	-11.06668000	2.68823800
133.89999223	0.00000000	-11.06668000	1.95004900
134.09999222	0.00000000	-11.06668000	1.19955700
134.29999220	0.00000000	-11.06668000	0.41830710
134.49999219	0.00000000	-11.02362000	0.00000000
134.69999218	0.00000000	-10.64838000	-0.41830710
134.89999217	0.00000000	-9.90403500	-1.11343500
135.09999216	0.00000000	-9.52879000	-1.11343500
135.29999214	0.00000000	-9.52879000	-0.37524600
135.49999213	0.00000000	-9.90403500	0.37524600
135.69999212	0.00000000	-10.64838000	1.15649600
135.89999211	0.00000000	-11.06668000	1.53174200
136.09999210	0.00000000	-11.48499000	1.57480300
136.29999208	0.00000000	-12.18012000	1.57480300
136.49999207	0.00000000	-12.18012000	1.57480300
136.69999206	0.00000000	-11.48499000	1.57480300
136.89999205	0.00000000	-11.06668000	1.53174200
137.09999204	0.00000000	-10.64838000	1.15649600
137.29999203	0.00000000	-9.90403500	0.41830710
137.49999201	0.00000000	-9.52879000	0.04306102
137.69999200	0.00000000	-9.48572700	0.00000000
137.89999199	0.00000000	-9.52879000	0.00000000
138.09999198	0.00000000	-9.90403500	0.00000000
138.29999197	0.00000000	-10.69144000	0.00000000
138.49999195	0.00000000	-11.44193000	0.04306102
138.69999194	0.00000000	-12.18012000	0.41830710
138.89999193	0.00000000	-12.22933000	1.15649600
139.09999192	0.00000000	-11.86024000	1.53174200
139.29999191	0.00000000	-11.81102000	1.57480300
139.49999189	0.00000000	-11.02362000	1.57480300
139.69999188	0.00000000	-9.95324800	1.57480300
139.89999187	0.00000000	-9.52879000	1.53174200
140.09999186	0.00000000	-9.48572700	1.15649600
140.29999185	0.00000000	-9.52879000	0.41830710
140.49999184	0.00000000	-9.90403500	0.00000000
140.69999182	0.00000000	-10.64838000	-0.37524600
140.89999181	0.00000000	-11.02362000	-0.73818890
141.09999180	0.00000000	-11.06668000	-0.37524600
141.29999179	0.00000000	-11.06668000	0.00000000
141.49999178	0.00000000	-11.06668000	0.41830710
141.69999176	0.00000000	-11.02362000	1.19955700
141.89999175	0.00000000	-10.69144000	1.95004900
142.09999174	0.00000000	-10.27928000	2.73745100
142.29999173	0.00000000	-10.27313000	3.06348400
142.49999172	0.00000000	-9.90403500	2.73745100
142.69999170	0.00000000	-9.95324800	1.95004900
142.89999169	0.00000000	-10.64838000	1.19955700
143.09999168	0.00000000	-11.02362000	0.37524600
143.29999167	0.00000000	-11.06668000	-0.37524600
143.49999166	0.00000000	-11.06668000	-1.11343500
143.69999165	0.00000000	-11.06668000	-1.11343500
143.89999163	0.00000000	-11.02362000	-0.41830710
144.09999162	0.00000000	-10.64838000	0.00000000
144.29999161	0.00000000	-9.90403500	0.41830710
144.49999160	0.00000000	-9.52879000	1.19955700
144.69999159	0.00000000	-9.48572700	1.90698800
144.89999157	0.00000000	-9.52879000	2.31914400
145.09999156	0.00000000	-9.90403500	1.95004900
145.29999155	0.00000000	-10.64838000	1.57480300
145.49999154	0.00000000	-11.02362000	1.15649600
145.69999153	0.00000000	-11.06668000	0.41830710
145.89999151	0.00000000	-11.06668000	0.04306102
146.09999150	0.00000000	-11.06668000	0.00000000
146.29999149	0.00000000	-11.02362000	0.00000000
146.49999148	0.00000000	-10.64838000	0.00000000
146.69999147	0.00000000	-9.90403500	0.04306102
146.89999146	0.00000000	-9.52879000	0.41830710
147.09999144	0.00000000	-9.52879000	1.15649600
147.29999143	0.00000000	-9.90403500	1.53174200
147.49999142	0.00000000	-10.64838000	1.57480300
147.69999141	0.00000000	-11.02362000	1.57480300
147.89999140	0.00000000	-11.06668000	1.57480300
148.09999138	0.00000000	-11.06668000	1.53174200
148.29999137	0.00000000	-11.06668000	1.19955700
148.49999136	0.00000000	-11.06668000	0.79355310
148.69999135	0.00000000	-11.06668000	0.78124990
148.89999134	0.00000000	-11.02362000	0.37524600
149.09999132	0.00000000	-10.64838000	0.04306102
149.29999131	0.00000000	-9.90403500	0.00000000
149.49999130	0.00000000	-9.52879000	0.00000000
149.69999129	0.00000000	-9.52879000	0.04306102
149.89999128	0.00000000	-9.86097400	0.41830710
150.09999127	0.00000000	-10.23007000	1.15649600
150.29999125	0.00000000	-9.90403500	1.53174200
150.49999124	0.00000000	-9.95324800	1.57480300
150.69999123	0.00000000	-10.64838000	1.57480300
150.89999122	0.00000000	-11.02362000	1.57480300
151.09999121	0.00000000	-11.06668000	1.53174200
151.29999119	0.00000000	-11.06668000	1.15649600
151.49999118	0.00000000	-11.06668000	0.41830710
151.69999117	0.00000000	-11.06668000	0.04306102
151.89999116	0.00000000	-11.02362000	0.00000000
152.09999115	0.00000000	-10.64838000	0.00000000
152.29999113	0.00000000	-9.90403500	0.00000000
152.49999112	0.00000000	-9.52879000	0.04306102
152.69999111	0.00000000	-9.48572700	0.41830710
152.89999110	0.00000000	-9.48572700	1.15649600
153.09999109	0.00000000	-9.52879000	1.53174200
153.29999108	0.00000000	-9.90403500	1.57480300
153.49999106	0.00000000	-10.64838000	1.57480300
153.69999105	0.00000000	-11.02362000	1.57480300
153.89999104	0.00000000	-11.06668000	1.57480300
154.09999103	0.00000000	-11.06668000	1.57480300
154.29999102	0.00000000	-11.06668000	1.57480300
154.49999100	0.00000000	-11.06668000	1.53174200
154.69999099	0.00000000	-11.02362000	1.15649600
154.89999098	0.00000000	-10.64838000	0.41830710
155.09999097	0.00000000	-9.90403500	0.04306102
155.29999096	0.00000000	-9.52879000	0.00000000
155.49999094	0.00000000	-9.48572700	0.00000000
155.69999093	0.00000000	-9.48572700	0.04306102
155.89999092	0.00000000	-9.52879000	0.41830710
156.09999091	0.00000000	-9.90403500	1.15649600
156.29999090	0.00000000	-10.64838000	1.53174200
156.49999089	0.00000000	-11.02362000	1.57480300
156.69999087	0.00000000	-11.06668000	1.57480300
156.89999086	0.00000000	-11.06668000	1.57480300
157.09999085	0.00000000	-11.06668000	1.57480300
157.29999084	0.00000000	-11.06668000	1.53174200
157.49999083	0.00000000	-11.02362000	1.15649600
157.69999081	0.00000000	-10.69144000	0.41830710
157.89999080	0.00000000	-10.27928000	0.04306102
158.09999079	0.00000000	-10.27313000	0.00000000
158.29999078	0.00000000	-9.86097400	0.00000000
158.49999077	0.00000000	-9.52879000	0.04306102
158.69999075	0.00000000	-9.48572700	0.41830710
158.89999074	0.00000000	-9.52879000	1.15649600
159.09999073	0.00000000	-9.90403500	1.53174200
159.29999072	0.00000000	-10.64838000	1.57480300
159.49999071	0.00000000	-11.02362000	1.57480300
159.69999070	0.00000000	-11.06668000	1.57480300
159.89999068	0.00000000	-11.06668000	1.57480300
160.09999067	0.00000000	-11.06668000	1.57480300
160.29999066	0.00000000	-11.06668000	1.53174200
160.49999065	0.00000000	-11.06668000	1.15649600
160.69999064	0.00000000	-11.06668000	0.41830710
160.89999062	0.00000000	-11.06668000	0.04306102
161.09999061	0.00000000	-11.02362000	0.00000000
161.29999060	0.00000000	-10.64838000	0.04306102
161.49999059	0.00000000	-9.90403500	0.37524600
161.69999058	0.00000000	-9.52879000	0.78124990
161.89999056	0.00000000	-9.48572700	0.79355310
162.09999055	0.00000000	-9.48572700	1.19955700
162.29999054	0.00000000	-9.48572700	1.53174200
162.49999053	0.00000000	-9.52879000	1.57480300
162.69999052	0.00000000	-9.90403500	1.57480300
162.89999051	0.00000000	-10.64838000	1.57480300
163.09999049	0.00000000	-11.02362000	1.57480300
163.29999048	0.00000000	-11.06668000	1.57480300
163.49999047	0.00000000	-11.06668000	1.53174200
163.69999046	0.00000000	-11.06668000	1.19955700
163.89999045	0.00000000	-11.02362000	0.83661410
164.09999043	0.00000000	-10.64838000	1.19955700
164.29999042	0.00000000	-9.90403500	1.48253000
164.49999041	0.00000000	-9.52879000	1.19955700
164.69999040	0.00000000	-9.48572700	0.79355310
164.89999039	0.00000000	-9.48572700	0.83046260
165.09999037	0.00000000	-9.48572700	0.79355310
165.29999036	0.00000000	-9.52879000	1.19955700
165.49999035	0.00000000	-9.90403500	1.53174200
165.69999034	0.00000000	-10.64838000	1.57480300
165.89999033	0.00000000	-11.02362000	1.57480300
166.09999032	0.00000000	-11.06668000	1.57480300
166.29999030	0.00000000	-11.06668000	1.57480300
166.49999029	0.00000000	-11.06668000	1.57480300
166.69999028	0.00000000	-11.06668000	1.57480300
166.89999027	0.00000000	-11.06668000	1.53174200
167.09999026	0.00000000	-11.02362000	1.15649600
167.29999024	0.00000000	-10.64838000	0.41830710
167.49999023	0.00000000	-9.90403500	0.04306102
167.69999022	0.00000000	-9.52879000	0.04306102
167.89999021	0.00000000	-9.48572700	0.41830710
168.09999020	0.00000000	-9.48572700	1.15649600
168.29999018	0.00000000	-9.52879000	1.53174200
168.49999017	0.00000000	-9.90403500	1.57480300
168.69999016	0.00000000	-10.64838000	1.57480300
168.89999015	0.00000000	-11.02362000	1.57480300
169.09999014	0.00000000	-11.06668000	1.57480300
169.29999013	0.00000000	-11.06668000	1.57480300
169.49999011	0.00000000	-11.06668000	1.57480300
169.69999010	0.00000000	-11.06668000	1.57480300
169.89999009	0.00000000	-11.02362000	1.57480300
170.09999008	0.00000000	-10.64838000	1.57480300
170.29999007	0.00000000	-9.95324800	1.53174200
170.49999005	0.00000000	-9.90403500	1.19955700
170.69999004	0.00000000	-10.23007000	0.83661410
170.89999003	0.00000000	-9.86097400	1.19955700
171.09999002	0.00000000	-9.52879000	1.53174200
171.29999001	0.00000000	-9.48572700	1.53174200
171.49998999	0.00000000	-9.48572700	1.15649600
171.69998998	0.00000000	-9.52879000	0.46136810
171.89998997	0.00000000	-9.90403500	0.41830710
172.09998996	0.00000000	-10.64838000	0.73818890
172.29998995	0.00000000	-11.02362000	0.41830710
172.49998994	0.00000000	-11.06668000	0.46136810
172.69998992	0.00000000	-11.06668000	1.15649600
172.89998991	0.00000000	-11.06668000	1.53174200
173.09998990	0.00000000	-11.06668000	1.57480300
173.29998989	0.00000000	-11.02362000	1.57480300
173.49998988	0.00000000	-10.69144000	1.53174200
173.69998986	0.00000000	-10.27928000	1.19955700
173.89998985	0.00000000	-10.27313000	0.79355310
174.09998984	0.00000000	-9.90403500	0.83046260
174.29998983	0.00000000	-9.95324800	0.79355310
174.49998982	0.00000000	-10.59916000	1.19955700
174.69998980	0.00000000	-10.59916000	1.53174200
174.89998979	0.00000000	-9.90403500	1.57480300
175.09998978	0.00000000	-9.52879000	1.57480300
175.29998977	0.00000000	-9.52879000	1.57480300
175.49998976	0.00000000	-9.86097400	1.53174200
175.69998975	0.00000000	-10.23007000	1.19955700
175.89998973	0.00000000	-9.90403500	0.83661410
176.09998972	0.00000000	-9.90403500	1.19955700
176.29998971	0.00000000	-10.23007000	1.53174200
176.49998970	0.00000000	-9.86097400	1.57480300
176.69998969	0.00000000	-9.57800100	1.57480300
176.89998967	0.00000000	-9.86097400	1.57480300
177.09998966	0.00000000	-10.23007000	1.57480300
177.29998965	0.00000000	-9.90403500	1.57480300
177.49998964	0.00000000	-9.95324800	1.57480300
177.69998963	0.00000000	-10.59916000	1.57480300
177.89998961	0.00000000	-10.64838000	1.57480300
178.09998960	0.00000000	-10.32234000	1.57480300
178.29998959	0.00000000	-10.64838000	1.57480300
178.49998958	0.00000000	-10.64838000	1.57480300
178.69998957	0.00000000	-10.27928000	1.57480300
178.89998956	0.00000000	-10.27313000	1.57480300
179.09998954	0.00000000	-9.86097400	1.57480300
179.29998953	0.00000000	-9.57800100	1.53174200
179.49998952	0.00000000	-9.86097400	1.15649600
179.69998951	0.00000000	-10.27313000	0.46136810
179.89998950	0.00000000	-10.23622000	0.46136810
180.09998948	0.00000000	-10.27313000	1.15649600
180.29998947	0.00000000	-9.86097400	1.53174200
180.49998946	0.00000000	-9.52879000	1.57480300
180.69998945	0.00000000	-9.48572700	1.57480300
180.89998944	0.00000000	-9.48572700	1.57480300
181.09998942	0.00000000	-9.52879000	1.57480300
181.29998941	0.00000000	-9.90403500	1.57480300
181.49998940	0.00000000	-10.59916000	1.57480300
181.69998939	0.00000000	-10.59916000	1.57480300
181.89998938	0.00000000	-9.90403500	1.57480300
182.09998937	0.00000000	-9.52879000	1.53174200
182.29998935	0.00000000	-9.48572700	1.15649600
182.49998934	0.00000000	-9.48572700	0.41830710
182.69998933	0.00000000	-9.48572700	0.04306102
182.89998932	0.00000000	-9.52879000	0.00000000
183.09998931	0.00000000	-9.86097400	0.00000000
183.29998929	0.00000000	-10.27313000	0.04306102
183.49998928	0.00000000	-10.27928000	0.41830710
183.69998927	0.00000000	-10.69144000	1.15649600
183.89998926	0.00000000	-11.02362000	1.53174200
184.09998925	0.00000000	-11.06668000	1.57480300
184.29998923	0.00000000	-11.06668000	1.57480300
184.49998922	0.00000000	-11.02362000	1.57480300
184.69998921	0.00000000	-10.64838000	1.57480300
184.89998920	0.00000000	-9.90403500	1.57480300
185.09998919	0.00000000	-9.52879000	1.57480300
185.29998918	0.00000000	-9.48572700	1.53174200
185.49998916	0.00000000	-9.48572700	1.15649600
185.69998915	0.00000000	-9.48572700	0.41830710
185.89998914	0.00000000	-9.48572700	0.04306102
186.09998913	0.00000000	-9.48572700	0.00000000
186.29998912	0.00000000	-9.48572700	0.00000000
186.49998910	0.00000000	-9.52879000	0.00000000
186.69998909	0.00000000	-9.90403500	0.04306102
186.89998908	0.00000000	-10.59916000	0.41830710
187.09998907	0.00000000	-10.64838000	1.15649600
187.29998906	0.00000000	-10.27928000	1.53174200
187.49998904	0.00000000	-10.27313000	1.57480300
187.69998903	0.00000000	-9.86097400	1.57480300
187.89998902	0.00000000	-9.52879000	1.57480300
188.09998901	0.00000000	-9.48572700	1.53174200
188.29998900	0.00000000	-9.48572700	1.15649600
188.49998899	0.00000000	-9.48572700	0.41830710
188.69998897	0.00000000	-9.48572700	0.04306102
188.89998896	0.00000000	-9.48572700	0.00000000
189.09998895	0.00000000	-9.48572700	0.00000000
189.29998894	0.00000000	-9.48572700	0.00000000
189.49998893	0.00000000	-9.48572700	0.04306102
189.69998891	0.00000000	-9.48572700	0.41830710
189.89998890	0.00000000	-9.48572700	1.15649600
190.09998889	0.00000000	-9.52879000	1.53174200
190.29998888	0.00000000	-9.90403500	1.57480300
190.49998887	0.00000000	-10.59916000	1.57480300
190.69998885	0.00000000	-10.59916000	1.57480300
190.89998884	0.00000000	-9.90403500	1.57480300
191.09998883	0.00000000	-9.52879000	1.57480300
191.29998882	0.00000000	-9.48572700	1.57480300
191.49998881	0.00000000	-9.48572700	1.57480300
191.69998880	0.00000000	-9.48572700	1.57480300
191.89998878	0.00000000	-9.48572700	1.57480300
192.09998877	0.00000000	-9.48572700	1.57480300
192.29998876	0.00000000	-9.52879000	1.57480300
192.49998875	0.00000000	-9.90403500	1.57480300
192.69998874	0.00000000	-10.64838000	1.57480300
192.89998872	0.00000000	-10.97441000	1.57480300
193.09998871	0.00000000	-10.69144000	1.57480300
193.29998870	0.00000000	-10.32234000	1.57480300
193.49998869	0.00000000	-10.64838000	1.57480300
193.69998868	0.00000000	-10.59916000	1.57480300
193.89998866	0.00000000	-9.90403500	1.57480300
194.09998865	0.00000000	-9.52879000	1.57480300
194.29998864	0.00000000	-9.48572700	1.57480300
194.49998863	0.00000000	-9.48572700	1.57480300
194.69998862	0.00000000	-9.48572700	1.57480300
194.89998861	0.00000000	-9.48572700	1.57480300
195.09998859	0.00000000	-9.48572700	1.57480300
195.29998858	0.00000000	-9.48572700	1.57480300
195.49998857	0.00000000	-9.52879000	1.53174200
195.69998856	0.00000000	-9.90403500	1.19955700
195.89998855	0.00000000	-10.64838000	0.83661410
196.09998853	0.00000000	-10.97441000	1.19955700
