Time	Channel A	Channel B	Channel C
(us)	(V)	(mV)	(mV)

-4.59999956	0.00000000	14.22859000	11.04823000
-4.39999957	0.00000000	14.22859000	11.04823000
-4.19999958	0.00000000	14.22859000	11.04823000
-3.99999959	0.00000000	14.22859000	11.04823000
-3.79999960	0.00000000	14.22859000	11.04823000
-3.59999962	0.00000000	14.22859000	11.04823000
-3.39999963	0.00000000	14.22859000	11.04823000
-3.19999964	0.00000000	14.22859000	11.04823000
-2.99999965	0.00000000	14.22859000	11.04823000
-2.79999966	0.00000000	14.22859000	11.04823000
-2.59999968	0.00000000	14.22859000	11.04823000
-2.39999969	0.00000000	14.22859000	11.04823000
-2.19999970	0.00000000	14.22859000	11.04823000
-1.99999971	0.00000000	14.22859000	11.04823000
-1.79999972	0.00000000	14.22859000	11.04823000
-1.59999973	0.00000000	14.22859000	11.04823000
-1.39999975	0.00000000	14.22859000	11.04823000
-1.19999976	0.00000000	14.22859000	11.04823000
-0.99999977	0.00000000	14.22859000	11.04823000
-0.79999978	0.00000000	14.22859000	11.04823000
-0.59999979	0.00000000	14.22859000	11.04823000
-0.39999981	0.15871060	14.22859000	11.04823000
-0.19999982	0.47736220	14.22859000	11.04823000
0.00000017	0.79601380	14.22859000	11.04823000
0.20000016	0.95533960	14.27165000	11.04823000
0.40000015	0.95533960	14.60384000	11.04823000
0.60000013	0.47736220	14.97293000	11.04823000
0.80000012	-0.15871060	14.60384000	11.04823000
1.00000011	-1.11466500	14.27165000	11.04823000
1.20000010	-2.07062000	14.22859000	11.09129000
1.40000009	-2.70792300	14.22859000	11.46653000
1.60000008	-2.70792300	14.27165000	12.21087000
1.80000006	-1.91129400	14.64690000	12.58612000
2.00000005	-0.31803640	15.39124000	12.62918000
2.20000004	1.75196900	15.71727000	12.58612000
2.40000003	3.82258900	15.39124000	12.21087000
2.60000002	5.09719500	14.64690000	11.46653000
2.80000000	5.25652100	14.27165000	11.09129000
2.99999999	3.98191400	14.22859000	11.04823000
3.19999998	1.27399100	14.22859000	11.04823000
3.39999997	-2.07062000	14.22859000	11.04823000
3.59999996	-5.41584600	14.22859000	11.09129000
3.79999994	-7.48646600	14.27165000	11.46653000
3.99999993	-7.96444400	14.64690000	12.21087000
4.19999992	-6.37180100	15.39124000	12.58612000
4.39999991	-2.86724900	15.76649000	12.62918000
4.59999990	1.43331700	15.76649000	12.62918000
4.79999989	5.73449800	15.39124000	12.58612000
4.99999987	8.60174700	14.64690000	12.21087000
5.19999986	9.39837600	14.27165000	11.46653000
5.39999985	7.80511800	14.22859000	11.09129000
5.59999984	4.30056600	14.27165000	11.04823000
5.79999983	-0.47736220	14.60384000	11.04823000
5.99999981	-4.93786900	14.97293000	11.09129000
6.19999980	-8.28309500	14.64690000	11.46653000
6.39999979	-9.55770200	14.69611000	12.21087000
6.59999978	-8.28309500	15.39124000	12.58612000
6.79999977	-5.09719500	15.76649000	12.62918000
6.99999975	-0.95533960	15.80955000	12.62918000
7.19999974	3.34522600	15.80955000	12.58612000
7.39999973	6.53112700	15.76649000	12.21087000
7.59999972	7.64579200	15.39124000	11.46653000
7.79999971	7.00848900	14.64690000	11.09129000
7.99999970	4.77854300	14.27165000	11.04823000
8.19999968	1.43331700	14.22859000	11.04823000
8.39999967	-1.75196900	14.27165000	11.04823000
8.59999966	-4.14124000	14.60384000	11.04823000
8.79999965	-5.25652100	15.01599000	11.04823000
8.99999964	-4.93786900	14.97908000	11.04823000
9.19999962	-3.50393700	15.05905000	11.04823000
9.39999961	-1.59264300	14.97908000	11.04823000
9.59999960	0.47736220	15.01599000	11.04823000
9.79999959	1.75196900	14.64690000	11.04823000
9.99999958	2.54859700	14.69611000	11.04823000
10.19999956	2.38927200	15.34203000	11.04823000
10.39999955	1.75196900	15.34203000	11.04823000
10.59999954	0.95533960	14.69611000	11.04823000
10.79999953	0.00000000	14.64690000	11.04823000
10.99999952	-0.63668800	15.01599000	11.04823000
11.19999951	-0.95533960	14.97908000	11.04823000
11.39999949	-0.95533960	15.01599000	11.04823000
11.59999948	-0.79601380	14.64690000	11.04823000
11.79999947	-0.63668800	14.64690000	11.04823000
11.99999946	-0.31803640	15.01599000	11.04823000
12.19999945	-0.15871060	15.02214000	11.04823000
12.39999943	-0.15871060	15.39124000	11.04823000
12.59999942	0.00000000	15.39124000	11.09129000
12.79999941	0.00000000	15.02214000	11.42347000
12.99999940	0.00000000	15.05905000	11.79257000
13.19999939	0.00000000	15.02214000	11.42347000
13.39999937	0.00000000	15.43430000	11.09129000
13.59999936	0.00000000	15.76649000	11.04823000
13.79999935	0.00000000	15.80955000	11.04823000
13.99999934	-0.15871060	15.80955000	11.04823000
14.19999933	-0.15871060	15.80955000	11.04823000
14.39999932	-0.15871060	15.80955000	11.04823000
14.59999930	-0.15871060	15.80955000	11.04823000
14.79999929	0.00000000	15.80955000	11.09129000
14.99999928	0.00000000	15.80955000	11.46653000
15.19999927	0.00000000	15.80955000	12.16166000
15.39999926	0.00000000	15.80955000	12.16166000
15.59999924	0.00000000	15.80955000	11.51575000
15.79999923	0.00000000	15.80955000	11.46653000
15.99999922	0.00000000	15.80955000	11.83563000
16.19999921	0.00000000	15.80955000	11.84178000
16.39999920	-0.15871060	15.80955000	12.25394000
16.59999919	-0.15871060	15.80955000	12.58612000
16.79999917	0.00000000	15.85261000	12.62918000
16.99999916	0.00000000	16.22785000	12.62918000
17.19999915	0.00000000	16.97219000	12.62918000
17.39999914	0.00000000	17.34744000	12.62918000
17.59999913	0.00000000	17.39050000	12.62918000
17.79999911	0.00000000	17.34744000	12.62918000
17.99999910	0.00000000	16.92298000	12.62918000
18.19999909	0.00000000	15.71727000	12.62918000
18.39999908	0.00000000	13.85334000	12.62918000
18.59999907	-0.15871060	11.95251000	12.62918000
18.79999905	-0.15871060	11.15896000	12.62918000
18.99999904	0.00000000	11.15896000	12.62918000
19.19999903	0.00000000	11.95251000	12.62918000
19.39999902	0.00000000	13.98868000	12.62918000
19.59999901	0.00000000	17.07062000	12.62918000
19.79999900	0.00000000	21.33981000	12.62918000
19.99999898	0.00000000	25.11688000	12.62918000
20.19999897	0.00000000	27.43602000	12.62918000
20.39999896	0.00000000	27.34990000	12.62918000
20.59999895	0.00000000	24.23105000	12.62918000
20.79999894	0.00000000	18.41781000	12.62918000
20.99999892	-0.15871060	11.06668000	12.62918000
21.19999891	-0.15871060	3.71555100	12.62918000
21.39999890	0.00000000	-2.05462600	12.62918000
21.59999889	0.00000000	-4.70595500	12.58612000
21.79999888	0.00000000	-3.03272600	12.25394000
21.99999886	0.00000000	3.61712600	11.84178000
22.19999885	0.00000000	14.82529000	11.83563000
22.39999884	0.00000000	27.90354000	11.42347000
22.59999883	0.00000000	39.49311000	11.14050000
22.79999882	0.00000000	46.79502000	11.46653000
22.99999881	0.00000000	47.82234000	12.21087000
23.19999879	0.00000000	41.16634000	12.58612000
23.39999878	-0.15871060	27.25763000	12.67224000
23.59999877	0.00000000	9.52879000	13.04749000
23.79999876	0.00000000	-7.91092400	13.79183000
23.99999875	0.00000000	-21.35827000	14.11786000
24.19999873	0.00000000	-27.45448000	13.74262000
24.39999872	0.00000000	-23.50517000	12.58612000
24.59999871	0.00000000	-9.96555000	11.04823000
24.79999870	0.00000000	10.50689000	9.47342500
24.99999869	0.00000000	33.30462000	7.93553100
25.19999867	0.00000000	52.94045000	6.82209600
25.39999866	0.00000000	64.89912000	6.82209600
25.59999865	-0.15871060	65.60039000	8.02780400
25.79999864	-0.15871060	54.79822000	10.35310000
25.99999863	0.00000000	34.70103000	13.87795000
26.19999862	0.00000000	9.99630800	17.69808000
26.39999860	0.00000000	-13.59498000	21.17372000
26.59999859	0.00000000	-30.94857000	23.03765000
26.79999858	0.00000000	-37.83833000	22.66855000
26.99999857	0.00000000	-32.06201000	19.88189000
27.19999856	0.00000000	-15.12672000	14.81299000
27.39999854	0.00000000	8.41535400	7.84940900
27.59999853	0.00000000	33.12008000	0.55364170
27.79999852	0.00000000	53.26648000	-5.25344500
27.99999851	0.00000000	64.53002000	-8.27386800
28.19999850	0.00000000	65.31742000	-7.39419200
28.39999848	0.00000000	55.22268000	-1.53789400
28.59999847	0.00000000	36.41732000	8.44611200
28.79999846	0.00000000	14.04404000	20.06029000
28.99999845	0.00000000	-6.10851300	30.88705000
29.19999844	0.00000000	-20.52165000	38.92716000
29.39999843	0.00000000	-26.71014000	41.52928000
29.59999841	0.00000000	-23.64050000	37.26009000
29.79999840	0.00000000	-12.10015000	26.85162000
29.99999839	0.00000000	4.83513700	12.54306000
30.19999838	0.00000000	22.65010000	-2.51599400
30.39999837	0.00000000	37.81988000	-15.24360000
30.59999835	0.00000000	47.87155000	-22.53937000
30.79999834	0.00000000	50.60900000	-22.53937000
30.99999833	0.00000000	45.68159000	-15.15133000
31.19999832	0.00000000	35.30389000	-1.63016700
31.39999831	0.00000000	22.09030000	15.36663000
31.59999829	0.00000000	8.55068800	32.00664000
31.79999828	0.00000000	-2.65748000	45.10950000
31.99999827	0.00000000	-8.89517700	51.65477000
32.19999826	0.00000000	-9.35654400	49.75393000
32.39999825	0.00000000	-4.70595500	40.45890000
32.59999824	0.00000000	4.18307100	25.39985000
32.79999822	0.00000000	15.34203000	7.65871000
32.99999821	0.00000000	25.76895000	-8.23080600
33.19999820	0.00000000	33.16929000	-19.84498000
33.39999819	0.00000000	36.28814000	-24.80930000
33.59999818	0.00000000	34.79330000	-21.37672000
33.79999816	0.00000000	29.39837000	-11.01132000
33.99999815	0.00000000	21.71506000	3.70939900
34.19999814	0.00000000	13.57652000	19.97416000
34.39999813	0.00000000	7.01279500	34.60876000
34.59999812	0.00000000	3.15575800	44.26673000
34.79999810	0.00000000	3.11269700	46.59818000
34.99999809	0.00000000	6.55142700	41.62155000
35.19999808	0.00000000	11.90330000	30.42569000
35.39999807	0.00000000	18.08563000	15.78494000
35.59999806	0.00000000	23.06841000	1.15034400
35.79999805	0.00000000	25.81201000	-10.03937000
35.99999803	0.00000000	25.81201000	-15.10827000
36.19999802	0.00000000	23.11762000	-13.61343000
36.39999801	0.00000000	18.55315000	-6.32381900
36.59999800	0.00000000	13.53346000	4.82898600
36.79999799	0.00000000	9.71333600	16.76919000
36.99999797	0.00000000	7.76328700	26.75935000
37.19999796	0.00000000	8.55068800	32.14813000
37.39999795	0.00000000	11.57726000	31.40379000
37.59999794	0.00000000	15.80955000	25.31373000
37.79999793	0.00000000	20.08489000	15.74188000
37.99999791	0.00000000	23.57899000	5.80093500
38.19999790	0.00000000	25.85507000	-1.53789400
38.39999789	0.00000000	25.85507000	-4.56446800
38.59999788	0.00000000	23.57899000	-2.28223400
38.79999787	0.00000000	20.08489000	4.96432100
38.99999786	0.00000000	15.80955000	14.11786000
39.19999784	0.00000000	11.57726000	22.57628000
39.39999783	-0.15871060	8.45841400	27.92200000
39.59999782	0.00000000	6.96973400	28.29724000
39.79999781	-0.15871060	7.72022600	23.68971000
39.99999780	0.00000000	10.73450000	15.28051000
40.19999778	0.00000000	14.22859000	5.70866100
40.39999777	0.00000000	17.80881000	-2.00541300
40.59999776	0.00000000	21.66585000	-6.23154500
40.79999775	0.00000000	24.74163000	-5.76402500
40.99999774	0.00000000	26.27953000	-0.04921259
41.19999772	0.00000000	25.90428000	9.14739100
41.39999771	0.00000000	23.57899000	18.76845000
41.59999770	0.00000000	20.13410000	26.84547000
41.79999769	0.00000000	16.22785000	31.07775000
41.99999768	0.00000000	12.73991000	30.33341000
42.19999767	0.00000000	10.03937000	25.35679000
42.39999765	0.00000000	8.83366100	17.27362000
42.59999764	0.00000000	9.20275500	8.44611200
42.79999763	0.00000000	10.37155000	1.15034400
42.99999762	0.00000000	12.73991000	-2.74360200
43.19999761	0.00000000	15.76649000	-2.42372000
43.39999759	0.00000000	18.50394000	1.01501000
43.59999758	0.00000000	20.41708000	6.82209600
43.79999757	0.00000000	21.24754000	13.69956000
43.99999756	0.00000000	20.88459000	19.46358000
44.19999755	0.00000000	20.17716000	22.61934000
44.39999753	0.00000000	19.38976000	23.03765000
44.59999752	0.00000000	19.01451000	21.13066000
44.79999751	0.00000000	18.97145000	17.32283000
44.99999750	0.00000000	18.97145000	13.09670000
45.19999749	0.00000000	18.87918000	9.60875900
45.39999748	0.00000000	18.08563000	7.24040300
45.59999746	0.00000000	16.14173000	6.44685000
45.79999745	0.00000000	13.81028000	6.82209600
45.99999744	0.00000000	11.06668000	8.40305000
46.19999743	-0.15871060	8.45841400	11.04823000
46.39999742	0.00000000	7.34498000	13.74262000
46.59999740	-0.15871060	8.55068800	15.69882000
46.79999739	0.00000000	12.08784000	16.89837000
46.99999738	0.00000000	17.85802000	17.23056000
47.19999737	0.00000000	24.40945000	16.48622000
47.39999736	0.00000000	29.81668000	14.53617000
47.59999734	0.00000000	33.25541000	12.25394000
47.79999733	0.00000000	33.16929000	9.89173200
47.99999732	0.00000000	28.93085000	8.02780400
48.19999731	0.00000000	21.57972000	7.24040300
48.39999730	0.00000000	12.73991000	8.02780400
48.59999729	0.00000000	4.64443900	9.93479300
48.79999727	0.00000000	-0.38139760	12.67224000
48.99999726	0.00000000	-1.54404500	15.74188000
49.19999725	0.00000000	1.61786400	18.43627000
49.39999724	0.00000000	8.92593500	19.97416000
49.59999723	0.00000000	18.55315000	19.97416000
49.79999721	0.00000000	27.81742000	18.39321000
49.99999720	0.00000000	34.75024000	15.32357000
50.19999719	0.00000000	37.40157000	11.46653000
50.39999718	0.00000000	34.70103000	7.98474400
50.59999717	0.00000000	27.44217000	5.29035400
50.79999715	0.00000000	17.85802000	4.17691900
50.99999714	-0.15871060	8.96899500	5.29035400
51.19999713	0.00000000	2.73745100	7.98474400
51.39999712	0.00000000	0.07997046	11.51575000
51.59999711	0.00000000	2.03617100	15.74188000
51.79999710	0.00000000	8.50147600	19.54970000
51.99999708	0.00000000	16.92298000	21.46284000
52.19999707	0.00000000	24.69857000	21.13066000
52.39999706	0.00000000	30.46875000	18.81152000
52.59999705	0.00000000	32.70177000	15.36663000
52.79999704	0.00000000	30.04429000	11.51575000
52.99999702	0.00000000	23.57899000	8.40305000
53.19999701	0.00000000	15.90182000	6.44685000
53.39999700	0.00000000	8.96899500	5.70866100
53.59999699	0.00000000	4.73671200	6.86515700
53.79999698	0.00000000	4.31840500	9.51648500
53.99999696	0.00000000	7.38804100	12.58612000
54.19999695	0.00000000	13.15822000	15.27436000
54.39999694	0.00000000	20.04183000	16.81225000
54.59999693	0.00000000	25.81201000	16.81225000
54.79999692	0.00000000	28.88164000	15.32357000
54.99999691	0.00000000	28.55561000	13.04749000
55.19999689	0.00000000	25.06767000	11.14050000
55.39999688	0.00000000	19.71580000	10.02707000
55.59999687	0.00000000	13.57652000	10.40231000
55.79999686	0.00000000	8.96899500	12.25394000
55.99999685	0.00000000	7.01279500	14.16092000
56.19999683	0.00000000	7.76328700	15.69882000
56.39999682	0.00000000	11.20202000	16.43701000
56.59999681	0.00000000	15.80955000	15.64960000
56.79999680	0.00000000	20.46014000	13.69956000
56.99999679	0.00000000	24.32333000	10.62992000
57.19999677	0.00000000	26.23031000	7.24040300
57.39999676	0.00000000	25.85507000	5.33341500
57.59999675	0.00000000	23.16068000	5.33341500
57.79999674	0.00000000	19.01451000	7.28346400
57.99999673	0.00000000	15.15748000	11.14050000
58.19999672	0.00000000	12.78297000	15.78494000
58.39999670	0.00000000	11.62032000	20.39247000
58.59999669	0.00000000	11.99557000	23.78199000
58.79999668	0.00000000	13.89641000	24.10802000
58.99999667	0.00000000	16.18479000	21.08760000
59.19999666	0.00000000	18.55315000	15.69882000
59.39999664	0.00000000	20.46014000	9.51648500
59.59999663	0.00000000	21.62278000	3.75861200
59.79999662	-0.15871060	21.62278000	-0.09227362
59.99999661	0.00000000	20.50935000	-0.84276570
60.19999660	0.00000000	18.97145000	1.48253000
60.39999658	0.00000000	17.43356000	6.91437000
60.59999657	0.00000000	16.32013000	14.21014000
60.79999656	0.00000000	16.27707000	21.50590000
60.99999655	0.00000000	17.01525000	26.84547000
61.19999654	0.00000000	17.76575000	28.42643000
61.39999653	0.00000000	18.55315000	26.15034000
61.59999651	0.00000000	18.92839000	21.13066000
61.79999650	0.00000000	18.92839000	14.11786000
61.99999649	0.00000000	18.55315000	6.44685000
62.19999648	0.00000000	17.76575000	-0.04921259
62.39999647	-0.15871060	17.01525000	-3.11884800
62.59999645	-0.15871060	16.22785000	-2.00541300
62.79999644	0.00000000	15.90182000	2.59596400
62.99999643	0.00000000	16.27707000	9.55954600
63.19999642	0.00000000	17.43356000	17.23056000
63.39999641	0.00000000	18.92839000	23.78199000
63.59999639	0.00000000	20.13410000	27.31299000
63.79999638	0.00000000	20.88459000	27.73130000
63.99999637	0.00000000	21.24754000	25.40600000
64.19999636	0.00000000	20.46014000	20.34941000
64.39999635	0.00000000	19.01451000	13.83489000
64.59999634	0.00000000	17.80881000	7.28346400
64.79999632	0.00000000	17.01525000	2.63902500
64.99999631	0.00000000	16.22785000	0.63976370
65.19999630	0.00000000	15.90182000	1.01501000
65.39999629	0.00000000	16.27707000	3.75246000
65.59999628	0.00000000	17.43356000	8.35998900
65.79999626	0.00000000	18.92839000	13.69956000
65.99999625	0.00000000	20.04183000	18.01796000
66.19999624	0.00000000	20.04183000	20.81078000
66.39999623	0.00000000	18.92839000	22.75467000
66.59999622	0.00000000	17.43356000	23.08686000
66.79999620	0.00000000	16.27707000	21.59203000
66.99999619	0.00000000	15.85261000	18.89764000
67.19999618	0.00000000	15.90182000	15.78494000
67.39999617	0.00000000	16.69537000	12.62918000
67.59999616	0.00000000	18.59621000	9.51648500
67.79999615	0.00000000	20.55241000	6.77903500
67.99999613	0.00000000	22.46555000	4.82283400
68.19999612	0.00000000	23.94808000	3.70939900
68.39999611	0.00000000	23.53592000	4.12770700
68.59999610	0.00000000	21.62278000	6.44685000
68.79999609	0.00000000	18.50394000	9.93479300
68.99999607	0.00000000	14.64690000	14.21014000
69.19999606	0.00000000	11.20202000	18.47933000
69.39999605	0.00000000	8.92593500	21.96727000
69.59999604	0.00000000	8.96899500	24.24335000
69.79999603	0.00000000	11.62032000	24.20029000
69.99999601	0.00000000	15.85261000	21.54897000
70.19999600	0.00000000	20.55241000	17.27362000
70.39999599	0.00000000	25.15994000	12.21087000
70.59999598	0.00000000	28.59867000	6.82209600
70.79999597	0.00000000	29.39222000	2.63902500
70.99999596	0.00000000	27.86048000	1.05807100
71.19999594	0.00000000	24.32333000	2.17765700
71.39999593	0.00000000	18.92839000	5.29035400
71.59999592	0.00000000	13.15822000	9.89173200
71.79999591	0.00000000	8.50147600	14.90526000
71.99999590	0.00000000	5.80708600	18.76845000
72.19999588	0.00000000	5.85014700	21.13066000
72.39999587	0.00000000	8.92593500	21.50590000
72.59999586	0.00000000	14.27165000	19.97416000
72.79999585	0.00000000	20.08489000	16.90453000
72.99999584	0.00000000	25.11688000	13.09670000
73.19999582	0.00000000	28.59867000	10.02707000
73.39999581	0.00000000	29.39222000	8.44611200
73.59999580	0.00000000	27.86048000	8.40305000
73.79999579	0.00000000	24.36639000	9.51648500
73.99999578	0.00000000	19.38976000	11.04823000
74.19999577	0.00000000	14.73917000	12.58612000
74.39999575	0.00000000	11.24508000	13.74262000
74.59999574	0.00000000	9.34424200	14.11786000
74.79999573	0.00000000	10.08243000	13.74262000
74.99999572	-0.15871060	12.73991000	12.62918000
75.19999571	0.00000000	16.18479000	11.55881000
75.39999569	0.00000000	19.66658000	11.55881000
75.59999568	0.00000000	21.99803000	12.72146000
75.79999567	0.00000000	23.20374000	14.62844000
75.99999566	0.00000000	23.20374000	16.94759000
76.19999565	0.00000000	22.09030000	18.81152000
76.39999563	0.00000000	20.55241000	19.59892000
76.59999562	0.00000000	19.01451000	18.76845000
76.79999561	0.00000000	17.85802000	16.43701000
76.99999560	0.00000000	17.48277000	12.58612000
77.19999559	0.00000000	17.80881000	8.40305000
77.39999558	0.00000000	18.55315000	5.29035400
77.59999556	0.00000000	18.87918000	3.70939900
77.79999555	0.00000000	18.55315000	3.75246000
77.99999554	0.00000000	17.76575000	5.75172200
78.19999553	0.00000000	17.01525000	9.98400600
78.39999552	0.00000000	16.22785000	15.32357000
78.59999550	0.00000000	15.90182000	19.97416000
78.79999549	0.00000000	16.27707000	23.08686000
78.99999548	0.00000000	17.48277000	24.24335000
79.19999547	0.00000000	19.38976000	23.08686000
79.39999546	0.00000000	21.71506000	19.97416000
79.59999544	0.00000000	23.57899000	15.36663000
79.79999543	0.00000000	24.36639000	10.40231000
79.99999542	0.00000000	23.57899000	6.91437000
80.19999541	0.00000000	21.66585000	5.29035400
80.39999540	0.00000000	18.97145000	5.29035400
80.59999539	0.00000000	16.27707000	6.82209600
80.79999537	0.00000000	14.32087000	9.51648500
80.99999536	0.00000000	13.20128000	12.62918000
81.19999535	0.00000000	13.61959000	15.74188000
81.39999534	0.00000000	15.90182000	18.47933000
81.59999533	0.00000000	18.92839000	20.43553000
81.79999531	0.00000000	21.66585000	21.59203000
81.99999530	0.00000000	23.62205000	21.54897000
82.19999529	0.00000000	24.78469000	20.06029000
82.39999528	0.00000000	24.74163000	17.74114000
82.59999527	0.00000000	23.24680000	15.36663000
82.79999525	0.00000000	20.92766000	12.58612000
82.99999524	0.00000000	18.63927000	9.51648500
83.19999523	0.00000000	16.69537000	6.86515700
83.39999522	0.00000000	15.90182000	5.70866100
83.59999521	0.00000000	15.85261000	6.40378900
83.79999520	0.00000000	16.27707000	7.98474400
83.99999518	0.00000000	17.43356000	10.35310000
84.19999517	0.00000000	18.92839000	13.83489000
84.39999516	0.00000000	20.08489000	17.32283000
84.59999515	0.00000000	20.50935000	20.39247000
84.79999514	0.00000000	20.55241000	22.29331000
84.99999512	0.00000000	20.50935000	21.88115000
85.19999511	0.00000000	20.13410000	19.59892000
85.39999510	0.00000000	19.38976000	15.69882000
85.59999509	0.00000000	19.06373000	11.09129000
85.79999508	0.00000000	19.34670000	6.82209600
85.99999506	0.00000000	19.71580000	3.75246000
86.19999505	0.00000000	19.34670000	2.63902500
86.39999504	0.00000000	18.97145000	4.17076700
86.59999503	0.00000000	18.55315000	7.98474400
86.79999502	0.00000000	17.76575000	12.62918000
86.99999501	0.00000000	17.05832000	17.27362000
87.19999499	0.00000000	16.64616000	21.08760000
87.39999498	0.00000000	17.05832000	22.61934000
87.59999497	0.00000000	17.80881000	21.50590000
87.79999496	0.00000000	19.01451000	18.43627000
87.99999495	0.00000000	20.50935000	14.16708000
88.19999493	0.00000000	21.66585000	9.56569900
88.39999492	0.00000000	22.04109000	5.70866100
88.59999491	0.00000000	21.66585000	3.80167300
88.79999490	0.00000000	20.50935000	4.17076700
88.99999489	-0.15871060	19.01451000	6.90821800
89.19999487	0.00000000	17.80881000	11.46653000
89.39999486	0.00000000	17.05832000	16.48622000
89.59999485	0.00000000	16.64616000	20.34941000
89.79999484	0.00000000	17.05832000	22.66855000
89.99999483	0.00000000	17.76575000	22.61934000
90.19999482	0.00000000	18.59621000	19.92495000
90.39999480	0.00000000	19.34670000	15.36663000
90.59999479	0.00000000	20.13410000	10.35310000
90.79999478	0.00000000	20.50935000	6.53912400
90.99999477	0.00000000	20.55241000	4.59522600
91.19999476	0.00000000	20.55241000	5.37647600
91.39999474	0.00000000	20.50935000	8.40305000
91.59999473	0.00000000	20.17716000	12.67224000
91.79999472	0.00000000	19.80807000	17.27362000
91.99999471	0.00000000	20.17716000	21.13066000
92.19999470	0.00000000	20.50935000	23.03765000
92.39999468	0.00000000	20.55241000	22.61934000
92.59999467	0.00000000	20.50935000	19.55585000
92.79999466	0.00000000	20.08489000	14.62844000
92.99999465	0.00000000	18.92839000	10.02707000
93.19999464	0.00000000	17.43356000	6.91437000
93.39999463	0.00000000	16.32013000	5.75172200
93.59999461	0.00000000	16.32013000	6.91437000
93.79999460	0.00000000	17.43356000	9.98400600
93.99999459	0.00000000	19.01451000	14.21014000
94.19999458	0.00000000	20.97072000	18.39321000
94.39999457	0.00000000	23.24680000	21.08760000
94.59999455	-0.15871060	24.78469000	21.50590000
94.79999454	0.00000000	25.20300000	19.97416000
94.99999453	0.00000000	24.78469000	16.90453000
95.19999452	0.00000000	23.16068000	13.04749000
95.39999451	0.00000000	20.08489000	9.60875900
95.59999449	0.00000000	16.27707000	7.28346400
95.79999448	0.00000000	13.20128000	6.90821800
95.99999447	0.00000000	11.66339000	8.40305000
96.19999446	0.00000000	12.03863000	11.14050000
96.39999445	0.00000000	14.36393000	14.53617000
96.59999444	0.00000000	17.80881000	17.59966000
96.79999442	0.00000000	21.71506000	18.76845000
96.99999441	0.00000000	25.20300000	18.47933000
97.19999440	0.00000000	27.90354000	17.27362000
97.39999439	0.00000000	29.01698000	15.36663000
97.59999438	0.00000000	27.90354000	13.04749000
97.79999436	0.00000000	25.20300000	11.18356000
97.99999435	0.00000000	21.66585000	10.35310000
98.19999434	0.00000000	17.43356000	10.72219000
98.39999433	0.00000000	13.61959000	11.46653000
98.59999432	0.00000000	11.66339000	12.62918000
98.79999430	0.00000000	11.62032000	13.79183000
98.99999429	0.00000000	13.15822000	14.53617000
99.19999428	0.00000000	15.90182000	14.94833000
99.39999427	0.00000000	19.38976000	14.62844000
99.59999426	0.00000000	23.20374000	14.67150000
99.79999425	0.00000000	25.94734000	15.36663000
99.99999423	0.00000000	27.15920000	15.74188000
100.19999422	0.00000000	27.52830000	15.78494000
100.39999421	0.00000000	26.32259000	15.78494000
100.59999420	0.00000000	23.67126000	15.74188000
100.79999419	0.00000000	20.55241000	15.32357000
100.99999417	0.00000000	17.43356000	14.16092000
101.19999416	0.00000000	14.73917000	12.62918000
101.39999415	0.00000000	13.20128000	11.09744000
101.59999414	-0.15871060	13.20128000	9.93479300
101.79999413	0.00000000	14.69611000	9.60875900
101.99999411	0.00000000	17.01525000	10.40231000
102.19999410	0.00000000	19.34670000	12.72146000
102.39999409	0.00000000	21.71506000	15.74188000
102.59999408	0.00000000	23.62205000	18.43627000
102.79999407	0.00000000	24.78469000	19.97416000
102.99999406	0.00000000	24.78469000	20.01722000
103.19999404	0.00000000	23.67126000	18.85458000
103.39999403	0.00000000	22.09030000	16.90453000
103.59999402	0.00000000	20.17716000	14.16092000
103.79999401	0.00000000	18.22711000	11.09744000
103.99999400	0.00000000	17.05832000	8.44611200
104.19999398	0.00000000	16.27707000	7.28346400
104.39999397	0.00000000	16.32013000	8.02780400
104.59999396	0.00000000	17.43356000	9.93479300
104.79999395	0.00000000	18.97145000	12.67224000
104.99999394	0.00000000	20.50935000	15.69882000
105.19999392	0.00000000	21.71506000	18.01796000
105.39999391	0.00000000	22.46555000	18.81152000
105.59999390	0.00000000	22.82849000	18.43627000
105.79999389	0.00000000	22.09030000	16.90453000
105.99999388	0.00000000	20.97072000	14.58538000
106.19999387	0.00000000	20.17716000	12.30315000
106.39999385	0.00000000	19.34670000	10.40231000
106.59999384	0.00000000	18.63927000	9.98400600
106.79999383	0.00000000	18.27633000	10.72219000
106.99999382	0.00000000	19.01451000	11.88484000
107.19999381	0.00000000	20.13410000	13.83489000
107.39999379	0.00000000	20.92766000	15.69882000
107.59999378	0.00000000	21.71506000	16.89837000
107.79999377	0.00000000	22.04109000	17.27362000
107.99999376	0.00000000	21.71506000	16.89837000
108.19999375	0.00000000	20.92766000	15.74188000
108.39999374	0.00000000	20.13410000	14.21014000
108.59999372	0.00000000	18.97145000	12.67224000
108.79999371	0.00000000	17.90108000	11.55881000
108.99999370	0.00000000	17.90108000	11.55881000
109.19999369	0.00000000	18.97145000	12.67224000
109.39999368	0.00000000	20.13410000	14.21014000
109.59999366	0.00000000	20.92766000	15.74188000
109.79999365	0.00000000	21.71506000	16.89837000
109.99999364	0.00000000	22.09030000	17.32283000
110.19999363	0.00000000	22.09030000	17.32283000
110.39999362	0.00000000	21.71506000	16.89837000
110.59999360	0.00000000	20.92766000	15.74188000
110.79999359	0.00000000	20.17716000	14.21014000
110.99999358	0.00000000	19.38976000	12.67224000
111.19999357	0.00000000	19.01451000	11.51575000
111.39999356	0.00000000	18.97145000	11.14050000
111.59999355	0.00000000	19.01451000	11.51575000
111.79999353	0.00000000	19.38976000	12.62918000
111.99999352	0.00000000	20.13410000	13.79183000
112.19999351	0.00000000	20.55241000	14.58538000
112.39999350	0.00000000	20.97072000	15.36663000
112.59999349	0.00000000	21.66585000	15.74188000
112.79999347	0.00000000	21.66585000	15.78494000
112.99999346	0.00000000	20.97072000	15.78494000
113.19999345	0.00000000	20.59547000	15.74188000
113.39999344	0.00000000	20.55241000	15.36663000
113.59999343	0.00000000	20.55241000	14.62844000
113.79999341	0.00000000	20.55241000	14.21014000
113.99999340	0.00000000	20.55241000	13.79183000
114.19999339	0.00000000	20.55241000	13.04749000
114.39999338	0.00000000	20.55241000	12.67224000
114.59999337	0.00000000	20.55241000	12.62918000
114.79999336	0.00000000	20.55241000	12.62918000
114.99999334	0.00000000	20.55241000	12.62918000
115.19999333	0.00000000	20.59547000	12.67224000
115.39999332	0.00000000	20.97072000	13.04749000
115.59999331	0.00000000	21.66585000	13.83489000
115.79999330	0.00000000	21.66585000	14.58538000
115.99999328	0.00000000	20.97072000	15.36663000
116.19999327	0.00000000	20.59547000	15.74188000
116.39999326	0.00000000	20.55241000	15.78494000
116.59999325	0.00000000	20.55241000	15.74188000
116.79999324	0.00000000	20.55241000	15.36663000
116.99999322	0.00000000	20.55241000	14.58538000
117.19999321	0.00000000	20.59547000	13.79183000
117.39999320	0.00000000	20.97072000	12.67224000
117.59999319	0.00000000	21.71506000	11.88484000
117.79999318	0.00000000	22.09030000	11.87869000
117.99999317	0.00000000	22.13336000	11.88484000
118.19999315	0.00000000	22.09030000	12.67224000
118.39999314	0.00000000	21.71506000	13.79183000
118.59999313	-0.15871060	20.92766000	14.58538000
118.79999312	0.00000000	20.13410000	15.36663000
118.99999311	0.00000000	18.97145000	15.74188000
119.19999309	0.00000000	17.90108000	15.78494000
119.39999308	0.00000000	17.85802000	15.78494000
119.59999307	0.00000000	18.59621000	15.74188000
119.79999306	0.00000000	19.38976000	15.36663000
119.99999305	0.00000000	20.59547000	14.62844000
120.19999303	0.00000000	22.09030000	14.21014000
120.39999302	0.00000000	23.24680000	13.79183000
120.59999301	0.00000000	23.67126000	13.04749000
120.79999300	0.00000000	23.67126000	12.72146000
120.99999299	0.00000000	23.24680000	13.04749000
121.19999298	0.00000000	22.09030000	13.79183000
121.39999296	0.00000000	20.59547000	14.16708000
121.59999295	0.00000000	19.38976000	14.21014000
121.79999294	0.00000000	18.63927000	14.25320000
121.99999293	0.00000000	18.22711000	14.62844000
122.19999292	0.00000000	18.63927000	15.36663000
122.39999290	0.00000000	19.34670000	15.74188000
122.59999289	0.00000000	20.17716000	15.78494000
122.79999288	0.00000000	20.97072000	15.78494000
122.99999287	0.00000000	22.13336000	15.74188000
123.19999286	0.00000000	23.24680000	15.36663000
123.39999284	0.00000000	23.67126000	14.62844000
123.59999283	0.00000000	23.67126000	14.25320000
123.79999282	0.00000000	23.29601000	14.16708000
123.99999281	0.00000000	22.50861000	13.79183000
124.19999280	0.00000000	21.71506000	13.04749000
124.39999279	0.00000000	20.55241000	12.72146000
124.59999277	0.00000000	19.43897000	13.04749000
124.79999276	0.00000000	19.01451000	13.79183000
124.99999275	0.00000000	18.97145000	14.21014000
125.19999274	0.00000000	19.01451000	14.62844000
125.39999273	0.00000000	19.43897000	15.36663000
125.59999271	0.00000000	20.55241000	15.74188000
125.79999270	0.00000000	21.66585000	15.78494000
125.99999269	0.00000000	22.13336000	15.78494000
126.19999268	0.00000000	22.55167000	15.78494000
126.39999267	0.00000000	23.29601000	15.74188000
126.59999265	0.00000000	23.62205000	15.36663000
126.79999264	0.00000000	23.24680000	14.62844000
126.99999263	0.00000000	22.13336000	14.25320000
127.19999262	0.00000000	20.97072000	14.21014000
127.39999261	0.00000000	20.17716000	14.21014000
127.59999260	0.00000000	19.38976000	14.21014000
127.79999258	0.00000000	19.06373000	14.25320000
127.99999257	0.00000000	19.43897000	14.62844000
128.19999256	0.00000000	20.55241000	15.36663000
128.39999255	0.00000000	21.71506000	15.74188000
128.59999254	0.00000000	22.50861000	15.78494000
128.79999252	0.00000000	23.29601000	15.78494000
128.99999251	0.00000000	23.67126000	15.74188000
129.19999250	0.00000000	23.67126000	15.36663000
129.39999249	0.00000000	23.24680000	14.62844000
129.59999248	0.00000000	22.13336000	14.25320000
129.79999246	0.00000000	20.97072000	14.21014000
129.99999245	0.00000000	20.17716000	14.21014000
130.19999244	0.00000000	19.43897000	14.25320000
130.39999243	0.00000000	19.43897000	14.62844000
130.59999242	0.00000000	20.17716000	15.36663000
130.79999241	0.00000000	20.92766000	15.74188000
130.99999239	0.00000000	21.75812000	15.74188000
131.19999238	0.00000000	22.50861000	15.36663000
131.39999237	0.00000000	23.24680000	14.62844000
131.59999236	0.00000000	23.24680000	14.21014000
131.79999235	0.00000000	22.55167000	13.79183000
131.99999233	0.00000000	22.13336000	13.04749000
132.19999232	-0.15871060	21.71506000	12.67224000
132.39999231	0.00000000	20.97072000	12.67224000
132.59999230	0.00000000	20.59547000	13.04749000
132.79999229	0.00000000	20.55241000	13.79183000
132.99999227	0.00000000	20.59547000	14.16708000
133.19999226	0.00000000	20.97072000	14.25320000
133.39999225	0.00000000	21.71506000	14.62844000
133.59999224	0.00000000	22.04109000	15.36663000
133.79999223	0.00000000	21.75812000	15.69267000
133.99999222	0.00000000	21.34596000	15.36663000
134.19999220	0.00000000	21.38287000	14.58538000
134.39999219	0.00000000	21.34596000	13.83489000
134.59999218	0.00000000	21.75812000	13.04749000
134.79999217	0.00000000	22.09030000	12.67224000
134.99999216	0.00000000	22.13336000	12.62918000
135.19999214	0.00000000	22.13336000	12.67224000
135.39999213	0.00000000	22.13336000	13.04749000
135.59999212	0.00000000	22.09030000	13.83489000
135.79999211	0.00000000	21.71506000	14.58538000
135.99999210	0.00000000	20.97072000	15.36663000
136.19999208	0.00000000	20.59547000	15.74188000
136.39999207	0.00000000	20.55241000	15.78494000
136.59999206	-0.15871060	20.59547000	15.78494000
136.79999205	0.00000000	20.97072000	15.74188000
136.99999204	0.00000000	21.71506000	15.36663000
137.19999203	0.00000000	22.09030000	14.62844000
137.39999201	0.00000000	22.17643000	14.21014000
137.59999200	0.00000000	22.55167000	13.79183000
137.79999199	0.00000000	23.24680000	13.09670000
137.99999198	0.00000000	23.24680000	13.09670000
138.19999197	0.00000000	22.50861000	13.79183000
138.39999195	0.00000000	21.75812000	14.21014000
138.59999194	0.00000000	20.97072000	14.62844000
138.79999193	0.00000000	20.59547000	15.36663000
138.99999192	0.00000000	20.59547000	15.74188000
139.19999191	0.00000000	20.97072000	15.82800000
139.39999189	0.00000000	21.71506000	16.20325000
139.59999188	0.00000000	22.13336000	16.89837000
139.79999187	0.00000000	22.55167000	16.89837000
139.99999186	0.00000000	23.29601000	16.16018000
140.19999185	0.00000000	23.67126000	15.40969000
140.39999184	0.00000000	23.67126000	14.62844000
140.59999182	0.00000000	23.29601000	14.25320000
140.79999181	0.00000000	22.55167000	14.21014000
140.99999180	0.00000000	22.17643000	14.21014000
141.19999179	0.00000000	22.13336000	14.25320000
141.39999178	0.00000000	22.13336000	14.62844000
141.59999176	0.00000000	22.13336000	15.36663000
141.79999175	0.00000000	22.13336000	15.78494000
141.99999174	0.00000000	22.17643000	16.20325000
142.19999173	0.00000000	22.50861000	16.89837000
142.39999172	0.00000000	22.87770000	16.89837000
142.59999170	0.00000000	22.50861000	16.16018000
142.79999169	0.00000000	22.17643000	15.40969000
142.99999168	0.00000000	22.13336000	14.62844000
143.19999167	0.00000000	22.13336000	14.21014000
143.39999166	0.00000000	22.13336000	13.83489000
143.59999165	0.00000000	22.13336000	13.46580000
143.79999163	0.00000000	22.13336000	13.83489000
143.99999162	0.00000000	22.13336000	14.21014000
144.19999161	0.00000000	22.17643000	14.62844000
144.39999160	0.00000000	22.55167000	15.36663000
144.59999159	0.00000000	23.24680000	15.74188000
144.79999157	0.00000000	23.24680000	15.78494000
144.99999156	0.00000000	22.55167000	15.78494000
145.19999155	0.00000000	22.17643000	15.74188000
145.39999154	0.00000000	22.13336000	15.36663000
145.59999153	0.00000000	22.09030000	14.62844000
145.79999151	0.00000000	21.75812000	14.25320000
145.99999150	0.00000000	21.38902000	14.16708000
146.19999149	0.00000000	21.75812000	13.83489000
146.39999148	0.00000000	22.09030000	13.46580000
146.59999147	0.00000000	22.17643000	13.83489000
146.79999146	0.00000000	22.55167000	14.16708000
146.99999144	0.00000000	23.29601000	14.25320000
147.19999143	0.00000000	23.62205000	14.62844000
147.39999142	0.00000000	23.33907000	15.36663000
147.59999141	0.00000000	22.92692000	15.74188000
147.79999140	0.00000000	22.92076000	15.78494000
147.99999138	0.00000000	22.50861000	15.74188000
148.19999137	0.00000000	22.17643000	15.36663000
148.39999136	0.00000000	22.13336000	14.62844000
148.59999135	0.00000000	22.13336000	14.21014000
148.79999134	0.00000000	22.13336000	13.83489000
148.99999132	0.00000000	22.13336000	13.46580000
149.19999131	0.00000000	22.17643000	13.83489000
149.39999130	0.00000000	22.55167000	14.16708000
149.59999129	0.00000000	23.29601000	14.25320000
149.79999128	0.00000000	23.67126000	14.62844000
149.99999127	0.00000000	23.67126000	15.36663000
150.19999125	0.00000000	23.29601000	15.74188000
150.39999124	0.00000000	22.55167000	15.78494000
150.59999123	0.00000000	22.17643000	15.78494000
150.79999122	0.00000000	22.13336000	15.78494000
150.99999121	0.00000000	22.13336000	15.78494000
151.19999119	0.00000000	22.13336000	15.74188000
151.39999118	0.00000000	22.13336000	15.36663000
151.59999117	0.00000000	22.13336000	14.62844000
151.79999116	0.00000000	22.17643000	14.25320000
151.99999115	0.00000000	22.55167000	14.21014000
152.19999113	0.00000000	23.29601000	14.21014000
152.39999112	0.00000000	23.67126000	14.25320000
152.59999111	0.00000000	23.71432000	14.58538000
152.79999110	0.00000000	23.71432000	14.99139000
152.99999109	0.00000000	23.71432000	15.00369000
153.19999108	0.00000000	23.67126000	15.40969000
153.39999106	0.00000000	23.29601000	15.74188000
153.59999105	0.00000000	22.55167000	15.78494000
153.79999104	0.00000000	22.17643000	15.78494000
153.99999103	0.00000000	22.13336000	15.78494000
154.19999102	0.00000000	22.13336000	15.78494000
154.39999100	0.00000000	22.13336000	15.78494000
154.59999099	0.00000000	22.13336000	15.74188000
154.79999098	0.00000000	22.17643000	15.36663000
154.99999097	0.00000000	22.55167000	14.62844000
155.19999096	0.00000000	23.29601000	14.25320000
155.39999094	0.00000000	23.67126000	14.25320000
155.59999093	0.00000000	23.71432000	14.62844000
155.79999092	0.00000000	23.71432000	15.36663000
155.99999091	0.00000000	23.67126000	15.74188000
156.19999090	0.00000000	23.29601000	15.78494000
156.39999089	0.00000000	22.55167000	15.78494000
156.59999087	0.00000000	22.17643000	15.82800000
156.79999086	0.00000000	22.13336000	16.16018000
156.99999085	0.00000000	22.13336000	16.52928000
157.19999084	0.00000000	22.13336000	16.16018000
157.39999083	0.00000000	22.13336000	15.78494000
157.59999081	0.00000000	22.17643000	15.36663000
157.79999080	-0.15871060	22.55167000	14.62844000
157.99999079	0.00000000	23.29601000	14.25320000
158.19999078	0.00000000	23.67126000	14.21014000
158.39999077	0.00000000	23.71432000	14.21014000
158.59999075	0.00000000	23.71432000	14.25320000
158.79999074	0.00000000	23.71432000	14.62844000
158.99999073	0.00000000	23.71432000	15.36663000
159.19999072	0.00000000	23.71432000	15.74188000
159.39999071	0.00000000	23.67126000	15.78494000
159.59999070	0.00000000	23.29601000	15.78494000
159.79999068	0.00000000	22.55167000	15.78494000
159.99999067	0.00000000	22.17643000	15.78494000
160.19999066	-0.15871060	22.13336000	15.78494000
160.39999065	0.00000000	22.17643000	15.74188000
160.59999064	0.00000000	22.50861000	15.36663000
160.79999062	0.00000000	22.92076000	14.62844000
160.99999061	0.00000000	22.92692000	14.30241000
161.19999060	0.00000000	23.33907000	14.58538000
161.39999059	0.00000000	23.67126000	14.99139000
161.59999058	0.00000000	23.71432000	15.00369000
161.79999056	0.00000000	23.71432000	15.40969000
161.99999055	0.00000000	23.71432000	15.74188000
162.19999054	0.00000000	23.71432000	15.78494000
162.39999053	0.00000000	23.71432000	15.78494000
162.59999052	0.00000000	23.67126000	15.78494000
162.79999051	0.00000000	23.29601000	15.78494000
162.99999049	0.00000000	22.55167000	15.78494000
163.19999048	0.00000000	22.17643000	15.78494000
163.39999047	0.00000000	22.13336000	15.74188000
163.59999046	0.00000000	22.13336000	15.40969000
163.79999045	0.00000000	22.13336000	15.00369000
163.99999043	0.00000000	22.17643000	14.99139000
164.19999042	0.00000000	22.55167000	14.58538000
164.39999041	0.00000000	23.29601000	14.25320000
164.59999040	0.00000000	23.67126000	14.21014000
164.79999039	0.00000000	23.71432000	14.25320000
164.99999037	0.00000000	23.71432000	14.58538000
165.19999036	0.00000000	23.71432000	14.99139000
165.39999035	0.00000000	23.71432000	15.00369000
165.59999034	0.00000000	23.71432000	15.40969000
165.79999033	0.00000000	23.67126000	15.74188000
165.99999032	0.00000000	23.29601000	15.78494000
166.19999030	0.00000000	22.55167000	15.78494000
166.39999029	0.00000000	22.17643000	15.78494000
166.59999028	0.00000000	22.13336000	15.74188000
166.79999027	0.00000000	22.17643000	15.40969000
166.99999026	0.00000000	22.55167000	15.04675000
167.19999024	0.00000000	23.29601000	15.40969000
167.39999023	0.00000000	23.67126000	15.74188000
167.59999022	0.00000000	23.71432000	15.78494000
167.79999021	0.00000000	23.71432000	15.78494000
167.99999020	0.00000000	23.71432000	15.78494000
168.19999018	0.00000000	23.71432000	15.78494000
168.39999017	0.00000000	23.71432000	15.78494000
168.59999016	0.00000000	23.71432000	15.78494000
168.79999015	0.00000000	23.71432000	15.78494000
168.99999014	0.00000000	23.71432000	15.78494000
169.19999013	0.00000000	23.71432000	15.78494000
169.39999011	0.00000000	23.71432000	15.78494000
169.59999010	0.00000000	23.71432000	15.78494000
169.79999009	0.00000000	23.71432000	15.78494000
169.99999008	0.00000000	23.71432000	15.78494000
170.19999007	0.00000000	23.71432000	15.78494000
170.39999005	0.00000000	23.71432000	15.78494000
170.59999004	0.00000000	23.67126000	15.78494000
170.79999003	0.00000000	23.33907000	15.78494000
170.99999002	0.00000000	22.96998000	15.78494000
171.19999001	0.00000000	23.33907000	15.78494000
171.39998999	0.00000000	23.67126000	15.78494000
171.59998998	0.00000000	23.71432000	15.78494000
171.79998997	0.00000000	23.71432000	15.78494000
171.99998996	0.00000000	23.71432000	15.78494000
172.19998995	0.00000000	23.71432000	15.78494000
172.39998994	0.00000000	23.71432000	15.78494000
172.59998992	0.00000000	23.71432000	15.78494000
172.79998991	0.00000000	23.71432000	15.78494000
172.99998990	0.00000000	23.71432000	15.78494000
173.19998989	0.00000000	23.71432000	15.78494000
173.39998988	0.00000000	23.71432000	15.78494000
173.59998986	0.00000000	23.71432000	15.78494000
173.79998985	0.00000000	23.71432000	15.78494000
173.99998984	0.00000000	23.71432000	15.78494000
174.19998983	0.00000000	23.71432000	15.78494000
174.39998982	0.00000000	23.71432000	15.78494000
174.59998980	0.00000000	23.71432000	15.78494000
174.79998979	0.00000000	23.71432000	15.78494000
174.99998978	0.00000000	23.71432000	15.78494000
175.19998977	0.00000000	23.71432000	15.78494000
175.39998976	0.00000000	23.71432000	15.78494000
175.59998975	0.00000000	23.71432000	15.78494000
175.79998973	0.00000000	23.71432000	15.78494000
175.99998972	0.00000000	23.71432000	15.78494000
176.19998971	0.00000000	23.71432000	15.78494000
176.39998970	0.00000000	23.71432000	15.78494000
176.59998969	0.00000000	23.71432000	15.78494000
176.79998967	0.00000000	23.71432000	15.78494000
176.99998966	0.00000000	23.71432000	15.78494000
177.19998965	0.00000000	23.71432000	15.78494000
177.39998964	0.00000000	23.71432000	15.78494000
177.59998963	0.00000000	23.71432000	15.78494000
177.79998961	0.00000000	23.71432000	15.78494000
177.99998960	0.00000000	23.71432000	15.78494000
178.19998959	0.00000000	23.71432000	15.78494000
178.39998958	0.00000000	23.71432000	15.78494000
178.59998957	0.00000000	23.71432000	15.78494000
178.79998956	0.00000000	23.75738000	15.78494000
178.99998954	0.00000000	24.08957000	15.78494000
179.19998953	0.00000000	24.50172000	15.78494000
179.39998952	0.00000000	24.50787000	15.78494000
179.59998951	0.00000000	24.87697000	15.78494000
179.79998950	0.00000000	24.82775000	15.74188000
179.99998948	0.00000000	24.13263000	15.40969000
180.19998947	0.00000000	23.75738000	15.04675000
180.39998946	0.00000000	23.71432000	15.36663000
180.59998945	0.00000000	23.71432000	15.36663000
180.79998944	0.00000000	23.71432000	15.04675000
180.99998942	0.00000000	23.71432000	15.40969000
181.19998941	0.00000000	23.71432000	15.74188000
181.39998940	0.00000000	23.71432000	15.78494000
181.59998939	0.00000000	23.71432000	15.78494000
181.79998938	0.00000000	23.71432000	15.78494000
181.99998937	0.00000000	23.75738000	15.78494000
182.19998935	0.00000000	24.08957000	15.78494000
182.39998934	0.00000000	24.45866000	15.78494000
182.59998933	0.00000000	24.08957000	15.74188000
182.79998932	0.00000000	23.75738000	15.36663000
182.99998931	0.00000000	23.71432000	14.67150000
183.19998929	0.00000000	23.71432000	14.67150000
183.39998928	0.00000000	23.71432000	15.36663000
183.59998927	0.00000000	23.71432000	15.74188000
183.79998926	0.00000000	23.71432000	15.78494000
183.99998925	0.00000000	23.71432000	15.82800000
184.19998923	0.00000000	23.71432000	16.16018000
184.39998922	0.00000000	23.71432000	16.57234000
184.59998921	0.00000000	23.71432000	16.57849000
184.79998920	0.00000000	23.71432000	16.94759000
184.99998919	0.00000000	23.75738000	16.89837000
185.19998918	0.00000000	24.13263000	16.20325000
185.39998916	0.00000000	24.87697000	15.82800000
185.59998915	0.00000000	25.25221000	15.78494000
185.79998914	0.00000000	25.29527000	15.78494000
185.99998913	0.00000000	25.29527000	15.78494000
186.19998912	0.00000000	25.29527000	15.78494000
186.39998910	0.00000000	25.29527000	15.78494000
186.59998909	0.00000000	25.29527000	15.82800000
186.79998908	0.00000000	25.29527000	16.20325000
186.99998907	0.00000000	25.25221000	16.94759000
187.19998906	0.00000000	24.87697000	17.32283000
187.39998904	0.00000000	24.18184000	17.36589000
187.59998903	0.00000000	24.18184000	17.36589000
187.79998902	0.00000000	24.87697000	17.36589000
187.99998901	0.00000000	25.25221000	17.32283000
188.19998900	0.00000000	25.29527000	16.94759000
188.39998899	0.00000000	25.29527000	16.20325000
188.59998897	0.00000000	25.29527000	15.82800000
188.79998896	0.00000000	25.29527000	15.78494000
188.99998895	0.00000000	25.29527000	15.78494000
189.19998894	0.00000000	25.29527000	15.78494000
189.39998893	0.00000000	25.29527000	15.78494000
189.59998891	0.00000000	25.25221000	15.78494000
189.79998890	0.00000000	24.92003000	15.78494000
189.99998889	0.00000000	24.50787000	15.78494000
190.19998888	0.00000000	24.54478000	15.82800000
190.39998887	0.00000000	24.46481000	16.16018000
190.59998885	0.00000000	24.54478000	16.52928000
190.79998884	0.00000000	24.50787000	16.16018000
190.99998883	0.00000000	24.92003000	15.82800000
191.19998882	0.00000000	25.25221000	15.78494000
191.39998881	0.00000000	25.29527000	15.78494000
191.59998880	0.00000000	25.29527000	15.78494000
191.79998878	0.00000000	25.29527000	15.78494000
191.99998877	0.00000000	25.25221000	15.78494000
192.19998876	0.00000000	24.87697000	15.78494000
192.39998875	0.00000000	24.13263000	15.78494000
192.59998874	0.00000000	23.75738000	15.78494000
192.79998872	0.00000000	23.75738000	15.78494000
192.99998871	0.00000000	24.13263000	15.78494000
193.19998870	0.00000000	24.82775000	15.78494000
193.39998869	0.00000000	24.87697000	15.78494000
193.59998868	0.00000000	24.55093000	15.78494000
193.79998866	0.00000000	24.92003000	15.78494000
193.99998865	0.00000000	25.25221000	15.78494000
194.19998864	-0.15871060	25.29527000	15.78494000
194.39998863	0.00000000	25.29527000	15.78494000
194.59998862	0.00000000	25.29527000	15.78494000
194.79998861	0.00000000	25.29527000	15.78494000
194.99998859	-0.15871060	25.29527000	15.78494000
195.19998858	0.00000000	25.25221000	15.78494000
195.39998857	0.00000000	24.92003000	15.78494000
195.59998856	0.00000000	24.50787000	15.74188000
195.79998855	0.00000000	24.50172000	15.40969000
195.99998853	0.00000000	24.08957000	15.04675000
