Time	Channel A	Channel B	Channel C
(us)	(V)	(mV)	(mV)

-4.49999956	0.00000000	0.00000000	4.73671200
-4.29999957	0.00000000	0.00000000	4.73671200
-4.09999958	0.00000000	0.00000000	4.73671200
-3.89999959	0.00000000	0.00000000	4.73671200
-3.69999960	0.00000000	0.00000000	4.73671200
-3.49999962	0.00000000	0.00000000	4.73671200
-3.29999963	0.00000000	0.00000000	4.73671200
-3.09999964	0.00000000	0.00000000	4.73671200
-2.89999965	0.00000000	0.00000000	4.73671200
-2.69999966	0.00000000	0.00000000	4.73671200
-2.49999968	0.00000000	0.00000000	4.73671200
-2.29999969	0.00000000	0.00000000	4.73671200
-2.09999970	0.00000000	0.00000000	4.73671200
-1.89999971	0.00000000	0.00000000	4.73671200
-1.69999972	0.00000000	0.00000000	4.73671200
-1.49999973	0.00000000	0.00000000	4.73671200
-1.29999975	0.00000000	0.00000000	4.73671200
-1.09999976	0.00000000	0.00000000	4.73671200
-0.89999977	0.00000000	0.00000000	4.73671200
-0.69999978	0.00000000	0.00000000	4.73671200
-0.49999979	0.00000000	0.00000000	4.73671200
-0.29999981	0.31803640	0.00000000	4.77977300
-0.09999982	0.63668800	0.00000000	5.11195900
0.10000017	0.95533960	0.00000000	5.47490100
0.30000016	0.95533960	0.00000000	5.11195900
0.50000015	0.79601380	0.00000000	4.77977300
0.70000013	0.31803640	0.00000000	4.73671200
0.90000012	-0.63668800	0.00000000	4.73671200
1.10000011	-1.59264300	0.00000000	4.73671200
1.30000010	-2.38927200	0.00000000	4.73671200
1.50000009	-2.86724900	0.00000000	4.77977300
1.70000008	-2.54859700	0.00000000	5.15501900
1.90000006	-1.27399100	0.00000000	5.89320800
2.10000005	0.63668800	0.00000000	6.21924200
2.30000004	2.70792300	0.00000000	5.89320800
2.50000003	4.45989200	0.00000000	5.15501900
2.70000002	5.25652100	0.00000000	4.77977300
2.90000000	4.77854300	0.00000000	4.73671200
3.09999999	2.86724900	0.00000000	4.73671200
3.29999998	-0.15871060	0.00000000	4.73671200
3.49999997	-3.66326300	0.00000000	4.73671200
3.69999996	-6.53112700	0.00000000	4.77977300
3.89999994	-7.96444400	0.04306102	5.15501900
4.09999993	-7.48646600	0.37524600	5.89320800
4.29999992	-4.93786900	0.74434050	6.26845500
4.49999991	-0.95533960	0.37524600	6.31151500
4.69999990	3.50393700	0.04306102	6.26845500
4.89999989	7.32714100	0.00000000	5.89320800
5.09999987	9.23905000	0.00000000	5.15501900
5.29999986	9.07972400	0.00000000	4.77977300
5.49999985	6.53112700	0.00000000	4.73671200
5.69999984	2.22994600	0.00000000	4.73671200
5.89999983	-2.54859700	0.00000000	4.73671200
6.09999981	-6.69045300	0.00000000	4.73671200
6.29999980	-9.07972400	0.00000000	4.77977300
6.49999979	-9.23905000	0.00000000	5.15501900
6.69999978	-7.00848900	0.00000000	5.89320800
6.89999977	-3.18590100	0.00000000	6.26845500
7.09999975	1.11466500	0.00000000	6.26845500
7.29999974	4.93786900	0.00000000	5.89320800
7.49999973	7.32714100	0.00000000	5.15501900
7.69999972	7.64579200	0.00000000	4.77977300
7.89999971	6.21247500	0.00000000	4.73671200
8.09999970	3.34522600	0.00000000	4.73671200
8.29999968	0.00000000	0.00000000	4.73671200
8.49999967	-2.86724900	0.00000000	4.73671200
8.69999966	-4.77854300	0.00000000	4.73671200
8.89999965	-5.25652100	0.00000000	4.73671200
9.09999964	-4.30056600	0.00000000	4.73671200
9.29999962	-2.70792300	0.00000000	4.77977300
9.49999961	-0.63668800	0.00000000	5.11195900
9.69999960	1.11466500	0.00000000	5.47490100
9.89999959	2.22994600	0.00000000	5.11195900
10.09999958	2.54859700	0.00000000	4.77977300
10.29999956	2.22994600	0.00000000	4.73671200
10.49999955	1.43331700	0.00000000	4.77977300
10.69999954	0.47736220	0.00000000	5.11195900
10.89999953	-0.31803640	0.00000000	5.47490100
11.09999952	-0.79601380	0.00000000	5.11195900
11.29999951	-0.95533960	0.00000000	4.82898600
11.49999949	-0.95533960	0.00000000	5.11195900
11.69999948	-0.79601380	0.00000000	5.47490100
11.89999947	-0.47736220	0.00000000	5.11195900
12.09999946	-0.15871060	0.00000000	4.77977300
12.29999945	-0.15871060	0.00000000	4.73671200
12.49999943	-0.15871060	0.00000000	4.73671200
12.69999942	0.00000000	0.00000000	4.77977300
12.89999941	0.00000000	0.00000000	5.11195900
13.09999940	0.00000000	0.00000000	5.47490100
13.29999939	0.00000000	0.00000000	5.11195900
13.49999937	0.00000000	0.00000000	4.77977300
13.69999936	0.00000000	0.04306102	4.77977300
13.89999935	-0.15871060	0.37524600	5.15501900
14.09999934	-0.15871060	0.74434050	5.85014700
14.29999933	-0.15871060	0.41830710	5.85014700
14.49999932	-0.15871060	0.41830710	5.19808000
14.69999930	0.00000000	0.74434050	5.15501900
14.89999929	0.00000000	0.37524600	5.47490100
15.09999928	0.00000000	0.04306102	5.11195900
15.29999927	0.00000000	0.00000000	4.82898600
15.49999926	0.00000000	0.00000000	5.15501900
15.69999924	0.00000000	0.00000000	5.89320800
15.89999923	0.00000000	0.00000000	6.26845500
16.09999922	0.00000000	0.00000000	6.31151500
16.29999921	0.00000000	0.00000000	6.26845500
16.49999920	-0.15871060	0.00000000	5.89320800
16.69999919	-0.15871060	0.04306102	5.15501900
16.89999917	-0.15871060	0.41830710	4.77977300
17.09999916	0.00000000	1.16264800	4.73671200
17.29999915	0.00000000	1.53789400	4.73671200
17.49999914	0.00000000	1.58095500	4.73671200
17.69999913	0.00000000	1.53789400	4.73671200
17.89999911	0.00000000	1.11343500	4.73671200
18.09999910	0.00000000	-0.04306102	4.73671200
18.29999909	0.00000000	-1.58095500	4.73671200
18.49999908	0.00000000	-3.11884800	4.73671200
18.69999907	0.00000000	-4.27534400	4.73671200
18.89999905	-0.15871060	-4.65059000	4.73671200
19.09999904	0.00000000	-4.23228400	4.73671200
19.29999903	0.00000000	-2.65132900	4.73671200
19.49999902	0.00000000	0.09227362	4.73671200
19.69999901	0.00000000	3.58021600	4.73671200
19.89999900	0.00000000	7.43725300	4.77977300
20.09999898	0.00000000	10.51304000	5.11195900
20.29999897	0.00000000	12.00172000	5.47490100
20.49999896	0.00000000	11.11590000	5.11195900
20.69999895	0.00000000	6.84055100	4.77977300
20.89999894	0.00000000	-0.09227362	4.73671200
21.09999892	0.00000000	-7.86171200	4.73671200
21.29999891	0.00000000	-15.16363000	4.73671200
21.49999890	0.00000000	-20.09719000	4.73671200
21.69999889	0.00000000	-20.42323000	4.73671200
21.89999888	0.00000000	-15.77264000	4.73671200
22.09999886	0.00000000	-6.79749000	4.73671200
22.29999885	0.00000000	5.21038300	4.73671200
22.49999884	0.00000000	17.90723000	4.73671200
22.69999883	0.00000000	27.90969000	4.73671200
22.89999882	0.00000000	32.47416000	4.77977300
23.09999881	0.00000000	30.05659000	5.15501900
23.29999879	0.00000000	19.96186000	5.89320800
23.49999878	0.00000000	4.14616100	6.26845500
23.69999877	0.00000000	-13.67495000	6.31151500
23.89999876	0.00000000	-29.86589000	6.31151500
24.09999875	0.00000000	-40.56963000	6.26845500
24.29999873	0.00000000	-42.06447000	5.85014700
24.49999872	0.00000000	-33.55069000	4.68750000
24.69999871	0.00000000	-16.84301000	3.15575800
24.89999870	0.00000000	5.16117100	1.62401600
25.09999869	0.00000000	27.49138000	0.46136810
25.29999867	0.00000000	44.06372000	0.09227362
25.49999866	0.00000000	51.03962000	0.51058070
25.69999865	-0.15871060	46.71506000	2.08538400
25.89999864	0.00000000	31.59449000	4.82283400
26.09999863	0.00000000	8.47071800	8.31077700
26.29999862	0.00000000	-16.97834000	12.16166000
26.49999860	0.00000000	-38.24434000	15.18824000
26.69999859	0.00000000	-50.99040000	16.34473000
26.89999858	0.00000000	-52.10999000	15.14518000
27.09999857	0.00000000	-40.94488000	11.60802000
27.29999856	0.00000000	-20.51550000	5.75787400
27.49999854	0.00000000	4.18922200	-1.58095500
27.69999853	0.00000000	27.39911000	-8.87057000
27.89999852	0.00000000	44.06372000	-14.16708000
28.09999851	0.00000000	50.99040000	-15.28666000
28.29999850	0.00000000	46.38287000	-11.42962000
28.49999848	0.00000000	31.40379000	-3.67249000
28.69999847	0.00000000	10.59916000	6.82209600
28.89999846	0.00000000	-11.12205000	18.39321000
29.09999845	0.00000000	-29.31225000	28.38337000
29.29999844	0.00000000	-40.56963000	34.09818000
29.49999843	0.00000000	-42.52583000	33.67987000
29.69999841	0.00000000	-35.26698000	26.66708000
29.89999840	0.00000000	-20.98302000	14.30856000
30.09999839	0.00000000	-3.20497000	-1.11343500
30.29999838	0.00000000	14.19168000	-15.74803000
30.49999837	0.00000000	27.39911000	-26.20571000
30.69999835	0.00000000	34.06126000	-30.43184000
30.89999834	0.00000000	33.68602000	-27.27608000
31.09999833	0.00000000	26.37795000	-16.86762000
31.29999832	0.00000000	14.05020000	-1.39640700
31.49999831	0.00000000	0.13533460	15.60654000
31.69999829	0.00000000	-12.69685000	31.07775000
31.89999828	0.00000000	-21.96112000	41.44316000
32.09999827	0.00000000	-25.91043000	44.18061000
32.29999826	0.00000000	-24.00344000	38.74877000
32.49999825	0.00000000	-17.43971000	26.38410000
32.69999824	0.00000000	-7.39419200	9.38115100
32.89999822	0.00000000	3.77091500	-8.36614100
33.09999821	0.00000000	13.07210000	-23.04995000
33.29999820	0.00000000	18.89148000	-31.59449000
33.49999819	0.00000000	20.09719000	-32.38804000
33.69999818	0.00000000	16.65846000	-25.83046000
33.89999816	0.00000000	10.13779000	-13.05979000
34.09999815	0.00000000	1.99926200	3.15575800
34.29999814	0.00000000	-5.67790300	19.37131000
34.49999813	0.00000000	-11.11590000	32.10507000
34.69999812	0.00000000	-13.07210000	38.33046000
34.89999810	0.00000000	-11.58341000	37.21087000
35.09999809	0.00000000	-7.35113100	29.49680000
35.29999808	0.00000000	-1.58095500	16.76919000
35.49999807	0.00000000	4.18922200	2.12844500
35.69999806	0.00000000	8.42150500	-11.01132000
35.89999805	0.00000000	9.95939900	-19.88804000
36.09999803	0.00000000	8.46456700	-22.58243000
36.29999802	0.00000000	4.65059000	-18.39936000
36.49999801	0.00000000	0.04306102	-8.78444900
36.69999800	0.00000000	-4.23228400	3.48794300
36.89999799	0.00000000	-7.30807100	15.42200000
37.09999797	0.00000000	-8.42150500	23.51132000
37.29999796	0.00000000	-6.88361200	26.24877000
37.49999795	0.00000000	-3.06963600	23.17913000
37.69999794	0.00000000	1.53789400	15.14518000
37.89999793	0.00000000	5.81323800	4.82898600
38.09999791	0.00000000	8.88902600	-4.74286400
38.29999790	0.00000000	10.04552000	-10.50074000
38.49999789	0.00000000	8.88902600	-10.92520000
38.69999788	0.00000000	5.81323800	-6.32381900
38.89999787	0.00000000	1.53789400	2.08538400
39.09999786	0.00000000	-3.06963600	11.61417000
39.29999784	0.00000000	-6.93282500	18.90994000
39.49999783	0.00000000	-8.88902600	21.97957000
39.69999782	0.00000000	-8.93208600	20.06643000
39.89999781	0.00000000	-7.35113100	13.52116000
40.09999780	0.00000000	-4.27534400	4.36146600
40.29999778	0.00000000	-0.37524600	-4.87819900
40.49999777	0.00000000	3.53715500	-11.38656000
40.69999776	0.00000000	7.35113100	-13.66265000
40.89999775	0.00000000	9.67027500	-10.59301000
41.09999774	0.00000000	9.72563900	-2.93430100
41.29999772	0.00000000	8.59990100	6.64370100
41.49999771	0.00000000	6.18848400	15.88336000
41.69999770	0.00000000	2.74360200	22.02264000
41.89999769	0.00000000	-1.16264800	23.60359000
42.09999768	0.00000000	-4.60752900	20.53395000
42.29999767	0.00000000	-6.97588500	13.65650000
42.49999765	0.00000000	-7.72637700	5.20423200
42.69999764	0.00000000	-6.97588500	-2.51599400
42.89999763	0.00000000	-4.65059000	-7.94783400
43.09999762	0.00000000	-1.62401600	-9.89788300
43.29999761	0.00000000	1.11343500	-8.36614100
43.49999759	0.00000000	3.06963600	-3.76476400
43.69999758	0.00000000	4.27534400	2.73745100
43.89999757	0.00000000	4.65059000	8.87672100
44.09999756	-0.15871060	4.32455700	13.18898000
44.29999755	0.00000000	3.58021600	15.14518000
44.49999753	0.00000000	3.20497000	14.76993000
44.69999752	0.00000000	3.16190900	12.07554000
44.89999751	0.00000000	3.16190900	7.89247000
45.09999750	0.00000000	3.11884800	3.66633800
45.29999749	0.00000000	2.65132900	0.55364170
45.49999748	0.00000000	1.07037400	-1.02116100
45.69999746	0.00000000	-1.62401600	-1.06422200
45.89999745	0.00000000	-4.69980300	0.09227362
46.09999744	0.00000000	-7.43725300	2.04232300
46.29999743	0.00000000	-9.30733200	4.73671200
46.49999742	0.00000000	-9.62721400	7.38188900
46.69999740	0.00000000	-7.25885800	8.96284400
46.89999739	0.00000000	-2.60826800	9.43036400
47.09999738	0.00000000	3.58021600	9.38115100
47.29999737	0.00000000	10.09473000	8.54453700
47.49999736	0.00000000	14.70226000	6.26845500
47.69999734	0.00000000	16.23400000	3.61712600
47.89999733	0.00000000	14.27780000	1.66707700
48.09999732	0.00000000	8.83981200	0.46136810
48.29999731	0.00000000	1.11343500	0.13533460
48.49999730	0.00000000	-7.39419200	0.92888770
48.69999729	0.00000000	-14.70226000	3.24803100
48.89999727	0.00000000	-18.89148000	6.26845500
49.09999726	0.00000000	-18.46703000	9.00590400
49.29999725	0.00000000	-13.07210000	10.96211000
49.49999724	0.00000000	-4.23228400	12.07554000
49.69999723	0.00000000	5.81323800	11.65723000
49.89999721	0.00000000	14.65305000	9.38115100
50.09999720	0.00000000	20.00492000	6.26845500
50.29999719	0.00000000	20.00492000	2.78051200
50.49999718	0.00000000	14.70226000	-0.64591530
50.69999717	0.00000000	6.23154500	-2.55905500
50.89999715	0.00000000	-3.02657500	-2.60211600
51.09999714	0.00000000	-11.16511000	-1.02116100
51.29999713	0.00000000	-16.14788000	2.08538400
51.49999712	0.00000000	-16.88607000	6.31151500
51.69999711	0.00000000	-12.65379000	10.49459000
51.89999710	0.00000000	-4.69980300	13.23819000
52.09999708	0.00000000	3.77091500	14.03174000
52.29999707	0.00000000	10.42077000	13.23819000
52.49999706	0.00000000	14.60999000	10.53765000
52.69999705	0.00000000	14.92987000	6.68676100
52.89999704	0.00000000	10.37771000	2.87278500
53.09999702	0.00000000	3.16190900	-0.22760820
53.29999701	0.00000000	-4.18922200	-1.39640700
53.49999700	0.00000000	-9.95939900	-1.06422200
53.69999699	0.00000000	-12.65379000	0.51058070
53.89999698	0.00000000	-11.49114000	3.15575800
54.09999696	0.00000000	-6.93282500	5.85014700
54.29999695	0.00000000	-0.41830710	7.80019600
54.49999694	0.00000000	5.72711600	8.96284400
54.69999693	0.00000000	10.00246000	8.91978400
54.89999692	0.00000000	11.54035000	7.43110200
55.09999691	0.00000000	10.00246000	5.19808000
55.29999689	0.00000000	5.77017700	3.66633800
55.49999688	0.00000000	0.04306102	3.24803100
55.69999687	0.00000000	-5.35187000	3.66633800
55.89999686	0.00000000	-8.83981200	5.19808000
56.09999685	0.00000000	-10.00246000	7.43110200
56.29999683	0.00000000	-8.46456700	8.91978400
56.49999682	0.00000000	-4.60752900	8.91978400
56.69999681	0.00000000	0.37524600	7.38188900
56.89999680	0.00000000	5.35187000	4.68750000
57.09999679	0.00000000	8.42150500	1.62401600
57.29999677	0.00000000	8.88902600	-1.02116100
57.49999676	0.00000000	7.35113100	-2.18380900
57.69999675	0.00000000	4.27534400	-1.39640700
57.89999674	0.00000000	0.41830710	0.97194880
58.09999673	0.00000000	-3.02657500	5.24729300
58.29999672	0.00000000	-5.35187000	10.53765000
58.49999670	0.00000000	-5.77017700	14.76993000
58.69999669	0.00000000	-4.65059000	16.67692000
58.89999668	0.00000000	-2.69439000	15.88336000
59.09999667	0.00000000	0.00000000	12.03248000
59.29999666	0.00000000	2.65132900	6.26845500
59.49999664	0.00000000	4.18922200	0.09227362
59.69999663	0.00000000	4.27534400	-5.29650500
59.89999662	0.00000000	3.49409400	-8.31692900
60.09999661	0.00000000	2.32529500	-7.89862200
60.29999660	0.00000000	0.41830710	-3.67249000
60.49999658	0.00000000	-1.07037400	3.19881900
60.69999657	0.00000000	-1.48868100	10.53765000
60.89999656	0.00000000	-1.16264800	16.71998000
61.09999655	0.00000000	-0.37524600	20.52780000
61.29999654	0.00000000	0.37524600	20.52780000
61.49999653	0.00000000	1.16264800	16.67692000
61.69999651	0.00000000	1.48868100	10.11934000
61.89999650	0.00000000	1.16264800	2.04232300
62.09999649	-0.15871060	0.37524600	-5.25344500
62.29999648	0.00000000	-0.37524600	-9.84867000
62.49999647	0.00000000	-1.16264800	-10.63607000
62.69999645	0.00000000	-1.53789400	-7.24655500
62.89999644	0.00000000	-1.53789400	-1.43946800
63.09999643	0.00000000	-1.11343500	5.53026500
63.29999642	0.00000000	0.04306102	12.86294000
63.49999641	0.00000000	1.58095500	18.21481000
63.69999639	0.00000000	3.06963600	20.57702000
63.89999638	0.00000000	3.85703700	19.42052000
64.09999637	0.00000000	3.49409400	15.18824000
64.29999636	0.00000000	2.74360200	9.05511800
64.49999635	0.00000000	1.53789400	2.46063000
64.69999634	0.00000000	0.04306102	-2.93430100
64.89999632	0.00000000	-1.16264800	-6.45300100
65.09999631	0.00000000	-1.91314000	-7.24655500
65.29999630	0.00000000	-2.27608300	-5.75787400
65.49999629	0.00000000	-1.48868100	-2.60211600
65.69999628	0.00000000	0.00000000	1.99311000
65.89999626	0.00000000	1.48868100	7.00664300
66.09999625	0.00000000	2.27608300	10.91289000
66.29999624	0.00000000	1.91314000	13.65650000
66.49999623	0.00000000	1.16264800	14.81299000
66.69999622	0.00000000	-0.04306102	14.07480000
66.89999620	0.00000000	-1.53789400	12.16781000
67.09999619	0.00000000	-2.60826800	9.42421200
67.29999618	0.00000000	-2.23302100	6.31151500
67.49999617	0.00000000	-0.37524600	3.19881900
67.69999616	0.00000000	1.58095500	0.41830710
67.89999615	0.00000000	3.53715500	-1.90698800
68.09999613	0.00000000	5.43799200	-3.80782500
68.29999612	0.00000000	6.14542300	-4.14000900
68.49999611	0.00000000	5.39493100	-2.64517700
68.69999610	0.00000000	3.02657500	0.09227362
68.89999609	0.00000000	-0.41830710	3.62327700
69.09999607	0.00000000	-4.27534400	7.89247000
69.29999606	0.00000000	-7.35113100	12.11860000
69.49999605	0.00000000	-8.83981200	15.18824000
69.69999604	0.00000000	-8.04626000	16.34473000
69.89999603	0.00000000	-4.60752900	15.18824000
70.09999601	0.00000000	0.04306102	12.07554000
70.29999600	0.00000000	5.07504900	7.42495000
70.49999599	0.00000000	9.67027500	2.04232300
70.69999598	0.00000000	11.95866000	-2.60211600
70.89999597	0.00000000	11.62648000	-5.67175200
71.09999596	0.00000000	8.88902600	-6.40994000
71.29999594	0.00000000	4.23228400	-4.14000900
71.49999593	0.00000000	-1.53789400	0.04306102
71.69999592	0.00000000	-6.93282500	4.73671200
71.89999591	0.00000000	-10.42077000	9.38115100
72.09999590	0.00000000	-11.62648000	13.18898000
72.29999588	0.00000000	-10.42077000	14.72687000
72.49999587	0.00000000	-6.93282500	13.65650000
72.69999586	0.00000000	-1.53789400	11.00517000
72.89999585	0.00000000	4.23228400	7.89247000
73.09999584	0.00000000	8.88902600	4.77977300
73.29999582	0.00000000	11.58341000	2.08538400
73.49999581	0.00000000	11.58341000	0.55364170
73.69999580	0.00000000	8.93208600	0.55364170
73.89999579	0.00000000	4.69980300	2.04232300
74.09999578	0.00000000	0.04306102	4.26919300
74.29999577	0.00000000	-4.23228400	5.80093500
74.49999575	0.00000000	-7.30807100	6.21924200
74.69999574	0.00000000	-8.46456700	5.85014700
74.89999573	0.00000000	-7.30807100	4.73671200
75.09999572	0.00000000	-4.27534400	3.62327700
75.29999571	0.00000000	-0.46751960	3.24803100
75.49999569	0.00000000	2.65132900	3.66633800
75.69999568	0.00000000	4.65059000	5.19808000
75.89999567	0.00000000	5.81323800	7.51722400
76.09999566	0.00000000	5.81323800	9.79945900
76.29999565	0.00000000	4.65059000	11.70029000
76.49999563	0.00000000	2.78666300	12.03248000
76.69999562	0.00000000	0.88582670	10.49459000
76.89999561	-0.15871060	0.09227362	7.38188900
77.09999560	0.00000000	0.00000000	3.15575800
77.29999559	0.00000000	0.00000000	-1.07037400
77.49999558	0.00000000	0.00000000	-4.13385800
77.69999556	0.00000000	0.00000000	-5.25344500
77.89999555	0.00000000	-0.04306102	-3.71555100
78.09999554	0.00000000	-0.41830710	0.09227362
78.29999553	0.00000000	-1.20570900	4.73671200
78.49999552	0.00000000	-1.91314000	9.43036400
78.69999550	0.00000000	-2.27608300	13.65650000
78.89999549	0.00000000	-1.44562000	16.30167000
79.09999548	0.00000000	0.41830710	16.30167000
79.29999547	0.00000000	2.74360200	13.65650000
79.49999546	0.00000000	4.65059000	9.43036400
79.69999544	0.00000000	5.81323800	4.77977300
79.89999543	0.00000000	5.81323800	0.51058070
80.09999542	0.00000000	4.65059000	-2.60211600
80.29999541	0.00000000	2.69439000	-4.14000900
80.49999540	0.00000000	0.00000000	-3.76476400
80.69999539	0.00000000	-2.69439000	-1.48868100
80.89999537	0.00000000	-4.60752900	1.62401600
81.09999536	0.00000000	-5.35187000	5.11195900
81.29999535	0.00000000	-4.18922200	8.58759800
81.49999534	0.00000000	-1.53789400	10.91289000
81.69999533	0.00000000	1.53789400	12.16166000
81.89999531	0.00000000	4.23228400	12.49385000
82.09999530	0.00000000	5.77017700	11.74951000
82.29999529	0.00000000	5.81323800	9.79945900
82.49999528	0.00000000	4.69980300	7.47416300
82.69999527	0.00000000	3.11884800	4.73671200
82.89999525	0.00000000	1.16264800	2.04232300
83.09999524	0.00000000	-1.11343500	0.04306102
83.29999523	0.00000000	-2.65132900	-1.48868100
83.49999522	0.00000000	-3.06963600	-2.22687000
83.69999521	0.00000000	-2.69439000	-1.43946800
83.89999520	0.00000000	-1.53789400	0.51058070
84.09999518	0.00000000	-0.04306102	3.62327700
84.29999517	0.00000000	1.11343500	7.47416300
84.49999516	0.00000000	1.53789400	10.96211000
84.69999515	0.00000000	1.58095500	13.65650000
84.89999514	0.00000000	1.58095500	14.76993000
85.09999512	0.00000000	1.58095500	13.60728000
85.29999511	0.00000000	1.58095500	10.53765000
85.49999510	0.00000000	1.58095500	6.26845500
85.69999509	0.00000000	1.58095500	1.66707700
85.89999508	0.00000000	1.58095500	-2.18380900
86.09999506	0.00000000	1.53789400	-4.14000900
86.29999505	0.00000000	1.16264800	-4.14000900
86.49999504	0.00000000	0.37524600	-2.18380900
86.69999503	0.00000000	-0.37524600	1.66707700
86.89999502	0.00000000	-1.16264800	6.26845500
87.09999501	0.00000000	-1.53789400	10.53765000
87.29999499	0.00000000	-1.53789400	13.60728000
87.49999498	0.00000000	-1.11343500	14.72687000
87.69999497	0.00000000	0.04306102	13.18898000
87.89999496	0.00000000	1.53789400	9.38115100
88.09999495	0.00000000	2.74360200	4.73671200
88.29999493	0.00000000	3.49409400	0.13533460
88.49999492	0.00000000	3.85703700	-3.29724400
88.69999491	0.00000000	3.06963600	-4.09079700
88.89999490	0.00000000	1.58095500	-2.55905500
89.09999489	0.00000000	0.04306102	0.92888770
89.29999487	0.00000000	-1.11343500	5.89320800
89.49999486	0.00000000	-1.53789400	10.49459000
89.69999485	0.00000000	-1.53789400	13.60728000
89.89999484	0.00000000	-1.16264800	14.76993000
90.09999483	0.00000000	-0.37524600	13.56422000
90.29999482	0.00000000	0.37524600	10.11934000
90.49999480	0.00000000	1.16264800	5.15501900
90.69999479	0.00000000	1.53789400	0.55364170
90.89999478	0.00000000	1.58095500	-2.55905500
91.09999477	0.00000000	1.58095500	-3.67249000
91.29999476	0.00000000	1.58095500	-2.14074800
91.49999474	0.00000000	1.58095500	1.66707700
91.69999473	0.00000000	1.58095500	6.26845500
91.89999472	0.00000000	1.58095500	10.53765000
92.09999471	0.00000000	1.58095500	13.60728000
92.29999470	0.00000000	1.58095500	14.67766000
92.49999468	0.00000000	1.53789400	12.77067000
92.69999467	0.00000000	1.11343500	8.22465500
92.89999466	0.00000000	0.00000000	3.24803100
93.09999465	0.00000000	-1.16264800	-1.02116100
93.29999464	0.00000000	-1.95620100	-3.67249000
93.49999463	0.00000000	-2.69439000	-3.67249000
93.69999461	0.00000000	-2.65132900	-1.02116100
93.89999460	0.00000000	-1.48868100	3.20497000
94.09999459	0.00000000	0.41830710	7.80019600
94.29999458	0.00000000	2.74360200	11.65723000
94.49999457	0.00000000	4.65059000	13.56422000
94.69999455	0.00000000	5.81323800	13.18898000
94.89999454	0.00000000	5.81323800	10.49459000
95.09999453	0.00000000	4.65059000	6.31151500
95.29999452	0.00000000	2.65132900	2.12844500
95.49999451	0.00000000	-0.41830710	-0.60285430
95.69999449	0.00000000	-3.85703700	-1.39640700
95.89999448	0.00000000	-6.14542300	-0.64591530
96.09999447	0.00000000	-6.93282500	1.66707700
96.29999446	0.00000000	-5.77017700	4.73671200
96.49999445	0.00000000	-3.06963600	7.80019600
96.69999444	0.00000000	0.41830710	10.11934000
96.89999442	0.00000000	4.27534400	10.91289000
97.09999441	0.00000000	7.35113100	10.53765000
97.29999440	0.00000000	8.93208600	8.96284400
97.49999439	0.00000000	8.93208600	6.31151500
97.69999438	0.00000000	7.35113100	3.66633800
97.89999436	0.00000000	4.27534400	2.08538400
98.09999435	0.00000000	0.41830710	1.66707700
98.29999434	0.00000000	-3.06963600	2.04232300
98.49999433	0.00000000	-5.81323800	3.19881900
98.69999432	0.00000000	-7.35113100	4.68750000
98.89999430	0.00000000	-7.30807100	5.85014700
99.09999429	0.00000000	-5.39493100	6.26845500
99.29999428	0.00000000	-1.91314000	6.31151500
99.49999427	0.00000000	1.91314000	6.31151500
99.69999426	0.00000000	5.43799200	6.35457700
99.89999425	0.00000000	7.72637700	6.72982200
100.09999423	0.00000000	8.55684000	7.47416300
100.29999422	0.00000000	7.76943800	7.84940900
100.49999421	0.00000000	5.85629900	7.84940900
100.69999420	0.00000000	3.11884800	7.42495000
100.89999419	-0.15871060	0.04306102	6.26845500
101.09999417	0.00000000	-2.65132900	4.73671200
101.29999416	0.00000000	-4.23228400	3.15575800
101.49999415	0.00000000	-4.69980300	1.62401600
101.69999414	0.00000000	-4.65059000	0.55364170
101.89999413	0.00000000	-3.81397600	0.92888770
102.09999411	0.00000000	-1.53789400	2.82972400
102.29999410	0.00000000	1.11343500	5.15501900
102.49999409	0.00000000	3.11884800	7.89247000
102.69999408	0.00000000	4.69980300	10.53765000
102.89999407	0.00000000	5.81323800	12.03248000
103.09999406	0.00000000	5.81323800	11.70029000
103.29999404	0.00000000	4.65059000	9.75639700
103.49999403	0.00000000	2.74360200	7.05585600
103.69999402	0.00000000	0.41830710	3.57406500
103.89999401	0.00000000	-1.48868100	0.55364170
104.09999400	0.00000000	-2.69439000	-1.02116100
104.29999398	0.00000000	-3.06963600	-1.02116100
104.49999397	0.00000000	-2.69439000	0.51058070
104.69999396	0.00000000	-1.53789400	3.19881900
104.89999395	0.00000000	0.00000000	6.26845500
105.09999394	0.00000000	1.53789400	8.96284400
105.29999392	0.00000000	2.69439000	10.49459000
105.49999391	0.00000000	3.11884800	10.53765000
105.69999390	0.00000000	3.11884800	9.38115100
105.89999389	0.00000000	2.69439000	7.47416300
106.09999388	0.00000000	1.53789400	5.15501900
106.29999387	0.00000000	0.04306102	3.24803100
106.49999385	0.00000000	-1.11343500	2.04232300
106.69999384	0.00000000	-1.48868100	1.66707700
106.89999383	0.00000000	-1.11343500	2.08538400
107.09999382	0.00000000	0.04306102	3.61712600
107.29999381	0.00000000	1.53789400	5.89320800
107.49999379	0.00000000	2.69439000	7.80019600
107.69999378	0.00000000	3.06963600	8.96284400
107.89999377	0.00000000	2.69439000	8.96284400
108.09999376	0.00000000	1.58095500	7.80019600
108.29999375	0.00000000	0.41830710	5.93626900
108.49999374	0.00000000	-0.37524600	3.99237200
108.69999372	0.00000000	-1.16264800	2.87278500
108.89999371	0.00000000	-1.48868100	2.46063000
109.09999370	0.00000000	-1.16264800	3.24803100
109.29999369	0.00000000	-0.37524600	4.73671200
109.49999368	0.00000000	0.41830710	6.31151500
109.69999366	0.00000000	1.58095500	7.84940900
109.89999365	0.00000000	2.69439000	8.96284400
110.09999364	0.00000000	3.06963600	8.96284400
110.29999363	0.00000000	2.74360200	7.89247000
110.49999362	0.00000000	1.95620100	6.72982200
110.69999360	0.00000000	1.20570900	5.89320800
110.89999359	0.00000000	0.37524600	4.68750000
111.09999358	0.00000000	-0.33218500	3.19881900
111.29999357	0.00000000	-0.74434050	2.08538400
111.49999356	0.00000000	-0.37524600	2.04232300
111.69999355	0.00000000	-0.04306102	2.82357300
111.89999353	0.00000000	0.04306102	3.94931100
112.09999352	0.00000000	0.41830710	5.51796200
112.29999351	0.00000000	1.16264800	6.59448800
112.49999350	0.00000000	1.53789400	7.09891700
112.69999349	0.00000000	1.58095500	7.06200700
112.89999347	0.00000000	1.58095500	7.09891700
113.09999346	0.00000000	1.58095500	6.68676100
113.29999345	0.00000000	1.58095500	6.31151500
113.49999344	0.00000000	1.53789400	5.89320800
113.69999343	0.00000000	1.20570900	5.15501900
113.89999341	0.00000000	0.79355310	4.77977300
114.09999340	0.00000000	0.78740150	4.73671200
114.29999339	0.00000000	0.37524600	4.69365100
114.49999338	0.00000000	0.04306102	4.31840500
114.69999337	0.00000000	0.00000000	3.62327700
114.89999336	0.00000000	0.04306102	3.62327700
115.09999334	0.00000000	0.41830710	4.31840500
115.29999333	0.00000000	1.16264800	4.69365100
115.49999332	0.00000000	1.53789400	4.77977300
115.69999331	0.00000000	1.58095500	5.15501900
115.89999330	0.00000000	1.53789400	5.93626900
116.09999328	0.00000000	1.16264800	6.68676100
116.29999327	0.00000000	0.41830710	7.47416300
116.49999326	-0.15871060	0.04306102	7.80019600
116.69999325	0.00000000	0.00000000	7.47416300
116.89999324	0.00000000	0.00000000	6.68676100
117.09999322	0.00000000	0.04306102	5.89320800
117.29999321	0.00000000	0.41830710	4.73671200
117.49999320	0.00000000	1.20570900	3.62327700
117.69999319	0.00000000	1.95620100	3.19881900
117.89999318	0.00000000	2.74360200	3.19881900
118.09999317	0.00000000	3.06963600	3.57406500
118.29999315	0.00000000	2.69439000	4.36146600
118.49999314	0.00000000	1.58095500	5.11195900
118.69999313	0.00000000	0.41830710	5.93626900
118.89999312	0.00000000	-0.37524600	6.68676100
119.09999311	0.00000000	-1.16264800	7.47416300
119.29999309	0.00000000	-1.53789400	7.84940900
119.49999308	0.00000000	-1.53789400	7.84940900
119.69999307	0.00000000	-1.11343500	7.47416300
119.89999306	0.00000000	0.04306102	6.72982200
120.09999305	0.00000000	1.58095500	6.31151500
120.29999303	0.00000000	3.11884800	5.89320800
120.49999302	0.00000000	4.27534400	5.15501900
120.69999301	0.00000000	4.65059000	4.77977300
120.89999300	0.00000000	4.27534400	4.73671200
121.09999299	0.00000000	3.11884800	4.73671200
121.29999298	0.00000000	1.58095500	4.73671200
121.49999296	0.00000000	0.04306102	4.73671200
121.69999295	0.00000000	-1.11343500	4.77977300
121.89999294	0.00000000	-1.53789400	5.15501900
122.09999293	0.00000000	-1.53789400	5.89320800
122.29999292	0.00000000	-1.16264800	6.26845500
122.49999290	0.00000000	-0.37524600	6.35457700
122.69999289	0.00000000	0.41830710	6.68676100
122.89999288	0.00000000	1.58095500	7.05585600
123.09999287	0.00000000	2.69439000	6.68676100
123.29999286	0.00000000	3.11884800	6.31151500
123.49999284	0.00000000	3.16190900	5.89320800
123.69999283	0.00000000	3.11884800	5.15501900
123.89999282	0.00000000	2.74360200	4.77977300
124.09999281	0.00000000	1.95620100	4.69365100
124.29999280	0.00000000	1.20570900	4.36146600
124.49999279	0.00000000	0.37524600	3.99237200
124.69999277	0.00000000	-0.37524600	4.36146600
124.89999276	0.00000000	-1.16264800	4.73671200
125.09999275	0.00000000	-1.48868100	5.15501900
125.29999274	0.00000000	-1.16264800	5.89320800
125.49999273	0.00000000	-0.37524600	6.26845500
125.69999271	0.00000000	0.37524600	6.31151500
125.89999270	0.00000000	1.20570900	6.31151500
126.09999269	0.00000000	1.95620100	6.31151500
126.29999268	0.00000000	2.74360200	6.26845500
126.49999267	0.00000000	3.11884800	5.89320800
126.69999265	0.00000000	3.11884800	5.15501900
126.89999264	0.00000000	2.69439000	4.77977300
127.09999263	0.00000000	1.53789400	4.73671200
127.29999262	0.00000000	0.04306102	4.73671200
127.49999261	0.00000000	-1.11343500	4.73671200
127.69999260	0.00000000	-1.53789400	4.73671200
127.89999258	0.00000000	-1.53789400	4.77977300
128.09999257	0.00000000	-1.11343500	5.15501900
128.29999256	0.00000000	0.00000000	5.89320800
128.49999255	0.00000000	1.16264800	6.26845500
128.69999254	0.00000000	1.95620100	6.31151500
128.89999252	0.00000000	2.74360200	6.26845500
129.09999251	0.00000000	3.06963600	5.89320800
129.29999250	0.00000000	2.69439000	5.15501900
129.49999249	0.00000000	1.58095500	4.77977300
129.69999248	0.00000000	0.41830710	4.73671200
129.89999246	0.00000000	-0.33218500	4.73671200
130.09999245	0.00000000	-0.74434050	4.77977300
130.29999244	0.00000000	-0.37524600	5.15501900
130.49999243	0.00000000	0.00000000	5.89320800
130.69999242	0.00000000	0.41830710	6.26845500
130.89999241	0.00000000	1.20570900	6.31151500
131.09999239	0.00000000	1.95620100	6.31151500
131.29999238	0.00000000	2.69439000	6.31151500
131.49999237	0.00000000	2.69439000	6.26845500
131.69999236	0.00000000	1.99926200	5.89320800
131.89999235	0.00000000	1.58095500	5.15501900
132.09999233	0.00000000	1.16264800	4.77977300
132.29999232	0.00000000	0.41830710	4.73671200
132.49999231	0.00000000	0.04306102	4.73671200
132.69999230	0.00000000	0.00000000	4.77977300
132.89999229	0.00000000	0.00000000	5.15501900
133.09999227	0.00000000	0.04306102	5.89320800
133.29999226	0.00000000	0.37524600	6.31151500
133.49999225	0.00000000	0.74434050	6.68676100
133.69999224	0.00000000	0.41830710	7.05585600
133.89999223	0.00000000	0.46751960	6.64370100
134.09999222	0.00000000	1.16264800	5.93626900
134.29999220	0.00000000	1.53789400	5.15501900
134.49999219	0.00000000	1.58095500	4.73671200
134.69999218	0.00000000	1.58095500	4.31840500
134.89999217	0.00000000	1.58095500	3.62327700
135.09999216	0.00000000	1.58095500	3.62327700
135.29999214	0.00000000	1.58095500	4.31840500
135.49999213	0.00000000	1.58095500	4.73671200
135.69999212	-0.15871060	1.48868100	5.19808000
135.89999211	0.00000000	0.78740150	6.26845500
136.09999210	0.00000000	-0.31988190	7.00664300
136.29999208	0.00000000	-0.33218500	6.72982200
136.49999207	0.00000000	-0.04306102	6.72982200
136.69999206	0.00000000	0.00000000	7.05585600
136.89999205	0.00000000	0.04306102	6.64370100
137.09999204	0.00000000	0.46751960	5.93626900
137.29999203	0.00000000	1.58095500	5.15501900
137.49999201	0.00000000	2.69439000	4.73671200
137.69999200	0.00000000	3.06963600	4.31840500
137.89999199	0.00000000	2.74360200	3.62327700
138.09999198	0.00000000	1.95620100	3.62327700
138.29999197	0.00000000	1.20570900	4.31840500
138.49999195	0.00000000	0.41830710	4.73671200
138.69999194	0.00000000	0.04306102	5.15501900
138.89999193	0.00000000	0.00000000	5.89320800
139.09999192	0.00000000	0.00000000	6.31151500
139.29999191	0.00000000	0.04306102	6.68676100
139.49999189	0.00000000	0.41830710	7.05585600
139.69999188	0.00000000	1.16264800	6.68676100
139.89999187	0.00000000	1.53789400	6.31151500
140.09999186	0.00000000	1.58095500	5.89320800
140.29999185	0.00000000	1.58095500	5.15501900
140.49999184	0.00000000	1.58095500	4.77977300
140.69999182	0.00000000	1.53789400	4.69365100
140.89999181	0.00000000	1.16264800	4.36146600
141.09999180	0.00000000	0.41830710	3.99237200
141.29999179	0.00000000	0.09227362	4.40452700
141.49999178	0.00000000	0.41830710	5.11195900
141.69999176	0.00000000	1.16264800	5.89320800
141.89999175	0.00000000	1.53789400	6.26845500
142.09999174	0.00000000	1.58095500	6.35457700
142.29999173	0.00000000	1.58095500	6.68676100
142.49999172	0.00000000	1.58095500	7.05585600
142.69999170	0.00000000	1.58095500	6.64370100
142.89999169	0.00000000	1.58095500	5.93626900
143.09999168	0.00000000	1.53789400	5.11195900
143.29999167	0.00000000	1.16264800	4.36146600
143.49999166	0.00000000	0.46751960	3.62327700
143.69999165	0.00000000	0.46751960	3.62327700
143.89999163	0.00000000	1.16264800	4.31840500
144.09999162	0.00000000	1.53789400	4.73671200
144.29999161	0.00000000	1.58095500	5.15501900
144.49999160	0.00000000	1.58095500	5.93626900
144.69999159	0.00000000	1.58095500	6.64370100
144.89999157	0.00000000	1.58095500	7.05585600
145.09999156	0.00000000	1.53789400	6.68676100
145.29999155	0.00000000	1.16264800	6.31151500
145.49999154	0.00000000	0.41830710	5.89320800
145.69999153	0.00000000	0.04306102	5.15501900
145.89999151	0.00000000	0.00000000	4.77977300
146.09999150	0.00000000	0.04306102	4.73671200
146.29999149	0.00000000	0.41830710	4.73671200
146.49999148	0.00000000	1.16264800	4.73671200
146.69999147	0.00000000	1.53789400	4.73671200
146.89999146	0.00000000	1.58095500	4.77977300
147.09999144	0.00000000	1.58095500	5.15501900
147.29999143	0.00000000	1.58095500	5.89320800
147.49999142	0.00000000	1.58095500	6.26845500
147.69999141	0.00000000	1.53789400	6.31151500
147.89999140	0.00000000	1.16264800	6.31151500
148.09999138	0.00000000	0.41830710	6.26845500
148.29999137	0.00000000	0.04306102	5.89320800
148.49999136	0.00000000	0.00000000	5.15501900
148.69999135	0.00000000	0.04306102	4.77977300
148.89999134	0.00000000	0.41830710	4.73671200
149.09999132	0.00000000	1.16264800	4.73671200
149.29999131	0.00000000	1.53789400	4.73671200
149.49999130	0.00000000	1.58095500	4.77977300
149.69999129	0.00000000	1.58095500	5.15501900
149.89999128	0.00000000	1.58095500	5.89320800
150.09999127	0.00000000	1.58095500	6.26845500
150.29999125	0.00000000	1.53789400	6.31151500
150.49999124	0.00000000	1.20570900	6.31151500
150.69999123	0.00000000	0.79355310	6.31151500
150.89999122	0.00000000	0.78740150	6.31151500
151.09999121	0.00000000	0.37524600	6.26845500
151.29999119	0.00000000	0.04306102	5.89320800
151.49999118	0.00000000	0.04306102	5.15501900
151.69999117	0.00000000	0.41830710	4.82898600
151.89999116	0.00000000	1.16264800	5.11195900
152.09999115	0.00000000	1.53789400	5.47490100
152.29999113	0.00000000	1.58095500	5.15501900
152.49999112	0.00000000	1.58095500	5.19808000
152.69999111	0.00000000	1.58095500	5.89320800
152.89999110	0.00000000	1.58095500	6.26845500
153.09999109	0.00000000	1.58095500	6.31151500
153.29999108	0.00000000	1.53789400	6.31151500
153.49999106	0.00000000	1.16264800	6.31151500
153.69999105	0.00000000	0.41830710	6.31151500
153.89999104	0.00000000	0.04306102	6.31151500
154.09999103	0.00000000	0.00000000	6.31151500
154.29999102	0.00000000	0.00000000	6.31151500
154.49999100	0.00000000	0.04306102	6.26845500
154.69999099	0.00000000	0.41830710	5.89320800
154.89999098	0.00000000	1.16264800	5.15501900
155.09999097	0.00000000	1.53789400	4.77977300
155.29999096	0.00000000	1.58095500	4.73671200
155.49999094	0.00000000	1.58095500	4.73671200
155.69999093	0.00000000	1.58095500	4.77977300
155.89999092	0.00000000	1.58095500	5.15501900
156.09999091	0.00000000	1.53789400	5.89320800
156.29999090	0.00000000	1.16264800	6.26845500
156.49999089	0.00000000	0.41830710	6.31151500
156.69999087	0.00000000	0.04306102	6.31151500
156.89999086	0.00000000	0.00000000	6.31151500
157.09999085	0.00000000	0.00000000	6.31151500
157.29999084	0.00000000	0.00000000	6.26845500
157.49999083	0.00000000	0.04306102	5.89320800
157.69999081	0.00000000	0.41830710	5.15501900
157.89999080	0.00000000	1.16264800	4.77977300
158.09999079	0.00000000	1.53789400	4.73671200
158.29999078	0.00000000	1.58095500	4.73671200
158.49999077	0.00000000	1.58095500	4.73671200
158.69999075	0.00000000	1.58095500	4.77977300
158.89999074	0.00000000	1.58095500	5.15501900
159.09999073	0.00000000	1.58095500	5.89320800
159.29999072	0.00000000	1.53789400	6.26845500
159.49999071	0.00000000	1.16264800	6.31151500
159.69999070	0.00000000	0.41830710	6.31151500
159.89999068	0.00000000	0.04306102	6.31151500
160.09999067	0.00000000	0.00000000	6.31151500
160.29999066	0.00000000	0.00000000	6.26845500
160.49999065	0.00000000	0.00000000	5.89320800
160.69999064	0.00000000	0.04306102	5.15501900
160.89999062	0.00000000	0.41830710	4.77977300
161.09999061	0.00000000	1.16264800	4.73671200
161.29999060	0.00000000	1.53789400	4.73671200
161.49999059	0.00000000	1.58095500	4.77977300
161.69999058	0.00000000	1.58095500	5.15501900
161.89999056	0.00000000	1.58095500	5.89320800
162.09999055	0.00000000	1.58095500	6.26845500
162.29999054	0.00000000	1.58095500	6.31151500
162.49999053	0.00000000	1.58095500	6.31151500
162.69999052	0.00000000	1.53789400	6.31151500
162.89999051	0.00000000	1.16264800	6.31151500
163.09999049	0.00000000	0.41830710	6.26845500
163.29999048	0.00000000	0.04306102	5.93626900
163.49999047	0.00000000	0.00000000	5.53026500
163.69999046	0.00000000	0.00000000	5.51796200
163.89999045	0.00000000	0.04306102	5.11195900
164.09999043	0.00000000	0.41830710	4.77977300
164.29999042	0.00000000	1.16264800	4.73671200
164.49999041	0.00000000	1.53789400	4.73671200
164.69999040	0.00000000	1.58095500	4.73671200
164.89999039	0.00000000	1.58095500	4.73671200
165.09999037	0.00000000	1.58095500	4.77977300
165.29999036	0.00000000	1.58095500	5.15501900
165.49999035	0.00000000	1.53789400	5.89320800
165.69999034	0.00000000	1.16264800	6.26845500
165.89999033	0.00000000	0.41830710	6.31151500
166.09999032	0.00000000	0.04306102	6.31151500
166.29999030	0.00000000	0.00000000	6.26845500
166.49999029	0.00000000	0.04306102	5.89320800
166.69999028	0.00000000	0.41830710	5.19808000
166.89999027	0.00000000	1.16264800	5.15501900
167.09999026	0.00000000	1.53789400	5.47490100
167.29999024	0.00000000	1.58095500	5.11195900
167.49999023	0.00000000	1.58095500	4.77977300
167.69999022	0.00000000	1.53789400	4.73671200
167.89999021	0.00000000	1.20570900	4.77977300
168.09999020	0.00000000	0.83661410	5.15501900
168.29999018	0.00000000	1.20570900	5.89320800
168.49999017	0.00000000	1.53789400	6.21924200
168.69999016	0.00000000	1.58095500	5.93626900
168.89999015	0.00000000	1.58095500	5.57332700
169.09999014	0.00000000	1.58095500	5.93626900
169.29999013	0.00000000	1.58095500	6.21924200
169.49999011	0.00000000	1.58095500	5.89320800
169.69999010	0.00000000	1.58095500	5.19808000
169.89999009	0.00000000	1.58095500	5.19808000
170.09999008	0.00000000	1.58095500	5.85014700
170.29999007	0.00000000	1.58095500	5.85014700
170.49999005	0.00000000	1.58095500	5.15501900
170.69999004	0.00000000	1.58095500	4.82898600
170.89999003	0.00000000	1.58095500	5.11195900
171.09999002	0.00000000	1.58095500	5.47490100
171.29999001	-0.15871060	1.58095500	5.11195900
171.49998999	0.00000000	1.58095500	4.77977300
171.69998998	0.00000000	1.58095500	4.73671200
171.89998997	0.00000000	1.58095500	4.77977300
172.09998996	0.00000000	1.58095500	5.11195900
172.29998995	0.00000000	1.58095500	5.47490100
172.49998994	0.00000000	1.58095500	5.11195900
172.69998992	0.00000000	1.58095500	4.82898600
172.89998991	0.00000000	1.58095500	5.15501900
173.09998990	0.00000000	1.58095500	5.85014700
173.29998989	0.00000000	1.58095500	5.85014700
173.49998988	0.00000000	1.58095500	5.19808000
173.69998986	0.00000000	1.58095500	5.15501900
173.89998985	0.00000000	1.58095500	5.47490100
174.09998984	0.00000000	1.58095500	5.11195900
174.29998983	0.00000000	1.53789400	4.77977300
174.49998982	0.00000000	1.16264800	4.73671200
174.69998980	0.00000000	0.46751960	4.73671200
174.89998979	0.00000000	0.46751960	4.73671200
175.09998978	0.00000000	1.16264800	4.77977300
175.29998977	0.00000000	1.53789400	5.15501900
175.49998976	0.00000000	1.58095500	5.85014700
175.69998975	0.00000000	1.58095500	5.89320800
175.89998973	0.00000000	1.58095500	5.57332700
176.09998972	0.00000000	1.58095500	5.93626900
176.29998971	0.00000000	1.58095500	6.26845500
176.49998970	0.00000000	1.58095500	6.31151500
176.69998969	0.00000000	1.58095500	6.31151500
176.89998967	0.00000000	1.58095500	6.26845500
177.09998966	0.00000000	1.58095500	5.89320800
177.29998965	0.00000000	1.58095500	5.19808000
177.49998964	0.00000000	1.58095500	5.19808000
177.69998963	0.00000000	1.58095500	5.85014700
177.89998961	0.00000000	1.58095500	5.85014700
178.09998960	0.00000000	1.58095500	5.19808000
178.29998959	0.00000000	1.58095500	5.15501900
178.49998958	0.00000000	1.58095500	5.51796200
178.69998957	0.00000000	1.58095500	5.53026500
178.89998956	0.00000000	1.58095500	5.93626900
179.09998954	0.00000000	1.58095500	6.26845500
179.29998953	0.00000000	1.58095500	6.31151500
179.49998952	0.00000000	1.58095500	6.26845500
179.69998951	0.00000000	1.58095500	5.93626900
179.89998950	0.00000000	1.58095500	5.53026500
180.09998948	0.00000000	1.58095500	5.51796200
180.29998947	0.00000000	1.58095500	5.11195900
180.49998946	0.00000000	1.58095500	4.77977300
180.69998945	0.00000000	1.58095500	4.73671200
180.89998944	0.00000000	1.58095500	4.77977300
181.09998942	0.00000000	1.58095500	5.15501900
181.29998941	0.00000000	1.58095500	5.89320800
181.49998940	0.00000000	1.58095500	6.26845500
181.69998939	0.00000000	1.58095500	6.31151500
181.89998938	0.00000000	1.58095500	6.31151500
182.09998937	0.00000000	1.58095500	6.26845500
182.29998935	0.00000000	1.58095500	5.89320800
182.49998934	0.00000000	1.58095500	5.15501900
182.69998933	0.00000000	1.58095500	4.77977300
182.89998932	0.00000000	1.58095500	4.73671200
183.09998931	0.00000000	1.58095500	4.73671200
183.29998929	0.00000000	1.58095500	4.73671200
183.49998928	0.00000000	1.58095500	4.73671200
183.69998927	0.00000000	1.58095500	4.77977300
183.89998926	0.00000000	1.58095500	5.19808000
184.09998925	0.00000000	1.58095500	6.26845500
184.29998923	0.00000000	1.58095500	7.00664300
184.49998922	0.00000000	1.58095500	6.68676100
184.69998921	0.00000000	1.58095500	6.35457700
184.89998920	0.00000000	1.58095500	6.31151500
185.09998919	0.00000000	1.58095500	6.26845500
185.29998918	0.00000000	1.58095500	5.89320800
185.49998916	0.00000000	1.58095500	5.15501900
185.69998915	0.00000000	1.58095500	4.77977300
185.89998914	0.00000000	1.58095500	4.73671200
186.09998913	0.00000000	1.58095500	4.73671200
186.29998912	0.00000000	1.58095500	4.73671200
186.49998910	0.00000000	1.58095500	4.73671200
186.69998909	0.00000000	1.58095500	4.77977300
186.89998908	0.00000000	1.58095500	5.15501900
187.09998907	0.00000000	1.58095500	5.89320800
187.29998906	0.00000000	1.58095500	6.26845500
187.49998904	0.00000000	1.58095500	6.31151500
187.69998903	0.00000000	1.58095500	6.31151500
187.89998902	0.00000000	1.58095500	6.31151500
188.09998901	0.00000000	1.58095500	6.31151500
188.29998900	0.00000000	1.58095500	6.26845500
188.49998899	0.00000000	1.58095500	5.89320800
188.69998897	0.00000000	1.58095500	5.15501900
188.89998896	0.00000000	1.58095500	4.77977300
189.09998895	0.00000000	1.58095500	4.73671200
189.29998894	0.00000000	1.58095500	4.73671200
189.49998893	0.00000000	1.58095500	4.77977300
189.69998891	0.00000000	1.53789400	5.15501900
189.89998890	0.00000000	1.20570900	5.89320800
190.09998889	0.00000000	0.83661410	6.26845500
190.29998888	0.00000000	1.20570900	6.31151500
190.49998887	0.00000000	1.53789400	6.31151500
190.69998885	0.00000000	1.58095500	6.31151500
190.89998884	0.00000000	1.58095500	6.31151500
191.09998883	0.00000000	1.58095500	6.31151500
191.29998882	0.00000000	1.58095500	6.26845500
191.49998881	0.00000000	1.58095500	5.89320800
191.69998880	0.00000000	1.58095500	5.15501900
191.89998878	0.00000000	1.58095500	4.77977300
192.09998877	0.00000000	1.58095500	4.73671200
192.29998876	0.00000000	1.58095500	4.77977300
192.49998875	0.00000000	1.58095500	5.15501900
192.69998874	0.00000000	1.58095500	5.85014700
192.89998872	0.00000000	1.58095500	5.85014700
193.09998871	0.00000000	1.58095500	5.15501900
193.29998870	0.00000000	1.58095500	4.82898600
193.49998869	0.00000000	1.58095500	5.15501900
193.69998868	0.00000000	1.58095500	5.89320800
193.89998866	0.00000000	1.58095500	6.26845500
194.09998865	0.00000000	1.58095500	6.31151500
194.29998864	0.00000000	1.58095500	6.31151500
194.49998863	0.00000000	1.58095500	6.31151500
194.69998862	0.00000000	1.58095500	6.26845500
194.89998861	0.00000000	1.58095500	5.93626900
195.09998859	0.00000000	1.58095500	5.53026500
195.29998858	0.00000000	1.58095500	5.51796200
195.49998857	0.00000000	1.58095500	5.15501900
195.69998856	0.00000000	1.58095500	5.19808000
195.89998855	0.00000000	1.58095500	5.89320800
196.09998853	0.00000000	1.58095500	6.26845500
