Time	Channel A	Channel B	Channel C
(us)	(V)	(mV)	(mV)

-4.49999956	0.00000000	6.32381900	7.89247000
-4.29999957	0.00000000	6.32381900	7.89247000
-4.09999958	0.00000000	6.32381900	7.89247000
-3.89999959	0.00000000	6.32381900	7.89247000
-3.69999960	0.00000000	6.32381900	7.89247000
-3.49999962	0.00000000	6.32381900	7.89247000
-3.29999963	0.00000000	6.32381900	7.89247000
-3.09999964	0.00000000	6.32381900	7.89247000
-2.89999965	0.00000000	6.32381900	7.89247000
-2.69999966	0.00000000	6.32381900	7.89247000
-2.49999968	0.00000000	6.32381900	7.89247000
-2.29999969	0.00000000	6.32381900	7.89247000
-2.09999970	0.00000000	6.32381900	7.89247000
-1.89999971	0.00000000	6.32381900	7.89247000
-1.69999972	0.00000000	6.32381900	7.89247000
-1.49999973	0.00000000	6.32381900	7.89247000
-1.29999975	0.00000000	6.32381900	7.89247000
-1.09999976	0.00000000	6.32381900	7.89247000
-0.89999977	0.00000000	6.32381900	7.89247000
-0.69999978	0.00000000	6.32381900	7.89247000
-0.49999979	0.00000000	6.32381900	7.89247000
-0.29999981	0.31803640	6.32381900	7.89247000
-0.09999982	0.63668800	6.32381900	7.89247000
0.10000017	0.95533960	6.32381900	7.89247000
0.30000016	0.95533960	6.32381900	7.89247000
0.50000015	0.79601380	6.32381900	7.89247000
0.70000013	0.31803640	6.32381900	7.89247000
0.90000012	-0.63668800	6.32381900	7.89247000
1.10000011	-1.59264300	6.32381900	7.89247000
1.30000010	-2.38927200	6.32381900	7.89247000
1.50000009	-2.86724900	6.32381900	7.89247000
1.70000008	-2.38927200	6.32381900	7.89247000
1.90000006	-1.27399100	6.32381900	7.89247000
2.10000005	0.63668800	6.32381900	7.89247000
2.30000004	2.70792300	6.32381900	7.89247000
2.50000003	4.45989200	6.32381900	7.84940900
2.70000002	5.25652100	6.32381900	7.47416300
2.90000000	4.77854300	6.28075700	6.72982200
3.09999999	2.86724900	5.94857300	6.40378900
3.29999998	-0.15871060	5.57947800	6.72982200
3.49999997	-3.50393700	5.94857300	7.47416300
3.69999996	-6.37180100	6.28075700	7.84940900
3.89999994	-7.96444400	6.32381900	7.89247000
4.09999993	-7.48646600	6.32381900	7.89247000
4.29999992	-4.93786900	6.32381900	7.89247000
4.49999991	-1.11466500	6.32381900	7.89247000
4.69999990	3.34522600	6.32381900	7.89247000
4.89999989	7.16781500	6.32381900	7.89247000
5.09999987	9.23905000	6.32381900	7.84940900
5.29999986	9.07972400	6.32381900	7.47416300
5.49999985	6.53112700	6.32381900	6.72982200
5.69999984	2.38927200	6.32381900	6.40378900
5.89999983	-2.54859700	6.32381900	6.72982200
6.09999981	-6.69045300	6.28075700	7.47416300
6.29999980	-9.23905000	5.94857300	7.84940900
6.49999979	-9.23905000	5.57947800	7.89247000
6.69999978	-7.16781500	5.94857300	7.89247000
6.89999977	-3.34522600	6.28075700	7.89247000
7.09999975	1.11466500	6.32381900	7.89247000
7.29999974	4.93786900	6.32381900	7.89247000
7.49999973	7.16781500	6.32381900	7.84940900
7.69999972	7.64579200	6.32381900	7.47416300
7.89999971	6.21247500	6.32381900	6.72982200
8.09999970	3.34522600	6.32381900	6.35457700
8.29999968	0.00000000	6.32381900	6.35457700
8.49999967	-2.86724900	6.32381900	6.72982200
8.69999966	-4.77854300	6.32381900	7.47416300
8.89999965	-5.09719500	6.32381900	7.84940900
9.09999964	-4.30056600	6.32381900	7.89247000
9.29999962	-2.70792300	6.32381900	7.89247000
9.49999961	-0.63668800	6.32381900	7.89247000
9.69999960	1.11466500	6.32381900	7.89247000
9.89999959	2.22994600	6.32381900	7.89247000
10.09999958	2.54859700	6.32381900	7.89247000
10.29999956	2.07062000	6.32381900	7.89247000
10.49999955	1.43331700	6.32381900	7.89247000
10.69999954	0.47736220	6.32381900	7.89247000
10.89999953	-0.31803640	6.32381900	7.89247000
11.09999952	-0.79601380	6.32381900	7.89247000
11.29999951	-0.95533960	6.32381900	7.89247000
11.49999949	-0.95533960	6.32381900	7.89247000
11.69999948	-0.79601380	6.32381900	7.89247000
11.89999947	-0.47736220	6.32381900	7.89247000
12.09999946	-0.15871060	6.32381900	7.89247000
12.29999945	-0.15871060	6.32381900	7.89247000
12.49999943	0.00000000	6.32381900	7.89247000
12.69999942	0.00000000	6.32381900	7.89247000
12.89999941	0.00000000	6.32381900	7.89247000
13.09999940	0.00000000	6.32381900	7.89247000
13.29999939	0.00000000	6.32381900	7.89247000
13.49999937	0.00000000	6.32381900	7.89247000
13.69999936	0.00000000	6.32381900	7.89247000
13.89999935	-0.15871060	6.32381900	7.89247000
14.09999934	-0.15871060	6.32381900	7.89247000
14.29999933	-0.15871060	6.32381900	7.89247000
14.49999932	-0.15871060	6.32381900	7.89247000
14.69999930	-0.15871060	6.32381900	7.89247000
14.89999929	0.00000000	6.32381900	7.89247000
15.09999928	0.00000000	6.32381900	7.89247000
15.29999927	0.00000000	6.32381900	7.89247000
15.49999926	0.00000000	6.32381900	7.89247000
15.69999924	0.00000000	6.32381900	7.89247000
15.89999923	0.00000000	6.32381900	7.89247000
16.09999922	0.00000000	6.32381900	7.89247000
16.29999921	-0.15871060	6.32381900	7.89247000
16.49999920	-0.15871060	6.32381900	7.89247000
16.69999919	-0.15871060	6.36687900	7.89247000
16.89999917	-0.15871060	6.74212600	7.89247000
17.09999916	0.00000000	7.48646600	7.89247000
17.29999915	0.00000000	7.86171200	7.89247000
17.49999914	0.00000000	7.90477300	7.89247000
17.69999913	0.00000000	7.86171200	7.89247000
17.89999911	0.00000000	7.43725300	7.89247000
18.09999910	0.00000000	6.23154500	7.84940900
18.29999909	0.00000000	4.36761800	7.51722400
18.49999908	0.00000000	2.46678100	7.14812900
18.69999907	-0.15871060	1.62401600	7.51722400
18.89999905	-0.15871060	1.24877000	7.84940900
19.09999904	-0.15871060	1.30413400	7.89247000
19.29999903	0.00000000	2.92199800	7.89247000
19.49999902	0.00000000	5.62869100	7.89247000
19.69999901	0.00000000	9.52879000	7.89247000
19.89999900	0.00000000	13.71801000	7.89247000
20.09999898	0.00000000	16.79380000	7.89247000
20.29999897	0.00000000	17.95029000	7.89247000
20.49999896	0.00000000	16.70152000	7.89247000
20.69999895	0.00000000	12.78912000	7.89247000
20.89999894	0.00000000	6.18848400	7.89247000
21.09999892	0.00000000	-1.53789400	7.84940900
21.29999891	0.00000000	-8.83981200	7.47416300
21.49999890	0.00000000	-13.77338000	6.72982200
21.69999889	0.00000000	-14.14862000	6.35457700
21.89999888	0.00000000	-9.82406400	6.31151500
22.09999886	0.00000000	-1.26107300	6.31151500
22.29999885	0.00000000	10.73450000	6.31151500
22.49999884	0.00000000	23.07455000	6.35457700
22.69999883	0.00000000	33.12008000	6.72982200
22.89999882	0.00000000	38.38583000	7.47416300
23.09999881	-0.15871060	36.33735000	7.84940900
23.29999879	0.00000000	26.28568000	7.93553100
23.49999878	0.00000000	10.46998000	8.31077700
23.69999877	0.00000000	-7.35113100	9.05511800
23.89999876	0.00000000	-23.54207000	9.43036400
24.09999875	0.00000000	-34.28888000	9.43036400
24.29999873	0.00000000	-36.10975000	9.00590400
24.49999872	0.00000000	-27.96506000	7.84940900
24.69999871	0.00000000	-10.93750000	6.31151500
24.89999870	0.00000000	11.06668000	4.73671200
25.09999869	0.00000000	33.07701000	3.19881900
25.29999867	0.00000000	50.01230000	2.12844500
25.49999866	0.00000000	57.27116000	2.50369100
25.69999865	-0.15871060	52.66363000	4.44758800
25.89999864	-0.15871060	37.22318000	7.14812900
26.09999863	-0.15871060	14.79454000	10.72219000
26.29999862	0.00000000	-9.95939900	14.53617000
26.49999860	0.00000000	-31.54527000	17.97490000
26.69999859	0.00000000	-44.66658000	19.42052000
26.89999858	0.00000000	-46.20448000	17.88263000
27.09999857	0.00000000	-35.78371000	13.61343000
27.29999856	0.00000000	-15.72958000	7.38188900
27.49999854	0.00000000	8.97514600	0.04306102
27.69999853	0.00000000	32.56643000	-6.87746000
27.89999852	-0.15871060	49.92003000	-11.47884000
28.09999851	0.00000000	56.89591000	-12.59227000
28.29999850	0.00000000	51.96850000	-9.38730200
28.49999848	0.00000000	37.35236000	-1.67322800
28.69999847	0.00000000	16.83686000	9.19045200
28.89999846	0.00000000	-5.16732200	20.71850000
29.09999845	0.00000000	-23.73277000	30.74557000
29.29999844	0.00000000	-34.62106000	36.09744000
29.49999843	0.00000000	-36.24508000	35.67913000
29.69999841	0.00000000	-28.93701000	29.02928000
29.89999840	0.00000000	-14.65305000	16.67692000
30.09999839	0.00000000	3.11884800	1.62401600
30.29999838	0.00000000	20.51550000	-13.05979000
30.49999837	0.00000000	33.72908000	-24.20645000
30.69999835	0.00000000	40.33587000	-28.80782000
30.89999834	0.00000000	39.63459000	-25.69513000
31.09999833	0.00000000	31.91437000	-15.24360000
31.29999832	0.00000000	19.62352000	0.55364170
31.49999831	0.00000000	5.62869100	17.93184000
31.69999829	0.00000000	-7.12352300	33.07701000
31.89999828	0.00000000	-16.46776000	43.48548000
32.09999827	0.00000000	-20.33710000	46.91806000
32.29999826	0.00000000	-18.46703000	41.86147000
32.49999825	0.00000000	-11.54035000	29.53986000
32.69999824	0.00000000	-1.53789400	12.54306000
32.89999822	0.00000000	8.97514600	-5.20423200
33.09999821	0.00000000	18.28248000	-19.93110000
33.29999820	0.00000000	24.79084000	-28.80782000
33.49999819	0.00000000	26.37180000	-30.01353000
33.69999818	0.00000000	22.98228000	-23.41904000
33.89999816	0.00000000	16.46161000	-10.68528000
34.09999815	0.00000000	8.32308000	5.89320800
34.29999814	0.00000000	0.59670270	22.10876000
34.49999813	0.00000000	-5.21653500	34.51648000
34.69999812	-0.15871060	-7.86786400	41.11097000
34.89999810	0.00000000	-6.37303100	40.32357000
35.09999809	0.00000000	-1.44562000	32.65871000
35.29999808	0.00000000	4.69980300	19.88189000
35.49999807	0.00000000	10.51304000	4.87204700
35.69999806	0.00000000	14.74532000	-9.01205700
35.89999805	0.00000000	16.28322000	-18.22096000
36.09999803	0.00000000	14.78838000	-20.63238000
36.29999802	0.00000000	10.97441000	-16.03715000
36.49999801	0.00000000	6.32381900	-6.45915300
36.69999800	-0.15871060	1.71628900	5.89320800
36.89999799	0.00000000	-1.72244100	17.74729000
37.09999797	0.00000000	-2.51599400	25.87352000
37.29999796	0.00000000	-0.98425190	28.24803000
37.49999795	0.00000000	2.46678100	25.17839000
37.69999794	0.00000000	7.11122000	17.50738000
37.89999793	0.00000000	11.30659000	7.19734200
38.09999791	0.00000000	14.46235000	-2.00541300
38.29999790	0.00000000	15.58194000	-7.76328700
38.49999789	0.00000000	14.83760000	-8.55068800
38.69999788	0.00000000	12.09400000	-3.95546200
38.89999787	0.00000000	7.86171200	4.04158400
39.09999786	0.00000000	3.25418300	13.28125000
39.29999784	0.00000000	-0.65206690	20.90305000
39.49999783	0.00000000	-2.98351400	24.71703000
39.69999782	0.00000000	-3.72170300	23.13607000
39.89999781	0.00000000	-2.18996000	16.30167000
40.09999780	0.00000000	1.24877000	6.73597400
40.29999778	0.00000000	5.11811000	-2.46678100
40.49999777	0.00000000	9.06742000	-9.01205700
40.69999776	0.00000000	12.55536000	-10.92520000
40.89999775	0.00000000	15.25591000	-7.85556000
41.09999774	0.00000000	16.36934000	-0.55979330
41.29999772	0.00000000	15.25591000	9.05511800
41.49999771	0.00000000	12.55536000	18.25787000
41.69999770	0.00000000	9.06742000	24.80315000
41.89999769	0.00000000	5.16117100	26.71629000
42.09999768	0.00000000	1.67322800	23.68971000
42.29999767	0.00000000	-1.02731300	16.76919000
42.49999765	0.00000000	-2.14074800	7.98474400
42.69999764	0.00000000	-1.07037400	-0.14148620
42.89999763	0.00000000	1.20570900	-5.53641700
43.09999762	0.00000000	3.58021600	-7.52337600
43.29999761	0.00000000	6.32381900	-5.62253900
43.49999759	0.00000000	8.97514600	-1.06422200
43.69999758	0.00000000	10.51304000	4.77977300
43.89999757	0.00000000	10.59916000	10.91289000
44.09999756	0.00000000	9.90403500	15.88336000
44.29999755	0.00000000	9.48572700	17.88263000
44.49999753	0.00000000	9.11048200	17.18750000
44.69999752	0.00000000	8.69832600	14.85605000
44.89999751	0.00000000	8.69217500	11.00517000
45.09999750	0.00000000	8.23695900	6.82209600
45.29999749	0.00000000	7.48646600	3.70939900
45.49999748	0.00000000	6.23154500	2.08538400
45.69999746	0.00000000	4.27534400	1.71013800
45.89999745	0.00000000	1.58095500	2.50369100
46.09999744	0.00000000	-1.11343500	4.77977300
46.29999743	0.00000000	-2.98351400	7.43110200
46.49999742	0.00000000	-3.30339500	9.42421200
46.69999740	0.00000000	-0.93503930	11.00517000
46.89999739	0.00000000	3.67249000	12.11860000
47.09999738	0.00000000	9.52879000	12.07554000
47.29999737	0.00000000	15.67421000	10.58686000
47.49999736	0.00000000	20.65084000	8.26771600
47.69999734	0.00000000	22.51476000	5.93626900
47.89999733	0.00000000	20.60162000	3.61712600
48.09999732	0.00000000	15.16363000	2.12844500
48.29999731	0.00000000	7.43725300	2.08538400
48.49999730	0.00000000	-1.07037400	3.24803100
48.69999729	0.00000000	-8.37844500	5.19808000
48.89999727	0.00000000	-12.56767000	7.93553100
49.09999726	0.00000000	-12.14321000	11.00517000
49.29999725	0.00000000	-6.74827700	13.65650000
49.49999724	0.00000000	2.09153500	14.81299000
49.69999723	0.00000000	12.09400000	14.07480000
49.89999721	0.00000000	20.60162000	12.11860000
50.09999720	0.00000000	25.63361000	9.00590400
50.29999719	0.00000000	26.32874000	5.15501900
50.49999718	0.00000000	21.72121000	1.71013800
50.69999717	0.00000000	12.93061000	-0.60285430
50.89999715	0.00000000	3.29724400	-0.97810030
51.09999714	0.00000000	-5.21653500	0.55364170
51.29999713	0.00000000	-10.56225000	3.66633800
51.49999712	0.00000000	-10.98671000	7.89247000
51.69999711	0.00000000	-6.79749000	12.11860000
51.89999710	0.00000000	0.55364170	15.18824000
52.09999708	0.00000000	9.35039300	16.34473000
52.29999707	0.00000000	17.02141000	15.23130000
52.49999706	0.00000000	20.89075000	12.53691000
52.69999705	-0.15871060	20.55856000	9.05511800
52.89999704	0.00000000	16.32628000	5.19808000
53.09999702	0.00000000	9.44266700	2.12844500
53.29999701	0.00000000	2.13459600	0.59670270
53.49999700	0.00000000	-3.63558100	0.92888770
53.69999699	0.00000000	-6.32997000	2.87278500
53.89999698	0.00000000	-5.21653500	5.53026500
54.09999696	0.00000000	-0.98425190	8.63681000
54.29999695	0.00000000	5.16117100	10.86983000
54.49999694	0.00000000	11.71875000	11.70029000
54.69999693	0.00000000	16.65846000	10.96211000
54.89999692	0.00000000	18.60236000	9.42421200
55.09999691	0.00000000	16.70152000	7.51722400
55.29999689	0.00000000	12.13706000	5.66560000
55.49999688	0.00000000	6.32381900	5.29035400
55.69999687	0.00000000	0.59670270	6.36072800
55.89999686	0.00000000	-3.26033400	7.89247000
56.09999685	0.00000000	-4.05388800	9.42421200
56.29999683	0.00000000	-2.18996000	10.53765000
56.49999682	0.00000000	1.71628900	10.53765000
56.69999681	0.00000000	6.69906400	9.38115100
56.89999680	0.00000000	11.67569000	7.38188900
57.09999679	0.00000000	14.74532000	4.36146600
57.29999677	0.00000000	15.21284000	1.34719500
57.49999676	0.00000000	13.67495000	0.22145670
57.69999675	0.00000000	10.59916000	0.97194880
57.89999674	0.00000000	6.74212600	3.70939900
58.09999673	0.00000000	3.29724400	7.93553100
58.29999672	0.00000000	0.92888770	12.58612000
58.49999670	0.00000000	0.17839570	16.76919000
58.69999669	0.00000000	0.92888770	19.04527000
58.89999668	0.00000000	3.25418300	18.21481000
59.09999667	0.00000000	6.28075700	14.39468000
59.29999666	0.00000000	8.97514600	8.26771600
59.49999664	0.00000000	10.51304000	2.08538400
59.69999663	0.00000000	10.55610000	-2.93430100
59.89999662	0.00000000	9.44266700	-5.94857300
60.09999661	0.00000000	7.90477300	-5.16117100
60.29999660	0.00000000	6.36687900	-0.97810030
60.49999658	0.00000000	5.21038300	5.24729300
60.69999657	0.00000000	4.83513700	12.54306000
60.89999656	0.00000000	5.16117100	19.04527000
61.09999655	0.00000000	5.94857300	22.53322000
61.29999654	0.00000000	6.69906400	22.53322000
61.49999653	0.00000000	7.48646600	19.04527000
61.69999651	0.00000000	7.81250000	12.49385000
61.89999650	0.00000000	7.48646600	4.82898600
62.09999649	0.00000000	6.69906400	-2.14074800
62.29999648	0.00000000	5.90551100	-6.78518600
62.49999647	0.00000000	4.74286400	-8.27386800
62.69999645	0.00000000	3.67249000	-5.94857300
62.89999644	0.00000000	3.67249000	0.17839570
63.09999643	0.00000000	4.78592500	7.84940900
63.29999642	0.00000000	6.28075700	15.18824000
63.49999641	0.00000000	7.48646600	20.62008000
63.69999639	0.00000000	8.28001900	22.95152000
63.89999638	0.00000000	9.06742000	22.20103000
64.09999637	0.00000000	9.39345400	18.30093000
64.29999636	0.00000000	9.01820900	12.16781000
64.49999635	0.00000000	7.86171200	5.20423200
64.69999634	0.00000000	6.32381900	-0.93503930
64.89999632	0.00000000	4.83513700	-4.82898600
65.09999631	0.00000000	4.04773600	-5.62253900
65.29999630	0.00000000	4.41067900	-3.76476400
65.49999629	0.00000000	5.16117100	0.09227362
65.69999628	0.00000000	6.32381900	4.73671200
65.89999626	0.00000000	7.43725300	9.43036400
66.09999625	0.00000000	7.86171200	13.65650000
66.29999624	0.00000000	7.86171200	16.39395000
66.49999623	0.00000000	7.43725300	17.23056000
66.69999622	0.00000000	6.28075700	16.85531000
66.89999620	0.00000000	4.83513700	15.27436000
67.09999619	0.00000000	4.04773600	12.58612000
67.29999618	0.00000000	4.45989200	9.47342500
67.49999617	-0.15871060	5.57947800	6.31151500
67.69999616	0.00000000	7.52952700	3.19881900
67.89999615	0.00000000	9.44266700	0.51058070
68.09999613	0.00000000	10.97441000	-1.06422200
68.29999612	0.00000000	11.71875000	-1.43946800
68.49999611	0.00000000	10.88829000	-0.60285430
68.69999610	0.00000000	8.59990100	2.12844500
68.89999609	0.00000000	5.11811000	6.35457700
69.09999607	0.00000000	1.67322800	11.00517000
69.29999606	0.00000000	-1.07037400	15.27436000
69.49999605	0.00000000	-2.56520700	18.35015000
69.69999604	0.00000000	-2.09768700	19.50664000
69.89999603	0.00000000	0.97194880	18.35015000
70.09999601	0.00000000	5.94857300	15.23130000
70.29999600	0.00000000	10.97441000	10.58686000
70.49999599	0.00000000	15.25591000	5.15501900
70.69999598	0.00000000	17.90723000	0.17839570
70.89999597	0.00000000	17.86417000	-3.29724400
71.09999596	0.00000000	14.83760000	-4.00467500
71.29999594	0.00000000	9.81791200	-1.80856300
71.49999593	0.00000000	4.36761800	2.45447800
71.69999592	0.00000000	-1.02731300	7.06200700
71.89999591	0.00000000	-4.84128900	11.74336000
72.09999590	0.00000000	-5.67790300	15.18824000
72.29999588	0.00000000	-4.14616100	16.76919000
72.49999587	0.00000000	-0.60900590	16.39395000
72.69999586	0.00000000	4.78592500	14.07480000
72.89999585	0.00000000	10.51304000	10.62992000
73.09999584	0.00000000	14.83760000	6.82209600
73.29999582	0.00000000	17.16289000	4.12770700
73.49999581	0.00000000	17.53199000	3.29109200
73.69999580	0.00000000	15.16363000	3.62327700
73.89999579	0.00000000	10.64838000	4.77977300
74.09999578	0.00000000	5.62869100	6.31151500
74.29999577	0.00000000	1.71628900	7.80019600
74.49999575	0.00000000	-1.02731300	8.54453700
74.69999574	0.00000000	-2.14074800	7.84940900
74.89999573	0.00000000	-1.02731300	6.72982200
75.09999572	0.00000000	1.62401600	5.93626900
75.29999571	0.00000000	4.74286400	5.19808000
75.49999569	0.00000000	7.81250000	5.29035400
75.69999568	0.00000000	10.13779000	6.82209600
75.89999567	0.00000000	10.93135000	9.47342500
76.09999566	0.00000000	10.59916000	12.16781000
76.29999565	0.00000000	9.44266700	14.07480000
76.49999563	0.00000000	7.94783400	14.76993000
76.69999562	0.00000000	6.79133800	13.23819000
76.89999561	0.00000000	6.36687900	9.79945900
77.09999560	0.00000000	6.32381900	5.93626900
77.29999559	0.00000000	6.32381900	2.04232300
77.49999558	0.00000000	6.32381900	-0.97810030
77.69999556	0.00000000	6.32381900	-2.13459600
77.89999555	-0.15871060	6.28075700	-0.97810030
78.09999554	0.00000000	5.85629900	2.12844500
78.29999553	0.00000000	4.74286400	6.72982200
78.49999552	0.00000000	3.67249000	11.74336000
78.69999550	0.00000000	3.67249000	15.60654000
78.89999549	0.00000000	4.78592500	17.92569000
79.09999548	0.00000000	6.36687900	17.92569000
79.29999547	0.00000000	8.32308000	15.60654000
79.49999546	0.00000000	10.55610000	11.74336000
79.69999544	0.00000000	11.71875000	6.72982200
79.89999543	0.00000000	11.34966000	2.12844500
80.09999542	0.00000000	10.18086000	-0.97810030
80.29999541	0.00000000	7.81250000	-2.13459600
80.49999540	0.00000000	4.78592500	-1.02116100
80.69999539	0.00000000	2.09153500	1.62401600
80.89999537	0.00000000	0.55364170	4.73671200
81.09999536	0.00000000	0.51058070	7.89247000
81.29999535	0.00000000	1.71628900	10.96211000
81.49999534	0.00000000	3.99852300	13.32431000
81.69999533	0.00000000	7.06815900	14.49311000
81.89999531	0.00000000	9.39345400	14.90526000
82.09999530	0.00000000	10.97441000	14.11786000
82.29999529	0.00000000	11.76181000	12.58612000
82.49999528	0.00000000	11.30659000	10.58686000
82.69999527	0.00000000	9.80561000	7.84940900
82.89999525	0.00000000	7.11737200	4.77977300
83.09999524	0.00000000	4.83513700	2.08538400
83.29999523	0.00000000	3.25418300	0.51058070
83.49999522	0.00000000	2.50984200	0.09227362
83.69999521	0.00000000	3.25418300	0.55364170
83.89999520	0.00000000	4.74286400	2.50369100
84.09999518	0.00000000	6.28075700	5.98548200
84.29999517	0.00000000	7.43725300	9.79945900
84.49999516	0.00000000	7.86171200	13.32431000
84.69999515	0.00000000	7.90477300	15.64960000
84.89999514	0.00000000	7.90477300	16.76919000
85.09999512	0.00000000	7.90477300	15.97564000
85.29999511	0.00000000	7.90477300	12.91215000
85.49999510	0.00000000	7.90477300	9.05511800
85.69999509	0.00000000	7.90477300	4.73671200
85.89999508	0.00000000	7.90477300	0.59670270
86.09999506	0.00000000	7.86171200	-1.71628900
86.29999505	0.00000000	7.43725300	-1.39640700
86.49999504	0.00000000	6.32381900	0.51058070
86.69999503	-0.15871060	5.16117100	3.70939900
86.89999502	0.00000000	4.41067900	8.31077700
87.09999501	0.00000000	3.99852300	13.28125000
87.29999499	0.00000000	4.41067900	16.67692000
87.49999498	0.00000000	5.16117100	17.50738000
87.69999497	0.00000000	6.32381900	15.60654000
87.89999496	0.00000000	7.48646600	12.11860000
88.09999495	0.00000000	8.28001900	7.47416300
88.29999493	0.00000000	9.06742000	2.55290300
88.49999492	0.00000000	9.39345400	-0.55979330
88.69999491	0.00000000	9.01820900	-1.35334600
88.89999490	0.00000000	7.86171200	-0.18454720
89.09999489	0.00000000	6.36687900	3.29109200
89.29999487	0.00000000	5.21038300	7.89247000
89.49999486	0.00000000	4.78592500	12.49385000
89.69999485	0.00000000	4.74286400	15.92642000
89.89999484	0.00000000	4.78592500	16.71998000
90.09999483	0.00000000	5.21038300	15.23130000
90.29999482	0.00000000	6.32381900	12.07554000
90.49999480	0.00000000	7.43725300	7.47416300
90.69999479	0.00000000	7.86171200	2.50369100
90.89999478	0.00000000	7.90477300	-0.89197830
91.09999477	0.00000000	7.90477300	-1.67322800
91.29999476	0.00000000	7.86171200	0.59670270
91.49999474	0.00000000	7.52952700	4.77977300
91.69999473	0.00000000	7.16043300	9.43036400
91.89999472	0.00000000	7.52952700	13.65650000
92.09999471	0.00000000	7.86171200	16.35089000
92.29999470	0.00000000	7.90477300	16.71998000
92.49999468	0.00000000	7.86171200	14.81299000
92.69999467	0.00000000	7.43725300	10.95595000
92.89999466	0.00000000	6.32381900	6.35457700
93.09999465	0.00000000	5.16117100	2.12844500
93.29999464	0.00000000	4.36761800	-0.51673230
93.49999463	-0.15871060	3.62942900	-0.55979330
93.69999461	0.00000000	3.67249000	1.75935000
93.89999460	0.00000000	4.83513700	5.53026500
94.09999459	0.00000000	6.74212600	9.79330600
94.29999458	0.00000000	9.06742000	12.86909000
94.49999457	0.00000000	10.97441000	14.81299000
94.69999455	0.00000000	12.13706000	14.76993000
94.89999454	0.00000000	12.09400000	12.49385000
95.09999453	0.00000000	10.55610000	9.05511800
95.29999452	0.00000000	7.86171200	5.19808000
95.49999451	0.00000000	4.78592500	2.12844500
95.69999449	0.00000000	2.04847400	0.59670270
95.89999448	0.00000000	0.09227362	0.97194880
96.09999447	0.00000000	-1.02731300	3.24803100
96.29999446	0.00000000	-0.55979330	6.31151500
96.49999445	0.00000000	2.09153500	9.42421200
96.69999444	0.00000000	5.94857300	12.07554000
96.89999442	0.00000000	9.81791200	13.23819000
97.09999441	0.00000000	13.29970000	12.49385000
97.29999440	0.00000000	15.21284000	10.62992000
97.49999439	0.00000000	15.25591000	8.31077700
97.69999438	0.00000000	13.67495000	6.36072800
97.89999436	0.00000000	10.55610000	4.82283400
98.09999435	0.00000000	6.32381900	4.04158400
98.29999434	0.00000000	2.13459600	4.45374000
98.49999433	0.00000000	-0.60900590	5.53026500
98.69999432	0.00000000	-1.44562000	7.09891700
98.89999430	0.00000000	-1.07037400	8.22465500
99.09999429	0.00000000	0.55364170	9.05511800
99.29999428	0.00000000	3.62942900	9.43036400
99.49999427	0.00000000	7.48646600	9.47342500
99.69999426	0.00000000	10.93135000	9.47342500
99.89999425	0.00000000	13.29970000	9.51648500
100.09999423	0.00000000	14.09326000	9.89173200
100.29999422	0.00000000	13.71801000	10.58686000
100.49999421	0.00000000	12.13706000	10.58686000
100.69999420	0.00000000	9.44266700	9.84867000
100.89999419	0.00000000	6.36687900	9.00590400
101.09999417	0.00000000	3.62942900	7.43110200
101.29999416	0.00000000	1.67322800	5.19808000
101.49999415	0.00000000	0.51058070	3.66633800
101.69999414	0.00000000	0.55364170	3.24803100
101.89999413	0.00000000	2.09153500	3.66633800
102.09999411	0.00000000	4.74286400	5.24729300
102.29999410	0.00000000	7.43725300	7.89247000
102.49999409	0.00000000	9.44266700	10.58686000
102.69999408	0.00000000	10.97441000	12.58612000
102.89999407	0.00000000	11.76181000	14.07480000
103.09999406	0.00000000	11.34966000	14.39468000
103.29999404	0.00000000	10.23007000	12.49385000
103.49999403	0.00000000	8.23695900	9.47342500
103.69999402	0.00000000	5.99163300	6.31151500
103.89999401	0.00000000	4.04773600	3.24803100
104.09999400	0.00000000	3.25418300	0.97194880
104.29999398	0.00000000	3.20497000	0.59670270
104.49999397	0.00000000	3.62942900	2.08538400
104.69999396	0.00000000	4.78592500	4.77977300
104.89999395	0.00000000	6.32381900	7.89247000
105.09999394	0.00000000	7.86171200	10.96211000
105.29999392	0.00000000	9.01820900	13.23819000
105.49999391	0.00000000	9.44266700	13.65650000
105.69999390	0.00000000	9.39345400	12.53691000
105.89999389	0.00000000	8.64911400	10.58686000
106.09999388	0.00000000	7.11737200	7.89247000
106.29999387	0.00000000	5.99163300	5.24729300
106.49999385	0.00000000	5.16117100	3.70939900
106.69999384	0.00000000	4.83513700	3.66633800
106.89999383	0.00000000	5.21038300	4.82283400
107.09999382	0.00000000	6.32381900	6.72982200
107.29999381	0.00000000	7.43725300	9.00590400
107.49999379	0.00000000	7.86171200	10.53765000
107.69999378	0.00000000	7.90477300	10.95595000
107.89999377	0.00000000	7.86171200	10.58686000
108.09999376	0.00000000	7.43725300	9.42421200
108.29999375	0.00000000	6.32381900	7.89247000
108.49999374	0.00000000	5.21038300	6.36072800
108.69999372	0.00000000	4.78592500	5.19808000
108.89999371	0.00000000	4.74286400	4.82898600
109.09999370	0.00000000	4.78592500	5.19808000
109.29999369	0.00000000	5.21038300	6.36072800
109.49999368	0.00000000	6.32381900	7.89247000
109.69999366	0.00000000	7.48646600	9.42421200
109.89999365	0.00000000	8.28001900	10.58686000
110.09999364	0.00000000	9.01820900	10.95595000
110.29999363	0.00000000	9.01820900	10.58686000
110.49999362	0.00000000	8.28001900	9.42421200
110.69999360	0.00000000	7.48646600	7.89247000
110.89999359	0.00000000	6.32381900	6.36072800
111.09999358	0.00000000	5.21038300	5.19808000
111.29999357	0.00000000	4.78592500	4.82898600
111.49999356	0.00000000	4.78592500	5.15501900
111.69999355	0.00000000	5.16117100	5.93626900
111.89999353	0.00000000	5.94857300	6.72982200
112.09999352	0.00000000	6.69906400	7.89247000
112.29999351	0.00000000	7.48646600	9.00590400
112.49999350	0.00000000	7.86171200	9.43036400
112.69999349	0.00000000	7.90477300	9.47342500
112.89999347	0.00000000	7.86171200	9.43036400
113.09999346	0.00000000	7.48646600	9.05511800
113.29999345	0.00000000	6.74212600	8.31077700
113.49999344	0.00000000	6.36687900	7.93553100
113.69999343	0.00000000	6.32381900	7.89247000
113.89999341	0.00000000	6.32381900	7.84940900
114.09999340	0.00000000	6.32381900	7.47416300
114.29999339	0.00000000	6.32381900	6.72982200
114.49999338	0.00000000	6.32381900	6.35457700
114.69999337	0.00000000	6.32381900	6.31151500
114.89999336	0.00000000	6.36687900	6.31151500
115.09999334	0.00000000	6.69906400	6.35457700
115.29999333	0.00000000	7.11122000	6.72982200
115.49999332	0.00000000	7.11737200	7.47416300
115.69999331	0.00000000	7.52952700	7.89247000
115.89999330	0.00000000	7.81250000	8.31077700
116.09999328	0.00000000	7.48646600	9.05511800
116.29999327	0.00000000	6.74212600	9.43036400
116.49999326	0.00000000	6.36687900	9.47342500
116.69999325	0.00000000	6.32381900	9.43036400
116.89999324	0.00000000	6.32381900	9.00590400
117.09999322	0.00000000	6.32381900	7.89247000
117.29999321	0.00000000	6.36687900	6.77903500
117.49999320	0.00000000	6.74212600	6.31151500
117.69999319	0.00000000	7.48646600	5.93626900
117.89999318	0.00000000	7.86171200	5.57332700
118.09999317	0.00000000	7.90477300	5.98548200
118.29999315	0.00000000	7.86171200	6.68676100
118.49999314	0.00000000	7.48646600	7.51722400
118.69999313	-0.15871060	6.69906400	8.26771600
118.89999312	0.00000000	5.94857300	9.05511800
119.09999311	0.00000000	5.16117100	9.43036400
119.29999309	0.00000000	4.78592500	9.47342500
119.49999308	0.00000000	4.78592500	9.43036400
119.69999307	0.00000000	5.21038300	9.05511800
119.89999306	0.00000000	6.32381900	8.31077700
120.09999305	0.00000000	7.48646600	7.93553100
120.29999303	0.00000000	8.32308000	7.84940900
120.49999302	0.00000000	9.44266700	7.47416300
120.69999301	0.00000000	10.13779000	6.72982200
120.89999300	-0.15871060	9.44266700	6.35457700
121.09999299	0.00000000	8.32308000	6.35457700
121.29999298	0.00000000	7.48646600	6.68676100
121.49999296	0.00000000	6.32381900	7.09891700
121.69999295	0.00000000	5.16117100	7.10506800
121.89999294	0.00000000	4.41067900	7.51722400
122.09999293	0.00000000	3.99852300	7.89247000
122.29999292	0.00000000	4.41067900	8.31077700
122.49999290	0.00000000	5.16117100	9.05511800
122.69999289	0.00000000	6.32381900	9.38115100
122.89999288	0.00000000	7.48646600	9.05511800
123.09999287	0.00000000	8.28001900	8.35998900
123.29999286	0.00000000	9.06742000	8.31077700
123.49999284	0.00000000	9.39345400	8.63681000
123.69999283	0.00000000	9.06742000	8.22465500
123.89999282	0.00000000	8.28001900	7.51722400
124.09999281	0.00000000	7.52952700	6.72982200
124.29999280	0.00000000	6.74212600	6.35457700
124.49999279	0.00000000	6.32381900	6.35457700
124.69999277	0.00000000	5.90551100	6.72982200
124.89999276	0.00000000	5.16117100	7.47416300
125.09999275	0.00000000	4.78592500	7.84940900
125.29999274	0.00000000	4.78592500	7.93553100
125.49999273	0.00000000	5.21038300	8.31077700
125.69999271	0.00000000	6.32381900	9.05511800
125.89999270	0.00000000	7.48646600	9.43036400
126.09999269	0.00000000	8.28001900	9.43036400
126.29999268	0.00000000	9.06742000	9.05511800
126.49999267	0.00000000	9.39345400	8.31077700
126.69999265	0.00000000	9.06742000	7.93553100
126.89999264	0.00000000	8.28001900	7.84940900
127.09999263	0.00000000	7.48646600	7.47416300
127.29999262	0.00000000	6.28075700	6.72982200
127.49999261	0.00000000	4.78592500	6.40378900
127.69999260	0.00000000	3.67249000	6.72982200
127.89999258	0.00000000	3.67249000	7.47416300
128.09999257	0.00000000	4.74286400	7.84940900
128.29999256	0.00000000	5.90551100	7.89247000
128.49999255	0.00000000	6.74212600	7.89247000
128.69999254	0.00000000	7.90477300	7.93553100
128.89999252	0.00000000	9.01820900	8.26771600
129.09999251	0.00000000	9.39345400	8.63681000
129.29999250	0.00000000	9.01820900	8.26771600
129.49999249	0.00000000	7.86171200	7.93553100
129.69999248	0.00000000	6.36687900	7.84940900
129.89999246	0.00000000	5.21038300	7.51722400
130.09999245	0.00000000	4.78592500	7.14812900
130.29999244	0.00000000	4.78592500	7.51722400
130.49999243	0.00000000	5.16117100	7.89247000
130.69999242	0.00000000	5.94857300	8.26771600
130.89999241	0.00000000	6.69906400	8.63681000
131.09999239	0.00000000	7.48646600	8.26771600
131.29999238	0.00000000	7.86171200	7.93553100
131.49999237	0.00000000	7.90477300	7.84940900
131.69999236	0.00000000	7.90477300	7.47416300
131.89999235	0.00000000	7.86171200	6.72982200
132.09999233	0.00000000	7.48646600	6.35457700
132.29999232	0.00000000	6.74212600	6.35457700
132.49999231	0.00000000	6.36687900	6.72982200
132.69999230	0.00000000	6.32381900	7.47416300
132.89999229	0.00000000	6.32381900	7.89247000
133.09999227	0.00000000	6.32381900	8.31077700
133.29999226	0.00000000	6.32381900	9.05511800
133.49999225	0.00000000	6.32381900	9.43036400
133.69999224	0.00000000	6.32381900	9.43036400
133.89999223	0.00000000	6.32381900	9.05511800
134.09999222	0.00000000	6.32381900	8.26771600
134.29999220	0.00000000	6.32381900	7.51722400
134.49999219	0.00000000	6.36687900	6.68676100
134.69999218	0.00000000	6.74212600	5.98548200
134.89999217	0.00000000	7.48646600	5.57332700
135.09999216	0.00000000	7.86171200	5.98548200
135.29999214	0.00000000	7.86171200	6.68676100
135.49999213	0.00000000	7.48646600	7.47416300
135.69999212	0.00000000	6.74212600	7.89247000
135.89999211	0.00000000	6.36687900	8.31077700
136.09999210	0.00000000	6.28075700	9.05511800
136.29999208	0.00000000	5.94857300	9.38115100
136.49999207	0.00000000	5.57947800	9.05511800
136.69999206	0.00000000	5.94857300	8.31077700
136.89999205	0.00000000	6.32381900	7.93553100
137.09999204	0.00000000	6.74212600	7.84940900
137.29999203	0.00000000	7.48646600	7.47416300
137.49999201	0.00000000	7.86171200	6.72982200
137.69999200	0.00000000	7.94783400	6.35457700
137.89999199	0.00000000	8.28001900	6.31151500
138.09999198	0.00000000	8.59990100	6.31151500
138.29999197	0.00000000	7.86171200	6.35457700
138.49999195	0.00000000	6.79133800	6.72982200
138.69999194	0.00000000	6.36687900	7.51722400
138.89999193	0.00000000	6.28075700	8.26771600
139.09999192	0.00000000	5.94857300	9.05511800
139.29999191	0.00000000	5.57947800	9.43036400
139.49999189	0.00000000	5.99163300	9.47342500
139.69999188	0.00000000	6.69906400	9.43036400
139.89999187	0.00000000	7.48646600	9.05511800
140.09999186	0.00000000	7.86171200	8.26771600
140.29999185	0.00000000	7.86171200	7.51722400
140.49999184	0.00000000	7.48646600	6.72982200
140.69999182	0.00000000	6.74212600	6.35457700
140.89999181	0.00000000	6.36687900	6.31151500
141.09999180	0.00000000	6.32381900	6.35457700
141.29999179	0.00000000	6.32381900	6.72982200
141.49999178	0.00000000	6.32381900	7.51722400
141.69999176	0.00000000	6.36687900	8.26771600
141.89999175	0.00000000	6.74212600	9.05511800
142.09999174	0.00000000	7.48646600	9.43036400
142.29999173	0.00000000	7.86171200	9.47342500
142.49999172	0.00000000	7.90477300	9.43036400
142.69999170	0.00000000	7.86171200	9.05511800
142.89999169	0.00000000	7.48646600	8.26771600
143.09999168	0.00000000	6.74212600	7.51722400
143.29999167	0.00000000	6.36687900	6.72982200
143.49999166	0.00000000	6.32381900	6.35457700
143.69999165	0.00000000	6.32381900	6.31151500
143.89999163	0.00000000	6.36687900	6.35457700
144.09999162	0.00000000	6.74212600	6.72982200
144.29999161	0.00000000	7.48646600	7.51722400
144.49999160	0.00000000	7.86171200	8.26771600
144.69999159	0.00000000	7.90477300	9.05511800
144.89999157	0.00000000	7.86171200	9.43036400
145.09999156	0.00000000	7.48646600	9.43036400
145.29999155	0.00000000	6.74212600	9.05511800
145.49999154	0.00000000	6.36687900	8.31077700
145.69999153	0.00000000	6.32381900	7.89247000
145.89999151	0.00000000	6.32381900	7.47416300
146.09999150	0.00000000	6.36687900	6.72982200
146.29999149	0.00000000	6.74212600	6.35457700
146.49999148	-0.15871060	7.48646600	6.35457700
146.69999147	0.00000000	7.81250000	6.72982200
146.89999146	0.00000000	7.52952700	7.47416300
147.09999144	0.00000000	7.16043300	7.89247000
147.29999143	0.00000000	7.48646600	8.31077700
147.49999142	0.00000000	7.48646600	9.05511800
147.69999141	0.00000000	7.11737200	9.38115100
147.89999140	0.00000000	7.11122000	9.05511800
148.09999138	0.00000000	6.69906400	8.31077700
148.29999137	0.00000000	6.36687900	7.93553100
148.49999136	0.00000000	6.32381900	7.89247000
148.69999135	0.00000000	6.32381900	7.84940900
148.89999134	0.00000000	6.32381900	7.47416300
149.09999132	0.00000000	6.36687900	6.77903500
149.29999131	0.00000000	6.74212600	6.77903500
149.49999130	0.00000000	7.48646600	7.51722400
149.69999129	0.00000000	7.86171200	8.22465500
149.89999128	0.00000000	7.90477300	8.63681000
150.09999127	0.00000000	7.90477300	8.31077700
150.29999125	0.00000000	7.86171200	8.35998900
150.49999124	0.00000000	7.48646600	9.00590400
150.69999123	0.00000000	6.74212600	9.00590400
150.89999122	0.00000000	6.36687900	8.31077700
151.09999121	0.00000000	6.32381900	7.93553100
151.29999119	0.00000000	6.32381900	7.89247000
151.49999118	0.00000000	6.32381900	7.89247000
151.69999117	0.00000000	6.36687900	7.84940900
151.89999116	0.00000000	6.74212600	7.51722400
152.09999115	0.00000000	7.48646600	7.14812900
152.29999113	0.00000000	7.86171200	7.51722400
152.49999112	0.00000000	7.90477300	7.84940900
152.69999111	0.00000000	7.90477300	7.89247000
152.89999110	0.00000000	7.90477300	7.89247000
153.09999109	0.00000000	7.86171200	7.89247000
153.29999108	0.00000000	7.48646600	7.89247000
153.49999106	0.00000000	6.74212600	7.89247000
153.69999105	0.00000000	6.36687900	7.89247000
153.89999104	0.00000000	6.32381900	7.89247000
154.09999103	0.00000000	6.32381900	7.89247000
154.29999102	0.00000000	6.32381900	7.89247000
154.49999100	0.00000000	6.32381900	7.89247000
154.69999099	0.00000000	6.32381900	7.89247000
154.89999098	0.00000000	6.36687900	7.89247000
155.09999097	0.00000000	6.74212600	7.89247000
155.29999096	0.00000000	7.48646600	7.89247000
155.49999094	0.00000000	7.86171200	7.89247000
155.69999093	0.00000000	7.90477300	7.89247000
155.89999092	0.00000000	7.86171200	7.89247000
156.09999091	0.00000000	7.48646600	7.89247000
156.29999090	0.00000000	6.74212600	7.89247000
156.49999089	0.00000000	6.36687900	7.93553100
156.69999087	0.00000000	6.32381900	8.31077700
156.89999086	0.00000000	6.32381900	9.05511800
157.09999085	0.00000000	6.32381900	9.38115100
157.29999084	0.00000000	6.32381900	9.05511800
157.49999083	0.00000000	6.32381900	8.31077700
157.69999081	0.00000000	6.36687900	7.89247000
157.89999080	0.00000000	6.74212600	7.47416300
158.09999079	0.00000000	7.48646600	6.72982200
158.29999078	0.00000000	7.86171200	6.40378900
158.49999077	0.00000000	7.90477300	6.72982200
158.69999075	0.00000000	7.90477300	7.47416300
158.89999074	0.00000000	7.90477300	7.84940900
159.09999073	0.00000000	7.86171200	7.93553100
159.29999072	0.00000000	7.48646600	8.31077700
159.49999071	0.00000000	6.74212600	9.00590400
159.69999070	0.00000000	6.36687900	9.00590400
159.89999068	0.00000000	6.32381900	8.31077700
160.09999067	0.00000000	6.32381900	7.93553100
160.29999066	0.00000000	6.32381900	7.89247000
160.49999065	0.00000000	6.32381900	7.89247000
160.69999064	0.00000000	6.32381900	7.84940900
160.89999062	0.00000000	6.36687900	7.51722400
161.09999061	0.00000000	6.74212600	7.10506800
161.29999060	0.00000000	7.48646600	7.14197800
161.49999059	0.00000000	7.86171200	7.10506800
161.69999058	0.00000000	7.90477300	7.51722400
161.89999056	0.00000000	7.90477300	7.84940900
162.09999055	0.00000000	7.90477300	7.89247000
162.29999054	0.00000000	7.90477300	7.89247000
162.49999053	0.00000000	7.86171200	7.89247000
162.69999052	0.00000000	7.48646600	7.89247000
162.89999051	0.00000000	6.74212600	7.89247000
163.09999049	0.00000000	6.36687900	7.89247000
163.29999048	0.00000000	6.32381900	7.89247000
163.49999047	0.00000000	6.32381900	7.89247000
163.69999046	0.00000000	6.32381900	7.89247000
163.89999045	0.00000000	6.32381900	7.89247000
164.09999043	0.00000000	6.36687900	7.89247000
164.29999042	0.00000000	6.74212600	7.89247000
164.49999041	0.00000000	7.48646600	7.89247000
164.69999040	0.00000000	7.86171200	7.89247000
164.89999039	0.00000000	7.90477300	7.89247000
165.09999037	0.00000000	7.90477300	7.89247000
165.29999036	0.00000000	7.86171200	7.89247000
165.49999035	0.00000000	7.48646600	7.89247000
165.69999034	0.00000000	6.74212600	7.89247000
165.89999033	0.00000000	6.36687900	7.89247000
166.09999032	0.00000000	6.32381900	7.89247000
166.29999030	0.00000000	6.32381900	7.89247000
166.49999029	0.00000000	6.32381900	7.89247000
166.69999028	0.00000000	6.32381900	7.89247000
166.89999027	0.00000000	6.36687900	7.89247000
167.09999026	0.00000000	6.74212600	7.89247000
167.29999024	0.00000000	7.48646600	7.89247000
167.49999023	0.00000000	7.86171200	7.89247000
167.69999022	0.00000000	7.90477300	7.89247000
167.89999021	0.00000000	7.90477300	7.89247000
168.09999020	0.00000000	7.90477300	7.89247000
168.29999018	0.00000000	7.86171200	7.89247000
168.49999017	0.00000000	7.52952700	7.89247000
168.69999016	0.00000000	7.11737200	7.89247000
168.89999015	0.00000000	7.11122000	7.89247000
169.09999014	-0.15871060	6.69906400	7.89247000
169.29999013	0.00000000	6.36687900	7.89247000
169.49999011	0.00000000	6.32381900	7.89247000
169.69999010	0.00000000	6.36687900	7.89247000
169.89999009	0.00000000	6.69906400	7.89247000
170.09999008	0.00000000	7.06815900	7.89247000
170.29999007	0.00000000	6.74212600	7.89247000
170.49999005	0.00000000	6.79133800	7.89247000
170.69999004	0.00000000	7.48646600	7.89247000
170.89999003	0.00000000	7.86171200	7.89247000
171.09999002	0.00000000	7.90477300	7.89247000
171.29999001	0.00000000	7.90477300	7.89247000
171.49998999	0.00000000	7.90477300	7.89247000
171.69998998	0.00000000	7.90477300	7.89247000
171.89998997	0.00000000	7.90477300	7.89247000
172.09998996	0.00000000	7.86171200	7.89247000
172.29998995	0.00000000	7.48646600	7.89247000
172.49998994	0.00000000	6.74212600	7.89247000
172.69998992	0.00000000	6.36687900	7.89247000
172.89998991	0.00000000	6.36687900	7.89247000
173.09998990	0.00000000	6.69906400	7.89247000
173.29998989	0.00000000	7.06815900	7.89247000
173.49998988	0.00000000	6.69906400	7.89247000
173.69998986	0.00000000	6.36687900	7.89247000
173.89998985	0.00000000	6.36687900	7.89247000
174.09998984	0.00000000	6.74212600	7.89247000
174.29998983	0.00000000	7.43725300	7.89247000
174.49998982	0.00000000	7.43725300	7.89247000
174.69998980	0.00000000	6.74212600	7.89247000
174.89998979	0.00000000	6.36687900	7.89247000
175.09998978	0.00000000	6.36687900	7.89247000
175.29998977	0.00000000	6.74212600	7.89247000
175.49998976	0.00000000	7.48646600	7.89247000
175.69998975	0.00000000	7.81250000	7.89247000
175.89998973	0.00000000	7.52952700	7.89247000
176.09998972	0.00000000	7.16043300	7.89247000
176.29998971	0.00000000	7.52952700	7.89247000
176.49998970	0.00000000	7.81250000	7.89247000
176.69998969	0.00000000	7.48646600	7.89247000
176.89998967	0.00000000	6.74212600	7.89247000
177.09998966	0.00000000	6.36687900	7.89247000
177.29998965	0.00000000	6.32381900	7.89247000
177.49998964	0.00000000	6.36687900	7.89247000
177.69998963	0.00000000	6.69906400	7.89247000
177.89998961	0.00000000	7.06815900	7.89247000
178.09998960	0.00000000	6.69906400	7.89247000
178.29998959	0.00000000	6.41609200	7.89247000
178.49998958	0.00000000	6.69906400	7.89247000
178.69998957	0.00000000	7.11122000	7.89247000
178.89998956	0.00000000	7.07431000	7.89247000
179.09998954	0.00000000	7.11122000	7.89247000
179.29998953	0.00000000	6.74212600	7.89247000
179.49998952	0.00000000	6.79133800	7.89247000
179.69998951	0.00000000	7.48646600	7.89247000
179.89998950	0.00000000	7.86171200	7.89247000
180.09998948	0.00000000	7.86171200	7.89247000
180.29998947	0.00000000	7.52952700	7.89247000
180.49998946	0.00000000	7.11737200	7.89247000
180.69998945	0.00000000	7.11122000	7.89247000
180.89998944	0.00000000	6.69906400	7.89247000
181.09998942	0.00000000	6.36687900	7.89247000
181.29998941	0.00000000	6.32381900	7.89247000
181.49998940	0.00000000	6.32381900	7.93553100
181.69998939	0.00000000	6.36687900	8.26771600
181.89998938	0.00000000	6.74212600	8.63681000
182.09998937	0.00000000	7.48646600	8.26771600
182.29998935	0.00000000	7.86171200	7.93553100
182.49998934	0.00000000	7.90477300	7.89247000
182.69998933	0.00000000	7.90477300	7.89247000
182.89998932	0.00000000	7.90477300	7.89247000
183.09998931	0.00000000	7.90477300	7.89247000
183.29998929	0.00000000	7.86171200	7.89247000
183.49998928	0.00000000	7.48646600	7.89247000
183.69998927	0.00000000	6.74212600	7.89247000
183.89998926	0.00000000	6.41609200	7.89247000
184.09998925	0.00000000	6.69906400	7.89247000
184.29998923	0.00000000	7.06815900	7.93553100
184.49998922	0.00000000	6.69906400	8.26771600
184.69998921	0.00000000	6.41609200	8.63681000
184.89998920	0.00000000	6.74212600	8.26771600
185.09998919	0.00000000	7.43725300	7.93553100
185.29998918	0.00000000	7.48646600	7.89247000
185.49998916	0.00000000	7.16043300	7.89247000
185.69998915	0.00000000	7.52952700	7.89247000
185.89998914	0.00000000	7.86171200	7.89247000
186.09998913	0.00000000	7.86171200	7.89247000
186.29998912	0.00000000	7.48646600	7.89247000
186.49998910	0.00000000	6.79133800	7.89247000
186.69998909	-0.15871060	6.74212600	7.89247000
186.89998908	0.00000000	7.06815900	7.93553100
187.09998907	0.00000000	6.69906400	8.26771600
187.29998906	0.00000000	6.36687900	8.63681000
187.49998904	0.00000000	6.36687900	8.31077700
187.69998903	0.00000000	6.69906400	8.31077700
187.89998902	0.00000000	7.06815900	8.63681000
188.09998901	0.00000000	6.74212600	8.26771600
188.29998900	0.00000000	6.79133800	7.93553100
188.49998899	0.00000000	7.48646600	7.84940900
188.69998897	0.00000000	7.86171200	7.51722400
188.89998896	0.00000000	7.90477300	7.14812900
189.09998895	0.00000000	7.86171200	7.51722400
189.29998894	0.00000000	7.48646600	7.84940900
189.49998893	0.00000000	6.74212600	7.89247000
189.69998891	0.00000000	6.41609200	7.89247000
189.89998890	0.00000000	6.69906400	7.89247000
190.09998889	0.00000000	7.06815900	7.89247000
190.29998888	0.00000000	6.74212600	7.89247000
190.49998887	0.00000000	6.74212600	7.89247000
190.69998885	0.00000000	7.11122000	7.89247000
190.89998884	0.00000000	7.07431000	7.89247000
191.09998883	0.00000000	7.15428100	7.89247000
191.29998882	0.00000000	7.11737200	7.89247000
191.49998881	0.00000000	7.52952700	7.89247000
191.69998880	0.00000000	7.86171200	7.89247000
191.89998878	0.00000000	7.90477300	7.89247000
192.09998877	0.00000000	7.90477300	7.89247000
192.29998876	0.00000000	7.90477300	7.89247000
192.49998875	0.00000000	7.86171200	7.89247000
192.69998874	0.00000000	7.48646600	7.89247000
192.89998872	0.00000000	6.74212600	7.89247000
193.09998871	0.00000000	6.36687900	7.89247000
193.29998870	0.00000000	6.32381900	7.89247000
193.49998869	0.00000000	6.36687900	7.89247000
193.69998868	0.00000000	6.69906400	7.93553100
193.89998866	0.00000000	7.11122000	8.26771600
194.09998865	0.00000000	7.11737200	8.63681000
194.29998864	0.00000000	7.52952700	8.26771600
194.49998863	0.00000000	7.86171200	7.93553100
194.69998862	0.00000000	7.90477300	7.89247000
194.89998861	0.00000000	7.90477300	7.89247000
195.09998859	0.00000000	7.86171200	7.89247000
195.29998858	0.00000000	7.48646600	7.89247000
195.49998857	0.00000000	6.74212600	7.89247000
195.69998856	0.00000000	6.36687900	7.89247000
195.89998855	0.00000000	6.32381900	7.89247000
196.09998853	0.00000000	6.36687900	7.89247000
