Time	Channel A	Channel B	Channel C
(us)	(V)	(mV)	(mV)

-4.49999956	0.00000000	31.61909000	4.73671200
-4.29999957	0.00000000	31.61909000	4.73671200
-4.09999958	0.00000000	31.61909000	4.73671200
-3.89999959	0.00000000	31.61909000	4.73671200
-3.69999960	0.00000000	31.61909000	4.73671200
-3.49999962	0.00000000	31.61909000	4.73671200
-3.29999963	0.00000000	31.61909000	4.73671200
-3.09999964	0.00000000	31.61909000	4.73671200
-2.89999965	0.00000000	31.61909000	4.73671200
-2.69999966	0.00000000	31.61909000	4.73671200
-2.49999968	0.00000000	31.61909000	4.73671200
-2.29999969	0.00000000	31.61909000	4.73671200
-2.09999970	0.00000000	31.61909000	4.73671200
-1.89999971	0.00000000	31.61909000	4.73671200
-1.69999972	0.00000000	31.61909000	4.73671200
-1.49999973	0.00000000	31.61909000	4.73671200
-1.29999975	0.00000000	31.61909000	4.73671200
-1.09999976	0.00000000	31.61909000	4.73671200
-0.89999977	0.00000000	31.61909000	4.73671200
-0.69999978	0.00000000	31.61909000	4.73671200
-0.49999979	0.00000000	31.61909000	4.73671200
-0.29999981	0.31803640	31.61909000	4.73671200
-0.09999982	0.63668800	31.61909000	4.73671200
0.10000017	0.95533960	31.61909000	4.73671200
0.30000016	0.95533960	31.61909000	4.73671200
0.50000015	0.95533960	31.61909000	4.73671200
0.70000013	0.47736220	31.61909000	4.73671200
0.90000012	-0.47736220	31.61909000	4.73671200
1.10000011	-1.43331700	31.61909000	4.73671200
1.30000010	-2.22994600	31.61909000	4.73671200
1.50000009	-2.70792300	31.61909000	4.73671200
1.70000008	-2.54859700	31.61909000	4.73671200
1.90000006	-1.43331700	31.61909000	4.73671200
2.10000005	0.31803640	31.61909000	4.73671200
2.30000004	2.38927200	31.61909000	4.73671200
2.50000003	4.30056600	31.61909000	4.69365100
2.70000002	5.25652100	31.61909000	4.36146600
2.90000000	4.93786900	31.61909000	3.99237200
3.09999999	3.18590100	31.61909000	4.31840500
3.29999998	0.31803640	31.61909000	4.31840500
3.49999997	-3.18590100	31.61909000	3.99237200
3.69999996	-6.05315000	31.61909000	4.36146600
3.89999994	-7.80511800	31.61909000	4.69365100
4.09999993	-7.64579200	31.61909000	4.73671200
4.29999992	-5.41584600	31.61909000	4.73671200
4.49999991	-1.59264300	31.61909000	4.73671200
4.69999990	2.86724900	31.61909000	4.73671200
4.89999989	6.84916400	31.61909000	4.69365100
5.09999987	9.07972400	31.61909000	4.36146600
5.29999986	9.23905000	31.61909000	3.94931100
5.49999985	7.00848900	31.61909000	3.94315900
5.69999984	3.02657500	31.61909000	3.53100400
5.89999983	-1.91129400	31.61909000	3.24803100
6.09999981	-6.21247500	31.61909000	3.57406500
6.29999980	-8.92039900	31.61909000	4.31840500
6.49999979	-9.39837600	31.61909000	4.69365100
6.69999978	-7.48646600	31.61909000	4.73671200
6.89999977	-3.82258900	31.61909000	4.73671200
7.09999975	0.47736220	31.61909000	4.73671200
7.29999974	4.45989200	31.61909000	4.73671200
7.49999973	7.00848900	31.61909000	4.73671200
7.69999972	7.80511800	31.61909000	4.73671200
7.89999971	6.53112700	31.61909000	4.73671200
8.09999970	3.82258900	31.61909000	4.73671200
8.29999968	0.47736220	31.61909000	4.73671200
8.49999967	-2.54859700	31.61909000	4.73671200
8.69999966	-4.61921700	31.61909000	4.73671200
8.89999965	-5.25652100	31.61909000	4.73671200
9.09999964	-4.45989200	31.61909000	4.73671200
9.29999962	-2.86724900	31.61909000	4.73671200
9.49999961	-0.95533960	31.61909000	4.73671200
9.69999960	0.95533960	31.61909000	4.73671200
9.89999959	2.07062000	31.61909000	4.73671200
10.09999958	2.54859700	31.61909000	4.73671200
10.29999956	2.22994600	31.61909000	4.69365100
10.49999955	1.59264300	31.61909000	4.36146600
10.69999954	0.63668800	31.61909000	3.99237200
10.89999953	-0.15871060	31.61909000	4.36146600
11.09999952	-0.63668800	31.61909000	4.69365100
11.29999951	-0.95533960	31.61909000	4.73671200
11.49999949	-0.95533960	31.61909000	4.73671200
11.69999948	-0.79601380	31.61909000	4.73671200
11.89999947	-0.47736220	31.61909000	4.73671200
12.09999946	-0.15871060	31.61909000	4.73671200
12.29999945	-0.15871060	31.61909000	4.73671200
12.49999943	-0.15871060	31.61909000	4.73671200
12.69999942	0.00000000	31.61909000	4.73671200
12.89999941	0.00000000	31.61909000	4.73671200
13.09999940	0.00000000	31.61909000	4.73671200
13.29999939	0.00000000	31.61909000	4.73671200
13.49999937	0.00000000	31.61909000	4.73671200
13.69999936	0.00000000	31.61909000	4.73671200
13.89999935	0.00000000	31.61909000	4.73671200
14.09999934	-0.15871060	31.61909000	4.73671200
14.29999933	-0.15871060	31.61909000	4.73671200
14.49999932	0.00000000	31.61909000	4.73671200
14.69999930	0.00000000	31.61909000	4.73671200
14.89999929	0.00000000	31.61909000	4.69365100
15.09999928	0.00000000	31.61909000	4.36146600
15.29999927	0.00000000	31.61909000	3.99237200
15.49999926	0.00000000	31.61909000	4.36146600
15.69999924	0.00000000	31.61909000	4.69365100
15.89999923	0.00000000	31.61909000	4.73671200
16.09999922	0.00000000	31.61909000	4.73671200
16.29999921	0.00000000	31.61909000	4.73671200
16.49999920	-0.15871060	31.61909000	4.73671200
16.69999919	-0.15871060	31.61909000	4.73671200
16.89999917	0.00000000	31.66215000	4.73671200
17.09999916	0.00000000	32.03740000	4.73671200
17.29999915	0.00000000	32.78174000	4.73671200
17.49999914	0.00000000	33.15699000	4.73671200
17.69999913	0.00000000	33.15699000	4.73671200
17.89999911	0.00000000	32.73252000	4.73671200
18.09999910	0.00000000	31.57603000	4.73671200
18.29999909	0.00000000	30.03814000	4.69365100
18.49999908	0.00000000	28.45718000	4.36146600
18.69999907	0.00000000	26.91929000	3.99237200
18.89999905	0.00000000	25.80585000	4.36146600
19.09999904	0.00000000	25.84892000	4.69365100
19.29999903	0.00000000	27.38681000	4.73671200
19.49999902	0.00000000	30.08120000	4.73671200
19.69999901	0.00000000	33.24926000	4.73671200
19.89999900	0.00000000	36.74335000	4.73671200
20.09999898	0.00000000	40.18209000	4.73671200
20.29999897	0.00000000	42.09522000	4.69365100
20.49999896	0.00000000	42.00295000	4.36146600
20.69999895	0.00000000	39.25320000	3.99237200
20.89999894	0.00000000	33.43996000	4.36146600
21.09999892	0.00000000	26.45792000	4.69365100
21.29999891	0.00000000	19.06373000	4.73671200
21.49999890	0.00000000	12.64149000	4.69365100
21.69999889	0.00000000	9.99015700	4.31840500
21.89999888	0.00000000	12.35851000	3.62327700
22.09999886	0.00000000	19.38361000	3.62327700
22.29999885	0.00000000	30.59178000	4.26919300
22.49999884	0.00000000	43.34399000	4.31840500
22.69999883	0.00000000	54.51525000	3.99237200
22.89999882	0.00000000	61.81102000	4.36146600
23.09999881	0.00000000	62.46924000	4.69365100
23.29999879	0.00000000	55.86245000	4.73671200
23.49999878	0.00000000	42.65502000	4.77977300
23.69999877	0.00000000	25.29527000	5.15501900
23.89999876	0.00000000	7.94168200	5.89320800
24.09999875	0.00000000	-5.17962600	6.21924200
24.29999873	0.00000000	-10.90059000	5.89320800
24.49999872	0.00000000	-7.32037400	5.11195900
24.69999871	0.00000000	5.84399600	4.26919300
24.89999870	0.00000000	25.89813000	2.69439000
25.09999869	0.00000000	47.95152000	0.46751960
25.29999867	0.00000000	67.26746000	-1.06422200
25.49999866	0.00000000	79.54601000	-1.43946800
25.69999865	0.00000000	80.99163000	-0.64591530
25.89999864	0.00000000	70.57086000	1.71013800
26.09999863	0.00000000	50.51673000	5.19808000
26.29999862	0.00000000	25.80585000	9.43036400
26.49999860	0.00000000	2.26377900	13.28125000
26.69999859	0.00000000	-14.75763000	15.56348000
26.89999858	0.00000000	-21.32136000	15.92642000
27.09999857	0.00000000	-16.29552000	13.52116000
27.29999856	0.00000000	-0.47982280	8.50147600
27.49999854	0.00000000	22.26870000	1.53174200
27.69999853	0.00000000	46.23523000	-5.80708600
27.89999852	0.00000000	66.38164000	-11.98327000
28.09999851	0.00000000	78.38336000	-15.79109000
28.29999850	0.00000000	79.96431000	-15.66191000
28.49999848	0.00000000	71.07529000	-10.59301000
28.69999847	0.00000000	53.72170000	-0.93503930
28.89999846	0.00000000	32.12967000	11.00517000
29.09999845	0.00000000	11.61417000	22.61934000
29.29999844	0.00000000	-3.54945900	31.45300000
29.49999843	0.00000000	-10.90059000	35.21776000
29.69999841	0.00000000	-8.99360200	32.05585000
29.89999840	0.00000000	1.71013800	22.06570000
30.09999839	0.00000000	17.52584000	7.75713500
30.29999838	0.00000000	34.60876000	-7.75713500
30.49999837	0.00000000	50.14148000	-22.02264000
30.69999835	0.00000000	60.93750000	-31.59449000
30.89999834	0.00000000	64.88680000	-33.50147000
31.09999833	0.00000000	61.44808000	-27.27608000
31.29999832	0.00000000	52.22687000	-13.74877000
31.49999831	0.00000000	39.43774000	4.36146600
31.69999829	0.00000000	25.89813000	22.48400000
31.89999828	0.00000000	14.22244000	36.84178000
32.09999827	0.00000000	6.49606300	44.55585000
32.29999826	0.00000000	4.12770700	44.13140000
32.49999825	0.00000000	7.61564900	35.26082000
32.69999824	0.00000000	15.66806000	19.78961000
32.89999822	0.00000000	26.50098000	1.24877000
33.09999821	0.00000000	37.34621000	-16.91068000
33.29999820	0.00000000	46.27829000	-30.38878000
33.49999819	0.00000000	51.63016000	-36.23893000
33.69999818	0.00000000	51.67323000	-33.54453000
33.89999816	0.00000000	46.74582000	-23.13607000
34.09999815	0.00000000	39.01944000	-7.33882900
34.29999814	0.00000000	30.13041000	10.07628000
34.49999813	0.00000000	22.03494000	25.55364000
34.69999812	0.00000000	17.00910000	36.37426000
34.89999810	0.00000000	15.80339000	39.86220000
35.09999809	0.00000000	18.49778000	35.63607000
35.29999808	0.00000000	24.22490000	24.80315000
35.49999807	0.00000000	31.10851000	9.43036400
35.69999806	0.00000000	36.97096000	-6.32381900
35.89999805	0.00000000	40.84030000	-18.35630000
36.09999803	0.00000000	42.32283000	-24.58169000
36.29999802	0.00000000	40.00369000	-24.20645000
36.49999801	0.00000000	34.73794000	-17.23671000
36.69999800	0.00000000	28.96776000	-5.38262700
36.89999799	0.00000000	24.31102000	8.08316900
37.09999797	0.00000000	21.61663000	19.19291000
37.29999796	0.00000000	21.61663000	25.45521000
37.49999795	0.00000000	24.26796000	25.46137000
37.69999794	0.00000000	28.50024000	20.10950000
37.89999793	0.00000000	33.15699000	10.54380000
38.09999791	0.00000000	37.39542000	-0.14148620
38.29999790	0.00000000	40.08981000	-8.23080600
38.49999789	0.00000000	40.46506000	-12.13091000
38.69999788	0.00000000	38.55807000	-10.92520000
38.89999787	0.00000000	34.73794000	-4.82898600
39.09999786	0.00000000	30.50566000	4.36146600
39.29999784	0.00000000	26.96850000	13.52116000
39.49999783	0.00000000	24.22490000	20.02337000
39.69999782	0.00000000	22.68701000	21.51206000
39.89999781	0.00000000	22.68701000	17.32899000
40.09999780	0.00000000	24.22490000	8.91978400
40.29999778	0.00000000	26.96850000	-1.06422200
40.49999777	0.00000000	30.45644000	-9.89788300
40.69999776	0.00000000	34.31963000	-15.28666000
40.89999775	0.00000000	37.39542000	-15.61270000
41.09999774	0.00000000	38.97638000	-10.59301000
41.29999772	0.00000000	39.01944000	-1.02116100
41.49999771	0.00000000	37.85679000	10.03322000
41.69999770	0.00000000	35.90059000	18.90994000
41.89999769	0.00000000	33.15699000	23.60359000
42.09999768	0.00000000	30.03814000	23.60359000
42.29999767	0.00000000	26.96850000	18.95300000
42.49999765	0.00000000	24.64321000	10.54380000
42.69999764	0.00000000	23.84965000	0.92888770
42.89999763	0.00000000	24.18184000	-7.16043300
43.09999762	0.00000000	25.38755000	-12.17397000
43.29999761	0.00000000	27.29453000	-12.59227000
43.49999759	0.00000000	29.61983000	-8.82750900
43.69999758	0.00000000	31.52682000	-2.69439000
43.89999757	0.00000000	32.78174000	4.26919300
44.09999756	0.00000000	33.57529000	10.45152000
44.29999755	0.00000000	34.36884000	14.72072000
44.49999753	0.00000000	34.74409000	16.25861000
44.69999752	0.00000000	34.78716000	14.76993000
44.89999751	0.00000000	34.78716000	10.95595000
45.09999750	0.00000000	34.69488000	6.35457700
45.29999749	0.00000000	33.90133000	2.08538400
45.49999748	0.00000000	31.95128000	-1.02116100
45.69999746	0.00000000	29.61983000	-2.60211600
45.89999745	0.00000000	26.83317000	-2.60211600
46.09999744	0.00000000	23.75738000	-1.07037400
46.29999743	0.00000000	21.10605000	1.58095500
46.49999742	0.00000000	19.99262000	4.31840500
46.69999740	0.00000000	21.19833000	6.64370100
46.89999739	0.00000000	24.68627000	8.58759800
47.09999738	0.00000000	30.13041000	9.33809000
47.29999737	0.00000000	36.31890000	8.96284400
47.49999736	0.00000000	42.09522000	7.43110200
47.69999734	0.00000000	45.90305000	5.15501900
47.89999733	0.00000000	46.27829000	3.15575800
48.09999732	0.00000000	43.20866000	1.20570900
48.29999731	0.00000000	37.34621000	-0.69512790
48.49999730	0.00000000	29.57677000	-1.43946800
48.69999729	0.00000000	21.10605000	-1.06422200
48.89999727	0.00000000	14.22244000	0.55364170
49.09999726	0.00000000	11.14665000	3.62327700
49.29999725	0.00000000	12.68455000	7.38188900
49.49999724	0.00000000	18.49778000	10.07628000
49.69999723	0.00000000	27.34375000	10.91289000
49.89999721	0.00000000	37.02018000	10.53765000
50.09999720	0.00000000	45.07259000	8.91978400
50.29999719	0.00000000	49.71703000	5.80093500
50.49999718	0.00000000	49.30487000	1.62401600
50.69999717	0.00000000	44.37131000	-2.22687000
50.89999715	0.00000000	36.23277000	-4.50910400
51.09999714	0.00000000	27.01156000	-4.92125900
51.29999713	0.00000000	18.92224000	-2.97736200
51.49999712	0.00000000	14.30856000	0.46751960
51.69999711	0.00000000	14.22244000	4.73671200
51.89999710	0.00000000	18.07948000	8.96284400
52.09999708	0.00000000	24.64321000	12.03248000
52.29999707	0.00000000	32.73868000	13.14591000
52.49999706	0.00000000	39.95448000	11.61417000
52.69999705	0.00000000	43.86073000	7.84940900
52.89999704	0.00000000	43.54084000	3.62327700
53.09999702	0.00000000	40.08981000	0.13533460
53.29999701	0.00000000	34.31963000	-2.22687000
53.49999700	0.00000000	27.80512000	-2.97736200
53.69999699	0.00000000	22.77928000	-2.18380900
53.89999698	0.00000000	20.07874000	0.46751960
54.09999696	0.00000000	20.45399000	3.85088600
54.29999695	0.00000000	23.89271000	6.17618100
54.49999694	0.00000000	28.87549000	7.38188900
54.69999693	0.00000000	34.27657000	7.38188900
54.89999692	0.00000000	38.46580000	6.22539300
55.09999691	0.00000000	40.04675000	4.31840500
55.29999689	0.00000000	38.88410000	2.08538400
55.49999688	0.00000000	35.43922000	0.97194880
55.69999687	0.00000000	30.45644000	1.66707700
55.89999686	0.00000000	25.89198000	3.19881900
56.09999685	0.00000000	23.10531000	5.15501900
56.29999683	0.00000000	22.36097000	7.43110200
56.49999682	0.00000000	23.52977000	8.91978400
56.69999681	0.00000000	26.96850000	8.87672100
56.89999680	0.00000000	31.15772000	6.92052100
57.09999679	0.00000000	34.65182000	3.11269700
57.29999677	0.00000000	36.97712000	-1.07037400
57.49999676	0.00000000	37.35236000	-4.13385800
57.69999675	0.00000000	35.85752000	-5.29650500
57.89999674	0.00000000	33.20005000	-4.09079700
58.09999673	0.00000000	30.50566000	-0.60285430
58.29999672	0.00000000	28.50024000	4.82898600
58.49999670	0.00000000	26.96850000	10.96211000
58.69999669	0.00000000	26.22416000	16.25861000
58.89999668	0.00000000	26.96850000	18.53469000
59.09999667	0.00000000	28.45718000	16.63386000
59.29999666	0.00000000	30.03814000	11.61417000
59.49999664	0.00000000	31.57603000	4.26919300
59.69999663	0.00000000	32.68946000	-3.76476400
59.89999662	0.00000000	32.68946000	-9.89788300
60.09999661	0.00000000	31.61909000	-12.59227000
60.29999660	0.00000000	30.45644000	-11.06053000
60.49999658	0.00000000	29.66289000	-5.67175200
60.69999657	0.00000000	28.92470000	2.04232300
60.89999656	0.00000000	28.96776000	10.49459000
61.09999655	0.00000000	30.08120000	17.42126000
61.29999654	0.00000000	31.57603000	20.90305000
61.49999653	0.00000000	32.73252000	20.48474000
61.69999651	0.00000000	33.10777000	15.88336000
61.89999650	0.00000000	32.73252000	8.17544300
62.09999649	0.00000000	31.52682000	-0.28297240
62.29999648	0.00000000	29.61983000	-7.99089500
62.49999647	0.00000000	27.34375000	-12.59227000
62.69999645	0.00000000	25.80585000	-13.01058000
62.89999644	0.00000000	25.38755000	-9.56569900
63.09999643	0.00000000	25.80585000	-3.02042300
63.29999642	0.00000000	27.38681000	4.69365100
63.49999641	0.00000000	30.08120000	12.03248000
63.69999639	0.00000000	33.11393000	17.42126000
63.89999638	0.00000000	35.43922000	19.37131000
64.09999637	0.00000000	36.23277000	17.88263000
64.29999636	0.00000000	35.85752000	13.61343000
64.49999635	0.00000000	34.27657000	7.47416300
64.69999634	0.00000000	31.57603000	0.87967510
64.89999632	0.00000000	28.50024000	-4.51525500
65.09999631	0.00000000	25.80585000	-8.03395600
65.29999630	0.00000000	24.26796000	-8.78444900
65.49999629	0.00000000	24.26796000	-6.92052100
65.69999628	0.00000000	25.80585000	-3.06963600
65.89999626	0.00000000	28.50024000	1.53174200
66.09999625	0.00000000	31.53297000	5.85014700
66.29999624	0.00000000	33.85827000	9.33809000
66.49999623	0.00000000	34.60876000	11.70029000
66.69999622	0.00000000	33.90133000	12.49385000
66.89999620	0.00000000	31.95128000	12.16166000
67.09999619	0.00000000	29.70595000	10.96211000
67.29999618	0.00000000	27.71284000	9.00590400
67.49999617	0.00000000	26.63632000	6.26845500
67.69999616	0.00000000	26.64247000	3.15575800
67.89999615	0.00000000	28.59252000	0.04306102
68.09999613	0.00000000	31.57603000	-2.69439000
68.29999612	0.00000000	34.27657000	-4.60137700
68.49999611	0.00000000	35.81446000	-5.38262700
68.69999610	0.00000000	35.81446000	-4.55831700
68.89999609	0.00000000	34.23351000	-2.22687000
69.09999607	0.00000000	31.15772000	1.66707700
69.29999606	0.00000000	27.29453000	6.31151500
69.49999605	0.00000000	23.84965000	10.91289000
69.69999604	0.00000000	21.52436000	14.39468000
69.89999603	0.00000000	21.19833000	15.56348000
70.09999601	0.00000000	23.15453000	14.76993000
70.29999600	0.00000000	27.38681000	11.65723000
70.49999599	0.00000000	32.78174000	6.64370100
70.69999598	0.00000000	37.77067000	1.24877000
70.89999597	0.00000000	41.25246000	-3.76476400
71.09999596	0.00000000	42.00295000	-6.82824800
71.29999594	0.00000000	40.08981000	-7.24655500
71.49999593	0.00000000	35.81446000	-5.33956700
71.69999592	0.00000000	29.99508000	-1.48868100
71.89999591	0.00000000	23.84965000	3.11269700
72.09999590	0.00000000	18.87303000	7.38188900
72.29999588	0.00000000	16.91683000	10.45152000
72.49999587	0.00000000	18.03642000	11.65723000
72.69999586	0.00000000	21.52436000	10.91289000
72.89999585	0.00000000	26.96850000	9.00590400
73.09999584	0.00000000	33.11393000	6.31151500
73.29999582	0.00000000	38.50886000	3.61712600
73.49999581	0.00000000	41.62770000	1.71013800
73.69999580	0.00000000	42.04601000	0.92888770
73.89999579	0.00000000	40.08981000	1.66707700
74.09999578	0.00000000	35.85752000	3.11269700
74.29999577	0.00000000	30.50566000	4.26919300
74.49999575	0.00000000	25.84892000	4.64443900
74.69999574	0.00000000	22.68701000	4.26919300
74.89999573	0.00000000	21.14911000	3.11269700
75.09999572	0.00000000	21.52436000	1.57480300
75.29999571	0.00000000	23.84965000	0.09227362
75.49999569	0.00000000	27.25147000	-0.60285430
75.69999568	0.00000000	30.78248000	0.55364170
75.89999567	0.00000000	33.43996000	3.24803100
76.09999566	0.00000000	35.06397000	6.68676100
76.29999565	0.00000000	35.02707000	10.16855000
76.49999563	0.00000000	33.99360000	12.45079000
76.69999562	0.00000000	32.36959000	13.18898000
76.89999561	0.00000000	30.91781000	11.56496000
77.09999560	0.00000000	29.71826000	7.33882900
77.29999559	0.00000000	29.66289000	1.62401600
77.49999558	0.00000000	29.61983000	-3.76476400
77.69999556	0.00000000	29.29380000	-7.25270600
77.89999555	0.00000000	29.61983000	-8.45226300
78.09999554	0.00000000	29.57062000	-7.25270600
78.29999553	0.00000000	28.83243000	-3.72170300
78.49999552	0.00000000	28.08194000	2.04232300
78.69999550	0.00000000	27.34375000	8.54453700
78.89999549	0.00000000	27.38681000	13.56422000
79.09999548	0.00000000	28.50024000	16.35089000
79.29999547	0.00000000	30.03814000	16.67692000
79.49999546	0.00000000	31.66215000	14.39468000
79.69999544	0.00000000	33.57529000	9.75639700
79.89999543	0.00000000	35.43922000	4.36146600
80.09999542	0.00000000	35.76525000	-1.06422200
80.29999541	0.00000000	34.31963000	-5.29650500
80.49999540	0.00000000	31.99434000	-7.24655500
80.69999539	0.00000000	29.61983000	-6.92052100
80.89999537	0.00000000	26.91929000	-4.60137700
81.09999536	0.00000000	24.68627000	-1.11343500
81.29999535	0.00000000	24.26796000	3.15575800
81.49999534	0.00000000	25.38755000	7.38188900
81.69999533	0.00000000	27.34375000	10.49459000
81.89999531	0.00000000	30.03814000	12.11860000
82.09999530	0.00000000	32.68946000	12.53691000
82.29999529	0.00000000	34.27657000	12.11860000
82.49999528	0.00000000	34.69488000	10.49459000
82.69999527	0.00000000	34.31963000	7.42495000
82.89999525	0.00000000	33.11393000	3.57406500
83.09999524	0.00000000	31.20078000	0.09227362
83.29999523	0.00000000	28.92470000	-2.69439000
83.49999522	0.00000000	27.38681000	-4.60137700
83.69999521	0.00000000	26.96850000	-5.38262700
83.89999520	0.00000000	27.29453000	-4.55831700
84.09999518	0.00000000	28.08194000	-2.22687000
84.29999517	0.00000000	28.83243000	1.62401600
84.49999516	0.00000000	29.61983000	5.85014700
84.69999515	0.00000000	29.99508000	9.38115100
84.89999514	0.00000000	30.03814000	12.11860000
85.09999512	0.00000000	30.03814000	13.61343000
85.29999511	0.00000000	30.03814000	13.18898000
85.49999510	0.00000000	30.08120000	10.49459000
85.69999509	0.00000000	30.45644000	6.26845500
85.89999508	0.00000000	31.20078000	1.62401600
86.09999506	0.00000000	31.57603000	-2.64517700
86.29999505	0.00000000	31.57603000	-5.67175200
86.49999504	0.00000000	31.20078000	-6.45300100
86.69999503	0.00000000	30.41338000	-4.55831700
86.89999502	0.00000000	29.61983000	-1.11343500
87.09999501	0.00000000	28.41412000	3.20497000
87.29999499	0.00000000	26.96850000	7.80019600
87.49999498	0.00000000	26.22416000	11.65723000
87.69999497	0.00000000	26.96850000	13.56422000
87.89999496	0.00000000	28.45718000	13.18898000
88.09999495	0.00000000	30.03814000	10.45152000
88.29999493	0.00000000	31.57603000	5.89320800
88.49999492	0.00000000	32.73252000	0.92888770
88.69999491	0.00000000	33.10777000	-2.55905500
88.89999490	0.00000000	32.73252000	-4.18307100
89.09999489	0.00000000	31.57603000	-4.14000900
89.29999487	0.00000000	30.03814000	-2.18380900
89.49999486	0.00000000	28.50024000	1.66707700
89.69999485	0.00000000	27.34375000	6.21924200
89.89999484	0.00000000	26.96850000	10.07628000
90.09999483	0.00000000	27.29453000	11.98327000
90.29999482	0.00000000	28.08194000	11.61417000
90.49999480	0.00000000	28.87549000	8.91978400
90.69999479	0.00000000	30.03814000	4.73671200
90.89999478	0.00000000	31.15157000	0.51058070
91.09999477	0.00000000	31.57603000	-2.55905500
91.29999476	0.00000000	31.61909000	-3.71555100
91.49999474	0.00000000	31.57603000	-2.60211600
91.69999473	0.00000000	31.20078000	0.09227362
91.89999472	0.00000000	30.45644000	3.62327700
92.09999471	0.00000000	30.08120000	7.80019600
92.29999470	0.00000000	30.03814000	11.18971000
92.49999468	0.00000000	29.99508000	11.98327000
92.69999467	0.00000000	29.61983000	10.49459000
92.89999466	0.00000000	28.83243000	7.38188900
93.09999465	0.00000000	28.08194000	3.15575800
93.29999464	0.00000000	27.29453000	-1.07037400
93.49999463	0.00000000	26.91929000	-4.09079700
93.69999461	0.00000000	26.91929000	-4.87819900
93.89999460	0.00000000	27.34375000	-2.93430100
94.09999459	0.00000000	28.50024000	0.83661410
94.29999458	0.00000000	30.08120000	5.47490100
94.49999457	0.00000000	31.99434000	9.29502900
94.69999455	0.00000000	33.90133000	11.61417000
94.89999454	0.00000000	34.65182000	11.56496000
95.09999453	0.00000000	34.31963000	8.91978400
95.29999452	0.00000000	33.11393000	4.73671200
95.49999451	0.00000000	31.15157000	0.51058070
95.69999449	0.00000000	28.41412000	-2.60211600
95.89999448	0.00000000	25.38755000	-4.14000900
96.09999447	0.00000000	23.10531000	-3.71555100
96.29999446	0.00000000	22.68701000	-1.07037400
96.49999445	0.00000000	23.80659000	2.73745100
96.69999444	0.00000000	25.80585000	6.22539300
96.89999442	0.00000000	28.92470000	8.91978400
97.09999441	0.00000000	32.78174000	10.07628000
97.29999440	0.00000000	36.18971000	9.33809000
97.49999439	0.00000000	38.18282000	7.43110200
97.69999438	0.00000000	38.14591000	4.73671200
97.89999436	0.00000000	36.64493000	2.04232300
98.09999435	0.00000000	33.48917000	0.13533460
98.29999434	0.00000000	29.66289000	-0.65206690
98.49999433	0.00000000	25.76279000	0.09227362
98.69999432	0.00000000	22.68701000	1.57480300
98.89999430	0.00000000	21.14911000	3.15575800
99.09999429	0.00000000	21.52436000	4.68750000
99.29999428	0.00000000	23.80659000	5.80093500
99.49999427	0.00000000	26.91929000	5.85014700
99.69999426	0.00000000	30.41338000	5.15501900
99.89999425	0.00000000	33.90133000	4.77977300
100.09999423	0.00000000	36.23277000	4.73671200
100.29999422	0.00000000	37.39542000	4.73671200
100.49999421	0.00000000	37.02018000	4.77977300
100.69999420	0.00000000	35.07013000	5.11195900
100.89999419	0.00000000	32.36343000	5.47490100
101.09999417	0.00000000	28.87549000	5.06274600
101.29999416	0.00000000	25.80585000	4.31840500
101.49999415	0.00000000	23.84965000	3.11269700
101.69999414	0.00000000	23.06225000	1.62401600
101.89999413	0.00000000	23.80659000	0.46136810
102.09999411	0.00000000	25.33834000	0.09227362
102.29999410	0.00000000	27.29453000	0.51058070
102.49999409	0.00000000	29.66289000	2.08538400
102.69999408	0.00000000	31.95128000	4.73671200
102.89999407	0.00000000	33.90133000	7.38188900
103.09999406	0.00000000	34.65182000	8.96284400
103.29999404	0.00000000	34.31963000	9.33809000
103.49999403	0.00000000	33.15699000	8.54453700
103.69999402	0.00000000	31.57603000	6.22539300
103.89999401	0.00000000	29.61983000	3.19881900
104.09999400	0.00000000	27.34375000	0.46751960
104.29999398	0.00000000	25.80585000	-1.48868100
104.49999397	0.00000000	25.38755000	-2.60211600
104.69999396	0.00000000	25.76279000	-2.18380900
104.89999395	0.00000000	26.91929000	0.09227362
105.09999394	0.00000000	28.45718000	3.11269700
105.29999392	0.00000000	29.99508000	5.85014700
105.49999391	0.00000000	31.15157000	7.75713500
105.69999390	0.00000000	31.57603000	8.54453700
105.89999389	0.00000000	31.57603000	7.80019600
106.09999388	0.00000000	31.15157000	6.26845500
106.29999387	0.00000000	29.99508000	4.31840500
106.49999385	0.00000000	28.50024000	2.04232300
106.69999384	0.00000000	27.38681000	0.51058070
106.89999383	0.00000000	27.34375000	0.09227362
107.09999382	0.00000000	28.08194000	0.51058070
107.29999381	0.00000000	28.83243000	2.04232300
107.49999379	0.00000000	29.66289000	4.26919300
107.69999378	0.00000000	30.41338000	5.80093500
107.89999377	0.00000000	31.15157000	6.21924200
108.09999376	0.00000000	31.10851000	5.85014700
108.29999375	0.00000000	29.99508000	4.68750000
108.49999374	0.00000000	28.50024000	3.19881900
108.69999372	0.00000000	27.29453000	1.99311000
108.89999371	0.00000000	26.54404000	1.24877000
109.09999370	0.00000000	26.18110000	0.87967510
109.29999369	0.00000000	26.96850000	1.66707700
109.49999368	0.00000000	28.45718000	3.15575800
109.69999366	0.00000000	30.03814000	4.73671200
109.89999365	0.00000000	31.57603000	6.22539300
110.09999364	0.00000000	32.68946000	7.00664300
110.29999363	0.00000000	32.68946000	6.64370100
110.49999362	0.00000000	31.57603000	5.89320800
110.69999360	0.00000000	30.03814000	4.68750000
110.89999359	0.00000000	28.50024000	3.15575800
111.09999358	0.00000000	27.34375000	1.62401600
111.29999357	0.00000000	26.91929000	0.46136810
111.49999356	0.00000000	26.87623000	0.09227362
111.69999355	0.00000000	26.91929000	0.46136810
111.89999353	0.00000000	27.34375000	1.62401600
112.09999352	0.00000000	28.50024000	3.15575800
112.29999351	0.00000000	29.99508000	4.64443900
112.49999350	0.00000000	31.15157000	5.43184000
112.69999349	0.00000000	31.57603000	5.11195900
112.89999347	0.00000000	31.57603000	4.77977300
113.09999346	0.00000000	31.15157000	4.69365100
113.29999345	0.00000000	30.03814000	4.31840500
113.49999344	0.00000000	28.92470000	3.57406500
113.69999343	0.00000000	28.45718000	3.19881900
113.89999341	0.00000000	28.08194000	3.15575800
114.09999340	0.00000000	27.71284000	3.15575800
114.29999339	0.00000000	28.12500000	3.15575800
114.49999338	0.00000000	28.83243000	3.11269700
114.69999337	0.00000000	29.61983000	2.78051200
114.89999336	0.00000000	29.99508000	2.41141700
115.09999334	0.00000000	30.03814000	2.73745100
115.29999333	0.00000000	30.03814000	2.73745100
115.49999332	0.00000000	30.03814000	2.41141700
115.69999331	0.00000000	30.03814000	2.78051200
115.89999330	0.00000000	29.99508000	3.15575800
116.09999328	0.00000000	29.61983000	3.57406500
116.29999327	0.00000000	28.87549000	4.31840500
116.49999326	0.00000000	28.50024000	4.69365100
116.69999325	0.00000000	28.45718000	4.73671200
116.89999324	0.00000000	28.45718000	4.73671200
117.09999322	0.00000000	28.50024000	4.69365100
117.29999321	0.00000000	28.87549000	4.31840500
117.49999320	0.00000000	29.66289000	3.53100400
117.69999319	0.00000000	30.41338000	2.78051200
117.89999318	0.00000000	31.20078000	1.99311000
118.09999317	0.00000000	31.57603000	1.61786400
118.29999315	0.00000000	31.57603000	1.61786400
118.49999314	0.00000000	31.15157000	1.99311000
118.69999313	0.00000000	29.99508000	2.73745100
118.89999312	0.00000000	28.50024000	3.15575800
119.09999311	0.00000000	27.34375000	3.57406500
119.29999309	0.00000000	26.91929000	4.31840500
119.49999308	0.00000000	26.87623000	4.69365100
119.69999307	0.00000000	26.91929000	4.73671200
119.89999306	0.00000000	27.34375000	4.73671200
120.09999305	0.00000000	28.50024000	4.69365100
120.29999303	0.00000000	29.99508000	4.31840500
120.49999302	0.00000000	31.20078000	3.57406500
120.69999301	0.00000000	31.95128000	3.19881900
120.89999300	0.00000000	32.36343000	3.11269700
121.09999299	0.00000000	31.95128000	2.73745100
121.29999298	0.00000000	31.20078000	1.99311000
121.49999296	0.00000000	29.99508000	1.61786400
121.69999295	0.00000000	28.45718000	1.57480300
121.89999294	0.00000000	26.91929000	1.57480300
122.09999293	0.00000000	25.80585000	1.61786400
122.29999292	0.00000000	25.76279000	2.04232300
122.49999290	0.00000000	26.50098000	3.15575800
122.69999289	0.00000000	27.29453000	4.26919300
122.89999288	0.00000000	28.50024000	4.69365100
123.09999287	0.00000000	29.94586000	4.73671200
123.29999286	0.00000000	30.78248000	4.73671200
123.49999284	0.00000000	30.83169000	4.69365100
123.69999283	0.00000000	31.24384000	4.31840500
123.89999282	0.00000000	31.52682000	3.53100400
124.09999281	0.00000000	31.20078000	2.78051200
124.29999280	0.00000000	30.41338000	1.99311000
124.49999279	0.00000000	29.66289000	1.61786400
124.69999277	0.00000000	28.83243000	1.61786400
124.89999276	0.00000000	28.08194000	1.99311000
125.09999275	0.00000000	27.29453000	2.73745100
125.29999274	0.00000000	26.91929000	3.15575800
125.49999273	0.00000000	26.91929000	3.57406500
125.69999271	0.00000000	27.29453000	4.31840500
125.89999270	0.00000000	28.08194000	4.69365100
126.09999269	0.00000000	28.87549000	4.73671200
126.29999268	0.00000000	30.03814000	4.73671200
126.49999267	0.00000000	31.15157000	4.69365100
126.69999265	0.00000000	31.57603000	4.31840500
126.89999264	0.00000000	31.57603000	3.57406500
127.09999263	0.00000000	31.15157000	3.19881900
127.29999262	0.00000000	29.99508000	3.15575800
127.49999261	0.00000000	28.50024000	3.11269700
127.69999260	0.00000000	27.34375000	2.73745100
127.89999258	0.00000000	26.91929000	2.04232300
128.09999257	0.00000000	26.91929000	2.04232300
128.29999256	0.00000000	27.34375000	2.73745100
128.49999255	0.00000000	28.45718000	3.11269700
128.69999254	0.00000000	29.61983000	3.15575800
128.89999252	0.00000000	30.41338000	3.15575800
129.09999251	0.00000000	31.15157000	3.15575800
129.29999250	0.00000000	31.15157000	3.15575800
129.49999249	0.00000000	30.41338000	3.11269700
129.69999248	0.00000000	29.61983000	2.78051200
129.89999246	0.00000000	28.45718000	2.36835600
130.09999245	0.00000000	27.34375000	2.40526600
130.29999244	0.00000000	26.91929000	2.36835600
130.49999243	0.00000000	26.91929000	2.78051200
130.69999242	0.00000000	27.29453000	3.15575800
130.89999241	0.00000000	28.08194000	3.57406500
131.09999239	0.00000000	28.83243000	4.26919300
131.29999238	0.00000000	29.66289000	4.26919300
131.49999237	0.00000000	30.37032000	3.57406500
131.69999236	0.00000000	30.78248000	3.19881900
131.89999235	0.00000000	30.41338000	3.11269700
132.09999233	0.00000000	30.03814000	2.73745100
132.29999232	0.00000000	29.61983000	1.99311000
132.49999231	0.00000000	28.83243000	1.61786400
132.69999230	0.00000000	28.08194000	1.61786400
132.89999229	0.00000000	27.34375000	2.04232300
133.09999227	0.00000000	27.34375000	3.15575800
133.29999226	0.00000000	28.03888000	4.31840500
133.49999225	0.00000000	28.41412000	5.06274600
133.69999224	0.00000000	28.50024000	5.47490100
133.89999223	0.00000000	28.83243000	5.11195900
134.09999222	0.00000000	29.20152000	4.73671200
134.29999220	0.00000000	28.83243000	4.31840500
134.49999219	0.00000000	28.50024000	3.53100400
134.69999218	0.00000000	28.45718000	2.78051200
134.89999217	0.00000000	28.45718000	1.99311000
135.09999216	0.00000000	28.50024000	1.61786400
135.29999214	0.00000000	28.87549000	1.61786400
135.49999213	0.00000000	29.61983000	1.99311000
135.69999212	0.00000000	29.99508000	2.78051200
135.89999211	0.00000000	29.99508000	3.53100400
136.09999210	0.00000000	29.61983000	4.31840500
136.29999208	0.00000000	28.87549000	4.69365100
136.49999207	0.00000000	28.45718000	4.73671200
136.69999206	0.00000000	28.03888000	4.73671200
136.89999205	0.00000000	27.34375000	4.73671200
137.09999204	0.00000000	27.34375000	4.69365100
137.29999203	0.00000000	28.08194000	4.31840500
137.49999201	0.00000000	28.83243000	3.53100400
137.69999200	0.00000000	29.61983000	2.78051200
137.89999199	0.00000000	29.99508000	1.99311000
138.09999198	0.00000000	30.03814000	1.61786400
138.29999197	0.00000000	29.99508000	1.57480300
138.49999195	0.00000000	29.61983000	1.61786400
138.69999194	0.00000000	28.87549000	1.99311000
138.89999193	0.00000000	28.45718000	2.73745100
139.09999192	0.00000000	28.03888000	3.15575800
139.29999191	0.00000000	27.29453000	3.57406500
139.49999189	0.00000000	26.96850000	4.31840500
139.69999188	0.00000000	27.29453000	4.69365100
139.89999187	0.00000000	28.08194000	4.73671200
140.09999186	0.00000000	28.83243000	4.69365100
140.29999185	0.00000000	29.61983000	4.31840500
140.49999184	0.00000000	29.99508000	3.53100400
140.69999182	0.00000000	30.03814000	2.78051200
140.89999181	0.00000000	29.99508000	1.95004900
141.09999180	0.00000000	29.61983000	1.24877000
141.29999179	0.00000000	28.87549000	0.83661410
141.49999178	0.00000000	28.50024000	1.24877000
141.69999176	0.00000000	28.45718000	1.99311000
141.89999175	0.00000000	28.45718000	3.15575800
142.09999174	0.00000000	28.45718000	4.26919300
142.29999173	0.00000000	28.45718000	4.69365100
142.49999172	0.00000000	28.45718000	4.73671200
142.69999170	0.00000000	28.50024000	4.73671200
142.89999169	0.00000000	28.83243000	4.69365100
143.09999168	0.00000000	29.20152000	4.31840500
143.29999167	0.00000000	28.83243000	3.53100400
143.49999166	0.00000000	28.50024000	2.78051200
143.69999165	0.00000000	28.45718000	1.99311000
143.89999163	0.00000000	28.45718000	1.61786400
144.09999162	0.00000000	28.45718000	1.61786400
144.29999161	0.00000000	28.45718000	1.99311000
144.49999160	0.00000000	28.50024000	2.78051200
144.69999159	0.00000000	28.87549000	3.53100400
144.89999157	0.00000000	29.57062000	4.31840500
145.09999156	0.00000000	29.57062000	4.69365100
145.29999155	0.00000000	28.87549000	4.69365100
145.49999154	0.00000000	28.50024000	4.31840500
145.69999153	0.00000000	28.45718000	3.57406500
145.89999151	0.00000000	28.45718000	3.19881900
146.09999150	0.00000000	28.41412000	3.15575800
146.29999149	0.00000000	28.08194000	3.11269700
146.49999148	0.00000000	27.71284000	2.78051200
146.69999147	0.00000000	28.08194000	2.41141700
146.89999146	0.00000000	28.45718000	2.78051200
147.09999144	0.00000000	28.87549000	3.11269700
147.29999143	0.00000000	29.61983000	3.15575800
147.49999142	0.00000000	29.94586000	3.15575800
147.69999141	0.00000000	29.66289000	3.19881900
147.89999140	0.00000000	29.25074000	3.57406500
148.09999138	0.00000000	29.20152000	4.31840500
148.29999137	0.00000000	28.41412000	4.69365100
148.49999136	0.00000000	27.34375000	4.69365100
148.69999135	0.00000000	26.96850000	4.31840500
148.89999134	0.00000000	27.29453000	3.57406500
149.09999132	0.00000000	28.03888000	3.19881900
149.29999131	0.00000000	28.41412000	3.11269700
149.49999130	0.00000000	28.50024000	2.78051200
149.69999129	0.00000000	28.87549000	2.41141700
149.89999128	0.00000000	29.61983000	2.78051200
150.09999127	0.00000000	29.94586000	3.11269700
150.29999125	0.00000000	29.61983000	3.15575800
150.49999124	0.00000000	28.87549000	3.19881900
150.69999123	0.00000000	28.50024000	3.53100400
150.89999122	0.00000000	28.45718000	3.90009800
151.09999121	0.00000000	28.41412000	3.53100400
151.29999119	0.00000000	28.08194000	3.19881900
151.49999118	0.00000000	27.71284000	3.15575800
151.69999117	0.00000000	28.08194000	3.15575800
151.89999116	0.00000000	28.41412000	3.15575800
152.09999115	0.00000000	28.45718000	3.15575800
152.29999113	0.00000000	28.50024000	3.15575800
152.49999112	0.00000000	28.83243000	3.15575800
152.69999111	0.00000000	29.24459000	3.15575800
152.89999110	0.00000000	29.20767000	3.15575800
153.09999109	0.00000000	29.24459000	3.15575800
153.29999108	0.00000000	28.83243000	3.15575800
153.49999106	0.00000000	28.50024000	3.15575800
153.69999105	0.00000000	28.45718000	3.15575800
153.89999104	0.00000000	28.41412000	3.15575800
154.09999103	0.00000000	28.03888000	3.15575800
154.29999102	0.00000000	27.34375000	3.15575800
154.49999100	0.00000000	27.34375000	3.15575800
154.69999099	0.00000000	28.03888000	3.15575800
154.89999098	0.00000000	28.41412000	3.15575800
155.09999097	0.00000000	28.45718000	3.15575800
155.29999096	0.00000000	28.45718000	3.15575800
155.49999094	0.00000000	28.50024000	3.15575800
155.69999093	0.00000000	28.87549000	3.15575800
155.89999092	0.00000000	29.57062000	3.15575800
156.09999091	0.00000000	29.57062000	3.15575800
156.29999090	0.00000000	28.87549000	3.15575800
156.49999089	0.00000000	28.50024000	3.19881900
156.69999087	0.00000000	28.45718000	3.53100400
156.89999086	0.00000000	28.41412000	3.94315900
157.09999085	0.00000000	28.03888000	3.94931100
157.29999084	0.00000000	27.34375000	4.36146600
157.49999083	0.00000000	27.34375000	4.64443900
157.69999081	0.00000000	28.03888000	4.31840500
157.89999080	0.00000000	28.41412000	3.57406500
158.09999079	0.00000000	28.45718000	3.15575800
158.29999078	0.00000000	28.45718000	2.78051200
158.49999077	0.00000000	28.45718000	2.36835600
158.69999075	0.00000000	28.45718000	2.36220500
158.89999074	0.00000000	28.45718000	1.99311000
159.09999073	0.00000000	28.45718000	2.04232300
159.29999072	0.00000000	28.45718000	2.73745100
159.49999071	0.00000000	28.45718000	3.15575800
159.69999070	0.00000000	28.45718000	3.53100400
159.89999068	0.00000000	28.45718000	3.94315900
160.09999067	0.00000000	28.41412000	3.94931100
160.29999066	0.00000000	28.03888000	4.31840500
160.49999065	0.00000000	27.34375000	4.26919300
160.69999064	0.00000000	27.34375000	3.57406500
160.89999062	0.00000000	28.03888000	3.19881900
161.09999061	0.00000000	28.41412000	3.15575800
161.29999060	0.00000000	28.45718000	3.15575800
161.49999059	0.00000000	28.45718000	3.11269700
161.69999058	0.00000000	28.45718000	2.78051200
161.89999056	0.00000000	28.45718000	2.41141700
162.09999055	0.00000000	28.45718000	2.78051200
162.29999054	0.00000000	28.45718000	3.11269700
162.49999053	0.00000000	28.45718000	3.19881900
162.69999052	0.00000000	28.45718000	3.53100400
162.89999051	0.00000000	28.45718000	3.90009800
163.09999049	0.00000000	28.45718000	3.53100400
163.29999048	0.00000000	28.41412000	3.19881900
163.49999047	0.00000000	28.03888000	3.15575800
163.69999046	0.00000000	27.34375000	3.19881900
163.89999045	0.00000000	27.34375000	3.53100400
164.09999043	0.00000000	27.98966000	3.90009800
164.29999042	0.00000000	28.03888000	3.53100400
164.49999041	0.00000000	27.71284000	3.19881900
164.69999040	0.00000000	28.08194000	3.15575800
164.89999039	0.00000000	28.41412000	3.15575800
165.09999037	0.00000000	28.45718000	3.15575800
165.29999036	0.00000000	28.45718000	3.15575800
165.49999035	0.00000000	28.45718000	3.15575800
165.69999034	0.00000000	28.45718000	3.15575800
165.89999033	0.00000000	28.41412000	3.15575800
166.09999032	0.00000000	28.08194000	3.15575800
166.29999030	0.00000000	27.66978000	3.15575800
166.49999029	0.00000000	27.66363000	3.15575800
166.69999028	0.00000000	27.25147000	3.15575800
166.89999027	0.00000000	26.91929000	3.15575800
167.09999026	0.00000000	26.91929000	3.15575800
167.29999024	0.00000000	27.29453000	3.15575800
167.49999023	0.00000000	28.03888000	3.15575800
167.69999022	0.00000000	28.41412000	3.15575800
167.89999021	0.00000000	28.45718000	3.15575800
168.09999020	0.00000000	28.45718000	3.15575800
168.29999018	0.00000000	28.45718000	3.15575800
168.49999017	0.00000000	28.45718000	3.15575800
168.69999016	0.00000000	28.45718000	3.15575800
168.89999015	0.00000000	28.45718000	3.15575800
169.09999014	0.00000000	28.45718000	3.15575800
169.29999013	0.00000000	28.45718000	3.15575800
169.49999011	0.00000000	28.41412000	3.15575800
169.69999010	0.00000000	28.08194000	3.15575800
169.89999009	0.00000000	27.71284000	3.15575800
170.09999008	0.00000000	28.08194000	3.15575800
170.29999007	0.00000000	28.41412000	3.15575800
170.49999005	0.00000000	28.45718000	3.15575800
170.69999004	0.00000000	28.45718000	3.15575800
170.89999003	0.00000000	28.45718000	3.15575800
171.09999002	0.00000000	28.45718000	3.15575800
171.29999001	0.00000000	28.45718000	3.15575800
171.49998999	0.00000000	28.45718000	3.15575800
171.69998998	0.00000000	28.45718000	3.15575800
171.89998997	0.00000000	28.45718000	3.15575800
172.09998996	0.00000000	28.45718000	3.15575800
172.29998995	0.00000000	28.45718000	3.15575800
172.49998994	0.00000000	28.45718000	3.15575800
172.69998992	0.00000000	28.41412000	3.15575800
172.89998991	0.00000000	28.03888000	3.15575800
173.09998990	0.00000000	27.34375000	3.15575800
173.29998989	0.00000000	27.34375000	3.19881900
173.49998988	0.00000000	28.03888000	3.53100400
173.69998986	0.00000000	28.41412000	3.90009800
173.89998985	0.00000000	28.45718000	3.53100400
174.09998984	0.00000000	28.45718000	3.19881900
174.29998983	0.00000000	28.45718000	3.15575800
174.49998982	0.00000000	28.45718000	3.15575800
174.69998980	0.00000000	28.45718000	3.15575800
174.89998979	0.00000000	28.41412000	3.15575800
175.09998978	0.00000000	28.08194000	3.15575800
175.29998977	0.00000000	27.71284000	3.15575800
175.49998976	0.00000000	28.08194000	3.15575800
175.69998975	0.00000000	28.41412000	3.15575800
175.89998973	0.00000000	28.45718000	3.15575800
176.09998972	0.00000000	28.45718000	3.15575800
176.29998971	0.00000000	28.45718000	3.15575800
176.49998970	0.00000000	28.45718000	3.15575800
176.69998969	0.00000000	28.45718000	3.15575800
176.89998967	0.00000000	28.45718000	3.15575800
177.09998966	0.00000000	28.45718000	3.15575800
177.29998965	0.00000000	28.45718000	3.15575800
177.49998964	0.00000000	28.45718000	3.15575800
177.69998963	0.00000000	28.41412000	3.15575800
177.89998961	0.00000000	28.03888000	3.15575800
178.09998960	0.00000000	27.34375000	3.15575800
178.29998959	0.00000000	27.29453000	3.15575800
178.49998958	0.00000000	27.66363000	3.15575800
178.69998957	0.00000000	27.66978000	3.15575800
178.89998956	0.00000000	28.08194000	3.15575800
179.09998954	0.00000000	28.41412000	3.15575800
179.29998953	0.00000000	28.45718000	3.15575800
179.49998952	0.00000000	28.41412000	3.15575800
179.69998951	0.00000000	28.08194000	3.15575800
179.89998950	0.00000000	27.71284000	3.15575800
180.09998948	0.00000000	28.08194000	3.15575800
180.29998947	0.00000000	28.41412000	3.11269700
180.49998946	0.00000000	28.41412000	2.73745100
180.69998945	0.00000000	28.03888000	2.04232300
180.89998944	0.00000000	27.34375000	2.04232300
181.09998942	0.00000000	27.29453000	2.73745100
181.29998941	0.00000000	27.62057000	3.11269700
181.49998940	0.00000000	27.29453000	3.15575800
181.69998939	0.00000000	27.34375000	3.15575800
181.89998938	0.00000000	28.03888000	3.15575800
182.09998937	0.00000000	28.41412000	3.15575800
182.29998935	0.00000000	28.45718000	3.15575800
182.49998934	0.00000000	28.45718000	3.15575800
182.69998933	0.00000000	28.45718000	3.15575800
182.89998932	0.00000000	28.45718000	3.11269700
183.09998931	0.00000000	28.45718000	2.78051200
183.29998929	0.00000000	28.45718000	2.36835600
183.49998928	0.00000000	28.45718000	2.40526600
183.69998927	0.00000000	28.45718000	2.36835600
183.89998926	0.00000000	28.41412000	2.78051200
184.09998925	0.00000000	28.08194000	3.11269700
184.29998923	0.00000000	27.71284000	3.15575800
184.49998922	0.00000000	28.03888000	3.15575800
184.69998921	0.00000000	28.03888000	3.19881900
184.89998920	0.00000000	27.71284000	3.53100400
185.09998919	0.00000000	28.08194000	3.94315900
185.29998918	0.00000000	28.36491000	3.90625000
185.49998916	0.00000000	28.08194000	3.94315900
185.69998915	0.00000000	27.71284000	3.53100400
185.89998914	0.00000000	28.08194000	3.15575800
186.09998913	0.00000000	28.41412000	2.73745100
186.29998912	0.00000000	28.45718000	1.99311000
186.49998910	0.00000000	28.41412000	1.61786400
186.69998909	0.00000000	28.08194000	1.57480300
186.89998908	0.00000000	27.66978000	1.61786400
187.09998907	0.00000000	27.66363000	1.99311000
187.29998906	0.00000000	27.25147000	2.73745100
187.49998904	0.00000000	26.91929000	3.11269700
187.69998903	0.00000000	26.87623000	3.15575800
187.89998902	0.00000000	26.87623000	3.15575800
188.09998901	0.00000000	26.87623000	3.15575800
188.29998900	0.00000000	26.91929000	3.15575800
188.49998899	0.00000000	27.25147000	3.15575800
188.69998897	0.00000000	27.66363000	3.11269700
188.89998896	0.00000000	27.66978000	2.73745100
189.09998895	0.00000000	28.08194000	1.99311000
189.29998894	0.00000000	28.41412000	1.61786400
189.49998893	0.00000000	28.41412000	1.61786400
189.69998891	0.00000000	28.03888000	1.95004900
189.89998890	0.00000000	27.29453000	2.36220500
190.09998889	0.00000000	26.91929000	2.36835600
190.29998888	0.00000000	26.87623000	2.78051200
190.49998887	0.00000000	26.87623000	3.11269700
190.69998885	0.00000000	26.87623000	3.19881900
190.89998884	0.00000000	26.91929000	3.53100400
191.09998883	0.00000000	27.25147000	3.90009800
191.29998882	0.00000000	27.66363000	3.53100400
191.49998881	0.00000000	27.66978000	3.19881900
191.69998880	0.00000000	28.08194000	3.15575800
191.89998878	0.00000000	28.41412000	3.15575800
192.09998877	0.00000000	28.45718000	3.11269700
192.29998876	0.00000000	28.45718000	2.73745100
192.49998875	0.00000000	28.45718000	1.99311000
192.69998874	0.00000000	28.41412000	1.61786400
192.89998872	0.00000000	28.03888000	1.57480300
193.09998871	0.00000000	27.29453000	1.61786400
193.29998870	0.00000000	26.91929000	1.99311000
193.49998869	0.00000000	26.87623000	2.73745100
193.69998868	0.00000000	26.87623000	3.11269700
193.89998866	0.00000000	26.87623000	3.15575800
194.09998865	0.00000000	26.91929000	3.15575800
194.29998864	0.00000000	27.29453000	3.15575800
194.49998863	0.00000000	28.03888000	3.15575800
194.69998862	0.00000000	28.41412000	3.15575800
194.89998861	0.00000000	28.45718000	3.15575800
195.09998859	0.00000000	28.45718000	3.15575800
195.29998858	0.00000000	28.41412000	3.15575800
195.49998857	0.00000000	28.03888000	3.15575800
195.69998856	0.00000000	27.29453000	3.15575800
195.89998855	0.00000000	26.91929000	3.11269700
196.09998853	0.00000000	26.91929000	2.78051200
