Time	Channel A	Channel B	Channel C
(us)	(V)	(mV)	(mV)

-4.49999956	0.00000000	-52.17765000	-26.79626000
-4.29999957	0.00000000	-52.17765000	-26.83932000
-4.09999958	0.00000000	-52.17765000	-26.83932000
-3.89999959	0.00000000	-52.17765000	-26.83932000
-3.69999960	0.00000000	-52.22071000	-26.83932000
-3.49999962	0.00000000	-52.59596000	-26.83932000
-3.29999963	0.00000000	-53.29109000	-26.83932000
-3.09999964	0.00000000	-53.34030000	-26.83932000
-2.89999965	0.00000000	-52.97121000	-26.83932000
-2.69999966	0.00000000	-52.96506000	-26.83932000
-2.49999968	0.00000000	-52.55290000	-26.83932000
-2.29999969	0.00000000	-52.22071000	-26.83932000
-2.09999970	0.00000000	-52.17765000	-26.83932000
-1.89999971	0.00000000	-52.17765000	-26.83932000
-1.69999972	0.00000000	-52.17765000	-26.83932000
-1.49999973	0.00000000	-52.22071000	-26.83932000
-1.29999975	0.00000000	-52.55290000	-26.83932000
-1.09999976	0.00000000	-52.96506000	-26.83932000
-0.89999977	0.00000000	-52.92815000	-26.83932000
-0.69999978	0.00000000	-53.00812000	-26.83932000
-0.49999979	0.00000000	-52.92815000	-26.83932000
-0.29999981	0.31803640	-53.00812000	-26.83932000
-0.09999982	0.63668800	-52.97121000	-26.83932000
0.10000017	0.95533960	-53.38336000	-26.83932000
0.30000016	1.11466500	-53.71555000	-26.83932000
0.50000015	0.95533960	-53.75861000	-26.83932000
0.70000013	0.31803640	-53.75861000	-26.83932000
0.90000012	-0.47736220	-53.71555000	-26.79626000
1.10000011	-1.43331700	-53.34030000	-26.46407000
1.30000010	-2.38927200	-52.59596000	-26.05807000
1.50000009	-2.70792300	-52.26993000	-26.04577000
1.70000008	-2.54859700	-52.55290000	-25.63976000
1.90000006	-1.43331700	-52.92200000	-25.30758000
2.10000005	0.47736220	-52.55290000	-25.30758000
2.30000004	2.54859700	-52.26993000	-25.68282000
2.50000003	4.45989200	-52.55290000	-26.42101000
2.70000002	5.41584600	-52.96506000	-26.79626000
2.90000000	4.93786900	-52.97121000	-26.83932000
3.09999999	3.02657500	-53.38336000	-26.83932000
3.29999998	0.15871060	-53.71555000	-26.83932000
3.49999997	-3.34522600	-53.71555000	-26.79626000
3.69999996	-6.21247500	-53.34030000	-26.42101000
3.89999994	-7.96444400	-52.59596000	-25.68282000
4.09999993	-7.48646600	-52.22071000	-25.30758000
4.29999992	-5.25652100	-52.17765000	-25.26452000
4.49999991	-1.43331700	-52.17765000	-25.26452000
4.69999990	3.02657500	-52.17765000	-25.26452000
4.89999989	7.00848900	-52.22071000	-25.26452000
5.09999987	9.23905000	-52.59596000	-25.30758000
5.29999986	9.07972400	-53.34030000	-25.68282000
5.49999985	6.84916400	-53.71555000	-26.42101000
5.69999984	2.70792300	-53.71555000	-26.79626000
5.89999983	-2.07062000	-53.38336000	-26.83932000
6.09999981	-6.37180100	-52.97121000	-26.79626000
6.29999980	-8.92039900	-52.96506000	-26.42101000
6.49999979	-9.39837600	-52.55290000	-25.68282000
6.69999978	-7.32714100	-52.22071000	-25.30758000
6.89999977	-3.66326300	-52.17765000	-25.26452000
7.09999975	0.79601380	-52.22071000	-25.26452000
7.29999974	4.61921700	-52.55290000	-25.26452000
7.49999973	7.16781500	-52.96506000	-25.30758000
7.69999972	7.64579200	-52.97121000	-25.68282000
7.89999971	6.37180100	-53.38336000	-26.42101000
8.09999970	3.66326300	-53.71555000	-26.74705000
8.29999968	0.31803640	-53.71555000	-26.46407000
8.49999967	-2.70792300	-53.38336000	-26.10113000
8.69999966	-4.61921700	-53.01427000	-26.46407000
8.89999965	-5.25652100	-53.38336000	-26.79626000
9.09999964	-4.45989200	-53.71555000	-26.83932000
9.29999962	-2.70792300	-53.71555000	-26.83932000
9.49999961	-0.79601380	-53.38336000	-26.83932000
9.69999960	0.95533960	-53.01427000	-26.83932000
9.89999959	2.07062000	-53.38336000	-26.83932000
10.09999958	2.54859700	-53.71555000	-26.83932000
10.29999956	2.22994600	-53.75861000	-26.83932000
10.49999955	1.59264300	-53.75861000	-26.83932000
10.69999954	0.63668800	-53.75861000	-26.83932000
10.89999953	-0.15871060	-53.75861000	-26.83932000
11.09999952	-0.79601380	-53.75861000	-26.83932000
11.29999951	-0.95533960	-53.75861000	-26.83932000
11.49999949	-0.95533960	-53.75861000	-26.83932000
11.69999948	-0.79601380	-53.75861000	-26.83932000
11.89999947	-0.47736220	-53.75861000	-26.83932000
12.09999946	-0.15871060	-53.75861000	-26.83932000
12.29999945	-0.15871060	-53.75861000	-26.83932000
12.49999943	0.00000000	-53.75861000	-26.83932000
12.69999942	0.00000000	-53.75861000	-26.83932000
12.89999941	0.00000000	-53.75861000	-26.83932000
13.09999940	0.00000000	-53.75861000	-26.83932000
13.29999939	0.15871060	-53.75861000	-26.83932000
13.49999937	0.00000000	-53.75861000	-26.83932000
13.69999936	0.00000000	-53.75861000	-26.83932000
13.89999935	0.00000000	-53.75861000	-26.83932000
14.09999934	-0.15871060	-53.75861000	-26.83932000
14.29999933	-0.15871060	-53.75861000	-26.83932000
14.49999932	0.00000000	-53.75861000	-26.83932000
14.69999930	0.00000000	-53.75861000	-26.83932000
14.89999929	0.00000000	-53.75861000	-26.83932000
15.09999928	0.00000000	-53.75861000	-26.83932000
15.29999927	0.00000000	-53.75861000	-26.83932000
15.49999926	0.00000000	-53.75861000	-26.83932000
15.69999924	0.00000000	-53.75861000	-26.83932000
15.89999923	0.00000000	-53.75861000	-26.83932000
16.09999922	0.00000000	-53.75861000	-26.83932000
16.29999921	0.00000000	-53.75861000	-26.83932000
16.49999920	0.00000000	-53.75861000	-26.83932000
16.69999919	-0.15871060	-53.71555000	-26.83932000
16.89999917	0.00000000	-53.34030000	-26.83932000
17.09999916	0.00000000	-52.59596000	-26.83932000
17.29999915	0.00000000	-52.22071000	-26.83932000
17.49999914	0.00000000	-52.17765000	-26.83932000
17.69999913	0.00000000	-52.22071000	-26.83932000
17.89999911	0.00000000	-52.59596000	-26.83932000
18.09999910	0.00000000	-53.42642000	-26.83932000
18.29999909	0.00000000	-54.55216000	-26.83932000
18.49999908	0.00000000	-56.12696000	-26.79626000
18.69999907	0.00000000	-57.25270000	-26.46407000
18.89999905	0.00000000	-58.08316000	-26.10113000
19.09999904	0.00000000	-58.36614000	-26.46407000
19.29999903	0.00000000	-57.57259000	-26.79626000
19.49999902	0.00000000	-55.20423000	-26.83932000
19.69999901	0.00000000	-51.75935000	-26.83932000
19.89999900	0.00000000	-47.85310000	-26.79626000
20.09999898	0.00000000	-44.45127000	-26.46407000
20.29999897	0.00000000	-42.50738000	-26.05807000
20.49999896	0.00000000	-42.96260000	-26.09498000
20.69999895	0.00000000	-45.71235000	-26.00886000
20.89999894	0.00000000	-51.19340000	-26.04577000
21.09999892	0.00000000	-58.54454000	-25.63976000
21.29999891	0.00000000	-66.22785000	-25.35679000
21.49999890	0.00000000	-72.32407000	-25.63976000
21.69999889	0.00000000	-74.23720000	-26.00270000
21.89999888	0.00000000	-71.49360000	-25.68282000
22.09999886	0.00000000	-64.46234000	-25.72589000
22.29999885	0.00000000	-53.58022000	-26.42101000
22.49999884	0.00000000	-41.24631000	-26.74705000
22.69999883	0.00000000	-30.07505000	-26.46407000
22.89999882	0.00000000	-23.23450000	-26.05807000
23.09999881	0.00000000	-23.23450000	-26.04577000
23.29999879	0.00000000	-30.25959000	-25.63976000
23.49999878	0.00000000	-43.10408000	-25.30758000
23.69999877	0.00000000	-60.17470000	-25.22145000
23.89999876	0.00000000	-77.81741000	-24.88927000
24.09999875	0.00000000	-91.25861000	-24.52018000
24.29999873	0.00000000	-96.24138000	-24.93233000
24.49999872	0.00000000	-91.58464000	-25.68282000
24.69999871	0.00000000	-78.00196000	-26.88853000
24.89999870	0.00000000	-57.90477000	-28.42027000
25.09999869	0.00000000	-35.89444000	-30.00123000
25.29999867	0.00000000	-16.95989000	-31.48991000
25.49999866	0.00000000	-5.46259800	-32.22810000
25.69999865	0.00000000	-4.76747000	-31.39763000
25.89999864	0.00000000	-15.97564000	-29.11540000
26.09999863	0.00000000	-36.40502000	-25.59055000
26.29999862	0.00000000	-61.10974000	-21.72736000
26.49999860	0.00000000	-84.32578000	-17.87647000
26.69999859	0.00000000	-100.94120000	-15.27436000
26.89999858	0.00000000	-107.49880000	-15.27436000
27.09999857	0.00000000	-102.06080000	-18.01181000
27.29999856	0.00000000	-85.86368000	-23.07455000
27.49999854	0.00000000	-62.69069000	-30.08735000
27.69999853	0.00000000	-38.02903000	-37.75836000
27.89999852	0.00000000	-17.88878000	-44.30979000
28.09999851	0.00000000	-6.62524600	-47.70546000
28.29999850	0.00000000	-5.79478300	-46.91191000
28.49999848	0.00000000	-15.46506000	-41.43085000
28.69999847	0.00000000	-33.23696000	-32.14198000
28.89999846	0.00000000	-55.20423000	-20.52780000
29.09999845	0.00000000	-76.08883000	-8.95669300
29.29999844	0.00000000	-90.84645000	-0.17224410
29.49999843	0.00000000	-97.49630000	3.26033400
29.69999841	0.00000000	-94.79577000	-0.26451770
29.89999840	0.00000000	-83.67372000	-9.92864100
30.09999839	0.00000000	-67.48277000	-24.28026000
30.29999838	0.00000000	-50.03691000	-40.45890000
30.49999837	0.00000000	-34.86712000	-54.71825000
30.69999835	0.00000000	-24.39714000	-63.55191000
30.89999834	0.00000000	-20.49089000	-64.70840000
31.09999833	0.00000000	-23.92962000	-57.73868000
31.29999832	0.00000000	-33.19390000	-44.21752000
31.49999831	0.00000000	-46.36442000	-26.79626000
31.69999829	0.00000000	-60.64837000	-8.99975300
31.89999828	0.00000000	-72.65009000	5.63484200
32.09999827	0.00000000	-80.05044000	13.66880000
32.29999826	0.00000000	-81.63139000	12.55536000
32.49999825	0.00000000	-77.39911000	2.94045300
32.69999824	0.00000000	-68.55315000	-12.53076000
32.89999822	0.00000000	-57.38804000	-31.06545000
33.09999821	0.00000000	-46.87500000	-48.44365000
33.29999820	0.00000000	-38.72416000	-60.85137000
33.49999819	0.00000000	-34.07972000	-66.28937000
33.69999818	0.00000000	-34.44881000	-63.55191000
33.89999816	0.00000000	-39.01329000	-53.13730000
34.09999815	0.00000000	-46.40748000	-37.34006000
34.29999814	0.00000000	-55.24729000	-19.91880000
34.49999813	0.00000000	-63.34276000	-4.44143700
34.69999812	0.00000000	-68.37475000	6.32997000
34.89999810	0.00000000	-69.58046000	9.44266700
35.09999809	0.00000000	-66.87991000	4.47219400
35.29999808	0.00000000	-61.15280000	-6.68061000
35.49999807	0.00000000	-54.22613000	-21.72736000
35.69999806	0.00000000	-48.08071000	-36.78642000
35.89999805	0.00000000	-44.22367000	-48.77583000
36.09999803	0.00000000	-43.79921000	-55.32726000
36.29999802	0.00000000	-46.45054000	-54.58292000
36.49999801	0.00000000	-51.06422000	-47.33021000
36.69999800	0.00000000	-56.40993000	-35.75910000
36.89999799	0.00000000	-60.69144000	-22.69931000
37.09999797	0.00000000	-63.01673000	-11.55266000
37.29999796	0.00000000	-63.34276000	-5.37032500
37.49999795	0.00000000	-60.69144000	-5.32726300
37.69999794	0.00000000	-56.17618000	-11.09129000
37.89999793	0.00000000	-52.22071000	-20.98917000
38.09999791	0.00000000	-48.68356000	-31.72367000
38.29999790	0.00000000	-45.71235000	-39.81299000
38.49999789	0.00000000	-45.33710000	-43.66388000
38.69999788	0.00000000	-47.57013000	-42.08292000
38.89999787	0.00000000	-51.01501000	-35.25467000
39.09999786	0.00000000	-54.92125000	-25.68282000
39.29999784	0.00000000	-58.40920000	-16.52313000
39.49999783	0.00000000	-61.15280000	-10.34695000
39.69999782	0.00000000	-62.69069000	-9.27042300
39.89999781	0.00000000	-62.69069000	-13.45964000
40.09999780	0.00000000	-61.15280000	-22.28100000
40.29999778	0.00000000	-58.45841000	-32.56028000
40.49999777	0.00000000	-55.33957000	-41.05561000
40.69999776	0.00000000	-52.17765000	-45.70620000
40.89999775	0.00000000	-49.10802000	-45.66314000
41.09999774	0.00000000	-46.82579000	-40.63730000
41.29999772	0.00000000	-46.40748000	-31.44069000
41.49999771	0.00000000	-47.52707000	-21.12451000
41.69999770	0.00000000	-49.52633000	-12.62303000
41.89999769	0.00000000	-52.64517000	-8.01550200
42.09999768	0.00000000	-56.40993000	-8.39074700
42.29999767	0.00000000	-59.15354000	-13.73647000
42.49999765	0.00000000	-60.41461000	-22.19488000
42.69999764	0.00000000	-61.19586000	-31.44069000
42.89999763	0.00000000	-61.15280000	-39.53002000
43.09999762	0.00000000	-59.99015000	-44.17446000
43.29999761	0.00000000	-58.08316000	-44.59276000
43.49999759	0.00000000	-55.75787000	-41.14788000
43.69999758	0.00000000	-53.85088000	-34.64567000
43.89999757	0.00000000	-52.64517000	-27.34990000
44.09999756	0.00000000	-52.17765000	-21.16757000
44.29999755	0.00000000	-51.80241000	-17.26747000
44.49999753	0.00000000	-51.43332000	-16.43085000
44.69999752	0.00000000	-51.75935000	-17.96260000
44.89999751	0.00000000	-51.75935000	-21.40748000
45.09999750	0.00000000	-51.48252000	-26.00270000
45.29999749	0.00000000	-52.26993000	-29.86589000
45.49999748	0.00000000	-53.80167000	-32.64640000
45.69999746	0.00000000	-55.85014000	-34.18430000
45.89999745	0.00000000	-58.91978000	-34.18430000
46.09999744	0.00000000	-62.35851000	-32.64640000
46.29999743	0.00000000	-64.64690000	-30.00123000
46.49999742	0.00000000	-65.43430000	-27.30684000
46.69999740	0.00000000	-64.22859000	-25.30758000
46.89999739	0.00000000	-61.06668000	-23.72662000
47.09999738	0.00000000	-55.99163000	-22.57013000
47.29999737	0.00000000	-49.43405000	-22.23794000
47.49999736	0.00000000	-43.28863000	-22.98843000
47.69999734	0.00000000	-39.10556000	-24.93233000
47.89999733	0.00000000	-38.36122000	-27.21457000
48.09999732	0.00000000	-41.84301000	-29.58292000
48.29999731	0.00000000	-48.40674000	-31.44069000
48.49999730	0.00000000	-56.92052000	-32.18504000
48.69999729	0.00000000	-65.39124000	-31.06545000
48.89999727	0.00000000	-71.57972000	-28.79552000
49.09999726	0.00000000	-74.28026000	-26.42101000
49.29999725	0.00000000	-72.69930000	-23.68356000
49.49999724	0.00000000	-66.87991000	-21.03838000
49.69999723	0.00000000	-58.04010000	-19.54355000
49.89999721	0.00000000	-48.36368000	-19.91880000
50.09999720	0.00000000	-40.30511000	-22.23794000
50.29999719	0.00000000	-35.66068000	-25.68282000
50.49999718	0.00000000	-36.07283000	-29.58292000
50.69999717	0.00000000	-41.01255000	-33.02165000
50.89999715	0.00000000	-49.15108000	-35.29773000
51.09999714	0.00000000	-58.36614000	-35.29773000
51.29999713	0.00000000	-66.51082000	-33.02165000
51.49999712	0.00000000	-71.44439000	-29.53371000
51.69999711	0.00000000	-71.90575000	-25.26452000
51.89999710	0.00000000	-67.67963000	-21.08145000
52.09999708	0.00000000	-60.78371000	-18.38706000
52.29999707	0.00000000	-52.68823000	-17.96260000
52.49999706	0.00000000	-45.80462000	-19.50049000
52.69999705	0.00000000	-42.26747000	-22.61319000
52.89999704	0.00000000	-42.26747000	-26.79626000
53.09999702	0.00000000	-45.71235000	-30.64714000
53.29999701	0.00000000	-51.84547000	-32.97859000
53.49999700	0.00000000	-58.36614000	-33.76599000
53.69999699	0.00000000	-63.76107000	-32.60334000
53.89999698	0.00000000	-66.46161000	-29.95201000
54.09999696	0.00000000	-65.71727000	-26.88853000
54.29999695	0.00000000	-62.27239000	-24.23720000
54.49999694	0.00000000	-56.87746000	-23.03149000
54.69999693	0.00000000	-51.15034000	-23.40059000
54.89999692	0.00000000	-46.91806000	-24.56324000
55.09999691	0.00000000	-45.38017000	-26.83932000
55.29999689	0.00000000	-46.91806000	-29.07234000
55.49999688	0.00000000	-51.06422000	-29.86589000
55.69999687	0.00000000	-56.03469000	-29.49065000
55.89999686	0.00000000	-59.94709000	-27.90969000
56.09999685	0.00000000	-62.69069000	-25.26452000
56.29999683	0.00000000	-63.76107000	-22.65625000
56.49999682	0.00000000	-62.27239000	-21.54281000
56.69999681	0.00000000	-58.83366000	-22.65625000
56.89999680	0.00000000	-55.00738000	-25.35064000
57.09999679	0.00000000	-51.48252000	-28.83858000
57.29999677	0.00000000	-49.19414000	-32.68946000
57.49999676	0.00000000	-48.40674000	-35.71604000
57.69999675	0.00000000	-49.56939000	-36.82948000
57.89999674	0.00000000	-52.22071000	-35.24852000
58.09999673	0.00000000	-55.29650000	-31.02239000
58.29999672	0.00000000	-57.99089000	-25.26452000
58.49999670	0.00000000	-59.57185000	-19.50049000
58.69999669	0.00000000	-59.99015000	-15.27436000
58.89999668	0.00000000	-59.57185000	-13.78568000
59.09999667	0.00000000	-58.03395000	-15.73573000
59.29999666	0.00000000	-55.80708000	-21.12451000
59.49999664	0.00000000	-54.26919000	-28.42027000
59.69999663	0.00000000	-53.85088000	-35.75910000
59.89999662	0.00000000	-54.17691000	-41.52312000
60.09999661	0.00000000	-54.96432000	-44.17446000
60.29999660	0.00000000	-55.75787000	-42.63656000
60.49999658	0.00000000	-56.87746000	-37.25394000
60.69999657	0.00000000	-57.61565000	-29.53371000
60.89999656	0.00000000	-57.20349000	-21.08145000
61.09999655	0.00000000	-56.12696000	-14.15477000
61.29999654	0.00000000	-54.59522000	-10.71604000
61.49999653	0.00000000	-53.85088000	-11.46038000
61.69999651	0.00000000	-53.75861000	-16.47392000
61.89999650	0.00000000	-53.85088000	-24.14493000
62.09999649	0.00000000	-54.64444000	-32.64640000
62.29999648	0.00000000	-56.54527000	-39.94832000
62.49999647	0.00000000	-58.45841000	-44.21752000
62.69999645	0.00000000	-60.03937000	-44.59276000
62.89999644	0.00000000	-61.15280000	-41.14788000
63.09999643	0.00000000	-61.10974000	-34.60261000
63.29999642	0.00000000	-59.57185000	-26.88853000
63.49999641	0.00000000	-56.87746000	-19.54355000
63.69999639	0.00000000	-53.80167000	-14.15477000
63.89999638	0.00000000	-51.15034000	-12.20472000
64.09999637	0.00000000	-49.98769000	-13.69340000
64.29999636	0.00000000	-50.73204000	-17.96260000
64.49999635	0.00000000	-52.64517000	-24.14493000
64.69999634	0.00000000	-55.38263000	-31.02239000
64.89999632	0.00000000	-58.40920000	-36.45423000
65.09999631	0.00000000	-60.73450000	-39.24704000
65.29999630	0.00000000	-61.52805000	-40.03444000
65.49999629	0.00000000	-61.19586000	-38.41043000
65.69999628	0.00000000	-59.94709000	-34.27042000
65.89999626	0.00000000	-57.66486000	-29.25689000
66.09999625	0.00000000	-54.59522000	-24.98154000
66.29999624	0.00000000	-52.35605000	-21.40748000
66.49999623	0.00000000	-51.52559000	-19.08218000
66.69999622	0.00000000	-52.31299000	-17.87647000
66.89999620	0.00000000	-54.17691000	-17.91953000
67.09999619	0.00000000	-56.50221000	-19.45743000
67.29999618	0.00000000	-58.40920000	-22.15182000
67.49999617	0.00000000	-59.57185000	-25.26452000
67.69999616	0.00000000	-59.52879000	-28.42027000
67.89999615	0.00000000	-57.99089000	-31.53297000
68.09999613	0.00000000	-55.33957000	-34.27042000
68.29999612	0.00000000	-52.68823000	-36.17741000
68.49999611	0.00000000	-51.15034000	-36.92175000
68.69999610	0.00000000	-51.15034000	-35.75910000
68.89999609	0.00000000	-52.73130000	-33.02165000
69.09999607	0.00000000	-55.80708000	-29.11540000
69.29999606	0.00000000	-59.66412000	-24.10187000
69.49999605	0.00000000	-63.10900000	-19.50049000
69.69999604	0.00000000	-65.38509000	-16.38779000
69.89999603	0.00000000	-65.34202000	-15.22515000
70.09999601	0.00000000	-62.64764000	-16.43085000
70.29999600	0.00000000	-58.03395000	-19.87574000
70.49999599	0.00000000	-52.64517000	-24.93233000
70.69999598	0.00000000	-47.98843000	-30.32726000
70.89999597	0.00000000	-44.91880000	-35.34079000
71.09999596	0.00000000	-44.17446000	-38.41043000
71.29999594	0.00000000	-46.49975000	-38.82874000
71.49999593	0.00000000	-51.10728000	-36.92175000
71.69999592	0.00000000	-56.92052000	-33.06471000
71.89999591	0.00000000	-62.73376000	-28.46333000
72.09999590	0.00000000	-67.34743000	-24.19414000
72.29999588	0.00000000	-69.62352000	-21.12451000
72.49999587	0.00000000	-68.46087000	-19.91880000
72.69999586	0.00000000	-64.27164000	-20.66314000
72.89999585	0.00000000	-58.50147000	-22.57013000
73.09999584	0.00000000	-52.68823000	-25.26452000
73.29999582	0.00000000	-48.03149000	-27.95891000
73.49999581	0.00000000	-45.29404000	-29.86589000
73.69999580	0.00000000	-44.91880000	-30.64714000
73.89999579	0.00000000	-46.87500000	-29.95201000
74.09999578	0.00000000	-51.10728000	-28.83858000
74.29999577	0.00000000	-56.45300000	-28.08809000
74.49999575	0.00000000	-61.10974000	-27.67593000
74.69999574	0.00000000	-64.22859000	-28.13730000
74.89999573	0.00000000	-65.43430000	-29.25689000
75.09999572	0.00000000	-64.64690000	-31.15772000
75.29999571	0.00000000	-62.35851000	-32.60334000
75.49999569	0.00000000	-58.87672000	-32.60334000
75.69999568	0.00000000	-55.47490000	-31.06545000
75.89999567	0.00000000	-53.10654000	-28.32800000
76.09999566	0.00000000	-52.26993000	-24.88927000
76.29999565	0.00000000	-52.22071000	-21.40748000
76.49999563	0.00000000	-52.68823000	-19.17446000
76.69999562	0.00000000	-54.17691000	-18.80536000
76.89999561	0.00000000	-56.08390000	-21.12451000
77.09999560	0.00000000	-57.20349000	-25.35679000
77.29999559	0.00000000	-57.66486000	-30.37647000
77.49999558	0.00000000	-57.29576000	-35.38385000
77.69999556	0.00000000	-56.96358000	-38.82874000
77.89999555	0.00000000	-56.96358000	-40.03444000
78.09999554	0.00000000	-57.38804000	-38.82874000
78.29999553	0.00000000	-58.50147000	-35.34079000
78.49999552	0.00000000	-59.61491000	-29.90895000
78.69999550	0.00000000	-59.99015000	-23.77584000
78.89999549	0.00000000	-59.61491000	-18.38706000
79.09999548	0.00000000	-58.45841000	-15.27436000
79.29999547	0.00000000	-56.87746000	-14.89911000
79.49999546	0.00000000	-54.96432000	-17.22441000
79.69999544	0.00000000	-53.01427000	-22.19488000
79.89999543	0.00000000	-51.89468000	-27.95275000
80.09999542	0.00000000	-51.48252000	-33.02165000
80.29999541	0.00000000	-52.31299000	-36.92175000
80.49999540	0.00000000	-54.22613000	-38.82874000
80.69999539	0.00000000	-56.92052000	-38.50270000
80.89999537	0.00000000	-59.61491000	-36.17741000
81.09999536	0.00000000	-61.52805000	-32.68946000
81.29999535	0.00000000	-62.31545000	-28.42027000
81.49999534	0.00000000	-61.52805000	-24.15108000
81.69999533	0.00000000	-59.61491000	-20.66314000
81.89999531	0.00000000	-56.92052000	-18.33784000
82.09999530	0.00000000	-54.22613000	-17.91953000
82.29999529	0.00000000	-52.31299000	-19.03912000
82.49999528	0.00000000	-51.52559000	-20.98917000
82.69999527	0.00000000	-52.26993000	-23.72662000
82.89999525	0.00000000	-53.80167000	-26.88853000
83.09999524	0.00000000	-55.75787000	-30.37647000
83.29999523	0.00000000	-58.03395000	-33.80905000
83.49999522	0.00000000	-59.57185000	-35.75910000
83.69999521	0.00000000	-59.99015000	-36.17741000
83.89999520	0.00000000	-59.66412000	-35.38385000
84.09999518	0.00000000	-58.87672000	-33.02165000
84.29999517	0.00000000	-58.12622000	-29.53371000
84.49999516	0.00000000	-57.33883000	-25.26452000
84.69999515	0.00000000	-56.96358000	-21.08145000
84.89999514	0.00000000	-56.92052000	-18.33784000
85.09999512	0.00000000	-56.92052000	-17.54429000
85.29999511	0.00000000	-56.92052000	-18.33784000
85.49999510	0.00000000	-56.87746000	-21.08145000
85.69999509	0.00000000	-56.50221000	-25.30758000
85.89999508	0.00000000	-55.75787000	-29.95817000
86.09999506	0.00000000	-55.38263000	-34.18430000
86.29999505	0.00000000	-55.33957000	-36.92175000
86.49999504	0.00000000	-55.38263000	-37.67224000
86.69999503	0.00000000	-55.80708000	-36.50344000
86.89999502	0.00000000	-56.96358000	-33.02165000
87.09999501	0.00000000	-58.45841000	-28.42027000
87.29999499	0.00000000	-59.61491000	-23.77584000
87.49999498	0.00000000	-59.99015000	-19.96186000
87.69999497	0.00000000	-59.61491000	-18.43012000
87.89999496	0.00000000	-58.45841000	-19.54355000
88.09999495	0.00000000	-56.92052000	-22.61319000
88.29999493	0.00000000	-55.38263000	-26.88238000
88.49999492	0.00000000	-54.22613000	-31.48376000
88.69999491	0.00000000	-53.85088000	-35.34079000
88.89999490	0.00000000	-54.22613000	-37.24778000
89.09999489	0.00000000	-55.38263000	-36.87869000
89.29999487	0.00000000	-56.96358000	-34.18430000
89.49999486	0.00000000	-58.87672000	-30.00123000
89.69999485	0.00000000	-60.77756000	-25.77510000
89.89999484	0.00000000	-61.52805000	-22.65625000
90.09999483	0.00000000	-61.19586000	-21.12451000
90.29999482	0.00000000	-60.03937000	-21.49975000
90.49999480	0.00000000	-58.50147000	-23.81890000
90.69999479	0.00000000	-56.96358000	-27.30684000
90.89999478	0.00000000	-55.80708000	-31.53297000
91.09999477	0.00000000	-55.38263000	-35.29773000
91.29999476	0.00000000	-55.38263000	-36.82948000
91.49999474	0.00000000	-55.75787000	-35.71604000
91.69999473	0.00000000	-56.50221000	-32.64640000
91.89999472	0.00000000	-56.87746000	-28.37721000
92.09999471	0.00000000	-56.92052000	-23.81890000
92.29999470	0.00000000	-56.92052000	-20.38632000
92.49999468	0.00000000	-56.92052000	-19.59276000
92.69999467	0.00000000	-56.96358000	-21.12451000
92.89999466	0.00000000	-57.38804000	-24.56939000
93.09999465	0.00000000	-58.50147000	-29.16461000
93.29999464	0.00000000	-59.61491000	-32.97859000
93.49999463	0.00000000	-60.03937000	-35.34079000
93.69999461	0.00000000	-60.03937000	-35.67298000
93.89999460	0.00000000	-59.61491000	-33.76599000
94.09999459	0.00000000	-58.45841000	-29.90895000
94.29999458	0.00000000	-56.92052000	-25.35679000
94.49999457	0.00000000	-55.33957000	-21.49975000
94.69999455	0.00000000	-53.80167000	-19.59276000
94.89999454	0.00000000	-52.68823000	-19.96186000
95.09999453	0.00000000	-52.68823000	-22.65625000
95.29999452	0.00000000	-53.85088000	-26.83932000
95.49999451	0.00000000	-55.80708000	-31.06545000
95.69999449	0.00000000	-58.54454000	-34.13509000
95.89999448	0.00000000	-61.57111000	-35.34079000
96.09999447	0.00000000	-63.89641000	-34.55955000
96.29999446	0.00000000	-64.64690000	-32.22810000
96.49999445	0.00000000	-63.89641000	-28.37721000
96.69999444	0.00000000	-61.52805000	-24.23720000
96.89999442	0.00000000	-58.08316000	-21.54281000
97.09999441	0.00000000	-54.22613000	-21.08145000
97.29999440	0.00000000	-51.15034000	-22.19488000
97.49999439	0.00000000	-49.56939000	-24.14493000
97.69999438	0.00000000	-49.56939000	-26.83932000
97.89999436	0.00000000	-51.10728000	-29.49065000
98.09999435	0.00000000	-53.85088000	-31.06545000
98.29999434	0.00000000	-57.33883000	-31.48376000
98.49999433	0.00000000	-61.19586000	-31.11466000
98.69999432	0.00000000	-64.27164000	-29.95201000
98.89999430	0.00000000	-65.80955000	-28.42027000
99.09999429	0.00000000	-65.43430000	-26.93159000
99.29999428	0.00000000	-63.15207000	-26.14419000
99.49999427	0.00000000	-60.03937000	-26.46407000
99.69999426	0.00000000	-56.54527000	-26.83932000
99.89999425	0.00000000	-53.06348000	-27.21457000
100.09999423	0.00000000	-50.77510000	-27.58366000
100.29999422	0.00000000	-49.94463000	-27.17150000
100.49999421	0.00000000	-50.73204000	-26.46407000
100.69999420	0.00000000	-52.64517000	-25.72589000
100.89999419	0.00000000	-55.38263000	-25.72589000
101.09999417	0.00000000	-58.45841000	-26.46407000
101.29999416	0.00000000	-61.19586000	-27.30684000
101.49999415	0.00000000	-63.15207000	-28.83858000
101.69999414	0.00000000	-64.27164000	-30.73942000
101.89999413	0.00000000	-63.93946000	-31.85900000
102.09999411	0.00000000	-62.37082000	-32.27116000
102.29999410	0.00000000	-60.45152000	-31.44069000
102.49999409	0.00000000	-57.71407000	-29.53371000
102.69999408	0.00000000	-55.43184000	-26.83932000
102.89999407	0.00000000	-53.80167000	-24.19414000
103.09999406	0.00000000	-52.68823000	-22.61319000
103.29999404	0.00000000	-52.73130000	-22.23794000
103.49999403	0.00000000	-54.22613000	-23.03149000
103.69999402	0.00000000	-56.50221000	-25.35064000
103.89999401	0.00000000	-58.45841000	-28.42027000
104.09999400	0.00000000	-60.08243000	-31.48991000
104.29999398	0.00000000	-61.57111000	-33.80905000
104.49999397	0.00000000	-62.31545000	-34.55955000
104.69999396	0.00000000	-61.57111000	-33.80905000
104.89999395	0.00000000	-60.08243000	-31.53297000
105.09999394	0.00000000	-58.54454000	-28.83858000
105.29999392	0.00000000	-57.33883000	-26.51329000
105.49999391	0.00000000	-56.54527000	-24.56324000
105.69999390	0.00000000	-55.80708000	-23.81890000
105.89999389	0.00000000	-55.85014000	-24.19414000
106.09999388	0.00000000	-56.96358000	-25.72589000
106.29999387	0.00000000	-58.45841000	-28.00197000
106.49999385	0.00000000	-59.61491000	-29.95201000
106.69999384	0.00000000	-59.99015000	-31.48991000
106.89999383	0.00000000	-59.66412000	-32.22810000
107.09999382	0.00000000	-58.87672000	-31.48991000
107.29999381	0.00000000	-58.12622000	-30.00123000
107.49999379	0.00000000	-57.29576000	-28.42027000
107.69999378	0.00000000	-56.58833000	-26.88853000
107.89999377	0.00000000	-56.17618000	-25.77510000
108.09999376	0.00000000	-56.58833000	-25.77510000
108.29999375	0.00000000	-57.33883000	-26.88853000
108.49999374	0.00000000	-58.54454000	-28.37721000
108.69999372	0.00000000	-60.03937000	-29.58292000
108.89999371	0.00000000	-61.19586000	-30.32726000
109.09999370	0.00000000	-61.52805000	-30.69636000
109.29999369	0.00000000	-60.82677000	-29.95201000
109.49999368	0.00000000	-59.29502000	-28.79552000
109.69999366	0.00000000	-58.12622000	-27.62672000
109.89999365	0.00000000	-56.92052000	-26.10113000
110.09999364	0.00000000	-55.80708000	-25.35679000
110.29999363	0.00000000	-55.43184000	-25.30758000
110.49999362	0.00000000	-55.80708000	-25.72589000
110.69999360	0.00000000	-56.96358000	-26.88853000
110.89999359	0.00000000	-58.50147000	-28.42027000
111.09999358	0.00000000	-60.03937000	-29.95201000
111.29999357	0.00000000	-61.19586000	-31.11466000
111.49999356	0.00000000	-61.57111000	-31.48376000
111.69999355	0.00000000	-61.19586000	-31.11466000
111.89999353	0.00000000	-60.03937000	-29.95201000
112.09999352	0.00000000	-58.54454000	-28.46333000
112.29999351	0.00000000	-57.33883000	-27.25763000
112.49999350	0.00000000	-56.54527000	-26.51329000
112.69999349	0.00000000	-55.80708000	-26.10113000
112.89999347	0.00000000	-55.85014000	-26.46407000
113.09999346	0.00000000	-56.92052000	-26.83932000
113.29999345	0.00000000	-58.08316000	-27.25763000
113.49999344	0.00000000	-58.87672000	-28.00197000
113.69999343	0.00000000	-59.66412000	-28.37721000
113.89999341	0.00000000	-60.03937000	-28.42027000
114.09999340	0.00000000	-60.03937000	-28.42027000
114.29999339	0.00000000	-59.66412000	-28.42027000
114.49999338	0.00000000	-58.91978000	-28.42027000
114.69999337	0.00000000	-58.50147000	-28.42027000
114.89999336	0.00000000	-58.08316000	-28.42027000
115.09999334	0.00000000	-57.33883000	-28.42027000
115.29999333	0.00000000	-56.96358000	-28.42027000
115.49999332	0.00000000	-56.96358000	-28.42027000
115.69999331	0.00000000	-57.33883000	-28.42027000
115.89999330	0.00000000	-58.08316000	-28.37721000
116.09999328	0.00000000	-58.50147000	-28.00197000
116.29999327	0.00000000	-58.91978000	-27.25763000
116.49999326	0.00000000	-59.66412000	-26.88238000
116.69999325	0.00000000	-60.03937000	-26.83932000
116.89999324	0.00000000	-60.03937000	-26.88238000
117.09999322	0.00000000	-59.66412000	-27.25763000
117.29999321	0.00000000	-58.87672000	-28.04503000
117.49999320	0.00000000	-58.12622000	-28.79552000
117.69999319	0.00000000	-57.29576000	-29.58292000
117.89999318	0.00000000	-56.54527000	-29.95817000
118.09999317	0.00000000	-55.80708000	-30.00123000
118.29999315	0.00000000	-55.85014000	-29.95817000
118.49999314	0.00000000	-56.96358000	-29.58292000
118.69999313	0.00000000	-58.45841000	-28.83858000
118.89999312	0.00000000	-59.66412000	-28.42027000
119.09999311	0.00000000	-60.45767000	-28.00197000
119.29999309	0.00000000	-61.24508000	-27.25763000
119.49999308	0.00000000	-61.57111000	-26.88238000
119.69999307	0.00000000	-61.24508000	-26.83932000
119.89999306	0.00000000	-60.41461000	-26.88238000
120.09999305	0.00000000	-59.28888000	-27.25763000
120.29999303	0.00000000	-57.71407000	-28.00197000
120.49999302	0.00000000	-56.58833000	-28.42027000
120.69999301	0.00000000	-55.80708000	-28.83858000
120.89999300	0.00000000	-55.80708000	-29.58292000
121.09999299	0.00000000	-56.54527000	-29.95817000
121.29999298	0.00000000	-57.33883000	-30.00123000
121.49999296	0.00000000	-58.54454000	-30.00123000
121.69999295	0.00000000	-60.03937000	-30.00123000
121.89999294	0.00000000	-61.19586000	-29.95817000
122.09999293	0.00000000	-61.62032000	-29.58292000
122.29999292	0.00000000	-61.66338000	-28.79552000
122.49999290	0.00000000	-61.62032000	-28.04503000
122.69999289	0.00000000	-61.19586000	-27.25763000
122.89999288	0.00000000	-60.08243000	-26.88238000
123.09999287	0.00000000	-58.91978000	-26.83932000
123.29999286	0.00000000	-58.12622000	-26.88238000
123.49999284	0.00000000	-57.33883000	-27.25763000
123.69999283	0.00000000	-56.96358000	-28.04503000
123.89999282	0.00000000	-56.96358000	-28.79552000
124.09999281	0.00000000	-57.33883000	-29.58292000
124.29999280	0.00000000	-58.12622000	-29.95817000
124.49999279	0.00000000	-58.87672000	-30.00123000
124.69999277	0.00000000	-59.70718000	-30.00123000
124.89999276	0.00000000	-60.41461000	-29.95817000
125.09999275	0.00000000	-60.86983000	-29.53371000
125.29999274	0.00000000	-60.83292000	-28.42027000
125.49999273	0.00000000	-60.86983000	-27.30684000
125.69999271	0.00000000	-60.41461000	-26.88238000
125.89999270	0.00000000	-59.70718000	-26.83932000
126.09999269	0.00000000	-58.87672000	-26.88238000
126.29999268	0.00000000	-58.12622000	-27.25763000
126.49999267	0.00000000	-57.33883000	-28.00197000
126.69999265	0.00000000	-57.01279000	-28.37721000
126.89999264	0.00000000	-57.33883000	-28.42027000
127.09999263	0.00000000	-58.12622000	-28.42027000
127.29999262	0.00000000	-58.87672000	-28.42027000
127.49999261	0.00000000	-59.66412000	-28.42027000
127.69999260	0.00000000	-60.08243000	-28.42027000
127.89999258	0.00000000	-60.45767000	-28.42027000
128.09999257	0.00000000	-60.82677000	-28.37721000
128.29999256	0.00000000	-60.41461000	-28.00197000
128.49999255	0.00000000	-59.70718000	-27.25763000
128.69999254	0.00000000	-58.87672000	-26.88238000
128.89999252	0.00000000	-58.12622000	-26.83932000
129.09999251	0.00000000	-57.33883000	-26.88238000
129.29999250	0.00000000	-57.01279000	-27.25763000
129.49999249	0.00000000	-57.33883000	-28.00197000
129.69999248	0.00000000	-58.12622000	-28.37721000
129.89999246	0.00000000	-58.87672000	-28.42027000
130.09999245	0.00000000	-59.70718000	-28.42027000
130.29999244	0.00000000	-60.45767000	-28.42027000
130.49999243	0.00000000	-61.19586000	-28.37721000
130.69999242	0.00000000	-61.15280000	-28.00197000
130.89999241	0.00000000	-60.08243000	-27.25763000
131.09999239	0.00000000	-58.91978000	-26.88238000
131.29999238	0.00000000	-58.12622000	-26.88238000
131.49999237	0.00000000	-57.33883000	-27.25763000
131.69999236	0.00000000	-57.01279000	-28.00197000
131.89999235	0.00000000	-57.33883000	-28.42027000
132.09999233	0.00000000	-58.12622000	-28.83858000
132.29999232	0.00000000	-58.87672000	-29.58292000
132.49999231	0.00000000	-59.70718000	-29.90895000
132.69999230	0.00000000	-60.41461000	-29.58292000
132.89999229	0.00000000	-60.82677000	-28.83858000
133.09999227	0.00000000	-60.45767000	-28.42027000
133.29999226	0.00000000	-60.08243000	-28.00197000
133.49999225	0.00000000	-59.70718000	-27.30684000
133.69999224	0.00000000	-59.29502000	-27.30684000
133.89999223	0.00000000	-59.33194000	-28.00197000
134.09999222	0.00000000	-59.29502000	-28.42027000
134.29999220	0.00000000	-59.70718000	-28.83858000
134.49999219	0.00000000	-60.03937000	-29.62598000
134.69999218	0.00000000	-60.08243000	-30.37647000
134.89999217	0.00000000	-60.08243000	-31.15772000
135.09999216	0.00000000	-60.08243000	-31.53297000
135.29999214	0.00000000	-60.03937000	-31.53297000
135.49999213	0.00000000	-59.66412000	-31.15772000
135.69999212	0.00000000	-58.96899000	-30.37647000
135.89999211	0.00000000	-58.96899000	-29.62598000
136.09999210	0.00000000	-59.66412000	-28.79552000
136.29999208	0.00000000	-60.08243000	-28.04503000
136.49999207	0.00000000	-60.50073000	-27.30684000
136.69999206	0.00000000	-61.24508000	-27.30684000
136.89999205	0.00000000	-61.62032000	-28.00197000
137.09999204	0.00000000	-61.62032000	-28.37721000
137.29999203	0.00000000	-61.24508000	-28.46333000
137.49999201	0.00000000	-60.45767000	-28.83858000
137.69999200	0.00000000	-59.70718000	-29.58292000
137.89999199	0.00000000	-58.91978000	-29.95817000
138.09999198	0.00000000	-58.54454000	-30.00123000
138.29999197	0.00000000	-58.50147000	-30.00123000
138.49999195	0.00000000	-58.54454000	-29.95817000
138.69999194	0.00000000	-58.96899000	-29.58292000
138.89999193	0.00000000	-60.08243000	-28.83858000
139.09999192	0.00000000	-61.19586000	-28.42027000
139.29999191	0.00000000	-61.62032000	-28.00197000
139.49999189	0.00000000	-61.62032000	-27.25763000
139.69999188	0.00000000	-61.24508000	-26.88238000
139.89999187	0.00000000	-60.45767000	-26.83932000
140.09999186	0.00000000	-59.70718000	-26.88238000
140.29999185	0.00000000	-58.91978000	-27.25763000
140.49999184	0.00000000	-58.54454000	-28.04503000
140.69999182	0.00000000	-58.50147000	-28.79552000
140.89999181	0.00000000	-58.54454000	-29.58292000
141.09999180	0.00000000	-58.91978000	-29.95817000
141.29999179	0.00000000	-59.66412000	-30.00123000
141.49999178	0.00000000	-60.08243000	-29.95817000
141.69999176	0.00000000	-60.45767000	-29.53371000
141.89999175	0.00000000	-60.82677000	-28.42027000
142.09999174	0.00000000	-60.45767000	-27.25763000
142.29999173	0.00000000	-60.08243000	-26.51329000
142.49999172	0.00000000	-59.66412000	-26.10113000
142.69999170	0.00000000	-58.91978000	-26.46407000
142.89999169	0.00000000	-58.54454000	-26.83932000
143.09999168	0.00000000	-58.54454000	-27.30684000
143.29999167	0.00000000	-58.91978000	-28.42027000
143.49999166	0.00000000	-59.66412000	-29.53371000
143.69999165	0.00000000	-60.03937000	-29.95817000
143.89999163	0.00000000	-60.08243000	-30.00123000
144.09999162	0.00000000	-60.08243000	-29.95817000
144.29999161	0.00000000	-60.03937000	-29.58292000
144.49999160	0.00000000	-59.66412000	-28.79552000
144.69999159	0.00000000	-58.91978000	-28.04503000
144.89999157	0.00000000	-58.54454000	-27.25763000
145.09999156	0.00000000	-58.54454000	-26.88238000
145.29999155	0.00000000	-58.91978000	-26.88238000
145.49999154	0.00000000	-59.66412000	-27.25763000
145.69999153	0.00000000	-60.08243000	-28.00197000
145.89999151	0.00000000	-60.45767000	-28.42027000
146.09999150	0.00000000	-60.82677000	-28.83858000
146.29999149	0.00000000	-60.45767000	-29.58292000
146.49999148	0.00000000	-60.12549000	-29.95817000
146.69999147	0.00000000	-60.08243000	-29.95817000
146.89999146	0.00000000	-60.03937000	-29.58292000
147.09999144	0.00000000	-59.66412000	-28.83858000
147.29999143	0.00000000	-58.91978000	-28.46333000
147.49999142	0.00000000	-58.59375000	-28.42027000
147.69999141	0.00000000	-58.91978000	-28.42027000
147.89999140	0.00000000	-59.66412000	-28.42027000
148.09999138	0.00000000	-60.03937000	-28.42027000
148.29999137	0.00000000	-60.12549000	-28.42027000
148.49999136	0.00000000	-60.50073000	-28.42027000
148.69999135	0.00000000	-61.19586000	-28.42027000
148.89999134	0.00000000	-61.19586000	-28.42027000
149.09999132	0.00000000	-60.50073000	-28.46333000
149.29999131	0.00000000	-60.12549000	-28.83858000
149.49999130	0.00000000	-60.08243000	-29.58292000
149.69999129	0.00000000	-60.08243000	-29.95817000
149.89999128	0.00000000	-60.08243000	-30.00123000
150.09999127	0.00000000	-60.08243000	-29.95817000
150.29999125	0.00000000	-60.08243000	-29.58292000
150.49999124	0.00000000	-60.08243000	-28.83858000
150.69999123	0.00000000	-60.08243000	-28.46333000
150.89999122	0.00000000	-60.12549000	-28.42027000
151.09999121	0.00000000	-60.50073000	-28.42027000
151.29999119	0.00000000	-61.24508000	-28.42027000
151.49999118	0.00000000	-61.62032000	-28.46333000
151.69999117	0.00000000	-61.66338000	-28.79552000
151.89999116	0.00000000	-61.62032000	-29.20767000
152.09999115	0.00000000	-61.24508000	-29.21383000
152.29999113	0.00000000	-60.50073000	-29.62598000
152.49999112	0.00000000	-60.12549000	-29.95817000
152.69999111	0.00000000	-60.08243000	-30.00123000
152.89999110	0.00000000	-60.08243000	-30.00123000
153.09999109	0.00000000	-60.08243000	-29.95817000
153.29999108	0.00000000	-60.08243000	-29.58292000
153.49999106	0.00000000	-60.08243000	-28.83858000
153.69999105	0.00000000	-60.12549000	-28.46333000
153.89999104	0.00000000	-60.50073000	-28.42027000
154.09999103	0.00000000	-61.24508000	-28.42027000
154.29999102	0.00000000	-61.62032000	-28.42027000
154.49999100	0.00000000	-61.66338000	-28.42027000
154.69999099	0.00000000	-61.66338000	-28.42027000
154.89999098	0.00000000	-61.62032000	-28.46333000
155.09999097	0.00000000	-61.24508000	-28.79552000
155.29999096	0.00000000	-60.50073000	-29.20767000
155.49999094	0.00000000	-60.12549000	-29.21383000
155.69999093	0.00000000	-60.08243000	-29.62598000
155.89999092	0.00000000	-60.08243000	-29.95817000
156.09999091	0.00000000	-60.08243000	-29.95817000
156.29999090	0.00000000	-60.08243000	-29.58292000
156.49999089	0.00000000	-60.12549000	-28.83858000
156.69999087	0.00000000	-60.50073000	-28.46333000
156.89999086	0.00000000	-61.24508000	-28.42027000
157.09999085	0.00000000	-61.62032000	-28.42027000
157.29999084	0.00000000	-61.66338000	-28.42027000
157.49999083	0.00000000	-61.66338000	-28.42027000
157.69999081	0.00000000	-61.66338000	-28.42027000
157.89999080	0.00000000	-61.62032000	-28.42027000
158.09999079	0.00000000	-61.24508000	-28.46333000
158.29999078	0.00000000	-60.50073000	-28.83858000
158.49999077	0.00000000	-60.12549000	-29.58292000
158.69999075	0.00000000	-60.08243000	-29.95817000
158.89999074	0.00000000	-60.08243000	-29.95817000
159.09999073	0.00000000	-60.08243000	-29.58292000
159.29999072	0.00000000	-60.08243000	-28.83858000
159.49999071	0.00000000	-60.08243000	-28.42027000
159.69999070	0.00000000	-60.08243000	-28.00197000
159.89999068	0.00000000	-60.08243000	-27.25763000
160.09999067	0.00000000	-60.12549000	-26.88238000
160.29999066	0.00000000	-60.50073000	-26.83932000
160.49999065	0.00000000	-61.24508000	-26.88238000
160.69999064	0.00000000	-61.62032000	-27.25763000
160.89999062	0.00000000	-61.62032000	-28.00197000
161.09999061	0.00000000	-61.24508000	-28.42027000
161.29999060	0.00000000	-60.50073000	-28.83858000
161.49999059	0.00000000	-60.12549000	-29.58292000
161.69999058	0.00000000	-60.08243000	-29.95817000
161.89999056	0.00000000	-60.08243000	-29.95817000
162.09999055	0.00000000	-60.08243000	-29.58292000
162.29999054	0.00000000	-60.08243000	-28.83858000
162.49999053	0.00000000	-60.08243000	-28.46333000
162.69999052	0.00000000	-60.08243000	-28.42027000
162.89999051	0.00000000	-60.08243000	-28.42027000
163.09999049	0.00000000	-60.12549000	-28.42027000
163.29999048	0.00000000	-60.50073000	-28.42027000
163.49999047	0.00000000	-61.24508000	-28.42027000
163.69999046	0.00000000	-61.62032000	-28.42027000
163.89999045	0.00000000	-61.66338000	-28.46333000
164.09999043	0.00000000	-61.66338000	-28.83858000
164.29999042	0.00000000	-61.66338000	-29.58292000
164.49999041	0.00000000	-61.62032000	-29.95817000
164.69999040	0.00000000	-61.24508000	-30.00123000
164.89999039	0.00000000	-60.50073000	-30.00123000
165.09999037	0.00000000	-60.12549000	-30.00123000
165.29999036	0.00000000	-60.08243000	-30.00123000
165.49999035	0.00000000	-60.08243000	-30.00123000
165.69999034	0.00000000	-60.17470000	-30.00123000
165.89999033	0.00000000	-60.83292000	-29.95817000
166.09999032	0.00000000	-61.60802000	-29.58292000
166.29999030	0.00000000	-61.25123000	-28.83858000
166.49999029	0.00000000	-61.33120000	-28.51255000
166.69999028	0.00000000	-61.62032000	-28.83858000
166.89999027	0.00000000	-61.66338000	-29.58292000
167.09999026	0.00000000	-61.66338000	-29.95817000
167.29999024	0.00000000	-61.66338000	-30.00123000
167.49999023	0.00000000	-61.66338000	-30.00123000
167.69999022	0.00000000	-61.66338000	-30.00123000
167.89999021	0.00000000	-61.66338000	-30.00123000
168.09999020	0.00000000	-61.62032000	-30.00123000
168.29999018	0.00000000	-61.24508000	-29.95817000
168.49999017	0.00000000	-60.54995000	-29.62598000
168.69999016	0.00000000	-60.54995000	-29.25689000
168.89999015	0.00000000	-61.24508000	-29.62598000
169.09999014	0.00000000	-61.62032000	-29.90895000
169.29999013	0.00000000	-61.66338000	-29.62598000
169.49999011	0.00000000	-61.66338000	-29.25689000
169.69999010	0.00000000	-61.66338000	-29.62598000
169.89999009	0.00000000	-61.66338000	-29.95817000
170.09999008	0.00000000	-61.66338000	-30.00123000
170.29999007	0.00000000	-61.66338000	-29.95817000
170.49999005	0.00000000	-61.62032000	-29.58292000
170.69999004	0.00000000	-61.28814000	-28.83858000
170.89999003	0.00000000	-60.87598000	-28.51255000
171.09999002	0.00000000	-60.91289000	-28.79552000
171.29999001	0.00000000	-60.83292000	-29.20767000
171.49998999	0.00000000	-60.86983000	-29.21383000
171.69998998	0.00000000	-60.50073000	-29.62598000
171.89998997	0.00000000	-60.54995000	-29.95817000
172.09998996	0.00000000	-61.24508000	-30.00123000
172.29998995	0.00000000	-61.62032000	-30.00123000
172.49998994	0.00000000	-61.66338000	-29.95817000
172.69998992	0.00000000	-61.66338000	-29.58292000
172.89998991	0.00000000	-61.66338000	-28.83858000
173.09998990	0.00000000	-61.66338000	-28.46333000
173.29998989	0.00000000	-61.66338000	-28.42027000
173.49998988	0.00000000	-61.66338000	-28.42027000
173.69998986	0.00000000	-61.62032000	-28.42027000
173.89998985	0.00000000	-61.28814000	-28.42027000
174.09998984	0.00000000	-60.87598000	-28.42027000
174.29998983	0.00000000	-60.91289000	-28.42027000
174.49998982	0.00000000	-60.87598000	-28.42027000
174.69998980	0.00000000	-61.28814000	-28.42027000
174.89998979	0.00000000	-61.62032000	-28.42027000
175.09998978	0.00000000	-61.66338000	-28.42027000
175.29998977	0.00000000	-61.66338000	-28.42027000
175.49998976	0.00000000	-61.66338000	-28.42027000
175.69998975	0.00000000	-61.66338000	-28.42027000
175.89998973	0.00000000	-61.62032000	-28.42027000
176.09998972	0.00000000	-61.28814000	-28.42027000
176.29998971	0.00000000	-60.87598000	-28.42027000
176.49998970	0.00000000	-60.86983000	-28.42027000
176.69998969	0.00000000	-60.50073000	-28.46333000
176.89998967	0.00000000	-60.54995000	-28.79552000
177.09998966	0.00000000	-61.19586000	-29.20767000
177.29998965	0.00000000	-61.24508000	-29.21383000
177.49998964	0.00000000	-60.91904000	-29.62598000
177.69998963	0.00000000	-61.28814000	-29.95817000
177.89998961	0.00000000	-61.62032000	-30.00123000
178.09998960	0.00000000	-61.66338000	-30.00123000
178.29998959	0.00000000	-61.66338000	-30.00123000
178.49998958	0.00000000	-61.66338000	-29.95817000
178.69998957	0.00000000	-61.66338000	-29.58292000
178.89998956	0.00000000	-61.66338000	-28.88779000
179.09998954	0.00000000	-61.66338000	-28.83858000
179.29998953	0.00000000	-61.66338000	-29.16461000
179.49998952	0.00000000	-61.66338000	-28.83858000
179.69998951	0.00000000	-61.66338000	-28.88779000
179.89998950	0.00000000	-61.66338000	-29.58292000
180.09998948	0.00000000	-61.66338000	-29.95817000
180.29998947	0.00000000	-61.66338000	-30.00123000
180.49998946	0.00000000	-61.66338000	-30.00123000
180.69998945	0.00000000	-61.66338000	-30.00123000
180.89998944	0.00000000	-61.70644000	-30.00123000
181.09998942	0.00000000	-62.03863000	-29.95817000
181.29998941	0.00000000	-62.40772000	-29.58292000
181.49998940	0.00000000	-62.03863000	-28.83858000
181.69998939	0.00000000	-61.70644000	-28.46333000
181.89998938	0.00000000	-61.66338000	-28.42027000
182.09998937	0.00000000	-61.66338000	-28.42027000
182.29998935	0.00000000	-61.66338000	-28.46333000
182.49998934	0.00000000	-61.66338000	-28.83858000
182.69998933	0.00000000	-61.66338000	-29.58292000
182.89998932	0.00000000	-61.66338000	-29.95817000
183.09998931	0.00000000	-61.66338000	-30.00123000
183.29998929	0.00000000	-61.66338000	-30.00123000
183.49998928	0.00000000	-61.66338000	-30.00123000
183.69998927	0.00000000	-61.66338000	-30.00123000
183.89998926	0.00000000	-61.66338000	-29.95817000
184.09998925	0.00000000	-61.66338000	-29.62598000
184.29998923	0.00000000	-61.66338000	-29.25689000
184.49998922	0.00000000	-61.66338000	-29.58292000
184.69998921	0.00000000	-61.66338000	-29.53371000
184.89998920	0.00000000	-61.70644000	-28.83858000
185.09998919	0.00000000	-62.03863000	-28.46333000
185.29998918	0.00000000	-62.40772000	-28.46333000
185.49998916	0.00000000	-62.03863000	-28.83858000
185.69998915	0.00000000	-61.70644000	-29.58292000
185.89998914	0.00000000	-61.66338000	-29.95817000
186.09998913	0.00000000	-61.66338000	-30.00123000
186.29998912	0.00000000	-61.66338000	-30.04429000
186.49998910	0.00000000	-61.66338000	-30.37647000
186.69998909	0.00000000	-61.66338000	-30.73942000
186.89998908	0.00000000	-61.66338000	-30.37647000
187.09998907	0.00000000	-61.70644000	-30.04429000
187.29998906	0.00000000	-62.08169000	-29.95817000
187.49998904	0.00000000	-62.82603000	-29.58292000
187.69998903	0.00000000	-63.15207000	-28.83858000
187.89998902	0.00000000	-62.86909000	-28.46333000
188.09998901	0.00000000	-62.45694000	-28.42027000
188.29998900	0.00000000	-62.45079000	-28.42027000
188.49998899	0.00000000	-62.03863000	-28.46333000
188.69998897	0.00000000	-61.70644000	-28.83858000
188.89998896	0.00000000	-61.66338000	-29.58292000
189.09998895	0.00000000	-61.66338000	-29.95817000
189.29998894	0.00000000	-61.70644000	-30.00123000
189.49998893	0.00000000	-62.03863000	-30.00123000
189.69998891	0.00000000	-62.40772000	-30.00123000
189.89998890	0.00000000	-62.03863000	-29.95817000
190.09998889	0.00000000	-61.70644000	-29.58292000
190.29998888	0.00000000	-61.66338000	-28.83858000
190.49998887	0.00000000	-61.70644000	-28.46333000
190.69998885	0.00000000	-62.03863000	-28.42027000
190.89998884	0.00000000	-62.40772000	-28.42027000
191.09998883	0.00000000	-62.03863000	-28.42027000
191.29998882	0.00000000	-61.70644000	-28.42027000
191.49998881	0.00000000	-61.66338000	-28.42027000
191.69998880	0.00000000	-61.66338000	-28.46333000
191.89998878	0.00000000	-61.66338000	-28.83858000
192.09998877	0.00000000	-61.66338000	-29.53371000
192.29998876	0.00000000	-61.66338000	-29.58292000
192.49998875	0.00000000	-61.66338000	-29.25689000
192.69998874	0.00000000	-61.66338000	-29.62598000
192.89998872	0.00000000	-61.70644000	-29.95817000
193.09998871	0.00000000	-62.03863000	-30.00123000
193.29998870	0.00000000	-62.40772000	-29.95817000
193.49998869	0.00000000	-62.03863000	-29.58292000
193.69998868	0.00000000	-61.75566000	-28.88779000
193.89998866	0.00000000	-62.03863000	-28.88779000
194.09998865	0.00000000	-62.40772000	-29.53371000
194.29998864	0.00000000	-62.03863000	-29.53371000
194.49998863	0.00000000	-61.70644000	-28.83858000
194.69998862	0.00000000	-61.66338000	-28.46333000
194.89998861	0.00000000	-61.66338000	-28.46333000
195.09998859	0.00000000	-61.66338000	-28.83858000
195.29998858	0.00000000	-61.66338000	-29.58292000
195.49998857	0.00000000	-61.70644000	-29.95817000
195.69998856	0.00000000	-62.08169000	-30.00123000
195.89998855	0.00000000	-62.82603000	-30.00123000
196.09998853	0.00000000	-63.20127000	-30.00123000
