Time	Channel A	Channel B	Channel C
(us)	(V)	(mV)	(mV)

-4.59999956	0.00000000	11.10974000	-2.04232300
-4.39999957	0.00000000	11.48499000	-2.04232300
-4.19999958	0.00000000	12.22933000	-2.73745100
-3.99999959	0.00000000	12.60458000	-3.11269700
-3.79999960	0.00000000	12.60458000	-3.15575800
-3.59999962	0.00000000	12.22933000	-3.15575800
-3.39999963	0.00000000	11.48499000	-3.15575800
-3.19999964	0.00000000	11.10974000	-3.15575800
-2.99999965	0.00000000	11.06668000	-3.15575800
-2.79999966	0.00000000	11.06668000	-3.15575800
-2.59999968	0.00000000	11.06668000	-3.15575800
-2.39999969	0.00000000	11.06668000	-3.15575800
-2.19999970	0.00000000	11.06668000	-3.15575800
-1.99999971	0.00000000	11.06668000	-3.15575800
-1.79999972	0.00000000	11.06668000	-3.15575800
-1.59999973	0.00000000	11.06668000	-3.15575800
-1.39999975	0.00000000	11.06668000	-3.15575800
-1.19999976	0.00000000	11.06668000	-3.15575800
-0.99999977	0.00000000	11.06668000	-3.15575800
-0.79999978	0.00000000	11.10974000	-3.15575800
-0.59999979	0.00000000	11.44193000	-3.15575800
-0.39999981	0.15871060	11.81102000	-3.15575800
-0.19999982	0.47736220	11.48499000	-3.15575800
0.00000017	0.79601380	11.48499000	-3.15575800
0.20000016	0.95533960	11.81102000	-3.15575800
0.40000015	0.95533960	11.44193000	-3.15575800
0.60000013	0.63668800	11.10974000	-3.15575800
0.80000012	0.00000000	11.06668000	-3.15575800
1.00000011	-0.95533960	11.06668000	-3.15575800
1.20000010	-1.91129400	11.06668000	-3.15575800
1.40000009	-2.54859700	11.10974000	-3.15575800
1.60000008	-2.70792300	11.44193000	-3.15575800
1.80000006	-2.07062000	11.81102000	-3.11269700
2.00000005	-0.63668800	11.44193000	-2.78051200
2.20000004	1.43331700	11.10974000	-2.41141700
2.40000003	3.50393700	11.06668000	-2.78051200
2.60000002	4.93786900	11.06668000	-3.11269700
2.80000000	5.25652100	11.06668000	-3.15575800
2.99999999	4.14124000	11.06668000	-3.15575800
3.19999998	1.75196900	11.06668000	-3.15575800
3.39999997	-1.43331700	11.06668000	-3.15575800
3.59999996	-4.77854300	11.10974000	-3.15575800
3.79999994	-7.16781500	11.48499000	-3.15575800
3.99999993	-7.96444400	12.18012000	-3.15575800
4.19999992	-6.69045300	12.18012000	-3.11269700
4.39999991	-3.50393700	11.48499000	-2.78051200
4.59999990	0.63668800	11.10974000	-2.41141700
4.79999989	5.09719500	11.06668000	-2.78051200
4.99999987	8.28309500	11.06668000	-3.11269700
5.19999986	9.39837600	11.06668000	-3.15575800
5.39999985	8.28309500	11.06668000	-3.15575800
5.59999984	5.09719500	11.06668000	-3.15575800
5.79999983	0.47736220	11.06668000	-3.15575800
5.99999981	-4.30056600	11.06668000	-3.15575800
6.19999980	-7.80511800	11.06668000	-3.15575800
6.39999979	-9.39837600	11.06668000	-3.15575800
6.59999978	-8.60174700	11.06668000	-3.15575800
6.79999977	-5.73449800	11.10974000	-3.15575800
6.99999975	-1.59264300	11.44193000	-3.15575800
7.19999974	2.70792300	11.81102000	-3.15575800
7.39999973	6.05315000	11.44193000	-3.15575800
7.59999972	7.64579200	11.10974000	-3.15575800
7.79999971	7.32714100	11.06668000	-3.15575800
7.99999970	5.09719500	11.06668000	-3.15575800
8.19999968	2.07062000	11.06668000	-3.15575800
8.39999967	-1.11466500	11.06668000	-3.15575800
8.59999966	-3.66326300	11.06668000	-3.15575800
8.79999965	-5.09719500	11.06668000	-3.15575800
8.99999964	-4.93786900	11.06668000	-3.15575800
9.19999962	-3.66326300	11.06668000	-3.15575800
9.39999961	-1.91129400	11.06668000	-3.15575800
9.59999960	0.15871060	11.06668000	-3.15575800
9.79999959	1.59264300	11.06668000	-3.15575800
9.99999958	2.38927200	11.06668000	-3.15575800
10.19999956	2.54859700	11.06668000	-3.15575800
10.39999955	1.91129400	11.06668000	-3.15575800
10.59999954	1.11466500	11.06668000	-3.15575800
10.79999953	0.15871060	11.06668000	-3.15575800
10.99999952	-0.47736220	11.06668000	-3.15575800
11.19999951	-0.79601380	11.06668000	-3.15575800
11.39999949	-0.95533960	11.06668000	-3.15575800
11.59999948	-0.95533960	11.06668000	-3.15575800
11.79999947	-0.63668800	11.06668000	-3.15575800
11.99999946	-0.31803640	11.06668000	-3.15575800
12.19999945	-0.15871060	11.10974000	-3.15575800
12.39999943	-0.15871060	11.44193000	-3.15575800
12.59999942	0.00000000	11.81102000	-3.15575800
12.79999941	0.00000000	11.44193000	-3.15575800
12.99999940	0.00000000	11.10974000	-3.15575800
13.19999939	0.00000000	11.06668000	-3.15575800
13.39999937	0.00000000	11.10974000	-3.15575800
13.59999936	0.00000000	11.44193000	-3.15575800
13.79999935	0.00000000	11.85408000	-3.15575800
13.99999934	0.00000000	11.81717000	-3.15575800
14.19999933	-0.15871060	11.85408000	-3.15575800
14.39999932	-0.15871060	11.44193000	-3.15575800
14.59999930	-0.15871060	11.10974000	-3.15575800
14.79999929	-0.15871060	11.06668000	-3.15575800
14.99999928	0.00000000	11.06668000	-3.15575800
15.19999927	0.00000000	11.06668000	-3.15575800
15.39999926	0.00000000	11.06668000	-3.15575800
15.59999924	0.00000000	11.06668000	-3.15575800
15.79999923	0.00000000	11.06668000	-3.15575800
15.99999922	0.00000000	11.06668000	-3.15575800
16.19999921	0.00000000	11.06668000	-3.15575800
16.39999920	-0.15871060	11.06668000	-3.15575800
16.59999919	-0.15871060	11.10974000	-3.15575800
16.79999917	-0.15871060	11.48499000	-3.15575800
16.99999916	0.00000000	12.22933000	-3.15575800
17.19999915	0.00000000	12.60458000	-3.15575800
17.39999914	0.00000000	12.64764000	-3.15575800
17.59999913	0.00000000	12.64764000	-3.15575800
17.79999911	0.00000000	12.60458000	-3.15575800
17.99999910	0.00000000	12.18012000	-3.15575800
18.19999909	0.00000000	11.02362000	-3.15575800
18.39999908	0.00000000	9.48572700	-3.15575800
18.59999907	0.00000000	7.94783400	-3.15575800
18.79999905	0.00000000	6.79133800	-3.15575800
18.99999904	0.00000000	6.41609200	-3.15575800
19.19999903	0.00000000	6.83439900	-3.15575800
19.39999902	0.00000000	8.45841400	-3.15575800
19.59999901	0.00000000	11.53420000	-3.15575800
19.79999900	0.00000000	15.39124000	-3.15575800
19.99999898	0.00000000	18.87918000	-3.15575800
20.19999897	0.00000000	21.57972000	-3.15575800
20.39999896	0.00000000	22.65010000	-3.15575800
20.59999895	0.00000000	21.06914000	-3.15575800
20.79999894	0.00000000	16.74459000	-3.15575800
20.99999892	0.00000000	10.18086000	-3.15575800
21.19999891	0.00000000	2.46678100	-3.15575800
21.39999890	0.00000000	-4.09694900	-3.15575800
21.59999889	0.00000000	-8.32923100	-3.15575800
21.79999888	0.00000000	-8.98129900	-3.15575800
21.99999886	0.00000000	-4.66289300	-3.15575800
22.19999885	0.00000000	4.26919300	-3.19881900
22.39999884	0.00000000	16.27707000	-3.53100400
22.59999883	0.00000000	28.97392000	-3.90009800
22.79999882	0.00000000	38.93332000	-3.53100400
22.99999881	0.00000000	43.12869000	-3.15575800
23.19999879	0.00000000	39.96063000	-2.73745100
23.39999878	0.00000000	29.49065000	-1.99311000
23.59999877	0.00000000	13.63189000	-1.61786400
23.79999876	0.00000000	-4.09694900	-1.57480300
23.99999875	0.00000000	-19.58661000	-1.57480300
24.19999873	0.00000000	-29.17692000	-1.61786400
24.39999872	0.00000000	-30.61639000	-2.04232300
24.59999871	0.00000000	-22.01649000	-3.19881900
24.79999870	0.00000000	-4.66289300	-4.73671200
24.99999869	0.00000000	17.34744000	-6.31151500
25.19999867	0.00000000	38.98253000	-7.84940900
25.39999866	0.00000000	55.13041000	-8.96284400
25.59999865	0.00000000	61.63877000	-8.91978400
25.79999864	0.00000000	56.24384000	-7.33882900
25.99999863	0.00000000	40.42815000	-4.26919300
26.19999862	0.00000000	17.95645000	-0.37524600
26.39999860	0.00000000	-6.74827700	3.48794300
26.59999859	0.00000000	-27.91584000	6.92052100
26.79999858	0.00000000	-39.92372000	8.40920300
26.99999857	0.00000000	-40.34203000	7.25270600
27.19999856	0.00000000	-29.49680000	3.72170300
27.39999854	0.00000000	-9.44881800	-2.12844500
27.59999853	0.00000000	14.88066000	-9.47342500
27.79999852	0.00000000	37.68455000	-16.76919000
27.99999851	0.00000000	54.33686000	-22.15797000
28.19999850	0.00000000	60.90059000	-23.97884000
28.39999848	0.00000000	56.33612000	-21.22908000
28.59999847	0.00000000	42.05216000	-13.47810000
28.79999846	0.00000000	21.62278000	-2.64517700
28.99999845	0.00000000	-0.00615157	9.33809000
29.19999844	0.00000000	-17.87033000	20.06643000
29.39999843	0.00000000	-28.75861000	26.20571000
29.59999841	0.00000000	-31.12697000	26.20571000
29.79999840	0.00000000	-24.56939000	19.93110000
29.99999839	0.00000000	-11.07283000	7.89862200
30.19999838	0.00000000	6.32381900	-7.89247000
30.39999837	0.00000000	23.72047000	-23.68971000
30.59999835	0.00000000	37.30930000	-35.63607000
30.79999834	0.00000000	44.70964000	-41.02485000
30.99999833	0.00000000	44.75270000	-38.28740000
31.19999832	0.00000000	37.86294000	-27.87278000
31.39999831	0.00000000	26.27953000	-11.98942000
31.59999829	0.00000000	12.69070000	6.18233200
31.79999828	0.00000000	-0.47367120	23.13607000
31.99999827	0.00000000	-10.51919000	34.70718000
32.19999826	0.00000000	-15.21900000	38.19513000
32.39999825	0.00000000	-14.09941000	33.16929000
32.59999824	0.00000000	-7.95398600	20.39862000
32.79999822	0.00000000	1.71628900	2.64517700
32.99999821	0.00000000	12.55536000	-16.25861000
33.19999820	0.00000000	22.60704000	-32.10507000
33.39999819	0.00000000	29.58292000	-41.44316000
33.59999818	0.00000000	31.90822000	-42.97490000
33.79999816	0.00000000	29.62598000	-36.37426000
33.99999815	0.00000000	23.06841000	-22.53322000
34.19999814	0.00000000	14.27165000	-5.15501900
34.39999813	0.00000000	5.76402500	11.85408000
34.59999812	0.00000000	-0.47367120	25.36909000
34.79999810	0.00000000	-3.58636800	31.96973000
34.99999809	0.00000000	-3.16806100	30.85015000
35.19999808	0.00000000	1.02116100	22.76083000
35.39999807	0.00000000	7.52952700	9.25196800
35.59999806	0.00000000	14.05020000	-6.13312000
35.79999805	0.00000000	19.11294000	-20.06643000
35.99999803	0.00000000	21.44439000	-29.31840000
36.19999802	0.00000000	21.06914000	-32.05585000
36.39999801	0.00000000	17.95029000	-27.87278000
36.59999800	0.00000000	12.64764000	-18.25787000
36.79999799	0.00000000	7.25270600	-5.94242000
36.99999797	0.00000000	3.38951800	6.36687900
37.19999796	0.00000000	1.48253000	15.19439000
37.39999795	0.00000000	2.64517700	18.31324000
37.59999794	0.00000000	6.41609200	15.28666000
37.79999793	0.00000000	11.02362000	7.25270600
37.99999791	0.00000000	15.29897000	-3.06963600
38.19999790	0.00000000	18.41781000	-12.68455000
38.39999789	0.00000000	19.95571000	-18.81767000
38.59999788	0.00000000	19.53125000	-19.98031000
38.79999787	0.00000000	16.87992000	-15.74803000
38.99999786	0.00000000	13.02288000	-7.38188900
39.19999784	0.00000000	9.15354300	2.18380900
39.39999783	0.00000000	5.62869100	9.84867000
39.59999782	0.00000000	3.34030500	13.70571000
39.79999781	0.00000000	2.55290300	12.50000000
39.99999780	0.00000000	3.71555100	6.36687900
40.19999778	0.00000000	6.36687900	-3.20497000
40.39999777	0.00000000	9.48572700	-13.14591000
40.59999776	0.00000000	12.60458000	-20.44168000
40.79999775	0.00000000	15.34203000	-23.13607000
40.99999774	0.00000000	17.29823000	-20.39862000
41.19999772	0.00000000	18.50394000	-12.72761000
41.39999771	0.00000000	18.79306000	-2.04232300
41.59999770	0.00000000	17.62426000	7.94783400
41.79999769	0.00000000	14.56078000	14.54232000
41.99999768	0.00000000	11.15896000	16.86147000
42.19999767	0.00000000	8.37229300	14.16708000
42.39999765	0.00000000	6.41609200	7.25270600
42.59999764	0.00000000	5.21038300	-1.95004900
42.79999763	0.00000000	4.83513700	-11.18971000
42.99999762	0.00000000	5.25344500	-17.74729000
43.19999761	0.00000000	6.79133800	-20.48474000
43.39999759	0.00000000	9.06742000	-18.95300000
43.59999758	0.00000000	11.02362000	-13.61343000
43.79999757	0.00000000	12.60458000	-6.36072800
43.99999756	0.00000000	13.76107000	0.60285430
44.19999755	0.00000000	14.18553000	5.62253900
44.39999753	0.00000000	14.27165000	8.03395600
44.59999752	0.00000000	14.64690000	7.66486200
44.79999751	0.00000000	15.39124000	5.38262700
44.99999750	0.00000000	15.71727000	1.48868100
45.19999749	0.00000000	15.34203000	-3.06963600
45.39999748	0.00000000	14.09326000	-6.96358300
45.59999746	0.00000000	11.81102000	-9.29502900
45.79999745	0.00000000	8.65526600	-10.07628000
45.99999744	0.00000000	5.57332700	-8.96284400
46.19999743	0.00000000	2.46678100	-6.68676100
46.39999742	0.00000000	0.59670270	-4.36146600
46.59999740	0.00000000	0.59670270	-1.99311000
46.79999739	0.00000000	2.60211600	-0.09227362
46.99999738	0.00000000	6.92052100	1.11343500
47.19999737	0.00000000	13.06594000	1.48253000
47.39999736	0.00000000	19.62352000	1.06422200
47.59999734	0.00000000	24.60630000	-0.51058070
47.79999733	0.00000000	26.92544000	-3.15575800
47.99999732	0.00000000	25.71973000	-5.85014700
48.19999731	0.00000000	21.06914000	-7.80019600
48.39999730	0.00000000	13.71801000	-8.96284400
48.59999729	0.00000000	5.21038300	-8.96284400
48.79999727	0.00000000	-2.47293300	-7.75713500
48.99999726	0.00000000	-7.44955700	-5.43184000
49.19999725	0.00000000	-7.82480200	-1.99311000
49.39999724	0.00000000	-3.58636800	1.07037400
49.59999723	0.00000000	4.13385800	3.02042300
49.79999721	0.00000000	13.76107000	3.76476400
49.99999720	0.00000000	22.60704000	2.60211600
50.19999719	0.00000000	28.42027000	-0.09227362
50.39999718	0.00000000	30.00123000	-3.57406500
50.59999717	0.00000000	27.30069000	-7.42495000
50.79999715	0.00000000	21.06914000	-10.49459000
50.99999714	0.00000000	12.22933000	-11.98327000
51.19999713	0.00000000	3.02042300	-11.23893000
51.39999712	0.00000000	-3.54330700	-8.17544300
51.59999711	0.00000000	-6.28690900	-4.31840500
51.79999710	0.00000000	-4.70595500	-0.04306102
51.99999708	0.00000000	1.06422200	3.76476400
52.19999707	0.00000000	9.44266700	5.67175200
52.39999706	0.00000000	17.48893000	5.33956700
52.59999705	0.00000000	22.55782000	3.02042300
52.79999704	0.00000000	24.18799000	-0.46751960
52.99999702	0.00000000	22.60704000	-4.69365100
53.19999701	0.00000000	17.99951000	-8.50147600
53.39999700	0.00000000	11.48499000	-10.40846000
53.59999699	0.00000000	5.33956700	-10.07628000
53.79999698	0.00000000	1.06422200	-7.80019600
53.99999696	0.00000000	-0.42445860	-4.73671200
54.19999695	0.00000000	1.48253000	-1.66707700
54.39999694	0.00000000	6.41609200	0.60285430
54.59999693	0.00000000	12.18012000	1.02116100
54.79999692	0.00000000	17.16289000	-0.09227362
54.99999691	0.00000000	20.23253000	-1.99311000
55.19999689	0.00000000	19.86343000	-4.26919300
55.39999688	0.00000000	16.87992000	-5.75787400
55.59999687	0.00000000	12.60458000	-5.80093500
55.79999686	0.00000000	7.99704600	-4.64443900
55.99999685	0.00000000	4.18307100	-2.69439000
56.19999683	0.00000000	2.60211600	-0.04306102
56.39999682	0.00000000	3.34030500	2.18380900
56.59999681	0.00000000	5.62869100	2.50984200
56.79999680	0.00000000	9.15354300	0.64591530
56.99999679	0.00000000	12.97982000	-2.82972400
57.19999677	0.00000000	16.41855000	-6.68676100
57.39999676	0.00000000	17.95029000	-10.53765000
57.59999675	0.00000000	17.25517000	-13.14591000
57.79999674	0.00000000	15.34203000	-13.10285000
57.99999673	0.00000000	12.60458000	-10.03322000
58.19999672	0.00000000	9.57800100	-4.64443900
58.39999670	0.00000000	7.25270600	1.48868100
58.59999669	0.00000000	6.45915300	6.87130900
58.79999668	0.00000000	6.79133800	9.94094400
58.99999667	0.00000000	7.99704600	9.89788300
59.19999666	0.00000000	9.86097400	6.40994000
59.39999664	0.00000000	11.81102000	-0.13533460
59.59999663	0.00000000	12.93061000	-7.75713500
59.79999662	0.00000000	13.34276000	-14.35162000
59.99999661	0.00000000	12.55536000	-18.21481000
60.19999660	0.00000000	11.10974000	-18.95300000
60.39999658	0.00000000	9.95324800	-15.79724000
60.59999657	0.00000000	9.52879000	-8.91978400
60.79999656	0.00000000	9.52879000	-0.46751960
60.99999655	0.00000000	9.95324800	7.25270600
61.19999654	0.00000000	11.10974000	12.63533000
61.39999653	0.00000000	12.60458000	14.16708000
61.59999651	0.00000000	13.71801000	11.47884000
61.79999650	0.00000000	13.71801000	5.29650500
61.99999649	0.00000000	12.60458000	-3.15575800
62.19999648	0.00000000	11.06668000	-11.61417000
62.39999647	0.00000000	9.48572700	-17.79035000
62.59999645	0.00000000	7.90477300	-20.48474000
62.79999644	0.00000000	6.41609200	-18.95300000
62.99999643	0.00000000	5.67175200	-13.61343000
63.19999642	0.00000000	6.45915300	-6.26845500
63.39999641	0.00000000	8.37229300	1.44562000
63.59999639	0.00000000	11.10974000	7.99089500
63.79999638	0.00000000	14.13632000	11.47884000
63.99999637	0.00000000	16.41855000	11.52190000
64.19999636	0.00000000	16.79380000	8.45226300
64.39999635	0.00000000	15.34203000	3.06963600
64.59999634	0.00000000	12.97982000	-3.11269700
64.79999632	0.00000000	10.27313000	-8.96284400
64.99999631	0.00000000	7.20964500	-13.56422000
65.19999630	0.00000000	5.29650500	-15.88336000
65.39999629	0.00000000	4.87819900	-15.18824000
65.59999628	0.00000000	5.67175200	-12.49385000
65.79999626	0.00000000	7.99704600	-8.58759800
65.99999625	0.00000000	11.02362000	-3.62327700
66.19999624	0.00000000	13.71801000	0.64591530
66.39999623	0.00000000	15.25591000	3.43873000
66.59999622	0.00000000	15.25591000	5.38262700
66.79999620	0.00000000	13.76107000	5.75787400
66.99999619	0.00000000	11.44193000	4.64443900
67.19999618	0.00000000	9.15354300	2.73745100
67.39999617	0.00000000	7.25270600	0.33218500
67.59999616	0.00000000	6.87746000	-2.41141700
67.79999615	0.00000000	7.99704600	-5.89320800
67.99999613	0.00000000	9.95324800	-9.00590400
68.19999612	0.00000000	12.64764000	-11.33735000
68.39999611	0.00000000	15.29897000	-12.86294000
68.59999610	0.00000000	16.79380000	-12.45079000
68.79999609	0.00000000	16.36934000	-10.53765000
68.99999607	0.00000000	13.67495000	-7.38188900
69.19999606	0.00000000	9.48572700	-3.11269700
69.39999605	0.00000000	5.25344500	1.53174200
69.59999604	0.00000000	2.17765700	5.75787400
69.79999603	0.00000000	1.02116100	8.40920300
69.99999601	0.00000000	2.22687000	8.40920300
70.19999600	0.00000000	5.71481200	5.75787400
70.39999599	0.00000000	11.10974000	1.48868100
70.59999598	0.00000000	16.83686000	-3.57406500
70.79999597	0.00000000	21.06914000	-8.96284400
70.99999596	0.00000000	22.65010000	-13.14591000
71.19999594	0.00000000	21.48745000	-14.72687000
71.39999593	0.00000000	17.99951000	-13.65650000
71.59999592	0.00000000	12.55536000	-10.91289000
71.79999591	0.00000000	6.41609200	-7.00664300
71.99999590	0.00000000	1.02116100	-2.04232300
72.19999588	0.00000000	-2.09768700	2.14074800
72.39999587	0.00000000	-2.47293300	4.14000900
72.59999586	0.00000000	-0.14148620	4.18307100
72.79999585	0.00000000	4.87819900	2.64517700
72.99999584	0.00000000	11.02362000	-0.04306102
73.19999582	0.00000000	16.83686000	-3.06348400
73.39999581	0.00000000	21.06914000	-5.38262700
73.59999580	0.00000000	22.65010000	-6.17618100
73.79999579	0.00000000	21.53666000	-5.85014700
73.99999578	0.00000000	18.41781000	-4.68750000
74.19999577	0.00000000	13.76107000	-3.19881900
74.39999575	0.00000000	8.41535400	-2.08538400
74.59999574	0.00000000	4.18307100	-2.08538400
74.79999573	0.00000000	2.17765700	-3.24803100
74.99999572	0.00000000	2.13459600	-5.11195900
75.19999571	0.00000000	3.71555100	-7.01279500
75.39999569	0.00000000	6.79133800	-7.75713500
75.59999568	0.00000000	10.59916000	-7.33882900
75.79999567	0.00000000	13.67495000	-5.38262700
75.99999566	0.00000000	15.29897000	-1.95004900
76.19999565	0.00000000	15.71727000	1.48868100
76.39999563	0.00000000	15.34203000	4.18307100
76.59999562	0.00000000	14.18553000	5.33956700
76.79999561	0.00000000	12.64764000	4.50910400
76.99999560	0.00000000	11.10974000	1.80856300
77.19999559	0.00000000	9.95324800	-2.87278500
77.39999558	0.00000000	9.52879000	-8.17544300
77.59999556	0.00000000	9.48572700	-12.86294000
77.79999555	0.00000000	9.48572700	-15.51427000
77.99999554	0.00000000	9.48572700	-15.88336000
78.19999553	0.00000000	9.44266700	-13.14591000
78.39999552	0.00000000	9.06742000	-7.84940900
78.59999550	0.00000000	8.32308000	-1.99311000
78.79999549	0.00000000	7.99704600	3.39566900
78.99999548	0.00000000	8.37229300	7.66486200
79.19999547	0.00000000	9.57800100	9.20275500
79.39999546	0.00000000	11.48499000	8.45226300
79.59999544	0.00000000	13.76107000	5.29650500
79.79999543	0.00000000	15.29897000	-0.04306102
79.99999542	0.00000000	15.71727000	-5.80093500
80.19999541	0.00000000	15.29897000	-10.49459000
80.39999540	0.00000000	13.71801000	-13.60728000
80.59999539	0.00000000	11.06668000	-14.76993000
80.79999537	0.00000000	8.37229300	-13.60728000
80.99999536	0.00000000	6.41609200	-10.58686000
81.19999535	0.00000000	5.25344500	-6.68676100
81.39999534	0.00000000	5.29650500	-2.78051200
81.59999533	0.00000000	6.79133800	1.11343500
81.79999531	0.00000000	9.11048200	4.18307100
81.99999530	0.00000000	11.44193000	5.75787400
82.19999529	0.00000000	13.76107000	5.75787400
82.39999528	0.00000000	15.25591000	4.22613100
82.59999527	0.00000000	15.29897000	1.53174200
82.79999525	0.00000000	14.18553000	-1.62401600
82.99999524	0.00000000	12.64764000	-5.11195900
83.19999523	0.00000000	11.06668000	-8.58759800
83.39999522	0.00000000	9.52879000	-10.91289000
83.59999521	0.00000000	8.37229300	-12.11860000
83.79999520	0.00000000	7.99704600	-12.07554000
83.99999518	0.00000000	8.32308000	-10.49459000
84.19999517	0.00000000	9.11048200	-7.38188900
84.39999516	0.00000000	9.86097400	-3.15575800
84.59999515	0.00000000	10.64838000	1.11343500
84.79999514	0.00000000	11.02362000	4.60137700
84.99999512	0.00000000	11.06668000	6.87746000
85.19999511	0.00000000	11.06668000	6.87746000
85.39999510	0.00000000	11.06668000	4.60137700
85.59999509	0.00000000	11.10974000	1.07037400
85.79999508	0.00000000	11.48499000	-3.57406500
85.99999506	0.00000000	12.22933000	-8.54453700
86.19999505	0.00000000	12.55536000	-12.03248000
86.39999504	0.00000000	12.18012000	-13.61343000
86.59999503	0.00000000	11.02362000	-13.18898000
86.79999502	0.00000000	9.52879000	-10.49459000
86.99999501	0.00000000	8.32308000	-6.26845500
87.19999499	0.00000000	7.52952700	-1.62401600
87.39999498	0.00000000	6.79133800	2.64517700
87.59999497	0.00000000	6.83439900	5.67175200
87.79999496	0.00000000	7.94783400	6.45300100
87.99999495	0.00000000	9.48572700	4.50910400
88.19999493	0.00000000	11.06668000	0.69512790
88.39999492	0.00000000	12.60458000	-4.31840500
88.59999491	0.00000000	13.71801000	-8.87672100
88.79999490	0.00000000	13.76107000	-11.61417000
88.99999489	0.00000000	12.97982000	-12.03248000
89.19999487	0.00000000	11.81102000	-10.49459000
89.39999486	0.00000000	9.90403500	-7.38188900
89.59999485	0.00000000	8.37229300	-3.15575800
89.79999484	0.00000000	7.57258800	1.02116100
89.99999483	0.00000000	7.20964500	3.71555100
90.19999482	0.00000000	7.94783400	4.14000900
90.39999480	0.00000000	9.06742000	2.60211600
90.59999479	0.00000000	9.90403500	-0.51058070
90.79999478	0.00000000	11.06668000	-4.73671200
90.99999477	0.00000000	12.18012000	-8.87672100
91.19999476	0.00000000	12.60458000	-11.18971000
91.39999474	0.00000000	12.60458000	-10.86983000
91.59999473	0.00000000	12.22933000	-8.91978400
91.79999472	0.00000000	11.48499000	-5.43184000
91.99999471	0.00000000	11.10974000	-0.83661410
92.19999470	0.00000000	11.06668000	2.97736200
92.39999468	0.00000000	11.06668000	5.24729300
92.59999467	0.00000000	11.02362000	4.87204700
92.79999466	0.00000000	10.64838000	1.81471400
92.99999465	0.00000000	9.86097400	-2.36835600
93.19999464	0.00000000	9.11048200	-7.00664300
93.39999463	0.00000000	8.32308000	-10.40846000
93.59999461	0.00000000	7.94783400	-11.60802000
93.79999460	0.00000000	7.99704600	-10.45152000
93.99999459	0.00000000	8.74138700	-7.38188900
94.19999458	0.00000000	10.31619000	-3.15575800
94.39999457	0.00000000	11.81717000	1.02116100
94.59999455	0.00000000	13.43504000	3.71555100
94.79999454	0.00000000	14.51156000	4.14000900
94.99999453	0.00000000	14.92372000	2.60211600
95.19999452	0.00000000	14.09326000	-0.46751960
95.39999451	0.00000000	12.18012000	-4.31840500
95.59999449	0.00000000	9.48572700	-7.75713500
95.79999448	0.00000000	6.79133800	-10.11934000
95.99999447	0.00000000	4.83513700	-10.82677000
96.19999446	0.00000000	3.67249000	-9.70103300
96.39999445	0.00000000	3.71555100	-6.59448800
96.59999444	0.00000000	5.25344500	-2.82972400
96.79999442	0.00000000	7.99704600	0.64591530
96.99999441	0.00000000	11.48499000	2.55905500
97.19999440	0.00000000	15.29897000	2.60211600
97.39999439	0.00000000	17.99951000	1.07037400
97.59999438	0.00000000	18.79306000	-1.58095500
97.79999436	0.00000000	18.04257000	-4.26919300
97.99999435	0.00000000	15.67421000	-6.22539300
98.19999434	0.00000000	12.22933000	-7.38188900
98.39999433	0.00000000	8.32308000	-7.38188900
98.59999432	0.00000000	4.83513700	-6.26845500
98.79999430	0.00000000	2.17765700	-4.73671200
98.99999429	0.00000000	1.43946800	-3.19881900
99.19999428	0.00000000	3.29724400	-2.04232300
99.39999427	0.00000000	6.32381900	-1.61786400
99.59999426	0.00000000	9.48572700	-1.61786400
99.79999425	0.00000000	12.64764000	-1.99311000
99.99999423	0.00000000	15.71727000	-2.73745100
100.19999422	0.00000000	17.99951000	-3.06348400
100.39999421	0.00000000	18.37475000	-2.73745100
100.59999420	0.00000000	16.87992000	-1.99311000
100.79999419	0.00000000	14.18553000	-1.66707700
100.99999417	0.00000000	11.10974000	-1.99311000
101.19999416	0.00000000	8.37229300	-2.78051200
101.39999415	0.00000000	6.36687900	-3.62327700
101.59999414	0.00000000	4.83513700	-5.15501900
101.79999413	0.00000000	4.09079700	-7.01279500
101.99999411	0.00000000	4.87819900	-7.75713500
102.19999410	0.00000000	6.74212600	-7.38188900
102.39999409	0.00000000	9.11048200	-5.80093500
102.59999408	0.00000000	11.44193000	-3.15575800
102.79999407	0.00000000	13.76107000	-0.46751960
102.99999406	0.00000000	15.25591000	1.48868100
103.19999404	0.00000000	15.29897000	2.64517700
103.39999403	0.00000000	14.18553000	2.55905500
103.59999402	0.00000000	12.64764000	0.69512790
103.79999401	0.00000000	11.02362000	-2.41141700
103.99999400	0.00000000	9.11048200	-5.43799200
104.19999398	0.00000000	7.20964500	-8.16929100
104.39999397	0.00000000	6.41609200	-9.29502900
104.59999396	0.00000000	6.36687900	-8.96284400
104.79999395	0.00000000	6.79133800	-7.43110200
104.99999394	0.00000000	7.94783400	-5.11195900
105.19999392	0.00000000	9.48572700	-2.78051200
105.39999391	0.00000000	11.02362000	-0.46751960
105.59999390	0.00000000	12.18012000	1.02116100
105.79999389	0.00000000	12.55536000	1.06422200
105.99999388	0.00000000	12.18012000	-0.09227362
106.19999387	0.00000000	11.06668000	-1.99311000
106.39999385	0.00000000	9.90403500	-4.31840500
106.59999384	0.00000000	9.15354300	-6.22539300
106.79999383	0.00000000	8.74138700	-7.33882900
106.99999382	0.00000000	9.15354300	-7.01279500
107.19999381	0.00000000	9.86097400	-5.48720400
107.39999379	0.00000000	10.69144000	-3.98622000
107.59999378	0.00000000	11.44193000	-2.36835600
107.79999377	0.00000000	12.22933000	-1.29183100
107.99999376	0.00000000	12.51230000	-0.87967510
108.19999375	0.00000000	11.76181000	-1.66707700
108.39999374	0.00000000	9.90403500	-3.15575800
108.59999372	0.00000000	8.37229300	-4.68750000
108.79999371	0.00000000	7.52952700	-5.85014700
108.99999370	0.00000000	6.79133800	-6.21924200
109.19999369	0.00000000	6.87746000	-5.85014700
109.39999368	0.00000000	8.32308000	-4.68750000
109.59999366	0.00000000	10.23007000	-3.15575800
109.79999365	0.00000000	11.44193000	-1.62401600
109.99999364	0.00000000	12.64764000	-0.46136810
110.19999363	0.00000000	13.71801000	-0.09227362
110.39999362	0.00000000	13.71801000	-0.46136810
110.59999360	0.00000000	12.60458000	-1.62401600
110.79999359	0.00000000	11.06668000	-3.15575800
110.99999358	0.00000000	9.52879000	-4.68750000
111.19999357	0.00000000	8.37229300	-5.85014700
111.39999356	0.00000000	7.94783400	-6.26845500
111.59999355	0.00000000	7.94783400	-6.26845500
111.79999353	0.00000000	8.37229300	-5.85014700
111.99999352	0.00000000	9.52879000	-4.68750000
112.19999351	0.00000000	11.02362000	-3.19881900
112.39999350	0.00000000	12.18012000	-2.04232300
112.59999349	0.00000000	12.55536000	-1.61786400
112.79999347	0.00000000	12.22933000	-1.61786400
112.99999346	0.00000000	11.44193000	-1.99311000
113.19999345	0.00000000	10.69144000	-2.73745100
113.39999344	0.00000000	9.90403500	-3.15575800
113.59999343	0.00000000	9.52879000	-3.57406500
113.79999341	0.00000000	9.48572700	-4.31840500
113.99999340	0.00000000	9.48572700	-4.69365100
114.19999339	0.00000000	9.48572700	-4.73671200
114.39999338	0.00000000	9.52879000	-4.73671200
114.59999337	0.00000000	9.90403500	-4.73671200
114.79999336	0.00000000	10.64838000	-4.73671200
114.99999334	0.00000000	11.02362000	-4.73671200
115.19999333	0.00000000	11.06668000	-4.73671200
115.39999332	0.00000000	11.06668000	-4.73671200
115.59999331	0.00000000	11.06668000	-4.69365100
115.79999330	0.00000000	11.02362000	-4.31840500
115.99999328	0.00000000	10.64838000	-3.53100400
116.19999327	0.00000000	9.86097400	-2.78051200
116.39999326	0.00000000	9.15354300	-1.99311000
116.59999325	0.00000000	8.74138700	-1.61786400
116.79999324	0.00000000	9.11048200	-1.61786400
116.99999322	0.00000000	9.44266700	-1.99311000
117.19999321	0.00000000	9.52879000	-2.78051200
117.39999320	0.00000000	9.90403500	-3.53100400
117.59999319	0.00000000	10.69144000	-4.31840500
117.79999318	0.00000000	11.44193000	-4.69365100
117.99999317	0.00000000	12.22933000	-4.73671200
118.19999315	0.00000000	12.55536000	-4.73671200
118.39999314	0.00000000	12.18012000	-4.73671200
118.59999313	0.00000000	11.02362000	-4.73671200
118.79999312	0.00000000	9.52879000	-4.69365100
118.99999311	0.00000000	8.32308000	-4.31840500
119.19999309	0.00000000	7.52952700	-3.53100400
119.39999308	0.00000000	6.79133800	-2.78051200
119.59999307	0.00000000	6.83439900	-1.99311000
119.79999306	0.00000000	7.94783400	-1.66707700
119.99999305	0.00000000	9.48572700	-1.99311000
120.19999303	0.00000000	11.02362000	-2.73745100
120.39999302	0.00000000	12.18012000	-3.15575800
120.59999301	0.00000000	12.60458000	-3.53100400
120.79999300	0.00000000	12.64764000	-3.94315900
120.99999299	0.00000000	12.60458000	-3.94931100
121.19999298	0.00000000	12.18012000	-4.36146600
121.39999296	0.00000000	11.02362000	-4.69365100
121.59999295	0.00000000	9.52879000	-4.73671200
121.79999294	0.00000000	8.32308000	-4.73671200
121.99999293	0.00000000	7.57258800	-4.69365100
122.19999292	0.00000000	7.16043300	-4.31840500
122.39999290	0.00000000	7.57258800	-3.53100400
122.59999289	0.00000000	8.28001900	-2.78051200
122.79999288	0.00000000	9.11048200	-1.99311000
122.99999287	0.00000000	9.86097400	-1.61786400
123.19999286	0.00000000	10.69144000	-1.61786400
123.39999284	0.00000000	11.44193000	-1.99311000
123.59999283	0.00000000	12.22933000	-2.78051200
123.79999282	0.00000000	12.55536000	-3.53100400
123.99999281	0.00000000	12.22933000	-4.31840500
124.19999280	0.00000000	11.44193000	-4.69365100
124.39999279	0.00000000	10.69144000	-4.73671200
124.59999277	0.00000000	9.86097400	-4.73671200
124.79999276	0.00000000	9.11048200	-4.69365100
124.99999275	0.00000000	8.32308000	-4.31840500
125.19999274	0.00000000	7.94783400	-3.57406500
125.39999273	0.00000000	7.94783400	-3.15575800
125.59999271	0.00000000	8.32308000	-2.73745100
125.79999270	0.00000000	9.11048200	-2.04232300
125.99999269	0.00000000	9.86097400	-2.04232300
126.19999268	0.00000000	10.69144000	-2.73745100
126.39999267	0.00000000	11.44193000	-3.11269700
126.59999265	0.00000000	12.22933000	-3.15575800
126.79999264	0.00000000	12.55536000	-3.15575800
126.99999263	0.00000000	12.18012000	-3.19881900
127.19999262	0.00000000	11.06668000	-3.57406500
127.39999261	0.00000000	9.90403500	-4.31840500
127.59999260	0.00000000	9.11048200	-4.64443900
127.79999258	0.00000000	8.32308000	-4.31840500
127.99999257	0.00000000	7.94783400	-3.57406500
128.19999256	0.00000000	7.94783400	-3.19881900
128.39999255	0.00000000	8.37229300	-3.15575800
128.59999254	0.00000000	9.48572700	-3.15575800
128.79999252	0.00000000	10.59916000	-3.15575800
128.99999251	0.00000000	11.02362000	-3.15575800
129.19999250	0.00000000	11.06668000	-3.19881900
129.39999249	0.00000000	11.02362000	-3.57406500
129.59999248	0.00000000	10.64838000	-4.31840500
129.79999246	0.00000000	9.86097400	-4.69365100
129.99999245	0.00000000	9.11048200	-4.69365100
130.19999244	0.00000000	8.32308000	-4.31840500
130.39999243	0.00000000	7.94783400	-3.57406500
130.59999242	0.00000000	7.94783400	-3.19881900
130.79999241	0.00000000	8.37229300	-3.15575800
130.99999239	0.00000000	9.48572700	-3.15575800
131.19999238	0.00000000	10.59916000	-3.15575800
131.39999237	0.00000000	11.02362000	-3.19881900
131.59999236	0.00000000	11.06668000	-3.57406500
131.79999235	0.00000000	11.06668000	-4.31840500
131.99999233	0.00000000	11.02362000	-4.69365100
132.19999232	0.00000000	10.59916000	-4.73671200
132.39999231	0.00000000	9.48572700	-4.73671200
132.59999230	0.00000000	8.37229300	-4.73671200
132.79999229	0.00000000	7.99704600	-4.69365100
132.99999227	0.00000000	8.32308000	-4.26919300
133.19999226	0.00000000	9.06742000	-3.15575800
133.39999225	0.00000000	9.44266700	-2.04232300
133.59999224	0.00000000	9.52879000	-1.61786400
133.79999223	0.00000000	9.90403500	-1.61786400
133.99999222	0.00000000	10.59916000	-1.99311000
134.19999220	0.00000000	10.59916000	-2.78051200
134.39999219	0.00000000	9.90403500	-3.53100400
134.59999218	0.00000000	9.52879000	-4.31840500
134.79999217	0.00000000	9.48572700	-4.73671200
134.99999216	0.00000000	9.48572700	-5.15501900
135.19999214	0.00000000	9.52879000	-5.85014700
135.39999213	0.00000000	9.90403500	-5.85014700
135.59999212	0.00000000	10.64838000	-5.11195900
135.79999211	0.00000000	10.97441000	-4.36146600
135.99999210	0.00000000	10.64838000	-3.53100400
136.19999208	0.00000000	9.90403500	-2.78051200
136.39999207	0.00000000	9.48572700	-1.99311000
136.59999206	0.00000000	9.06742000	-1.66707700
136.79999205	0.00000000	8.32308000	-1.99311000
136.99999204	0.00000000	7.99704600	-2.73745100
137.19999203	0.00000000	8.32308000	-3.15575800
137.39999201	0.00000000	9.11048200	-3.57406500
137.59999200	0.00000000	9.86097400	-4.31840500
137.79999199	0.00000000	10.64838000	-4.69365100
137.99999198	0.00000000	11.02362000	-4.73671200
138.19999197	0.00000000	11.06668000	-4.73671200
138.39999195	0.00000000	11.02362000	-4.73671200
138.59999194	0.00000000	10.64838000	-4.73671200
138.79999193	0.00000000	9.86097400	-4.69365100
138.99999192	0.00000000	9.11048200	-4.31840500
139.19999191	0.00000000	8.32308000	-3.53100400
139.39999189	0.00000000	7.99704600	-2.78051200
139.59999188	0.00000000	8.32308000	-1.99311000
139.79999187	0.00000000	9.11048200	-1.61786400
139.99999186	0.00000000	9.86097400	-1.61786400
140.19999185	0.00000000	10.64838000	-1.99311000
140.39999184	0.00000000	11.02362000	-2.78051200
140.59999182	0.00000000	11.06668000	-3.53100400
140.79999181	0.00000000	11.02362000	-4.36146600
140.99999180	0.00000000	10.64838000	-5.11195900
141.19999179	0.00000000	9.90403500	-5.89320800
141.39999178	0.00000000	9.52879000	-6.21924200
141.59999176	0.00000000	9.48572700	-5.85014700
141.79999175	0.00000000	9.48572700	-4.68750000
141.99999174	0.00000000	9.48572700	-3.19881900
142.19999173	0.00000000	9.52879000	-2.04232300
142.39999172	0.00000000	9.86097400	-1.61786400
142.59999170	0.00000000	10.27313000	-1.57480300
142.79999169	0.00000000	10.27928000	-1.61786400
142.99999168	0.00000000	10.64838000	-2.04232300
143.19999167	0.00000000	10.59916000	-3.15575800
143.39999166	0.00000000	9.90403500	-4.31840500
143.59999165	0.00000000	9.52879000	-5.11195900
143.79999163	0.00000000	9.48572700	-5.85014700
143.99999162	0.00000000	9.48572700	-5.85014700
144.19999161	0.00000000	9.48572700	-5.11195900
144.39999160	0.00000000	9.52879000	-4.36146600
144.59999159	0.00000000	9.90403500	-3.53100400
144.79999157	0.00000000	10.64838000	-2.78051200
144.99999156	0.00000000	10.97441000	-1.99311000
145.19999155	0.00000000	10.64838000	-1.66707700
145.39999154	0.00000000	9.90403500	-1.99311000
145.59999153	0.00000000	9.52879000	-2.73745100
145.79999151	0.00000000	9.44266700	-3.15575800
145.99999150	0.00000000	9.11048200	-3.57406500
146.19999149	0.00000000	8.74138700	-4.31840500
146.39999148	0.00000000	9.15354300	-4.69365100
146.59999147	0.00000000	9.86097400	-4.73671200
146.79999146	0.00000000	10.64838000	-4.73671200
146.99999144	0.00000000	11.02362000	-4.69365100
147.19999143	0.00000000	11.06668000	-4.31840500
147.39999142	0.00000000	11.06668000	-3.57406500
147.59999141	0.00000000	11.02362000	-3.19881900
147.79999140	0.00000000	10.64838000	-3.15575800
147.99999138	0.00000000	9.90403500	-3.15575800
148.19999137	0.00000000	9.52879000	-3.15575800
148.39999136	0.00000000	9.48572700	-3.15575800
148.59999135	0.00000000	9.44266700	-3.15575800
148.79999134	0.00000000	9.11048200	-3.15575800
148.99999132	0.00000000	8.74138700	-3.19881900
149.19999131	0.00000000	9.11048200	-3.57406500
149.39999130	0.00000000	9.48572700	-4.31840500
149.59999129	0.00000000	9.90403500	-4.69365100
149.79999128	0.00000000	10.64838000	-4.73671200
149.99999127	0.00000000	11.02362000	-4.69365100
150.19999125	0.00000000	11.02362000	-4.31840500
150.39999124	0.00000000	10.64838000	-3.57406500
150.59999123	0.00000000	9.90403500	-3.19881900
150.79999122	0.00000000	9.52879000	-3.15575800
150.99999121	0.00000000	9.44266700	-3.15575800
151.19999119	0.00000000	9.06742000	-3.15575800
151.39999118	0.00000000	8.37229300	-3.15575800
151.59999117	0.00000000	8.37229300	-3.15575800
151.79999116	0.00000000	9.06742000	-3.15575800
151.99999115	0.00000000	9.44266700	-3.19881900
152.19999113	0.00000000	9.52879000	-3.57406500
152.39999112	0.00000000	9.90403500	-4.31840500
152.59999111	0.00000000	10.64838000	-4.64443900
152.79999110	0.00000000	11.02362000	-4.31840500
152.99999109	0.00000000	11.02362000	-3.57406500
153.19999108	0.00000000	10.64838000	-3.19881900
153.39999106	0.00000000	9.90403500	-3.15575800
153.59999105	0.00000000	9.52879000	-3.15575800
153.79999104	0.00000000	9.44266700	-3.15575800
153.99999103	0.00000000	9.11048200	-3.15575800
154.19999102	0.00000000	8.74138700	-3.15575800
154.39999100	0.00000000	9.11048200	-3.15575800
154.59999099	0.00000000	9.44266700	-3.15575800
154.79999098	0.00000000	9.48572700	-3.15575800
154.99999097	0.00000000	9.48572700	-3.15575800
155.19999096	0.00000000	9.48572700	-3.19881900
155.39999094	0.00000000	9.52879000	-3.57406500
155.59999093	0.00000000	9.90403500	-4.31840500
155.79999092	0.00000000	10.64838000	-4.69365100
155.99999091	0.00000000	10.97441000	-4.73671200
156.19999090	0.00000000	10.64838000	-4.69365100
156.39999089	0.00000000	9.90403500	-4.31840500
156.59999087	0.00000000	9.52879000	-3.57406500
156.79999086	0.00000000	9.48572700	-3.19881900
156.99999085	0.00000000	9.44266700	-3.15575800
157.19999084	0.00000000	9.11048200	-3.15575800
157.39999083	0.00000000	8.74138700	-3.15575800
157.59999081	0.00000000	9.11048200	-3.15575800
157.79999080	0.00000000	9.44266700	-3.15575800
157.99999079	0.00000000	9.48572700	-3.19881900
158.19999078	0.00000000	9.52879000	-3.57406500
158.39999077	0.00000000	9.90403500	-4.31840500
158.59999075	0.00000000	10.59916000	-4.69365100
158.79999074	0.00000000	10.64838000	-4.73671200
158.99999073	0.00000000	10.27928000	-4.69365100
159.19999072	0.00000000	10.27313000	-4.31840500
159.39999071	0.00000000	9.86097400	-3.57406500
159.59999070	0.00000000	9.52879000	-3.15575800
159.79999068	0.00000000	9.48572700	-2.73745100
159.99999067	0.00000000	9.48572700	-1.99311000
160.19999066	0.00000000	9.48572700	-1.66707700
160.39999065	0.00000000	9.48572700	-1.99311000
160.59999064	0.00000000	9.48572700	-2.78051200
160.79999062	0.00000000	9.48572700	-3.53100400
160.99999061	0.00000000	9.48572700	-4.31840500
161.19999060	0.00000000	9.48572700	-4.69365100
161.39999059	0.00000000	9.48572700	-4.73671200
161.59999058	0.00000000	9.48572700	-4.73671200
161.79999056	0.00000000	9.48572700	-4.73671200
161.99999055	0.00000000	9.48572700	-4.69365100
162.19999054	0.00000000	9.48572700	-4.31840500
162.39999053	0.00000000	9.48572700	-3.57406500
162.59999052	0.00000000	9.48572700	-3.19881900
162.79999051	0.00000000	9.48572700	-3.15575800
162.99999049	0.00000000	9.48572700	-3.15575800
163.19999048	0.00000000	9.48572700	-3.15575800
163.39999047	0.00000000	9.44266700	-3.15575800
163.59999046	0.00000000	9.06742000	-3.15575800
163.79999045	0.00000000	8.32308000	-3.19881900
163.99999043	0.00000000	7.99704600	-3.53100400
164.19999042	0.00000000	8.32308000	-3.90009800
164.39999041	0.00000000	9.06742000	-3.57406500
164.59999040	0.00000000	9.44266700	-3.57406500
164.79999039	0.00000000	9.48572700	-3.94315900
164.99999037	0.00000000	9.52879000	-3.94931100
165.19999036	0.00000000	9.86097400	-4.31840500
165.39999035	0.00000000	10.23007000	-4.26919300
165.59999034	0.00000000	9.86097400	-3.57406500
165.79999033	0.00000000	9.52879000	-3.19881900
165.99999032	0.00000000	9.48572700	-3.15575800
166.19999030	0.00000000	9.48572700	-3.15575800
166.39999029	0.00000000	9.48572700	-3.15575800
166.59999028	0.00000000	9.48572700	-3.15575800
166.79999027	0.00000000	9.48572700	-3.15575800
166.99999026	0.00000000	9.48572700	-3.15575800
167.19999024	0.00000000	9.48572700	-3.19881900
167.39999023	0.00000000	9.48572700	-3.53100400
167.59999022	0.00000000	9.48572700	-3.90009800
167.79999021	0.00000000	9.48572700	-3.53100400
167.99999020	0.00000000	9.48572700	-3.19881900
168.19999018	0.00000000	9.52879000	-3.15575800
168.39999017	0.00000000	9.86097400	-3.19881900
168.59999016	0.00000000	10.23007000	-3.57406500
168.79999015	0.00000000	9.86097400	-4.31840500
168.99999014	0.00000000	9.52879000	-4.69365100
169.19999013	0.00000000	9.48572700	-4.69365100
169.39999011	0.00000000	9.48572700	-4.31840500
169.59999010	0.00000000	9.44266700	-3.57406500
169.79999009	0.00000000	9.11048200	-3.19881900
169.99999008	0.00000000	8.74138700	-3.15575800
170.19999007	0.00000000	9.11048200	-3.15575800
170.39999005	0.00000000	9.44266700	-3.15575800
170.59999004	0.00000000	9.48572700	-3.15575800
170.79999003	0.00000000	9.48572700	-3.15575800
170.99999002	0.00000000	9.48572700	-3.19881900
171.19999001	0.00000000	9.52879000	-3.57406500
171.39998999	0.00000000	9.86097400	-4.31840500
171.59998998	0.00000000	10.23007000	-4.69365100
171.79998997	0.00000000	9.86097400	-4.73671200
171.99998996	0.00000000	9.52879000	-4.69365100
172.19998995	0.00000000	9.48572700	-4.36146600
172.39998994	0.00000000	9.48572700	-3.94931100
172.59998992	0.00000000	9.48572700	-3.94315900
172.79998991	0.00000000	9.48572700	-3.53100400
172.99998990	0.00000000	9.48572700	-3.19881900
173.19998989	0.00000000	9.48572700	-3.15575800
173.39998988	0.00000000	9.48572700	-3.15575800
173.59998986	0.00000000	9.48572700	-3.15575800
173.79998985	0.00000000	9.48572700	-3.19881900
173.99998984	0.00000000	9.48572700	-3.57406500
174.19998983	0.00000000	9.52879000	-4.26919300
174.39998982	0.00000000	9.86097400	-4.31840500
174.59998980	0.00000000	10.23007000	-3.99237200
174.79998979	0.00000000	9.86097400	-4.36146600
174.99998978	0.00000000	9.52879000	-4.69365100
175.19998977	0.00000000	9.48572700	-4.73671200
175.39998976	0.00000000	9.48572700	-4.69365100
175.59998975	0.00000000	9.48572700	-4.36146600
175.79998973	0.00000000	9.48572700	-3.94931100
175.99998972	0.00000000	9.48572700	-3.94315900
176.19998971	0.00000000	9.48572700	-3.53100400
176.39998970	0.00000000	9.48572700	-3.19881900
176.59998969	0.00000000	9.48572700	-3.15575800
176.79998967	0.00000000	9.48572700	-3.15575800
176.99998966	0.00000000	9.48572700	-3.15575800
177.19998965	0.00000000	9.48572700	-3.19881900
177.39998964	0.00000000	9.48572700	-3.57406500
177.59998963	0.00000000	9.48572700	-4.31840500
177.79998961	0.00000000	9.48572700	-4.69365100
177.99998960	0.00000000	9.48572700	-4.73671200
178.19998959	0.00000000	9.48572700	-4.69365100
178.39998958	0.00000000	9.48572700	-4.31840500
178.59998957	0.00000000	9.48572700	-3.57406500
178.79998956	0.00000000	9.48572700	-3.19881900
178.99998954	0.00000000	9.48572700	-3.15575800
179.19998953	0.00000000	9.48572700	-3.15575800
179.39998952	0.00000000	9.48572700	-3.15575800
179.59998951	0.00000000	9.48572700	-3.15575800
179.79998950	0.00000000	9.48572700	-3.19881900
179.99998948	0.00000000	9.48572700	-3.57406500
180.19998947	0.00000000	9.48572700	-4.31840500
180.39998946	0.00000000	9.48572700	-4.69365100
180.59998945	0.00000000	9.48572700	-4.73671200
180.79998944	0.00000000	9.48572700	-4.73671200
180.99998942	0.00000000	9.48572700	-4.69365100
181.19998941	0.00000000	9.48572700	-4.31840500
181.39998940	0.00000000	9.48572700	-3.57406500
181.59998939	0.00000000	9.48572700	-3.19881900
181.79998938	0.00000000	9.48572700	-3.15575800
181.99998937	0.00000000	9.48572700	-3.15575800
182.19998935	0.00000000	9.48572700	-3.15575800
182.39998934	0.00000000	9.48572700	-3.15575800
182.59998933	0.00000000	9.44266700	-3.19881900
182.79998932	0.00000000	9.11048200	-3.57406500
182.99998931	0.00000000	8.74138700	-4.31840500
183.19998929	0.00000000	9.11048200	-4.69365100
183.39998928	0.00000000	9.44266700	-4.73671200
183.59998927	0.00000000	9.48572700	-4.73671200
183.79998926	0.00000000	9.48572700	-4.73671200
183.99998925	0.00000000	9.48572700	-4.73671200
184.19998923	0.00000000	9.48572700	-4.69365100
184.39998922	0.00000000	9.48572700	-4.31840500
184.59998921	0.00000000	9.48572700	-3.57406500
184.79998920	0.00000000	9.48572700	-3.19881900
184.99998919	0.00000000	9.48572700	-3.15575800
185.19998918	0.00000000	9.48572700	-3.15575800
185.39998916	0.00000000	9.48572700	-3.15575800
185.59998915	0.00000000	9.48572700	-3.15575800
185.79998914	0.00000000	9.48572700	-3.19881900
185.99998913	0.00000000	9.48572700	-3.57406500
186.19998912	0.00000000	9.48572700	-4.31840500
186.39998910	0.00000000	9.48572700	-4.69365100
186.59998909	0.00000000	9.48572700	-4.73671200
186.79998908	0.00000000	9.48572700	-4.73671200
186.99998907	0.00000000	9.48572700	-4.69365100
187.19998906	0.00000000	9.48572700	-4.31840500
187.39998904	0.00000000	9.48572700	-3.57406500
187.59998903	0.00000000	9.48572700	-3.19881900
187.79998902	0.00000000	9.48572700	-3.15575800
187.99998901	0.00000000	9.48572700	-3.15575800
188.19998900	0.00000000	9.48572700	-3.15575800
188.39998899	0.00000000	9.48572700	-3.15575800
188.59998897	0.00000000	9.48572700	-3.19881900
188.79998896	0.00000000	9.48572700	-3.57406500
188.99998895	0.00000000	9.48572700	-4.31840500
189.19998894	0.00000000	9.48572700	-4.69365100
189.39998893	0.00000000	9.48572700	-4.73671200
189.59998891	0.00000000	9.48572700	-4.73671200
189.79998890	0.00000000	9.48572700	-4.69365100
189.99998889	0.00000000	9.48572700	-4.31840500
190.19998888	0.00000000	9.48572700	-3.57406500
190.39998887	0.00000000	9.48572700	-3.19881900
190.59998885	0.00000000	9.48572700	-3.15575800
190.79998884	0.00000000	9.48572700	-3.15575800
190.99998883	0.00000000	9.48572700	-3.15575800
191.19998882	0.00000000	9.48572700	-3.15575800
191.39998881	0.00000000	9.48572700	-3.15575800
191.59998880	0.00000000	9.48572700	-3.15575800
191.79998878	0.00000000	9.48572700	-3.19881900
191.99998877	0.00000000	9.48572700	-3.57406500
192.19998876	0.00000000	9.48572700	-4.31840500
192.39998875	0.00000000	9.48572700	-4.69365100
192.59998874	0.00000000	9.48572700	-4.73671200
192.79998872	0.00000000	9.48572700	-4.73671200
192.99998871	0.00000000	9.48572700	-4.73671200
193.19998870	0.00000000	9.48572700	-4.69365100
193.39998869	0.00000000	9.44266700	-4.31840500
193.59998868	0.00000000	9.11048200	-3.57406500
193.79998866	0.00000000	8.69832600	-3.19881900
193.99998865	0.00000000	8.73523500	-3.15575800
194.19998864	0.00000000	8.69832600	-3.15575800
194.39998863	0.00000000	9.11048200	-3.15575800
194.59998862	0.00000000	9.44266700	-3.15575800
194.79998861	0.00000000	9.48572700	-3.15575800
194.99998859	0.00000000	9.48572700	-3.15575800
195.19998858	0.00000000	9.48572700	-3.15575800
195.39998857	0.00000000	9.48572700	-3.19881900
195.59998856	0.00000000	9.48572700	-3.57406500
195.79998855	0.00000000	9.48572700	-4.31840500
195.99998853	0.00000000	9.48572700	-4.69365100
