Time	Channel A	Channel B	Channel C
(us)	(V)	(mV)	(mV)

-4.53333289	0.00000000	-9.86097400	-9.47342500
-4.33333290	0.00000000	-9.52879000	-9.47342500
-4.13333291	0.00000000	-9.52879000	-9.47342500
-3.93333293	0.00000000	-9.90403500	-9.47342500
-3.73333294	0.00000000	-10.64838000	-9.47342500
-3.53333295	0.00000000	-10.97441000	-9.47342500
-3.33333296	0.00000000	-10.69144000	-9.47342500
-3.13333297	0.00000000	-10.32234000	-9.47342500
-2.93333299	0.00000000	-10.69144000	-9.47342500
-2.73333300	0.00000000	-10.97441000	-9.47342500
-2.53333301	0.00000000	-10.69144000	-9.47342500
-2.33333302	0.00000000	-10.27928000	-9.47342500
-2.13333303	0.00000000	-10.27313000	-9.47342500
-1.93333304	0.00000000	-9.90403500	-9.47342500
-1.73333306	0.00000000	-9.90403500	-9.47342500
-1.53333307	0.00000000	-10.27313000	-9.47342500
-1.33333308	0.00000000	-10.23622000	-9.47342500
-1.13333309	0.00000000	-10.31619000	-9.47342500
-0.93333310	0.00000000	-10.23622000	-9.47342500
-0.73333312	0.00000000	-10.27313000	-9.47342500
-0.53333313	0.00000000	-9.86097400	-9.47342500
-0.33333314	0.15871060	-9.52879000	-9.47342500
-0.13333315	0.47736220	-9.48572700	-9.47342500
0.06666684	0.95533960	-9.48572700	-9.47342500
0.26666682	1.11466500	-9.52879000	-9.47342500
0.46666681	0.95533960	-9.90403500	-9.47342500
0.66666680	0.47736220	-10.64838000	-9.47342500
0.86666679	-0.31803640	-11.02362000	-9.47342500
1.06666678	-1.27399100	-11.02362000	-9.47342500
1.26666677	-2.22994600	-10.69144000	-9.47342500
1.46666675	-2.70792300	-10.32234000	-9.47342500
1.66666674	-2.70792300	-10.64838000	-9.43036400
1.86666673	-1.59264300	-10.64838000	-9.09817800
2.06666672	0.00000000	-10.27928000	-8.68602300
2.26666671	2.07062000	-10.27313000	-8.72293300
2.46666669	3.98191400	-9.86097400	-8.68602300
2.66666668	5.25652100	-9.57800100	-9.09817800
2.86666667	5.09719500	-9.90403500	-9.43036400
3.06666666	3.50393700	-10.64838000	-9.47342500
3.26666665	0.63668800	-11.02362000	-9.47342500
3.46666663	-2.54859700	-11.06668000	-9.47342500
3.66666662	-5.73449800	-11.06668000	-9.47342500
3.86666661	-7.64579200	-11.02362000	-9.43036400
4.06666660	-7.80511800	-10.64838000	-9.05511800
4.26666659	-5.73449800	-9.90403500	-8.31077700
4.46666658	-2.22994600	-9.52879000	-7.93553100
4.66666656	2.22994600	-9.52879000	-7.93553100
4.86666655	6.21247500	-9.90403500	-8.31077700
5.06666654	8.92039900	-10.64838000	-9.05511800
5.26666653	9.39837600	-11.02362000	-9.43036400
5.46666652	7.48646600	-11.06668000	-9.47342500
5.66666650	3.66326300	-11.06668000	-9.47342500
5.86666649	-1.11466500	-11.02362000	-9.47342500
6.06666648	-5.57517200	-10.64838000	-9.47342500
6.26666647	-8.60174700	-9.90403500	-9.43036400
6.46666646	-9.39837600	-9.52879000	-9.05511800
6.66666644	-7.96444400	-9.48572700	-8.31077700
6.86666643	-4.45989200	-9.48572700	-7.93553100
7.06666642	-0.15871060	-9.48572700	-7.93553100
7.26666641	3.98191400	-9.52879000	-8.31077700
7.46666640	6.84916400	-9.90403500	-9.05511800
7.66666639	7.80511800	-10.59916000	-9.43036400
7.86666637	6.84916400	-10.59916000	-9.51648500
8.06666636	4.30056600	-9.95324800	-9.84867000
8.26666635	0.95533960	-9.95324800	-10.21161000
8.46666634	-2.07062000	-10.64838000	-9.84867000
8.66666633	-4.30056600	-11.02362000	-9.51648500
8.86666631	-5.25652100	-11.02362000	-9.43036400
9.06666630	-4.61921700	-10.64838000	-9.09817800
9.26666629	-3.18590100	-9.90403500	-8.72908400
9.46666628	-1.11466500	-9.52879000	-9.09817800
9.66666627	0.63668800	-9.48572700	-9.43036400
9.86666625	1.91129400	-9.48572700	-9.47342500
10.06666624	2.54859700	-9.52879000	-9.47342500
10.26666623	2.38927200	-9.86097400	-9.47342500
10.46666622	1.59264300	-10.23007000	-9.47342500
10.66666621	0.79601380	-9.86097400	-9.47342500
10.86666620	0.00000000	-9.52879000	-9.47342500
11.06666618	-0.63668800	-9.52879000	-9.47342500
11.26666617	-0.95533960	-9.90403500	-9.47342500
11.46666616	-0.95533960	-10.64838000	-9.47342500
11.66666615	-0.79601380	-11.02362000	-9.47342500
11.86666614	-0.47736220	-11.06668000	-9.47342500
12.06666612	-0.15871060	-11.06668000	-9.47342500
12.26666611	-0.15871060	-11.02362000	-9.47342500
12.46666610	-0.15871060	-10.69144000	-9.47342500
12.66666609	0.00000000	-10.32234000	-9.47342500
12.86666608	0.00000000	-10.69144000	-9.47342500
13.06666606	0.15871060	-11.02362000	-9.47342500
13.26666605	0.00000000	-11.02362000	-9.47342500
13.46666604	0.00000000	-10.64838000	-9.47342500
13.66666603	0.00000000	-9.95324800	-9.47342500
13.86666602	0.00000000	-9.90403500	-9.47342500
14.06666601	0.00000000	-10.23007000	-9.47342500
14.26666599	-0.15871060	-9.90403500	-9.47342500
14.46666598	-0.15871060	-9.95324800	-9.47342500
14.66666597	0.00000000	-10.64838000	-9.47342500
14.86666596	0.00000000	-11.02362000	-9.47342500
15.06666595	0.00000000	-11.06668000	-9.47342500
15.26666593	0.00000000	-11.02362000	-9.47342500
15.46666592	0.15871060	-10.64838000	-9.47342500
15.66666591	0.00000000	-9.95324800	-9.47342500
15.86666590	0.00000000	-9.95324800	-9.47342500
16.06666589	0.00000000	-10.59916000	-9.47342500
16.26666587	0.00000000	-10.64838000	-9.47342500
16.46666586	-0.15871060	-10.27928000	-9.47342500
16.66666585	-0.15871060	-10.27313000	-9.47342500
16.86666584	0.00000000	-9.86097400	-9.47342500
17.06666583	0.00000000	-9.48572700	-9.47342500
17.26666582	0.00000000	-9.11048200	-9.47342500
17.46666580	0.00000000	-8.74138700	-9.47342500
17.66666579	0.00000000	-9.11048200	-9.47342500
17.86666578	0.00000000	-9.48572700	-9.47342500
18.06666577	0.00000000	-9.95324800	-9.47342500
18.26666576	0.00000000	-11.10974000	-9.47342500
18.46666574	0.00000000	-12.64764000	-9.47342500
18.66666573	0.00000000	-14.18553000	-9.47342500
18.86666572	0.00000000	-15.34203000	-9.47342500
19.06666571	0.00000000	-15.67421000	-9.47342500
19.26666570	-0.15871060	-14.88066000	-9.47342500
19.46666568	0.00000000	-12.55536000	-9.47342500
19.66666567	0.00000000	-9.44266700	-9.47342500
19.86666566	0.00000000	-5.90551100	-9.43036400
20.06666565	0.00000000	-2.09153500	-9.05511800
20.26666564	0.00000000	0.55979330	-8.35998900
20.46666563	0.00000000	0.89197830	-8.31077700
20.66666561	0.00000000	-1.48253000	-8.67987200
20.86666560	0.00000000	-6.92052100	-8.68602300
21.06666559	0.00000000	-14.22859000	-9.09817800
21.26666558	0.00000000	-21.62278000	-9.43036400
21.46666557	0.00000000	-27.76821000	-9.47342500
21.66666555	0.00000000	-31.16388000	-9.47342500
21.86666554	0.00000000	-29.90895000	-9.47342500
22.06666553	0.00000000	-23.67741000	-9.47342500
22.26666552	0.00000000	-13.20743000	-9.47342500
22.46666551	0.00000000	-0.46751960	-9.47342500
22.66666549	0.00000000	11.44808000	-9.47342500
22.86666548	0.00000000	19.53740000	-9.47342500
23.06666547	0.00000000	21.35827000	-9.43036400
23.26666546	0.00000000	15.87106000	-9.05511800
23.46666545	0.00000000	3.08193900	-8.31077700
23.66666544	0.00000000	-14.27165000	-7.93553100
23.86666542	0.00000000	-32.04970000	-7.84940900
24.06666541	0.00000000	-46.28445000	-7.51722400
24.26666540	0.00000000	-53.17421000	-7.19734200
24.46666539	0.00000000	-50.43061000	-7.98474400
24.66666538	0.00000000	-38.37967000	-9.47342500
24.86666536	0.00000000	-19.06988000	-11.04823000
25.06666535	0.00000000	3.34645700	-12.58612000
25.26666534	0.00000000	23.40674000	-13.74262000
25.46666533	0.00000000	36.89714000	-14.11786000
25.66666532	0.00000000	39.88066000	-13.69956000
25.86666530	0.00000000	30.99163000	-12.07554000
26.06666529	0.00000000	12.10015000	-9.00590400
26.26666528	0.00000000	-12.22933000	-5.15501900
26.46666527	0.00000000	-36.19587000	-1.66707700
26.66666526	0.00000000	-54.71210000	1.02116100
26.86666525	0.00000000	-63.17667000	2.09153500
27.06666523	0.00000000	-59.36269000	0.46751960
27.26666522	0.00000000	-44.75270000	-4.17691900
27.46666521	0.00000000	-23.07455000	-11.14050000
27.66666520	0.00000000	0.89197830	-18.81152000
27.86666519	0.00000000	22.15182000	-25.40600000
28.06666517	0.00000000	35.69143000	-29.21998000
28.26666516	0.00000000	38.81028000	-29.53986000
28.46666515	0.00000000	31.12697000	-25.17839000
28.66666514	0.00000000	14.52387000	-16.30167000
28.86666513	0.00000000	-6.69906400	-4.69365100
29.06666511	0.00000000	-28.00197000	7.25270600
29.26666510	0.00000000	-44.61737000	16.86762000
29.46666509	0.00000000	-53.17421000	21.41978000
29.66666508	0.00000000	-52.10384000	19.42667000
29.86666507	0.00000000	-42.47047000	10.50689000
30.06666506	0.00000000	-27.06693000	-3.75861200
30.26666504	0.00000000	-9.25196800	-19.97416000
30.46666503	0.00000000	6.66215500	-34.65182000
30.66666502	0.00000000	18.33169000	-44.64198000
30.86666501	0.00000000	23.72662000	-47.33637000
31.06666500	0.00000000	21.45054000	-41.90453000
31.26666498	0.00000000	12.65379000	-29.49680000
31.46666497	0.00000000	-0.09227362	-12.11860000
31.66666496	0.00000000	-13.67495000	6.36687900
31.86666495	0.00000000	-25.72589000	21.46899000
32.06666494	0.00000000	-34.23966000	30.34572000
32.26666492	0.00000000	-37.35851000	31.08391000
32.46666491	0.00000000	-34.70103000	23.00074000
32.66666490	0.00000000	-27.34990000	8.36614100
32.86666489	0.00000000	-16.92298000	-9.47342500
33.06666488	0.00000000	-5.71481200	-27.26993000
33.26666487	0.00000000	3.54330700	-41.52928000
33.46666485	0.00000000	9.03051100	-48.87426000
33.66666484	0.00000000	9.82406400	-47.76082000
33.86666483	0.00000000	6.32997000	-38.84104000
34.06666482	0.00000000	-0.97194880	-23.78199000
34.26666481	0.00000000	-10.18086000	-5.66560000
34.46666479	0.00000000	-18.28248000	10.92520000
34.66666478	0.00000000	-23.72047000	22.53937000
34.86666477	0.00000000	-25.30143000	26.81471000
35.06666476	0.00000000	-23.02534000	23.00689000
35.26666475	0.00000000	-18.04257000	12.59227000
35.46666473	0.00000000	-11.48499000	-2.04232300
35.66666472	0.00000000	-5.33956700	-17.46432000
35.86666471	0.00000000	-1.06422200	-29.82899000
36.06666470	0.00000000	0.47367120	-36.84178000
36.26666469	0.00000000	-1.06422200	-37.21087000
36.46666468	0.00000000	-5.25344500	-31.07775000
36.66666466	0.00000000	-10.64838000	-19.97416000
36.86666465	0.00000000	-15.63115000	-7.24040300
37.06666464	0.00000000	-19.11294000	3.91240100
37.26666463	0.00000000	-19.86343000	11.24508000
37.46666462	0.00000000	-17.99951000	12.37082000
37.66666460	0.00000000	-14.13632000	7.48646600
37.86666459	0.00000000	-9.52879000	-1.75319900
38.06666458	0.00000000	-5.25344500	-12.45079000
38.26666457	0.00000000	-2.17765700	-21.64739000
38.46666456	0.00000000	-1.06422200	-26.24877000
38.66666454	0.00000000	-2.55290300	-25.17839000
38.86666453	0.00000000	-5.99163300	-19.42052000
39.06666452	0.00000000	-9.86097400	-10.58686000
39.26666451	0.00000000	-13.76107000	-1.06422200
39.46666450	0.00000000	-16.83686000	5.81323800
39.66666449	0.00000000	-18.41781000	7.76328700
39.86666447	0.00000000	-18.41781000	4.69980300
40.06666446	0.00000000	-16.87992000	-2.63902500
40.26666445	0.00000000	-14.18553000	-12.58612000
40.46666444	0.00000000	-11.06668000	-22.15797000
40.66666443	0.00000000	-7.94783400	-28.29109000
40.86666441	0.00000000	-5.25344500	-29.40452000
41.06666440	0.00000000	-3.67249000	-24.80315000
41.26666439	0.00000000	-3.25418300	-15.60654000
41.46666438	0.00000000	-3.67249000	-4.87204700
41.66666437	0.00000000	-5.25344500	4.74286400
41.86666435	0.00000000	-7.94783400	10.50074000
42.06666434	0.00000000	-11.02362000	10.92520000
42.26666433	0.00000000	-13.76107000	6.36687900
42.46666432	0.00000000	-15.71727000	-1.71013800
42.66666431	0.00000000	-16.87992000	-10.96211000
42.86666430	0.00000000	-16.87992000	-19.46358000
43.06666428	0.00000000	-15.71727000	-25.22145000
43.26666427	0.00000000	-13.81028000	-26.75935000
43.46666426	0.00000000	-11.48499000	-23.73892000
43.66666425	0.00000000	-9.57800100	-17.27977000
43.86666424	0.00000000	-8.32308000	-9.98400600
44.06666422	0.00000000	-7.52952700	-3.75861200
44.26666421	0.00000000	-6.74212600	0.51673230
44.46666420	0.00000000	-6.36687900	2.09153500
44.66666419	0.00000000	-6.32381900	0.97810030
44.86666418	0.00000000	-6.32381900	-2.08538400
45.06666416	0.00000000	-6.36687900	-6.31151500
45.26666415	0.00000000	-6.83439900	-10.58686000
45.46666414	0.00000000	-8.41535400	-14.07480000
45.66666413	0.00000000	-11.10974000	-16.39395000
45.86666412	0.00000000	-14.22859000	-16.76919000
46.06666411	0.00000000	-17.34744000	-15.27436000
46.26666409	0.00000000	-20.04183000	-12.62918000
46.46666408	0.00000000	-21.53666000	-9.93479300
46.66666407	0.00000000	-21.06914000	-7.93553100
46.86666406	0.00000000	-17.95029000	-6.36072800
47.06666405	0.00000000	-12.55536000	-5.19808000
47.26666403	0.00000000	-6.36687900	-4.82898600
47.46666402	0.00000000	-0.55364170	-5.24729300
47.66666401	0.00000000	3.67864200	-6.82209600
47.86666400	0.00000000	5.16732200	-9.47342500
48.06666399	0.00000000	3.16806100	-12.16781000
48.26666397	0.00000000	-2.60211600	-14.07480000
48.46666396	0.00000000	-10.73450000	-14.90526000
48.66666395	0.00000000	-19.21137000	-14.49311000
48.86666394	0.00000000	-26.50713000	-13.28125000
49.06666393	0.00000000	-29.95817000	-10.53765000
49.26666392	0.00000000	-28.83858000	-6.77903500
49.46666390	0.00000000	-23.76353000	-3.70939900
49.66666389	0.00000000	-15.25591000	-2.12844500
49.86666388	0.00000000	-5.29650500	-2.12844500
50.06666387	0.00000000	3.21112200	-3.70939900
50.26666386	0.00000000	8.24311000	-6.82209600
50.46666384	0.00000000	8.98129900	-11.04823000
50.66666383	0.00000000	4.74901600	-15.23130000
50.86666382	0.00000000	-3.29724400	-17.92569000
51.06666381	0.00000000	-12.55536000	-18.35015000
51.26666380	0.00000000	-21.02608000	-16.76919000
51.46666379	0.00000000	-26.42101000	-13.28125000
51.66666377	0.00000000	-27.21457000	-8.31077700
51.86666376	0.00000000	-23.81275000	-3.70939900
52.06666375	0.00000000	-17.25517000	-0.59670270
52.26666374	0.00000000	-9.57800100	0.55979330
52.46666373	0.00000000	-2.60211600	-0.59670270
52.66666371	0.00000000	2.00541300	-3.66633800
52.86666370	0.00000000	3.12500000	-7.89247000
53.06666369	0.00000000	0.09842519	-12.11860000
53.26666368	0.00000000	-5.99163300	-15.18824000
53.46666367	0.00000000	-12.51230000	-16.39395000
53.66666365	0.00000000	-17.95029000	-15.60654000
53.86666364	0.00000000	-21.02608000	-13.37352000
54.06666363	0.00000000	-21.02608000	-10.26698000
54.26666362	0.00000000	-17.95029000	-7.60949800
54.46666361	0.00000000	-12.64764000	-5.66560000
54.66666360	0.00000000	-7.25270600	-5.29035400
54.86666358	0.00000000	-3.38951800	-6.40378900
55.06666357	0.00000000	-1.43946800	-8.31077700
55.26666356	0.00000000	-2.22687000	-10.58686000
55.46666355	0.00000000	-5.29650500	-12.07554000
55.66666354	0.00000000	-9.90403500	-12.07554000
55.86666352	0.00000000	-14.88066000	-10.53765000
56.06666351	0.00000000	-18.32554000	-7.89247000
56.26666350	0.00000000	-19.48819000	-5.24729300
56.46666349	0.00000000	-17.99951000	-3.70939900
56.66666348	0.00000000	-14.56078000	-3.75246000
56.86666346	0.00000000	-10.69144000	-5.70866100
57.06666345	0.00000000	-6.83439900	-9.56569900
57.26666344	0.00000000	-4.18307100	-14.11786000
57.46666343	0.00000000	-3.71555100	-17.93184000
57.66666342	0.00000000	-4.87819900	-19.42052000
57.86666341	0.00000000	-7.20964500	-17.93184000
58.06666339	0.00000000	-10.64838000	-14.07480000
58.26666338	0.00000000	-13.67495000	-9.00590400
58.46666337	0.00000000	-15.25591000	-3.24803100
58.66666336	0.00000000	-15.29897000	1.72244100
58.86666335	0.00000000	-14.18553000	4.00467500
59.06666333	0.00000000	-12.64764000	3.21112200
59.26666332	0.00000000	-11.06668000	-1.06422200
59.46666331	0.00000000	-9.52879000	-7.98474400
59.66666330	0.00000000	-8.37229300	-15.64960000
59.86666329	0.00000000	-8.04010800	-22.15797000
60.06666327	0.00000000	-8.79060000	-25.22145000
60.26666326	0.00000000	-10.64838000	-24.10802000
60.46666325	0.00000000	-12.13706000	-19.46358000
60.66666324	0.00000000	-12.55536000	-12.11860000
60.86666323	0.00000000	-12.18012000	-3.66633800
61.06666322	0.00000000	-11.02362000	3.62942900
61.26666320	0.00000000	-9.52879000	7.85556000
61.46666319	0.00000000	-8.37229300	7.85556000
61.66666318	0.00000000	-7.94783400	3.62942900
61.86666317	0.00000000	-7.99704600	-3.66633800
62.06666316	0.00000000	-8.79060000	-12.16781000
62.26666314	0.00000000	-10.69144000	-19.88189000
62.46666313	0.00000000	-12.60458000	-25.27067000
62.66666312	0.00000000	-14.18553000	-26.80241000
62.86666311	0.00000000	-15.29897000	-24.10802000
63.06666310	0.00000000	-15.25591000	-17.97490000
63.26666308	0.00000000	-13.71801000	-9.89173200
63.46666307	0.00000000	-11.06668000	-2.17765700
63.66666306	0.00000000	-8.37229300	3.62942900
63.86666305	0.00000000	-6.41609200	6.32381900
64.06666304	0.00000000	-5.25344500	5.20423200
64.26666303	0.00000000	-5.25344500	1.02116100
64.46666301	0.00000000	-6.45915300	-4.77977300
64.66666300	0.00000000	-8.74138700	-11.00517000
64.86666299	0.00000000	-11.85408000	-16.76919000
65.06666298	0.00000000	-14.46850000	-20.66314000
65.26666297	0.00000000	-16.08637000	-21.83194000
65.46666295	0.00000000	-16.04946000	-20.71235000
65.66666294	0.00000000	-14.92372000	-17.23056000
65.86666293	0.00000000	-12.55536000	-12.62918000
66.06666292	0.00000000	-9.57800100	-7.93553100
66.26666291	0.00000000	-7.25270600	-3.70939900
66.46666289	0.00000000	-6.45915300	-0.97194880
66.66666288	0.00000000	-6.83439900	-0.09227362
66.86666287	0.00000000	-8.37229300	-0.09227362
67.06666286	0.00000000	-10.69144000	-0.92888770
67.26666285	0.00000000	-12.93061000	-3.24803100
67.46666284	0.00000000	-14.46235000	-6.31151500
67.66666282	0.00000000	-14.09326000	-9.47342500
67.86666281	0.00000000	-12.60458000	-12.62918000
68.06666280	0.00000000	-10.59916000	-15.69882000
68.26666279	0.00000000	-7.94783400	-18.01796000
68.46666278	0.00000000	-5.71481200	-18.81152000
68.66666276	0.00000000	-5.33956700	-18.39321000
68.86666275	0.00000000	-6.83439900	-16.39395000
69.06666274	0.00000000	-9.57800100	-12.53691000
69.26666273	0.00000000	-13.06594000	-7.89247000
69.46666272	0.00000000	-16.87992000	-3.24803100
69.66666270	0.00000000	-19.53125000	0.55979330
69.86666269	0.00000000	-19.90650000	2.13459600
70.06666268	0.00000000	-17.95029000	1.39640700
70.26666267	0.00000000	-13.71801000	-1.02116100
70.46666266	0.00000000	-8.32308000	-5.66560000
70.66666265	0.00000000	-3.29724400	-11.74951000
70.86666263	0.00000000	0.55979330	-16.76919000
71.06666262	0.00000000	2.00541300	-19.88189000
71.26666261	0.00000000	0.09842519	-20.66929000
71.46666260	0.00000000	-4.87819900	-18.76845000
71.66666259	0.00000000	-11.02362000	-15.32357000
71.86666257	0.00000000	-16.87992000	-11.00517000
72.06666256	0.00000000	-21.48745000	-6.40378900
72.26666255	0.00000000	-23.81275000	-2.59596400
72.46666254	0.00000000	-23.02534000	-1.01501000
72.66666253	0.00000000	-19.58046000	-1.71013800
72.86666251	0.00000000	-14.18553000	-3.61712600
73.06666250	0.00000000	-8.37229300	-6.31151500
73.26666249	0.00000000	-3.34030500	-9.00590400
73.46666248	0.00000000	0.14148620	-10.96211000
73.66666247	0.00000000	0.89197830	-12.11860000
73.86666246	0.00000000	-0.97194880	-12.07554000
74.06666244	0.00000000	-4.87819900	-10.62992000
74.26666243	0.00000000	-9.86097400	-8.77214500
74.46666242	0.00000000	-14.88066000	-8.02780400
74.66666241	0.00000000	-18.37475000	-8.35998900
74.86666240	0.00000000	-19.95571000	-9.55954600
75.06666238	0.00000000	-19.58046000	-11.42347000
75.26666237	0.00000000	-17.29823000	-13.32431000
75.46666236	0.00000000	-14.18553000	-14.03174000
75.66666235	0.00000000	-10.69144000	-13.28125000
75.86666234	0.00000000	-7.25270600	-10.91289000
76.06666232	0.00000000	-5.33956700	-7.47416300
76.26666231	0.00000000	-5.25344500	-3.62327700
76.46666230	0.00000000	-6.36687900	-0.64591530
76.66666229	0.00000000	-7.90477300	0.14148620
76.86666228	0.00000000	-9.48572700	-1.80241100
77.06666227	0.00000000	-11.02362000	-5.61638700
77.26666225	0.00000000	-12.13706000	-10.67298000
77.46666224	0.00000000	-12.18012000	-15.64960000
77.66666223	0.00000000	-11.48499000	-19.54970000
77.86666222	0.00000000	-11.10974000	-21.41363000
78.06666221	0.00000000	-11.10974000	-20.66314000
78.26666219	0.00000000	-11.48499000	-17.14444000
78.46666218	0.00000000	-12.27239000	-11.79257000
78.66666217	0.00000000	-12.97982000	-5.61638700
78.86666216	0.00000000	-13.34276000	-0.59670270
79.06666215	0.00000000	-12.55536000	2.51599400
79.26666213	0.00000000	-11.06668000	3.25418300
79.46666212	0.00000000	-9.48572700	0.97810030
79.66666211	0.00000000	-7.90477300	-3.24803100
79.86666210	0.00000000	-6.41609200	-8.31077700
80.06666209	0.00000000	-5.67175200	-13.69956000
80.26666208	0.00000000	-6.45915300	-17.93184000
80.46666206	0.00000000	-8.37229300	-19.93110000
80.66666205	0.00000000	-11.06668000	-19.97416000
80.86666204	0.00000000	-13.76107000	-18.39321000
81.06666203	0.00000000	-15.71727000	-15.27436000
81.26666202	0.00000000	-16.83686000	-11.04823000
81.46666200	0.00000000	-16.41855000	-6.77903500
81.66666199	0.00000000	-14.18553000	-3.29109200
81.86666198	0.00000000	-11.48499000	-0.92888770
82.06666197	0.00000000	-9.15354300	-0.17839570
82.26666196	0.00000000	-7.20964500	-0.87967510
82.46666194	0.00000000	-6.45915300	-2.87278500
82.66666193	0.00000000	-6.79133800	-5.53026500
82.86666192	0.00000000	-7.94783400	-8.72293300
83.06666191	0.00000000	-9.52879000	-11.84178000
83.26666190	0.00000000	-11.39887000	-15.32357000
83.46666189	0.00000000	-12.96752000	-17.97490000
83.66666187	0.00000000	-13.35507000	-18.81152000
83.86666186	0.00000000	-13.39198000	-18.39321000
84.06666185	0.00000000	-12.60458000	-16.39395000
84.26666184	0.00000000	-11.53420000	-12.53691000
84.46666183	0.00000000	-11.06668000	-7.93553100
84.66666181	0.00000000	-10.69144000	-3.66633800
84.86666180	0.00000000	-10.32234000	-0.55364170
85.06666179	0.00000000	-10.69144000	0.97810030
85.26666178	0.00000000	-10.97441000	0.55979330
85.46666177	0.00000000	-10.64838000	-2.12844500
85.66666175	0.00000000	-9.90403500	-6.35457700
85.86666174	0.00000000	-9.52879000	-11.00517000
86.06666173	0.00000000	-9.48572700	-15.27436000
86.26666172	0.00000000	-9.48572700	-18.35015000
86.46666171	0.00000000	-9.52879000	-19.50664000
86.66666170	0.00000000	-9.95324800	-18.35015000
86.86666168	0.00000000	-11.06668000	-15.23130000
87.06666167	0.00000000	-12.22933000	-10.62992000
87.26666166	0.00000000	-13.02288000	-5.61638700
87.46666165	0.00000000	-13.76107000	-1.80241100
87.66666164	0.00000000	-13.71801000	0.18454720
87.86666162	0.00000000	-12.60458000	-0.22145670
88.06666161	0.00000000	-11.06668000	-2.50369100
88.26666160	0.00000000	-9.52879000	-6.40378900
88.46666159	0.00000000	-8.32308000	-11.00517000
88.66666158	0.00000000	-7.62180000	-15.23130000
88.86666156	0.00000000	-7.62795300	-17.88263000
89.06666155	0.00000000	-9.11048200	-17.88263000
89.26666154	0.00000000	-10.59916000	-15.23130000
89.46666153	0.00000000	-11.48499000	-11.04823000
89.66666152	0.00000000	-12.64764000	-6.77903500
89.86666151	0.00000000	-13.71801000	-3.33415300
90.06666149	0.00000000	-13.76107000	-1.39025600
90.26666148	0.00000000	-13.02288000	-1.80241100
90.46666147	0.00000000	-12.22933000	-4.08464600
90.66666146	0.00000000	-11.06668000	-7.93553100
90.86666145	0.00000000	-9.95324800	-12.11860000
91.06666143	0.00000000	-9.52879000	-15.23130000
91.26666142	0.00000000	-9.48572700	-16.76919000
91.46666141	0.00000000	-9.52879000	-16.35089000
91.66666140	0.00000000	-9.90403500	-13.65650000
91.86666139	0.00000000	-10.64838000	-9.47342500
92.06666137	0.00000000	-11.02362000	-5.24729300
92.26666136	0.00000000	-11.06668000	-2.17765700
92.46666135	0.00000000	-11.06668000	-1.01501000
92.66666134	0.00000000	-11.10974000	-2.17765700
92.86666133	0.00000000	-11.48499000	-5.24729300
93.06666132	0.00000000	-12.22933000	-9.47342500
93.26666130	0.00000000	-12.60458000	-13.69956000
93.46666129	0.00000000	-12.64764000	-16.76919000
93.66666128	0.00000000	-12.64764000	-17.88263000
93.86666127	0.00000000	-12.60458000	-16.35089000
94.06666126	0.00000000	-12.13706000	-12.53691000
94.26666124	0.00000000	-10.59916000	-7.98474400
94.46666123	0.00000000	-8.37229300	-4.08464600
94.66666122	0.00000000	-6.79133800	-1.80241100
94.86666121	0.00000000	-5.99163300	-1.39025600
95.06666120	0.00000000	-5.67175200	-3.33415300
95.26666118	0.00000000	-6.87746000	-6.77903500
95.46666117	0.00000000	-9.52879000	-11.00517000
95.66666116	0.00000000	-12.60458000	-14.81299000
95.86666115	0.00000000	-15.34203000	-16.71998000
96.06666114	0.00000000	-17.25517000	-16.39395000
96.26666113	0.00000000	-18.04257000	-14.07480000
96.46666111	0.00000000	-17.25517000	-10.67298000
96.66666110	0.00000000	-15.29897000	-7.19734200
96.86666109	0.00000000	-12.18012000	-4.87204700
97.06666108	0.00000000	-8.32308000	-3.66633800
97.26666107	0.00000000	-4.87819900	-3.75246000
97.46666105	0.00000000	-2.55290300	-5.61638700
97.66666104	0.00000000	-2.17765700	-8.63681000
97.86666103	0.00000000	-3.71555100	-10.96211000
98.06666102	0.00000000	-6.79133800	-12.58612000
98.26666101	0.00000000	-10.64838000	-13.65650000
98.46666099	0.00000000	-14.13632000	-13.28125000
98.66666098	0.00000000	-16.87992000	-11.42347000
98.86666097	0.00000000	-18.41781000	-9.55954600
99.06666096	0.00000000	-18.41781000	-8.35998900
99.26666095	0.00000000	-16.87992000	-7.93553100
99.46666094	0.00000000	-14.13632000	-7.89247000
99.66666092	0.00000000	-10.69144000	-7.93553100
99.86666091	0.00000000	-7.20964500	-8.26771600
100.06666090	0.00000000	-4.87819900	-8.63681000
100.26666089	0.00000000	-3.67249000	-8.26771600
100.46666088	0.00000000	-3.71555100	-7.89247000
100.66666086	0.00000000	-5.25344500	-7.51722400
100.86666085	0.00000000	-7.94783400	-7.14812900
101.06666084	0.00000000	-11.02362000	-7.56028500
101.26666083	0.00000000	-13.76107000	-8.31077700
101.46666082	0.00000000	-15.71727000	-9.51648500
101.66666080	0.00000000	-16.87992000	-11.04823000
101.86666079	0.00000000	-16.87992000	-12.53691000
102.06666078	0.00000000	-15.71727000	-13.28125000
102.26666077	0.00000000	-13.81028000	-12.49385000
102.46666076	0.00000000	-11.44193000	-10.62992000
102.66666075	0.00000000	-9.15354300	-8.26771600
102.86666073	0.00000000	-7.20964500	-5.98548200
103.06666072	0.00000000	-6.41609200	-4.03543200
103.26666071	0.00000000	-6.36687900	-3.33415300
103.46666070	0.00000000	-6.83439900	-4.08464600
103.66666069	0.00000000	-8.37229300	-6.40378900
103.86666067	0.00000000	-10.64838000	-9.42421200
104.06666066	0.00000000	-12.60458000	-12.16781000
104.26666065	0.00000000	-14.13632000	-14.11786000
104.46666064	0.00000000	-14.92372000	-15.27436000
104.66666063	0.00000000	-14.56078000	-15.23130000
104.86666061	0.00000000	-13.81028000	-13.69956000
105.06666060	0.00000000	-12.60458000	-11.00517000
105.26666059	0.00000000	-11.06668000	-7.98474400
105.46666058	0.00000000	-9.52879000	-5.66560000
105.66666057	0.00000000	-8.37229300	-4.82898600
105.86666056	0.00000000	-8.04010800	-4.82898600
106.06666054	0.00000000	-8.79060000	-5.66560000
106.26666053	0.00000000	-10.64838000	-7.93553100
106.46666052	0.00000000	-12.13706000	-10.53765000
106.66666051	0.00000000	-12.60458000	-12.11860000
106.86666050	0.00000000	-12.60458000	-12.53691000
107.06666048	0.00000000	-12.18012000	-12.16166000
107.26666047	0.00000000	-11.06668000	-11.00517000
107.46666046	0.00000000	-9.95324800	-9.47342500
107.66666045	0.00000000	-9.52879000	-7.93553100
107.86666044	0.00000000	-9.48572700	-6.82209600
108.06666042	0.00000000	-9.52879000	-6.82209600
108.26666041	0.00000000	-9.95324800	-7.93553100
108.46666040	0.00000000	-11.10974000	-9.47342500
108.66666039	0.00000000	-12.60458000	-11.00517000
108.86666038	0.00000000	-13.76107000	-12.16166000
109.06666037	0.00000000	-14.13632000	-12.49385000
109.26666035	0.00000000	-13.71801000	-11.74951000
109.46666034	0.00000000	-12.22933000	-9.84867000
109.66666033	0.00000000	-10.32234000	-7.93553100
109.86666032	0.00000000	-9.15354300	-6.36072800
110.06666031	0.00000000	-8.32308000	-5.24729300
110.26666029	0.00000000	-7.99704600	-5.19808000
110.46666028	0.00000000	-8.37229300	-5.98548200
110.66666027	0.00000000	-9.52879000	-7.14812900
110.86666026	0.00000000	-11.06668000	-9.09817800
111.06666025	0.00000000	-12.60458000	-10.96211000
111.26666023	0.00000000	-13.76107000	-12.16166000
111.46666022	0.00000000	-14.13632000	-12.53691000
111.66666021	0.00000000	-13.76107000	-12.16166000
111.86666020	0.00000000	-12.60458000	-11.04823000
112.06666019	0.00000000	-11.10974000	-9.89173200
112.26666018	0.00000000	-9.95324800	-9.09817800
112.46666016	0.00000000	-9.48572700	-8.31077700
112.66666015	0.00000000	-9.11048200	-7.93553100
112.86666014	0.00000000	-8.74138700	-7.89247000
113.06666013	0.00000000	-9.15354300	-7.93553100
113.26666012	0.00000000	-9.90403500	-8.31077700
113.46666010	0.00000000	-11.06668000	-9.05511800
113.66666009	0.00000000	-12.18012000	-9.43036400
113.86666008	0.00000000	-12.60458000	-9.47342500
114.06666007	0.00000000	-12.60458000	-9.51648500
114.26666006	0.00000000	-12.22933000	-9.84867000
114.46666004	0.00000000	-11.48499000	-10.21161000
114.66666003	0.00000000	-11.10974000	-9.89173200
114.86666002	0.00000000	-11.02362000	-9.93479300
115.06666001	0.00000000	-10.64838000	-10.62992000
115.26666000	0.00000000	-9.90403500	-11.00517000
115.46665999	0.00000000	-9.57800100	-11.04823000
115.66665997	0.00000000	-9.90403500	-11.00517000
115.86665996	0.00000000	-10.64838000	-10.62992000
116.06665995	0.00000000	-11.02362000	-9.84867000
116.26665994	0.00000000	-11.10974000	-9.09817800
116.46665993	0.00000000	-11.48499000	-8.31077700
116.66665991	0.00000000	-12.22933000	-7.93553100
116.86665990	0.00000000	-12.55536000	-7.89247000
117.06665989	0.00000000	-12.22933000	-7.93553100
117.26665988	0.00000000	-11.44193000	-8.35998900
117.46665987	0.00000000	-10.69144000	-9.47342500
117.66665985	0.00000000	-9.86097400	-10.58686000
117.86665984	0.00000000	-9.11048200	-11.00517000
118.06665983	0.00000000	-8.37229300	-11.04823000
118.26665982	0.00000000	-8.37229300	-11.04823000
118.46665981	0.00000000	-9.11048200	-11.00517000
118.66665980	0.00000000	-9.90403500	-10.62992000
118.86665978	0.00000000	-11.10974000	-9.84867000
119.06665977	0.00000000	-12.60458000	-9.09817800
119.26665976	0.00000000	-13.76107000	-8.31077700
119.46665975	0.00000000	-14.13632000	-7.93553100
119.66665974	0.00000000	-13.76107000	-7.89247000
119.86665972	0.00000000	-12.60458000	-7.89247000
120.06665971	0.00000000	-11.10974000	-7.93553100
120.26665970	0.00000000	-9.90403500	-8.31077700
120.46665969	0.00000000	-9.11048200	-9.05511800
120.66665968	0.00000000	-8.32308000	-9.43036400
120.86665966	0.00000000	-7.99704600	-9.51648500
121.06665965	0.00000000	-8.37229300	-9.89173200
121.26665964	0.00000000	-9.48572700	-10.62992000
121.46665963	0.00000000	-10.64838000	-11.00517000
121.66665962	0.00000000	-11.48499000	-11.04823000
121.86665961	0.00000000	-12.64764000	-11.00517000
122.06665959	0.00000000	-13.71801000	-10.62992000
122.26665958	0.00000000	-13.76107000	-9.84867000
122.46665957	0.00000000	-13.06594000	-9.09817800
122.66665956	0.00000000	-12.64764000	-8.31077700
122.86665955	0.00000000	-12.18012000	-7.93553100
123.06665953	0.00000000	-11.06668000	-7.89247000
123.26665952	0.00000000	-9.95324800	-7.89247000
123.46665951	0.00000000	-9.52879000	-7.93553100
123.66665950	0.00000000	-9.48572700	-8.31077700
123.86665949	0.00000000	-9.48572700	-9.09817800
124.06665947	0.00000000	-9.52879000	-9.84867000
124.26665946	0.00000000	-9.90403500	-10.62992000
124.46665945	0.00000000	-10.69144000	-11.00517000
124.66665944	0.00000000	-11.44193000	-11.00517000
124.86665943	0.00000000	-12.22933000	-10.62992000
125.06665942	0.00000000	-12.60458000	-9.89173200
125.26665940	0.00000000	-12.64764000	-9.51648500
125.46665939	0.00000000	-12.64764000	-9.43036400
125.66665938	0.00000000	-12.60458000	-9.05511800
125.86665937	0.00000000	-12.18012000	-8.31077700
126.06665936	0.00000000	-11.02362000	-7.93553100
126.26665934	0.00000000	-9.57800100	-7.89247000
126.46665933	0.00000000	-8.79060000	-7.93553100
126.66665932	0.00000000	-9.11048200	-8.31077700
126.86665931	0.00000000	-9.48572700	-9.05511800
127.06665930	0.00000000	-9.90403500	-9.43036400
127.26665928	0.00000000	-10.69144000	-9.47342500
127.46665927	0.00000000	-11.44193000	-9.47342500
127.66665926	0.00000000	-12.27239000	-9.47342500
127.86665925	0.00000000	-12.97982000	-9.47342500
128.06665924	0.00000000	-13.39198000	-9.47342500
128.26665923	0.00000000	-12.97982000	-9.47342500
128.46665921	0.00000000	-12.22933000	-9.47342500
128.66665920	0.00000000	-11.06668000	-9.47342500
128.86665919	0.00000000	-9.90403500	-9.47342500
129.06665918	0.00000000	-9.15354300	-9.47342500
129.26665917	0.00000000	-8.74138700	-9.47342500
129.46665915	0.00000000	-9.15354300	-9.47342500
129.66665914	0.00000000	-9.90403500	-9.47342500
129.86665913	0.00000000	-11.06668000	-9.51648500
130.06665912	0.00000000	-12.18012000	-9.84867000
130.26665911	0.00000000	-12.60458000	-10.21161000
130.46665909	0.00000000	-12.64764000	-9.84867000
130.66665908	0.00000000	-12.60458000	-9.47342500
130.86665907	0.00000000	-12.18012000	-9.05511800
131.06665906	0.00000000	-11.06668000	-8.35998900
131.26665905	0.00000000	-9.95324800	-8.35998900
131.46665904	0.00000000	-9.52879000	-9.05511800
131.66665902	0.00000000	-9.48572700	-9.47342500
131.86665901	0.00000000	-9.52879000	-9.89173200
132.06665900	0.00000000	-9.90403500	-10.62992000
132.26665899	0.00000000	-10.69144000	-11.00517000
132.46665898	0.00000000	-11.44193000	-11.00517000
132.66665896	0.00000000	-12.22933000	-10.62992000
132.86665895	0.00000000	-12.55536000	-9.89173200
133.06665894	0.00000000	-12.22933000	-9.47342500
133.26665893	0.00000000	-11.48499000	-9.05511800
133.46665892	0.00000000	-11.10974000	-8.31077700
133.66665890	0.00000000	-11.06668000	-7.93553100
133.86665889	0.00000000	-11.06668000	-7.89247000
134.06665888	0.00000000	-11.06668000	-7.93553100
134.26665887	0.00000000	-11.06668000	-8.35998900
134.46665886	0.00000000	-11.06668000	-9.47342500
134.66665885	0.00000000	-11.06668000	-10.58686000
134.86665883	0.00000000	-11.06668000	-11.00517000
135.06665882	0.00000000	-11.06668000	-11.04823000
135.26665881	0.00000000	-11.06668000	-11.04823000
135.46665880	0.00000000	-11.02362000	-11.00517000
135.66665879	0.00000000	-10.69144000	-10.62992000
135.86665877	0.00000000	-10.32234000	-9.84867000
136.06665876	0.00000000	-10.69144000	-9.09817800
136.26665875	0.00000000	-11.06668000	-8.31077700
136.46665874	0.00000000	-11.48499000	-7.93553100
136.66665873	0.00000000	-12.22933000	-7.89247000
136.86665871	0.00000000	-12.60458000	-7.93553100
137.06665870	0.00000000	-12.60458000	-8.31077700
137.26665869	0.00000000	-12.22933000	-9.05511800
137.46665868	0.00000000	-11.48499000	-9.47342500
137.66665867	0.00000000	-11.06668000	-9.89173200
137.86665866	0.00000000	-10.64838000	-10.62992000
138.06665864	0.00000000	-9.90403500	-11.00517000
138.26665863	0.00000000	-9.57800100	-11.04823000
138.46665862	0.00000000	-9.95324800	-11.00517000
138.66665861	0.00000000	-11.06668000	-10.62992000
138.86665860	0.00000000	-12.18012000	-9.89173200
139.06665858	0.00000000	-12.60458000	-9.47342500
139.26665857	0.00000000	-12.64764000	-9.05511800
139.46665856	0.00000000	-12.64764000	-8.31077700
139.66665855	0.00000000	-12.60458000	-7.93553100
139.86665854	0.00000000	-12.22933000	-7.89247000
140.06665852	0.00000000	-11.44193000	-7.89247000
140.26665851	0.00000000	-10.69144000	-7.93553100
140.46665850	0.00000000	-9.95324800	-8.31077700
140.66665849	0.00000000	-9.95324800	-9.09817800
140.86665848	0.00000000	-10.64838000	-9.84867000
141.06665847	0.00000000	-11.02362000	-10.67298000
141.26665845	0.00000000	-11.10974000	-11.38041000
141.46665844	0.00000000	-11.48499000	-11.74336000
141.66665843	0.00000000	-12.22933000	-10.96211000
141.86665842	0.00000000	-12.55536000	-9.51648500
142.06665841	0.00000000	-12.22933000	-8.31077700
142.26665839	0.00000000	-11.48499000	-7.51722400
142.46665838	0.00000000	-11.10974000	-6.77903500
142.66665837	0.00000000	-11.02362000	-6.77903500
142.86665836	0.00000000	-10.69144000	-7.51722400
143.06665835	0.00000000	-10.32234000	-8.31077700
143.26665834	0.00000000	-10.69144000	-9.47342500
143.46665832	0.00000000	-11.02362000	-10.58686000
143.66665831	0.00000000	-11.06668000	-11.00517000
143.86665830	0.00000000	-11.06668000	-11.04823000
144.06665829	0.00000000	-11.06668000	-11.00517000
144.26665828	0.00000000	-11.06668000	-10.62992000
144.46665826	0.00000000	-11.06668000	-9.84867000
144.66665825	0.00000000	-11.02362000	-9.09817800
144.86665824	0.00000000	-10.69144000	-8.31077700
145.06665823	0.00000000	-10.32234000	-7.93553100
145.26665822	0.00000000	-10.69144000	-7.89247000
145.46665820	0.00000000	-11.02362000	-7.93553100
145.66665819	0.00000000	-11.10974000	-8.31077700
145.86665818	0.00000000	-11.48499000	-9.05511800
146.06665817	0.00000000	-12.22933000	-9.43036400
146.26665816	0.00000000	-12.55536000	-9.51648500
146.46665815	0.00000000	-12.22933000	-9.89173200
146.66665813	0.00000000	-11.48499000	-10.58686000
146.86665812	0.00000000	-11.10974000	-10.58686000
147.06665811	0.00000000	-11.02362000	-9.89173200
147.26665810	0.00000000	-10.64838000	-9.51648500
147.46665809	0.00000000	-9.95324800	-9.47342500
147.66665807	0.00000000	-9.95324800	-9.47342500
147.86665806	0.00000000	-10.64838000	-9.43036400
148.06665805	0.00000000	-11.06668000	-9.05511800
148.26665804	0.00000000	-11.48499000	-8.35998900
148.46665803	0.00000000	-12.22933000	-8.35998900
148.66665801	0.00000000	-12.55536000	-9.05511800
148.86665800	0.00000000	-12.22933000	-9.43036400
149.06665799	0.00000000	-11.48499000	-9.47342500
149.26665798	0.00000000	-11.06668000	-9.47342500
149.46665797	0.00000000	-10.64838000	-9.47342500
149.66665796	0.00000000	-9.90403500	-9.47342500
149.86665794	0.00000000	-9.52879000	-9.47342500
150.06665793	0.00000000	-9.52879000	-9.47342500
150.26665792	0.00000000	-9.90403500	-9.47342500
150.46665791	0.00000000	-10.64838000	-9.47342500
150.66665790	0.00000000	-11.02362000	-9.47342500
150.86665788	0.00000000	-11.06668000	-9.43036400
151.06665787	0.00000000	-11.10974000	-9.05511800
151.26665786	0.00000000	-11.44193000	-8.35998900
151.46665785	0.00000000	-11.81102000	-8.35998900
151.66665784	0.00000000	-11.44193000	-9.05511800
151.86665782	0.00000000	-11.10974000	-9.43036400
152.06665781	0.00000000	-11.06668000	-9.47342500
152.26665780	0.00000000	-11.02362000	-9.47342500
152.46665779	0.00000000	-10.69144000	-9.47342500
152.66665778	0.00000000	-10.32234000	-9.47342500
152.86665777	0.00000000	-10.69144000	-9.47342500
153.06665775	0.00000000	-11.02362000	-9.47342500
153.26665774	0.00000000	-11.06668000	-9.47342500
153.46665773	0.00000000	-11.06668000	-9.47342500
153.66665772	0.00000000	-11.10974000	-9.43036400
153.86665771	0.00000000	-11.48499000	-9.09817800
154.06665769	0.00000000	-12.22933000	-8.72908400
154.26665768	0.00000000	-12.60458000	-9.09817800
154.46665767	0.00000000	-12.60458000	-9.43036400
154.66665766	0.00000000	-12.22933000	-9.38115100
154.86665765	0.00000000	-11.48499000	-8.72293300
155.06665763	0.00000000	-11.10974000	-7.99089500
155.26665762	0.00000000	-11.02362000	-8.72293300
155.46665761	0.00000000	-10.69144000	-9.38115100
155.66665760	0.00000000	-10.32234000	-9.47342500
155.86665759	0.00000000	-10.69144000	-9.47342500
156.06665758	0.00000000	-11.02362000	-9.47342500
156.26665756	0.00000000	-11.06668000	-9.47342500
156.46665755	0.00000000	-11.06668000	-9.43036400
156.66665754	0.00000000	-11.10974000	-9.09817800
156.86665753	0.00000000	-11.48499000	-8.68602300
157.06665752	0.00000000	-12.22933000	-8.67987200
157.26665750	0.00000000	-12.55536000	-8.26771600
157.46665749	0.00000000	-12.27239000	-7.93553100
157.66665748	0.00000000	-11.86024000	-7.93553100
157.86665747	0.00000000	-11.85408000	-8.31077700
158.06665746	0.00000000	-11.44193000	-9.05511800
158.26665744	0.00000000	-11.10974000	-9.43036400
158.46665743	0.00000000	-11.06668000	-9.51648500
158.66665742	0.00000000	-11.02362000	-9.89173200
158.86665741	0.00000000	-10.69144000	-10.58686000
159.06665740	0.00000000	-10.32234000	-10.58686000
159.26665739	0.00000000	-10.69144000	-9.89173200
159.46665737	0.00000000	-11.02362000	-9.47342500
159.66665736	0.00000000	-11.06668000	-9.05511800
159.86665735	0.00000000	-11.06668000	-8.31077700
160.06665734	0.00000000	-11.06668000	-7.93553100
160.26665733	0.00000000	-11.06668000	-7.89247000
160.46665731	0.00000000	-11.06668000	-7.93553100
160.66665730	0.00000000	-11.06668000	-8.31077700
160.86665729	0.00000000	-11.06668000	-9.05511800
161.06665728	0.00000000	-11.06668000	-9.47342500
161.26665727	0.00000000	-11.06668000	-9.84867000
161.46665725	0.00000000	-11.06668000	-10.25467000
161.66665724	0.00000000	-11.06668000	-10.21776000
161.86665723	0.00000000	-11.06668000	-10.25467000
162.06665722	0.00000000	-11.06668000	-9.84867000
162.26665721	0.00000000	-11.06668000	-9.51648500
162.46665720	0.00000000	-11.06668000	-9.47342500
162.66665718	0.00000000	-11.06668000	-9.47342500
162.86665717	0.00000000	-11.06668000	-9.47342500
163.06665716	0.00000000	-11.06668000	-9.47342500
163.26665715	0.00000000	-11.10974000	-9.47342500
163.46665714	0.00000000	-11.48499000	-9.47342500
163.66665712	0.00000000	-12.22933000	-9.47342500
163.86665711	0.00000000	-12.60458000	-9.47342500
164.06665710	0.00000000	-12.60458000	-9.47342500
164.26665709	0.00000000	-12.22933000	-9.47342500
164.46665708	0.00000000	-11.48499000	-9.47342500
164.66665706	0.00000000	-11.10974000	-9.47342500
164.86665705	0.00000000	-11.02362000	-9.47342500
165.06665704	0.00000000	-10.69144000	-9.47342500
165.26665703	0.00000000	-10.32234000	-9.47342500
165.46665702	0.00000000	-10.69144000	-9.47342500
165.66665701	0.00000000	-11.02362000	-9.47342500
165.86665699	0.00000000	-11.06668000	-9.47342500
166.06665698	0.00000000	-11.06668000	-9.47342500
166.26665697	0.00000000	-11.10974000	-9.47342500
166.46665696	0.00000000	-11.44193000	-9.47342500
166.66665695	0.00000000	-11.81102000	-9.47342500
166.86665693	0.00000000	-11.44193000	-9.47342500
167.06665692	0.00000000	-11.10974000	-9.47342500
167.26665691	0.00000000	-11.06668000	-9.47342500
167.46665690	0.00000000	-11.06668000	-9.47342500
167.66665689	0.00000000	-11.06668000	-9.47342500
167.86665687	0.00000000	-11.06668000	-9.47342500
168.06665686	0.00000000	-11.06668000	-9.47342500
168.26665685	0.00000000	-11.06668000	-9.47342500
168.46665684	0.00000000	-11.06668000	-9.47342500
168.66665683	0.00000000	-11.06668000	-9.47342500
168.86665682	0.00000000	-11.06668000	-9.47342500
169.06665680	0.00000000	-11.06668000	-9.43036400
169.26665679	0.00000000	-11.10974000	-9.09817800
169.46665678	0.00000000	-11.44193000	-8.72908400
169.66665677	0.00000000	-11.81102000	-9.09817800
169.86665676	0.00000000	-11.48499000	-9.43036400
170.06665674	0.00000000	-11.48499000	-9.47342500
170.26665673	0.00000000	-11.81102000	-9.47342500
170.46665672	0.00000000	-11.44193000	-9.47342500
170.66665671	0.00000000	-11.10974000	-9.47342500
170.86665670	0.00000000	-11.06668000	-9.47342500
171.06665668	0.00000000	-11.06668000	-9.47342500
171.26665667	0.00000000	-11.06668000	-9.47342500
171.46665666	0.00000000	-11.06668000	-9.51648500
171.66665665	0.00000000	-11.06668000	-9.79945900
171.86665664	0.00000000	-11.06668000	-9.83636800
172.06665663	0.00000000	-11.06668000	-9.10433000
172.26665661	0.00000000	-11.06668000	-9.14124000
172.46665660	0.00000000	-11.06668000	-9.43036400
172.66665659	0.00000000	-11.06668000	-9.47342500
172.86665658	0.00000000	-11.06668000	-9.47342500
173.06665657	0.00000000	-11.06668000	-9.47342500
173.26665655	0.00000000	-11.06668000	-9.47342500
173.46665654	0.00000000	-11.06668000	-9.47342500
173.66665653	0.00000000	-11.06668000	-9.47342500
173.86665652	0.00000000	-11.06668000	-9.47342500
174.06665651	0.00000000	-11.06668000	-9.47342500
174.26665649	0.00000000	-11.06668000	-9.47342500
174.46665648	0.00000000	-11.06668000	-9.47342500
174.66665647	0.00000000	-11.06668000	-9.47342500
174.86665646	0.00000000	-11.06668000	-9.47342500
175.06665645	0.00000000	-11.06668000	-9.47342500
175.26665644	0.00000000	-11.06668000	-9.47342500
175.46665642	0.00000000	-11.10974000	-9.47342500
175.66665641	0.00000000	-11.44193000	-9.47342500
175.86665640	0.00000000	-11.81102000	-9.47342500
176.06665639	0.00000000	-11.44193000	-9.47342500
176.26665638	0.00000000	-11.10974000	-9.47342500
176.46665636	0.00000000	-11.06668000	-9.47342500
176.66665635	0.00000000	-11.06668000	-9.47342500
176.86665634	0.00000000	-11.06668000	-9.47342500
177.06665633	0.00000000	-11.06668000	-9.47342500
177.26665632	0.00000000	-11.06668000	-9.47342500
177.46665630	0.00000000	-11.06668000	-9.47342500
177.66665629	0.00000000	-11.06668000	-9.47342500
177.86665628	0.00000000	-11.06668000	-9.47342500
178.06665627	0.00000000	-11.06668000	-9.47342500
178.26665626	0.00000000	-11.06668000	-9.43036400
178.46665625	0.00000000	-11.06668000	-9.09817800
178.66665623	0.00000000	-11.06668000	-8.72908400
178.86665622	0.00000000	-11.06668000	-9.09817800
179.06665621	0.00000000	-11.06668000	-9.43036400
179.26665620	0.00000000	-11.06668000	-9.47342500
179.46665619	0.00000000	-11.06668000	-9.47342500
179.66665617	0.00000000	-11.06668000	-9.47342500
179.86665616	0.00000000	-11.06668000	-9.47342500
180.06665615	0.00000000	-11.06668000	-9.47342500
180.26665614	0.00000000	-11.06668000	-9.47342500
180.46665613	0.00000000	-11.06668000	-9.47342500
180.66665611	0.00000000	-11.06668000	-9.47342500
180.86665610	0.00000000	-11.06668000	-9.47342500
181.06665609	0.00000000	-11.06668000	-9.47342500
181.26665608	0.00000000	-11.10974000	-9.47342500
181.46665607	0.00000000	-11.44193000	-9.47342500
181.66665606	0.00000000	-11.81102000	-9.47342500
181.86665604	0.00000000	-11.44193000	-9.47342500
182.06665603	0.00000000	-11.10974000	-9.47342500
182.26665602	0.00000000	-11.06668000	-9.47342500
182.46665601	0.00000000	-11.06668000	-9.47342500
182.66665600	0.00000000	-11.06668000	-9.47342500
182.86665598	0.00000000	-11.06668000	-9.47342500
183.06665597	0.00000000	-11.06668000	-9.51648500
183.26665596	0.00000000	-11.06668000	-9.84867000
183.46665595	0.00000000	-11.06668000	-10.21161000
183.66665594	0.00000000	-11.06668000	-9.84867000
183.86665592	0.00000000	-11.10974000	-9.51648500
184.06665591	0.00000000	-11.44193000	-9.47342500
184.26665590	0.00000000	-11.85408000	-9.47342500
184.46665589	0.00000000	-11.81717000	-9.43036400
184.66665588	0.00000000	-11.85408000	-9.05511800
184.86665587	0.00000000	-11.44193000	-8.35998900
185.06665585	0.00000000	-11.10974000	-8.35998900
185.26665584	0.00000000	-11.06668000	-9.00590400
185.46665583	0.00000000	-11.06668000	-9.05511800
185.66665582	0.00000000	-11.06668000	-8.72908400
185.86665581	0.00000000	-11.06668000	-9.09817800
186.06665579	0.00000000	-11.06668000	-9.43036400
186.26665578	0.00000000	-11.06668000	-9.51648500
186.46665577	0.00000000	-11.06668000	-9.89173200
186.66665576	0.00000000	-11.06668000	-10.62992000
186.86665575	0.00000000	-11.06668000	-10.95595000
187.06665573	0.00000000	-11.06668000	-10.62992000
187.26665572	0.00000000	-11.10974000	-9.89173200
187.46665571	0.00000000	-11.44193000	-9.51648500
187.66665570	0.00000000	-11.81102000	-9.43036400
187.86665569	0.00000000	-11.44193000	-9.05511800
188.06665568	0.00000000	-11.10974000	-8.31077700
188.26665566	0.00000000	-11.06668000	-7.93553100
188.46665565	0.00000000	-11.06668000	-7.93553100
188.66665564	0.00000000	-11.06668000	-8.31077700
188.86665563	0.00000000	-11.06668000	-9.09817800
189.06665562	0.00000000	-11.06668000	-9.84867000
189.26665560	0.00000000	-11.06668000	-10.62992000
189.46665559	0.00000000	-11.06668000	-11.00517000
189.66665558	0.00000000	-11.06668000	-11.00517000
189.86665557	0.00000000	-11.06668000	-10.62992000
190.06665556	0.00000000	-11.10974000	-9.89173200
190.26665554	0.00000000	-11.44193000	-9.51648500
190.46665553	0.00000000	-11.81102000	-9.47342500
190.66665552	0.00000000	-11.44193000	-9.43036400
190.86665551	0.00000000	-11.10974000	-9.09817800
191.06665550	0.00000000	-11.06668000	-8.72908400
191.26665549	0.00000000	-11.06668000	-9.09817800
191.46665547	0.00000000	-11.06668000	-9.43036400
191.66665546	0.00000000	-11.06668000	-9.47342500
191.86665545	0.00000000	-11.06668000	-9.47342500
192.06665544	0.00000000	-11.06668000	-9.47342500
192.26665543	0.00000000	-11.06668000	-9.47342500
192.46665541	0.00000000	-11.06668000	-9.47342500
192.66665540	0.00000000	-11.10974000	-9.51648500
192.86665539	0.00000000	-11.48499000	-9.84867000
193.06665538	0.00000000	-12.22933000	-10.21161000
193.26665537	0.00000000	-12.60458000	-9.84867000
193.46665535	0.00000000	-12.60458000	-9.51648500
193.66665534	0.00000000	-12.27239000	-9.47342500
193.86665533	0.00000000	-11.86024000	-9.47342500
194.06665532	0.00000000	-11.85408000	-9.47342500
194.26665531	0.00000000	-11.44193000	-9.47342500
194.46665530	0.00000000	-11.10974000	-9.47342500
194.66665528	0.00000000	-11.06668000	-9.47342500
194.86665527	0.00000000	-11.06668000	-9.47342500
195.06665526	0.00000000	-11.06668000	-9.47342500
195.26665525	0.00000000	-11.06668000	-9.47342500
195.46665524	0.00000000	-11.06668000	-9.47342500
195.66665522	0.00000000	-11.10974000	-9.47342500
195.86665521	0.00000000	-11.48499000	-9.47342500
196.06665520	0.00000000	-12.22933000	-9.47342500
