Time	Channel A	Channel B	Channel C
(us)	(V)	(mV)	(mV)

-4.59999956	0.00000000	23.71432000	5.93626900
-4.39999957	0.00000000	23.71432000	6.26845500
-4.19999958	0.00000000	23.71432000	6.31151500
-3.99999959	0.00000000	23.71432000	6.31151500
-3.79999960	0.00000000	23.71432000	6.31151500
-3.59999962	0.00000000	23.71432000	6.26845500
-3.39999963	0.00000000	23.71432000	5.93626900
-3.19999964	0.00000000	23.71432000	5.53026500
-2.99999965	0.00000000	23.71432000	5.56717500
-2.79999966	0.00000000	23.71432000	5.53026500
-2.59999968	0.00000000	23.71432000	5.89320800
-2.39999969	0.00000000	23.71432000	5.85014700
-2.19999970	0.00000000	23.71432000	5.19808000
-1.99999971	0.00000000	23.71432000	5.19808000
-1.79999972	0.00000000	23.71432000	5.89320800
-1.59999973	0.00000000	23.71432000	6.26845500
-1.39999975	0.00000000	23.71432000	6.31151500
-1.19999976	0.00000000	23.71432000	6.31151500
-0.99999977	0.00000000	23.71432000	6.31151500
-0.79999978	-0.15871060	23.71432000	6.31151500
-0.59999979	0.00000000	23.71432000	6.31151500
-0.39999981	0.15871060	23.67126000	6.31151500
-0.19999982	0.63668800	23.33907000	6.31151500
0.00000017	0.79601380	22.92692000	6.31151500
0.20000016	0.95533960	22.96383000	6.26845500
0.40000015	0.95533960	22.92692000	5.89320800
0.60000013	0.47736220	23.29601000	5.15501900
0.80000012	-0.31803640	23.29601000	4.82898600
1.00000011	-1.27399100	22.96998000	5.15501900
1.20000010	-2.22994600	23.33907000	5.89320800
1.40000009	-2.70792300	23.67126000	6.26845500
1.60000008	-2.54859700	23.71432000	6.31151500
1.80000006	-1.59264300	23.71432000	6.31151500
2.00000005	0.00000000	23.71432000	6.31151500
2.20000004	2.22994600	23.71432000	6.26845500
2.40000003	4.14124000	23.71432000	5.93626900
2.60000002	5.25652100	23.71432000	5.53026500
2.80000000	5.09719500	23.67126000	5.51796200
2.99999999	3.50393700	23.29601000	5.11195900
3.19999998	0.47736220	22.60088000	4.77977300
3.39999997	-2.86724900	22.60088000	4.73671200
3.59999996	-5.89382400	23.29601000	4.77977300
3.79999994	-7.80511800	23.67126000	5.15501900
3.99999993	-7.80511800	23.71432000	5.89320800
4.19999992	-5.57517200	23.71432000	6.26845500
4.39999991	-1.91129400	23.71432000	6.31151500
4.59999990	2.38927200	23.71432000	6.31151500
4.79999989	6.37180100	23.71432000	6.26845500
4.99999987	8.92039900	23.71432000	5.89320800
5.19999986	9.23905000	23.71432000	5.15501900
5.39999985	7.16781500	23.67126000	4.77977300
5.59999984	3.34522600	23.29601000	4.73671200
5.79999983	-1.43331700	22.60088000	4.73671200
5.99999981	-5.89382400	22.60088000	4.77977300
6.19999980	-8.76107300	23.29601000	5.15501900
6.39999979	-9.39837600	23.67126000	5.89320800
6.59999978	-7.80511800	23.67126000	6.26845500
6.79999977	-4.30056600	23.33907000	6.31151500
6.99999975	0.00000000	22.96998000	6.31151500
7.19999974	4.14124000	23.29601000	6.31151500
7.39999973	6.84916400	23.29601000	6.26845500
7.59999972	7.80511800	22.96998000	5.89320800
7.79999971	6.69045300	23.33907000	5.15501900
7.99999970	4.14124000	23.67126000	4.77977300
8.19999968	0.79601380	23.67126000	4.73671200
8.39999967	-2.38927200	23.33907000	4.77977300
8.59999966	-4.45989200	22.96998000	5.15501900
8.79999965	-5.25652100	23.33907000	5.89320800
8.99999964	-4.61921700	23.67126000	6.26845500
9.19999962	-3.02657500	23.71432000	6.31151500
9.39999961	-1.11466500	23.71432000	6.26845500
9.59999960	0.79601380	23.67126000	5.93626900
9.79999959	1.91129400	23.33907000	5.57332700
9.99999958	2.54859700	22.96998000	5.93626900
10.19999956	2.38927200	23.33907000	6.21924200
10.39999955	1.59264300	23.67126000	5.93626900
10.59999954	0.63668800	23.71432000	5.57332700
10.79999953	-0.15871060	23.71432000	5.93626900
10.99999952	-0.63668800	23.71432000	6.26845500
11.19999951	-0.95533960	23.71432000	6.31151500
11.39999949	-0.95533960	23.71432000	6.31151500
11.59999948	-0.79601380	23.71432000	6.31151500
11.79999947	-0.47736220	23.71432000	6.31151500
11.99999946	-0.15871060	23.71432000	6.31151500
12.19999945	-0.15871060	23.71432000	6.31151500
12.39999943	-0.15871060	23.71432000	6.26845500
12.59999942	0.00000000	23.71432000	5.89320800
12.79999941	0.00000000	23.67126000	5.15501900
12.99999940	0.00000000	23.29601000	4.77977300
13.19999939	0.00000000	22.60088000	4.77977300
13.39999937	0.00000000	22.60088000	5.11195900
13.59999936	0.00000000	23.24680000	5.47490100
13.79999935	0.00000000	23.29601000	5.11195900
13.99999934	-0.15871060	22.96998000	4.77977300
14.19999933	-0.15871060	23.33907000	4.73671200
14.39999932	-0.15871060	23.67126000	4.73671200
14.59999930	0.00000000	23.67126000	4.73671200
14.79999929	0.00000000	23.29601000	4.77977300
14.99999928	0.00000000	22.55167000	5.11195900
15.19999927	0.00000000	22.17643000	5.51796200
15.39999926	0.00000000	22.13336000	5.48105300
15.59999924	0.00000000	22.13336000	5.56717500
15.79999923	0.00000000	22.13336000	5.48105300
15.99999922	0.00000000	22.13336000	5.56717500
16.19999921	0.00000000	22.17643000	5.48105300
16.39999920	-0.15871060	22.55167000	5.51796200
16.59999919	-0.15871060	23.29601000	5.15501900
16.79999917	-0.15871060	23.71432000	5.15501900
16.99999916	0.00000000	24.13263000	5.47490100
17.19999915	0.00000000	24.87697000	5.15501900
17.39999914	0.00000000	25.25221000	5.19808000
17.59999913	0.00000000	25.25221000	5.89320800
17.79999911	0.00000000	24.82775000	6.26845500
17.99999910	0.00000000	23.67126000	6.31151500
18.19999909	0.00000000	22.13336000	6.26845500
18.39999908	0.00000000	20.55241000	5.89320800
18.59999907	0.00000000	19.01451000	5.19808000
18.79999905	0.00000000	17.90108000	5.19808000
18.99999904	0.00000000	17.90108000	5.89320800
19.19999903	0.00000000	19.10679000	6.26845500
19.39999902	0.00000000	21.43824000	6.31151500
19.59999901	0.00000000	24.96309000	6.31151500
19.79999900	0.00000000	28.78937000	6.26845500
19.99999898	0.00000000	32.27116000	5.89320800
20.19999897	0.00000000	34.14124000	5.15501900
20.39999896	0.00000000	33.72293000	4.77977300
20.59999895	0.00000000	30.55487000	4.73671200
20.79999894	0.00000000	24.74163000	4.77977300
20.99999892	-0.15871060	17.39050000	5.11195900
21.19999891	0.00000000	10.03937000	5.51796200
21.39999890	0.00000000	4.31840500	5.48105300
21.59999889	0.00000000	2.03617100	5.51796200
21.79999888	0.00000000	4.45374000	5.11195900
21.99999886	0.00000000	11.47884000	4.77977300
22.19999885	0.00000000	22.73622000	4.73671200
22.39999884	0.00000000	35.81446000	4.73671200
22.59999883	0.00000000	47.35482000	4.73671200
22.79999882	0.00000000	54.23843000	4.77977300
22.99999881	0.00000000	54.19537000	5.15501900
23.19999879	-0.15871060	46.79502000	5.93626900
23.39999878	0.00000000	33.16929000	6.68676100
23.59999877	0.00000000	15.43430000	7.47416300
23.79999876	0.00000000	-2.28223400	7.80019600
23.99999875	0.00000000	-14.99139000	7.47416300
24.19999873	0.00000000	-19.96801000	6.68676100
24.39999872	0.00000000	-15.22515000	5.89320800
24.59999871	0.00000000	-0.89812980	4.68750000
24.79999870	0.00000000	19.94956000	3.15575800
24.99999869	0.00000000	42.69808000	1.62401600
25.19999867	0.00000000	61.58956000	0.51058070
25.39999866	0.00000000	72.01648000	0.51058070
25.59999865	-0.15871060	71.59202000	1.71013800
25.79999864	0.00000000	59.96555000	4.03543200
25.99999863	0.00000000	39.49311000	7.56028500
26.19999862	0.00000000	14.73917000	11.38041000
26.39999860	0.00000000	-8.80290300	14.85605000
26.59999859	0.00000000	-25.73819000	16.71998000
26.79999858	0.00000000	-31.50837000	16.35089000
26.99999857	0.00000000	-24.62475000	13.56422000
27.19999856	0.00000000	-7.26500900	8.50147600
27.39999854	0.00000000	16.36319000	1.48868100
27.59999853	-0.15871060	41.44931000	-6.18233200
27.79999852	0.00000000	62.24163000	-12.63533000
27.99999851	0.00000000	73.08685000	-15.28666000
28.19999850	0.00000000	72.05955000	-12.96752000
28.39999848	0.00000000	60.47613000	-6.36687900
28.59999847	0.00000000	41.16019000	3.70939900
28.79999846	0.00000000	18.36860000	15.27436000
28.99999845	0.00000000	-2.47908400	25.73203000
29.19999844	0.00000000	-16.84916000	32.98474000
29.39999843	0.00000000	-21.92421000	34.84252000
29.59999841	0.00000000	-17.35974000	29.77977000
29.79999840	0.00000000	-4.61368100	19.00221000
29.99999839	0.00000000	13.11516000	4.65059000
30.19999838	0.00000000	31.67446000	-10.40846000
30.39999837	0.00000000	46.83809000	-23.13607000
30.59999835	0.00000000	56.19463000	-30.43184000
30.79999834	0.00000000	58.47071000	-30.34572000
30.99999833	0.00000000	52.74360000	-22.25640000
31.19999832	0.00000000	40.84030000	-7.57874000
31.39999831	0.00000000	26.55019000	9.80561000
31.59999829	0.00000000	12.54921000	26.80241000
31.79999828	0.00000000	1.71013800	39.53002000
31.99999827	-0.15871060	-4.15231300	44.93110000
32.19999826	0.00000000	-4.15231300	42.27362000
32.39999825	0.00000000	1.61786400	31.82825000
32.59999824	0.00000000	11.62032000	16.39395000
32.79999822	0.00000000	23.20374000	-1.07037400
32.99999821	0.00000000	33.63066000	-17.28592000
33.19999820	0.00000000	40.65575000	-28.85088000
33.39999819	0.00000000	42.98105000	-33.12623000
33.59999818	0.00000000	40.74188000	-29.26919000
33.79999816	0.00000000	34.55955000	-18.44242000
33.99999815	0.00000000	26.45792000	-2.60211600
34.19999814	0.00000000	17.98720000	14.72687000
34.39999813	0.00000000	11.43578000	29.40452000
34.59999812	0.00000000	8.63681000	38.33046000
34.79999810	0.00000000	9.01205700	39.90526000
34.99999809	0.00000000	12.54921000	34.14124000
35.19999808	0.00000000	19.01451000	22.57628000
35.39999807	0.00000000	25.85507000	7.89247000
35.59999806	0.00000000	30.55487000	-6.74212600
35.79999805	0.00000000	32.51107000	-17.93799000
35.99999803	0.00000000	31.71752000	-22.95768000
36.19999802	0.00000000	27.90354000	-21.09375000
36.39999801	0.00000000	22.60088000	-13.01058000
36.59999800	0.00000000	17.94414000	-1.11343500
36.79999799	0.00000000	14.82529000	11.57111000
36.99999797	0.00000000	13.66880000	21.55512000
37.19999796	0.00000000	14.82529000	26.20571000
37.39999795	0.00000000	17.90108000	24.71703000
37.59999794	0.00000000	22.17643000	17.88263000
37.79999793	0.00000000	26.78395000	8.26771600
37.99999791	0.00000000	30.59793000	-1.30413400
38.19999790	0.00000000	32.13582000	-8.59375000
38.39999789	0.00000000	31.06545000	-10.87598000
38.59999788	0.00000000	28.36491000	-7.89862200
38.79999787	0.00000000	24.82775000	-0.93503930
38.99999786	0.00000000	20.55241000	8.22465500
39.19999784	0.00000000	16.36319000	17.00295000
39.39999783	0.00000000	13.66880000	21.93036000
39.59999782	0.00000000	13.20128000	21.60433000
39.79999781	0.00000000	14.36393000	16.21555000
39.99999780	0.00000000	16.69537000	7.43110200
40.19999778	0.00000000	20.22022000	-2.18380900
40.39999777	0.00000000	24.08957000	-9.84867000
40.59999776	0.00000000	27.94660000	-13.66265000
40.79999775	0.00000000	30.64714000	-12.12475000
40.99999774	0.00000000	31.48376000	-5.62253900
41.19999772	0.00000000	31.10851000	3.57406500
41.39999771	0.00000000	29.48450000	13.23819000
41.59999770	0.00000000	26.40871000	20.85999000
41.79999769	0.00000000	22.55167000	24.34178000
41.99999768	0.00000000	19.06373000	22.48400000
42.19999767	0.00000000	16.32013000	16.72613000
42.39999765	0.00000000	14.78223000	8.63681000
42.59999764	0.00000000	14.78223000	-0.18454720
42.79999763	0.00000000	16.27707000	-6.73597400
42.99999762	0.00000000	18.59621000	-9.89788300
43.19999761	0.00000000	20.92766000	-9.52263600
43.39999759	0.00000000	23.29601000	-5.67175200
43.59999758	0.00000000	25.20300000	0.46751960
43.79999757	0.00000000	26.40871000	7.38188900
43.99999756	0.00000000	26.78395000	13.14591000
44.19999755	0.00000000	26.45792000	16.25861000
44.39999753	0.00000000	25.71358000	16.30167000
44.59999752	0.00000000	25.33834000	13.65650000
44.79999751	0.00000000	25.29527000	9.47342500
44.99999750	0.00000000	25.25221000	5.19808000
45.19999749	0.00000000	24.78469000	1.71013800
45.39999748	0.00000000	23.24680000	-0.64591530
45.59999746	0.00000000	20.92766000	-1.39640700
45.79999745	0.00000000	18.55315000	-0.64591530
45.99999744	0.00000000	15.80955000	1.62401600
46.19999743	0.00000000	13.20128000	4.31840500
46.39999742	0.00000000	12.13091000	6.68676100
46.59999740	0.00000000	13.71186000	9.00590400
46.79999739	0.00000000	17.94414000	10.49459000
46.99999738	0.00000000	23.75738000	10.53765000
47.19999737	0.00000000	29.95201000	9.38115100
47.39999736	0.00000000	35.34695000	7.47416300
47.59999734	0.00000000	38.42273000	5.11195900
47.79999733	0.00000000	38.33046000	2.82972400
47.99999732	0.00000000	34.41806000	0.87967510
48.19999731	0.00000000	26.69783000	0.13533460
48.39999730	0.00000000	17.52584000	0.51058070
48.59999729	0.00000000	9.38730200	2.08538400
48.79999727	0.00000000	4.36146600	4.77977300
48.99999726	0.00000000	3.19881900	7.84940900
49.19999725	0.00000000	6.36072800	10.53765000
49.39999724	0.00000000	13.71186000	12.07554000
49.59999723	0.00000000	23.71432000	12.07554000
49.79999721	0.00000000	33.67372000	10.53765000
49.99999720	0.00000000	40.60654000	7.80019600
50.19999719	0.00000000	42.61196000	4.31840500
50.39999718	0.00000000	39.91141000	0.46751960
50.59999717	0.00000000	33.30462000	-2.55905500
50.79999715	0.00000000	23.67126000	-3.71555100
50.99999714	0.00000000	13.71186000	-2.55905500
51.19999713	0.00000000	6.40378900	0.46751960
51.39999712	0.00000000	3.70939900	4.36146600
51.59999711	0.00000000	6.36072800	8.22465500
51.79999710	0.00000000	13.20128000	11.70029000
51.99999708	0.00000000	21.66585000	13.61343000
52.19999707	0.00000000	29.44143000	13.61343000
52.39999706	0.00000000	35.21161000	11.65723000
52.59999705	0.00000000	37.49385000	7.84940900
52.79999704	0.00000000	35.16855000	3.66633800
52.99999702	0.00000000	29.10925000	0.51058070
53.19999701	0.00000000	21.38902000	-1.39640700
53.39999700	0.00000000	14.49926000	-1.80856300
53.59999699	0.00000000	9.85482200	-0.23991140
53.79999698	0.00000000	9.10433000	2.36835600
53.99999696	0.00000000	12.13091000	5.47490100
54.19999695	0.00000000	17.90108000	7.71407400
54.39999694	0.00000000	24.78469000	8.58759800
54.59999693	0.00000000	30.55487000	8.17544300
54.79999692	0.00000000	33.63066000	7.05585600
54.99999691	0.00000000	33.25541000	5.15501900
55.19999689	0.00000000	29.44143000	3.66633800
55.39999688	0.00000000	23.71432000	3.24803100
55.59999687	0.00000000	17.94414000	3.66633800
55.79999686	0.00000000	13.66880000	5.19808000
55.99999685	0.00000000	11.75566000	7.43110200
56.19999683	0.00000000	12.50615000	8.96284400
56.39999682	0.00000000	15.98794000	9.33809000
56.59999681	0.00000000	20.92766000	8.54453700
56.79999680	0.00000000	25.94734000	6.17618100
56.99999679	0.00000000	29.44143000	2.78051200
57.19999677	0.00000000	31.02239000	-0.64591530
57.39999676	0.00000000	30.59793000	-2.55905500
57.59999675	0.00000000	27.90354000	-2.55905500
57.79999674	0.00000000	23.71432000	-0.55979330
57.99999673	0.00000000	19.48204000	3.66633800
58.19999672	0.00000000	16.40625000	9.00590400
58.39999670	0.00000000	15.20054000	13.65650000
58.59999669	0.00000000	15.94488000	16.67692000
58.79999668	0.00000000	17.85802000	17.04601000
58.99999667	0.00000000	20.59547000	13.98253000
59.19999666	0.00000000	23.62205000	8.96284400
59.39999664	0.00000000	25.94734000	2.73745100
59.59999663	0.00000000	26.74089000	-3.72170300
59.79999662	0.00000000	26.36565000	-7.89862200
59.99999661	0.00000000	24.82775000	-8.31692900
60.19999660	0.00000000	22.55167000	-5.29650500
60.39999658	0.00000000	20.64468000	0.13533460
60.59999657	0.00000000	19.48204000	6.73597400
60.79999656	0.00000000	19.48204000	13.65650000
60.99999655	0.00000000	20.59547000	19.00221000
61.19999654	0.00000000	22.09030000	20.85999000
61.39999653	0.00000000	23.24680000	18.57775000
61.59999651	0.00000000	23.67126000	12.45079000
61.79999650	0.00000000	23.67126000	4.77977300
61.99999649	0.00000000	23.29601000	-2.60211600
62.19999648	0.00000000	22.46555000	-8.36614100
62.39999647	0.00000000	21.33981000	-11.05438000
62.59999645	0.00000000	19.80807000	-9.89788300
62.79999644	0.00000000	19.10679000	-5.29650500
62.99999643	0.00000000	19.43897000	1.66707700
63.19999642	0.00000000	20.59547000	9.33809000
63.39999641	0.00000000	22.13336000	15.88336000
63.59999639	0.00000000	23.71432000	19.37131000
63.79999638	0.00000000	25.20300000	19.46358000
63.99999637	0.00000000	25.94734000	16.72613000
64.19999636	0.00000000	25.20300000	11.70029000
64.39999635	0.00000000	23.71432000	5.15501900
64.59999634	0.00000000	22.13336000	-0.97810030
64.79999632	0.00000000	20.55241000	-5.29650500
64.99999631	0.00000000	19.06373000	-7.24655500
65.19999630	0.00000000	18.31939000	-6.87746000
65.39999629	0.00000000	19.06373000	-4.18307100
65.59999628	0.00000000	20.55241000	0.04306102
65.79999626	0.00000000	22.09030000	4.69365100
65.99999625	0.00000000	23.24680000	8.96284400
66.19999624	0.00000000	23.62205000	12.07554000
66.39999623	0.00000000	23.24680000	13.69956000
66.59999622	0.00000000	22.09030000	14.07480000
66.79999620	0.00000000	20.59547000	13.32431000
66.99999619	0.00000000	19.43897000	11.33735000
67.19999618	0.00000000	19.06373000	8.67987200
67.39999617	0.00000000	19.48204000	5.48720400
67.59999616	0.00000000	21.06299000	2.41141700
67.79999615	0.00000000	23.71432000	-0.73818890
67.99999613	0.00000000	26.36565000	-3.02042300
68.19999612	0.00000000	27.90354000	-4.22613100
68.39999611	0.00000000	27.86048000	-4.18307100
68.59999610	0.00000000	25.94734000	-2.60211600
68.79999609	0.00000000	22.46555000	0.55364170
68.99999607	0.00000000	18.63927000	5.19808000
69.19999606	0.00000000	15.15748000	10.53765000
69.39999605	0.00000000	13.24434000	14.76993000
69.59999604	0.00000000	13.20128000	16.76919000
69.79999603	0.00000000	14.82529000	16.76919000
69.99999601	0.00000000	18.31939000	14.76993000
70.19999600	0.00000000	23.33907000	10.49459000
70.39999599	0.00000000	28.32185000	4.73671200
70.59999598	0.00000000	32.18504000	-1.02116100
70.79999597	0.00000000	33.67372000	-5.24729300
70.99999596	0.00000000	32.18504000	-6.82824800
71.19999594	0.00000000	28.27879000	-5.71481200
71.39999593	0.00000000	22.87770000	-2.60211600
71.59999592	0.00000000	16.69537000	2.04232300
71.79999591	0.00000000	11.71260000	7.38188900
71.99999590	0.00000000	8.96899500	11.65723000
72.19999588	0.00000000	9.01205700	13.98253000
72.39999587	0.00000000	12.08784000	14.39468000
72.59999586	0.00000000	17.48277000	12.45079000
72.79999585	0.00000000	23.62205000	9.09817800
72.99999584	0.00000000	29.06619000	5.57332700
73.19999582	0.00000000	32.55413000	2.87278500
73.39999581	0.00000000	33.71678000	0.92888770
73.59999580	0.00000000	32.18504000	0.55364170
73.79999579	0.00000000	28.32185000	1.62401600
73.99999578	0.00000000	23.33907000	3.15575800
74.19999577	0.00000000	18.31939000	4.68750000
74.39999575	0.00000000	14.82529000	5.80093500
74.59999574	0.00000000	13.20128000	5.80093500
74.79999573	0.00000000	13.24434000	4.68750000
74.99999572	0.00000000	15.15748000	3.19881900
75.19999571	0.00000000	18.63927000	2.08538400
75.39999569	0.00000000	22.41634000	2.12844500
75.59999568	0.00000000	25.52903000	3.66633800
75.79999567	0.00000000	26.74089000	6.31151500
75.99999566	0.00000000	26.83317000	9.05511800
76.19999565	0.00000000	26.36565000	11.33735000
76.39999563	0.00000000	24.82775000	12.81373000
76.59999562	0.00000000	22.60088000	11.98942000
76.79999561	0.00000000	21.06299000	8.96284400
76.99999560	0.00000000	20.59547000	4.69365100
77.19999559	0.00000000	20.59547000	0.09227362
77.39999558	0.00000000	20.97072000	-3.76476400
77.59999556	0.00000000	21.66585000	-5.67175200
77.79999555	0.00000000	21.66585000	-5.29650500
77.99999554	0.00000000	20.97072000	-2.55905500
78.19999553	0.00000000	20.55241000	2.08538400
78.39999552	0.00000000	20.13410000	7.84940900
78.59999550	0.00000000	19.43897000	13.18898000
78.79999549	0.00000000	19.48204000	16.30167000
78.99999548	0.00000000	20.64468000	16.71998000
79.19999547	0.00000000	22.55167000	14.81299000
79.39999546	0.00000000	24.82775000	10.91289000
79.59999544	0.00000000	26.36565000	5.93626900
79.79999543	0.00000000	26.78395000	0.92888770
79.99999542	0.00000000	26.36565000	-2.55905500
80.19999541	0.00000000	24.78469000	-4.18307100
80.39999540	0.00000000	22.09030000	-4.18307100
80.59999539	0.00000000	19.01451000	-2.60211600
80.79999537	0.00000000	16.36319000	0.46751960
80.99999536	0.00000000	15.20054000	4.26919300
81.19999535	0.00000000	15.94488000	7.38188900
81.39999534	0.00000000	17.85802000	9.42421200
81.59999533	0.00000000	20.59547000	11.00517000
81.79999531	0.00000000	23.67126000	12.11860000
81.99999530	0.00000000	26.32259000	12.11860000
82.19999529	0.00000000	27.48524000	10.96211000
82.39999528	0.00000000	26.78395000	9.00590400
82.59999527	0.00000000	25.25221000	6.26845500
82.79999525	0.00000000	23.29601000	3.19881900
82.99999524	0.00000000	20.97072000	0.46751960
83.19999523	0.00000000	19.06373000	-1.48868100
83.39999522	0.00000000	17.90108000	-2.64517700
83.59999521	0.00000000	17.90108000	-2.60211600
83.79999520	0.00000000	19.01451000	-1.07037400
83.99999518	0.00000000	20.50935000	1.66707700
84.19999517	0.00000000	21.66585000	5.15501900
84.39999516	0.00000000	22.09030000	9.00590400
84.59999515	0.00000000	22.13336000	12.07554000
84.79999514	0.00000000	22.13336000	13.65650000
84.99999512	0.00000000	22.13336000	13.61343000
85.19999511	0.00000000	22.17643000	11.70029000
85.39999510	0.00000000	22.50861000	8.17544300
85.59999509	0.00000000	22.87770000	3.94315900
85.79999508	0.00000000	22.50861000	-0.69512790
85.99999506	0.00000000	22.17643000	-4.09079700
86.19999505	0.00000000	22.09030000	-5.29650500
86.39999504	0.00000000	21.66585000	-4.13385800
86.59999503	0.00000000	20.55241000	-1.02116100
86.79999502	0.00000000	19.43897000	3.57406500
86.99999501	0.00000000	19.01451000	8.54453700
87.19999499	0.00000000	19.01451000	12.03248000
87.39999498	0.00000000	19.43897000	13.61343000
87.59999497	0.00000000	20.59547000	13.23819000
87.79999496	0.00000000	22.09030000	10.86983000
87.99999495	0.00000000	23.29601000	7.05585600
88.19999493	0.00000000	24.04650000	2.41756900
88.39999492	0.00000000	24.45866000	-1.39640700
88.59999491	0.00000000	24.04650000	-3.71555100
88.79999490	0.00000000	23.29601000	-3.67249000
88.99999489	0.00000000	22.09030000	-1.02116100
89.19999487	0.00000000	20.59547000	3.20497000
89.39999486	0.00000000	19.43897000	7.80019600
89.59999485	0.00000000	19.06373000	11.65723000
89.79999484	0.00000000	19.38976000	13.56422000
89.99999483	0.00000000	20.17716000	13.18898000
90.19999482	0.00000000	20.92766000	10.49459000
90.39999480	0.00000000	21.75812000	6.26845500
90.59999479	0.00000000	22.50861000	1.66707700
90.79999478	0.00000000	23.24680000	-2.14074800
90.99999477	0.00000000	23.24680000	-3.67249000
91.19999476	0.00000000	22.55167000	-2.55905500
91.39999474	0.00000000	22.17643000	0.46751960
91.59999473	0.00000000	22.13336000	4.36146600
91.79999472	0.00000000	22.13336000	8.22465500
91.99999471	0.00000000	22.13336000	11.70029000
92.19999470	0.00000000	22.13336000	13.52116000
92.39999468	0.00000000	22.13336000	12.77067000
92.59999467	0.00000000	22.09030000	9.33809000
92.79999466	0.00000000	21.66585000	4.77977300
92.99999465	0.00000000	20.55241000	0.51058070
93.19999464	0.00000000	19.38976000	-2.55905500
93.39999463	0.00000000	18.63927000	-3.71555100
93.59999461	0.00000000	18.27633000	-2.51599400
93.79999460	0.00000000	19.06373000	0.87967510
93.99999459	0.00000000	20.59547000	5.51796200
94.19999458	0.00000000	22.55167000	9.71333600
94.39999457	0.00000000	24.87697000	12.77067000
94.59999455	0.00000000	26.74089000	13.14591000
94.79999454	0.00000000	27.48524000	10.91289000
94.99999453	0.00000000	26.36565000	7.47416300
95.19999452	0.00000000	24.08957000	3.57406500
95.39999451	0.00000000	21.66585000	0.13533460
95.59999449	0.00000000	18.55315000	-2.18380900
95.79999448	0.00000000	15.15748000	-2.50984200
95.99999447	0.00000000	13.29355000	-0.64591530
96.19999446	0.00000000	13.61959000	2.78051200
96.39999445	0.00000000	15.94488000	6.22539300
96.59999444	0.00000000	19.38976000	8.96284400
96.79999442	0.00000000	23.29601000	10.49459000
96.99999441	0.00000000	26.78395000	10.49459000
97.19999440	0.00000000	29.48450000	8.96284400
97.39999439	0.00000000	30.59793000	6.31151500
97.59999438	0.00000000	29.48450000	3.66633800
97.79999436	0.00000000	26.78395000	2.08538400
97.99999435	0.00000000	23.24680000	1.61786400
98.19999434	0.00000000	19.01451000	1.61786400
98.39999433	0.00000000	15.20054000	2.04232300
98.59999432	0.00000000	13.24434000	3.19881900
98.79999430	0.00000000	13.15822000	4.68750000
98.99999429	0.00000000	14.36393000	5.85014700
99.19999428	0.00000000	16.69537000	6.26845500
99.39999427	0.00000000	20.22022000	6.31151500
99.59999426	0.00000000	24.04650000	6.31151500
99.79999425	0.00000000	27.52830000	6.31151500
99.99999423	0.00000000	29.44143000	6.35457700
100.19999422	0.00000000	29.48450000	6.72982200
100.39999421	0.00000000	27.94660000	7.42495000
100.59999420	0.00000000	25.25221000	7.38188900
100.79999419	0.00000000	22.13336000	6.26845500
100.99999417	0.00000000	19.01451000	4.73671200
101.19999416	0.00000000	16.32013000	3.15575800
101.39999415	0.00000000	14.78223000	1.62401600
101.59999414	0.00000000	14.73917000	0.51058070
101.79999413	0.00000000	15.90182000	0.51058070
101.99999411	0.00000000	17.85802000	1.66707700
102.19999410	0.00000000	20.55241000	3.61712600
102.39999409	0.00000000	23.24680000	6.31151500
102.59999408	0.00000000	25.20300000	8.96284400
102.79999407	0.00000000	26.36565000	10.53765000
102.99999406	0.00000000	26.40871000	10.91289000
103.19999404	0.00000000	25.62746000	10.11934000
103.39999403	0.00000000	24.40945000	7.80019600
103.59999402	0.00000000	22.13336000	4.73671200
103.79999401	0.00000000	19.85728000	1.66707700
103.99999400	0.00000000	18.63927000	-0.64591530
104.19999398	0.00000000	17.80881000	-1.43946800
104.39999397	0.00000000	17.48277000	-1.06422200
104.59999396	0.00000000	17.85802000	0.51058070
104.79999395	0.00000000	19.01451000	3.19881900
104.99999394	0.00000000	20.55241000	6.26845500
105.19999392	0.00000000	22.09030000	8.91978400
105.39999391	0.00000000	23.24680000	10.07628000
105.59999390	0.00000000	23.62205000	9.38115100
105.79999389	0.00000000	23.24680000	7.84940900
105.99999388	0.00000000	22.13336000	5.89320800
106.19999387	0.00000000	20.97072000	3.57406500
106.39999385	0.00000000	20.17716000	1.71013800
106.59999384	0.00000000	19.43897000	0.92888770
106.79999383	0.00000000	19.43897000	1.66707700
106.99999382	0.00000000	20.17716000	3.15575800
107.19999381	0.00000000	20.97072000	4.73671200
107.39999379	0.00000000	22.09030000	6.26845500
107.59999378	0.00000000	22.82849000	7.42495000
107.79999377	0.00000000	22.50861000	7.80019600
107.99999376	0.00000000	22.13336000	7.42495000
108.19999375	0.00000000	21.66585000	6.22539300
108.39999374	0.00000000	20.55241000	4.36146600
108.59999372	0.00000000	19.43897000	2.46063000
108.79999371	0.00000000	19.01451000	1.71013800
108.99999370	0.00000000	19.01451000	2.04232300
109.19999369	0.00000000	19.43897000	3.19881900
109.39999368	0.00000000	20.59547000	4.73671200
109.59999366	0.00000000	22.09030000	6.26845500
109.79999365	0.00000000	23.24680000	7.42495000
109.99999364	0.00000000	23.62205000	7.84940900
110.19999363	0.00000000	23.29601000	7.80019600
110.39999362	0.00000000	22.50861000	7.01279500
110.59999360	0.00000000	21.71506000	5.15501900
110.79999359	0.00000000	20.55241000	3.62327700
110.99999358	0.00000000	19.43897000	2.78051200
111.19999357	0.00000000	19.01451000	1.99311000
111.39999356	0.00000000	19.01451000	1.66707700
111.59999355	0.00000000	19.38976000	2.04232300
111.79999353	0.00000000	20.17716000	3.15575800
111.99999352	0.00000000	20.92766000	4.31840500
112.19999351	0.00000000	21.71506000	5.11195900
112.39999350	0.00000000	22.09030000	5.89320800
112.59999349	0.00000000	22.13336000	6.26845500
112.79999347	0.00000000	22.09030000	6.31151500
112.99999346	0.00000000	21.71506000	6.26845500
113.19999345	0.00000000	20.97072000	5.89320800
113.39999344	0.00000000	20.59547000	5.15501900
113.59999343	0.00000000	20.55241000	4.77977300
113.79999341	0.00000000	20.55241000	4.73671200
113.99999340	0.00000000	20.55241000	4.69365100
114.19999339	0.00000000	20.55241000	4.31840500
114.39999338	0.00000000	20.55241000	3.57406500
114.59999337	0.00000000	20.55241000	3.19881900
114.79999336	0.00000000	20.55241000	3.15575800
114.99999334	0.00000000	20.59547000	3.15575800
115.19999333	0.00000000	20.92766000	3.19881900
115.39999332	0.00000000	21.33981000	3.57406500
115.59999331	0.00000000	21.30290000	4.36146600
115.79999330	0.00000000	21.33981000	5.11195900
115.99999328	0.00000000	20.92766000	5.89320800
116.19999327	0.00000000	20.59547000	6.26845500
116.39999326	0.00000000	20.55241000	6.31151500
116.59999325	0.00000000	20.55241000	6.26845500
116.79999324	0.00000000	20.55241000	5.89320800
116.99999322	0.00000000	20.59547000	5.11195900
117.19999321	0.00000000	20.97072000	4.36146600
117.39999320	0.00000000	21.71506000	3.53100400
117.59999319	0.00000000	22.09030000	2.78051200
117.79999318	0.00000000	22.13336000	2.04232300
117.99999317	0.00000000	22.13336000	2.04232300
118.19999315	0.00000000	22.09030000	2.78051200
118.39999314	0.00000000	21.71506000	3.53100400
118.59999313	0.00000000	20.92766000	4.36146600
118.79999312	0.00000000	20.17716000	5.11195900
118.99999311	0.00000000	19.38976000	5.89320800
119.19999309	0.00000000	19.01451000	6.26845500
119.39999308	0.00000000	19.01451000	6.31151500
119.59999307	0.00000000	19.38976000	6.26845500
119.79999306	0.00000000	20.17716000	5.89320800
119.99999305	0.00000000	20.97072000	5.15501900
120.19999303	0.00000000	22.13336000	4.73671200
120.39999302	0.00000000	23.24680000	4.31840500
120.59999301	0.00000000	23.67126000	3.57406500
120.79999300	0.00000000	23.67126000	3.19881900
120.99999299	0.00000000	23.24680000	3.15575800
121.19999298	0.00000000	22.09030000	3.19881900
121.39999296	0.00000000	20.59547000	3.57406500
121.59999295	0.00000000	19.43897000	4.31840500
121.79999294	0.00000000	18.97145000	4.69365100
121.99999293	0.00000000	18.59621000	4.73671200
122.19999292	0.00000000	18.22711000	4.73671200
122.39999290	0.00000000	18.63927000	4.77977300
122.59999289	0.00000000	19.38976000	5.15501900
122.79999288	0.00000000	20.55241000	5.89320800
122.99999287	0.00000000	21.71506000	6.21924200
123.19999286	0.00000000	22.50861000	5.89320800
123.39999284	0.00000000	23.29601000	5.15501900
123.59999283	0.00000000	23.62205000	4.77977300
123.79999282	0.00000000	23.29601000	4.69365100
123.99999281	0.00000000	22.50861000	4.31840500
124.19999280	0.00000000	21.71506000	3.57406500
124.39999279	0.00000000	20.55241000	3.24803100
124.59999277	0.00000000	19.43897000	3.57406500
124.79999276	0.00000000	19.01451000	4.31840500
124.99999275	0.00000000	18.97145000	4.69365100
125.19999274	0.00000000	18.97145000	4.77977300
125.39999273	0.00000000	19.01451000	5.15501900
125.59999271	0.00000000	19.43897000	5.89320800
125.79999270	0.00000000	20.55241000	6.26845500
125.99999269	0.00000000	21.71506000	6.31151500
126.19999268	0.00000000	22.50861000	6.31151500
126.39999267	0.00000000	23.24680000	6.26845500
126.59999265	0.00000000	23.24680000	5.89320800
126.79999264	0.00000000	22.50861000	5.15501900
126.99999263	0.00000000	21.71506000	4.73671200
127.19999262	0.00000000	20.55241000	4.36146600
127.39999261	0.00000000	19.43897000	3.99237200
127.59999260	0.00000000	19.01451000	4.36146600
127.79999258	0.00000000	18.97145000	4.69365100
127.99999257	0.00000000	19.01451000	4.73671200
128.19999256	0.00000000	19.43897000	4.73671200
128.39999255	0.00000000	20.55241000	4.77977300
128.59999254	0.00000000	21.71506000	5.11195900
128.79999252	0.00000000	22.46555000	5.47490100
128.99999251	0.00000000	22.87770000	5.11195900
129.19999250	0.00000000	22.46555000	4.73671200
129.39999249	0.00000000	21.75812000	4.31840500
129.59999248	0.00000000	20.92766000	3.62327700
129.79999246	0.00000000	20.17716000	3.62327700
129.99999245	0.00000000	19.38976000	4.31840500
130.19999244	0.00000000	19.01451000	4.69365100
130.39999243	0.00000000	19.01451000	4.73671200
130.59999242	0.00000000	19.38976000	4.73671200
130.79999241	0.00000000	20.17716000	4.73671200
130.99999239	0.00000000	20.92766000	4.73671200
131.19999238	0.00000000	21.71506000	4.73671200
131.39999237	0.00000000	22.09030000	4.73671200
131.59999236	0.00000000	22.09030000	4.69365100
131.79999235	0.00000000	21.71506000	4.31840500
131.99999233	0.00000000	20.97072000	3.57406500
132.19999232	0.00000000	20.59547000	3.19881900
132.39999231	0.00000000	20.55241000	3.19881900
132.59999230	0.00000000	20.55241000	3.57406500
132.79999229	0.00000000	20.55241000	4.31840500
132.99999227	0.00000000	20.55241000	4.73671200
133.19999226	0.00000000	20.55241000	5.15501900
133.39999225	0.00000000	20.55241000	5.89320800
133.59999224	0.00000000	20.55241000	6.26845500
133.79999223	0.00000000	20.55241000	6.26845500
133.99999222	0.00000000	20.55241000	5.89320800
134.19999220	0.00000000	20.55241000	5.11195900
134.39999219	0.00000000	20.55241000	4.36146600
134.59999218	0.00000000	20.55241000	3.57406500
134.79999217	0.00000000	20.59547000	3.19881900
134.99999216	0.00000000	20.97072000	3.11269700
135.19999214	0.00000000	21.71506000	2.82357300
135.39999213	0.00000000	22.04109000	2.83587600
135.59999212	0.00000000	21.71506000	3.94315900
135.79999211	0.00000000	20.97072000	4.69365100
135.99999210	0.00000000	20.55241000	5.15501900
136.19999208	0.00000000	20.13410000	5.89320800
136.39999207	0.00000000	19.38976000	6.21924200
136.59999206	0.00000000	19.01451000	5.89320800
136.79999205	0.00000000	19.01451000	5.15501900
136.99999204	0.00000000	19.38976000	4.73671200
137.19999203	0.00000000	20.17716000	4.31840500
137.39999201	0.00000000	20.92766000	3.57406500
137.59999200	0.00000000	21.71506000	3.19881900
137.79999199	0.00000000	22.09030000	3.15575800
137.99999198	0.00000000	22.09030000	3.15575800
138.19999197	0.00000000	21.71506000	3.15575800
138.39999195	0.00000000	20.92766000	3.19881900
138.59999194	0.00000000	20.17716000	3.57406500
138.79999193	0.00000000	19.38976000	4.36146600
138.99999192	0.00000000	19.06373000	5.11195900
139.19999191	0.00000000	19.38976000	5.89320800
139.39999189	0.00000000	20.13410000	6.26845500
139.59999188	0.00000000	20.55241000	6.31151500
139.79999187	0.00000000	20.97072000	6.26845500
139.99999186	0.00000000	21.66585000	5.89320800
140.19999185	0.00000000	21.66585000	5.11195900
140.39999184	0.00000000	20.97072000	4.36146600
140.59999182	0.00000000	20.59547000	3.57406500
140.79999181	0.00000000	20.55241000	3.19881900
140.99999180	0.00000000	20.55241000	3.15575800
141.19999179	0.00000000	20.55241000	3.19881900
141.39999178	0.00000000	20.55241000	3.57406500
141.59999176	0.00000000	20.55241000	4.36146600
141.79999175	0.00000000	20.55241000	5.11195900
141.99999174	0.00000000	20.55241000	5.89320800
142.19999173	0.00000000	20.55241000	6.26845500
142.39999172	0.00000000	20.55241000	6.26845500
142.59999170	0.00000000	20.55241000	5.89320800
142.79999169	0.00000000	20.55241000	5.11195900
142.99999168	0.00000000	20.55241000	4.36146600
143.19999167	0.00000000	20.50935000	3.57406500
143.39999166	0.00000000	20.17716000	3.19881900
143.59999165	0.00000000	19.80807000	3.15575800
143.79999163	0.00000000	20.17716000	3.15575800
143.99999162	0.00000000	20.50935000	3.19881900
144.19999161	0.00000000	20.55241000	3.57406500
144.39999160	0.00000000	20.55241000	4.31840500
144.59999159	0.00000000	20.59547000	4.73671200
144.79999157	0.00000000	20.92766000	5.15501900
144.99999156	0.00000000	21.29675000	5.85014700
145.19999155	0.00000000	20.92766000	5.85014700
145.39999154	0.00000000	20.59547000	5.15501900
145.59999153	0.00000000	20.50935000	4.73671200
145.79999151	0.00000000	20.13410000	4.31840500
145.99999150	0.00000000	19.43897000	3.57406500
146.19999149	0.00000000	19.43897000	3.19881900
146.39999148	0.00000000	20.13410000	3.15575800
146.59999147	0.00000000	20.50935000	3.19881900
146.79999146	0.00000000	20.55241000	3.57406500
146.99999144	0.00000000	20.55241000	4.31840500
147.19999143	0.00000000	20.55241000	4.73671200
147.39999142	0.00000000	20.55241000	5.15501900
147.59999141	0.00000000	20.55241000	5.89320800
147.79999140	0.00000000	20.55241000	6.21924200
147.99999138	0.00000000	20.50935000	5.89320800
148.19999137	0.00000000	20.17716000	5.15501900
148.39999136	0.00000000	19.80807000	4.77977300
148.59999135	0.00000000	20.17716000	4.69365100
148.79999134	0.00000000	20.50935000	4.31840500
148.99999132	0.00000000	20.55241000	3.57406500
149.19999131	0.00000000	20.55241000	3.19881900
149.39999130	0.00000000	20.55241000	3.19881900
149.59999129	0.00000000	20.55241000	3.57406500
149.79999128	0.00000000	20.55241000	4.31840500
149.99999127	0.00000000	20.55241000	4.69365100
150.19999125	0.00000000	20.55241000	4.73671200
150.39999124	0.00000000	20.55241000	4.73671200
150.59999123	0.00000000	20.55241000	4.73671200
150.79999122	0.00000000	20.50935000	4.73671200
150.99999121	0.00000000	20.13410000	4.73671200
151.19999119	0.00000000	19.38976000	4.73671200
151.39999118	0.00000000	19.06373000	4.69365100
151.59999117	0.00000000	19.38976000	4.36146600
151.79999116	0.00000000	20.13410000	3.94931100
151.99999115	0.00000000	20.50935000	3.98622000
152.19999113	0.00000000	20.55241000	3.94931100
152.39999112	0.00000000	20.55241000	4.36146600
152.59999111	0.00000000	20.55241000	4.69365100
152.79999110	0.00000000	20.55241000	4.73671200
152.99999109	0.00000000	20.55241000	4.73671200
153.19999108	0.00000000	20.55241000	4.73671200
153.39999106	0.00000000	20.50935000	4.73671200
153.59999105	0.00000000	20.13410000	4.73671200
153.79999104	0.00000000	19.38976000	4.73671200
153.99999103	0.00000000	19.01451000	4.73671200
154.19999102	0.00000000	18.97145000	4.73671200
154.39999100	0.00000000	19.01451000	4.73671200
154.59999099	0.00000000	19.38976000	4.69365100
154.79999098	0.00000000	20.13410000	4.36146600
154.99999097	0.00000000	20.50935000	3.94931100
155.19999096	0.00000000	20.55241000	3.98622000
155.39999094	0.00000000	20.59547000	3.90625000
155.59999093	0.00000000	20.92766000	3.98622000
155.79999092	0.00000000	21.29675000	3.94931100
155.99999091	0.00000000	20.92766000	4.36146600
156.19999090	0.00000000	20.55241000	4.69365100
156.39999089	0.00000000	20.13410000	4.73671200
156.59999087	0.00000000	19.38976000	4.73671200
156.79999086	0.00000000	19.01451000	4.73671200
156.99999085	0.00000000	18.97145000	4.73671200
157.19999084	0.00000000	18.97145000	4.73671200
157.39999083	0.00000000	19.01451000	4.73671200
157.59999081	0.00000000	19.38976000	4.69365100
157.79999080	0.00000000	20.13410000	4.31840500
157.99999079	0.00000000	20.50935000	3.57406500
158.19999078	0.00000000	20.59547000	3.24803100
158.39999077	0.00000000	20.92766000	3.53100400
158.59999075	0.00000000	21.29675000	3.94315900
158.79999074	0.00000000	20.92766000	3.94931100
158.99999073	0.00000000	20.59547000	4.36146600
159.19999072	0.00000000	20.55241000	4.69365100
159.39999071	0.00000000	20.55241000	4.73671200
159.59999070	0.00000000	20.50935000	4.73671200
159.79999068	0.00000000	20.13410000	4.73671200
159.99999067	0.00000000	19.38976000	4.73671200
160.19999066	0.00000000	19.06373000	4.73671200
160.39999065	0.00000000	19.34670000	4.69365100
160.59999064	0.00000000	19.75886000	4.31840500
160.79999062	0.00000000	19.76501000	3.57406500
160.99999061	0.00000000	20.17716000	3.19881900
161.19999060	0.00000000	20.50935000	3.15575800
161.39999059	0.00000000	20.55241000	3.19881900
161.59999058	0.00000000	20.55241000	3.57406500
161.79999056	0.00000000	20.55241000	4.31840500
161.99999055	0.00000000	20.55241000	4.69365100
162.19999054	0.00000000	20.55241000	4.73671200
162.39999053	0.00000000	20.55241000	4.73671200
162.59999052	0.00000000	20.50935000	4.73671200
162.79999051	0.00000000	20.13410000	4.73671200
162.99999049	0.00000000	19.38976000	4.73671200
163.19999048	0.00000000	19.01451000	4.73671200
163.39999047	0.00000000	19.01451000	4.69365100
163.59999046	0.00000000	19.34670000	4.36146600
163.79999045	0.00000000	19.75886000	3.99237200
163.99999043	0.00000000	19.76501000	4.36146600
164.19999042	0.00000000	20.17716000	4.64443900
164.39999041	0.00000000	20.50935000	4.36146600
164.59999040	0.00000000	20.55241000	3.99237200
164.79999039	0.00000000	20.55241000	4.36146600
164.99999037	0.00000000	20.55241000	4.69365100
165.19999036	0.00000000	20.55241000	4.73671200
165.39999035	0.00000000	20.55241000	4.73671200
165.59999034	0.00000000	20.50935000	4.73671200
165.79999033	0.00000000	20.13410000	4.73671200
165.99999032	0.00000000	19.38976000	4.73671200
166.19999030	0.00000000	19.01451000	4.73671200
166.39999029	0.00000000	18.97145000	4.73671200
166.59999028	0.00000000	19.01451000	4.73671200
166.79999027	0.00000000	19.38976000	4.73671200
166.99999026	0.00000000	20.13410000	4.73671200
167.19999024	0.00000000	20.46014000	4.73671200
167.39999023	0.00000000	20.17716000	4.73671200
167.59999022	0.00000000	19.85728000	4.73671200
167.79999021	0.00000000	20.55241000	4.69365100
167.99999020	0.00000000	21.24754000	4.36146600
168.19999018	0.00000000	20.92766000	3.99237200
168.39999017	0.00000000	20.59547000	4.36146600
168.59999016	0.00000000	20.55241000	4.69365100
168.79999015	0.00000000	20.55241000	4.73671200
168.99999014	0.00000000	20.55241000	4.69365100
169.19999013	0.00000000	20.50935000	4.36146600
169.39999011	0.00000000	20.17716000	3.99237200
169.59999010	0.00000000	19.76501000	4.36146600
169.79999009	0.00000000	19.80192000	4.69365100
169.99999008	0.00000000	19.76501000	4.73671200
170.19999007	0.00000000	20.17716000	4.73671200
170.39999005	0.00000000	20.50935000	4.73671200
170.59999004	0.00000000	20.55241000	4.73671200
170.79999003	-0.15871060	20.55241000	4.73671200
170.99999002	0.00000000	20.55241000	4.73671200
171.19999001	0.00000000	20.55241000	4.73671200
171.39998999	0.00000000	20.55241000	4.73671200
171.59998998	0.00000000	20.55241000	4.73671200
171.79998997	0.00000000	20.50935000	4.69365100
171.99998996	0.00000000	20.17716000	4.36146600
172.19998995	0.00000000	19.76501000	3.99237200
172.39998994	0.00000000	19.80192000	4.36146600
172.59998992	0.00000000	19.76501000	4.69365100
172.79998991	0.00000000	20.17716000	4.73671200
172.99998990	0.00000000	20.50935000	4.69365100
173.19998989	0.00000000	20.55241000	4.36146600
173.39998988	0.00000000	20.55241000	3.99237200
173.59998986	0.00000000	20.55241000	4.36146600
173.79998985	0.00000000	20.55241000	4.69365100
173.99998984	0.00000000	20.55241000	4.73671200
174.19998983	0.00000000	20.55241000	4.73671200
174.39998982	0.00000000	20.55241000	4.73671200
174.59998980	0.00000000	20.55241000	4.73671200
174.79998979	0.00000000	20.55241000	4.73671200
174.99998978	0.00000000	20.55241000	4.73671200
175.19998977	0.00000000	20.55241000	4.73671200
175.39998976	0.00000000	20.55241000	4.69365100
175.59998975	0.00000000	20.55241000	4.36146600
175.79998973	0.00000000	20.55241000	3.99237200
175.99998972	0.00000000	20.50935000	4.36146600
176.19998971	0.00000000	20.17716000	4.64443900
176.39998970	0.00000000	19.80807000	4.36146600
176.59998969	0.00000000	20.17716000	3.99237200
176.79998967	0.00000000	20.50935000	4.36146600
176.99998966	0.00000000	20.55241000	4.64443900
177.19998965	0.00000000	20.50935000	4.36146600
177.39998964	0.00000000	20.17716000	3.99237200
177.59998963	0.00000000	19.80807000	4.36146600
177.79998961	0.00000000	20.17716000	4.69365100
177.99998960	0.00000000	20.50935000	4.73671200
178.19998959	0.00000000	20.55241000	4.73671200
178.39998958	0.00000000	20.50935000	4.73671200
178.59998957	0.00000000	20.17716000	4.73671200
178.79998956	0.00000000	19.80807000	4.73671200
178.99998954	0.00000000	20.17716000	4.73671200
179.19998953	0.00000000	20.50935000	4.73671200
179.39998952	0.00000000	20.55241000	4.73671200
179.59998951	0.00000000	20.55241000	4.69365100
179.79998950	0.00000000	20.55241000	4.31840500
179.99998948	0.00000000	20.55241000	3.57406500
180.19998947	0.00000000	20.50935000	3.19881900
180.39998946	0.00000000	20.13410000	3.15575800
180.59998945	0.00000000	19.38976000	3.19881900
180.79998944	0.00000000	19.06373000	3.57406500
180.99998942	0.00000000	19.34670000	4.31840500
181.19998941	0.00000000	19.75886000	4.69365100
181.39998940	0.00000000	19.72195000	4.73671200
181.59998939	0.00000000	19.80192000	4.73671200
181.79998938	0.00000000	19.76501000	4.73671200
181.99998937	0.00000000	20.17716000	4.73671200
182.19998935	0.00000000	20.50935000	4.73671200
182.39998934	0.00000000	20.55241000	4.69365100
182.59998933	0.00000000	20.55241000	4.31840500
182.79998932	0.00000000	20.50935000	3.57406500
182.99998931	0.00000000	20.17716000	3.19881900
183.19998929	0.00000000	19.80807000	3.15575800
183.39998928	0.00000000	20.13410000	3.15575800
183.59998927	0.00000000	20.08489000	3.19881900
183.79998926	0.00000000	19.38976000	3.57406500
183.99998925	0.00000000	19.01451000	4.31840500
184.19998923	0.00000000	18.97145000	4.69365100
184.39998922	0.00000000	18.97145000	4.73671200
184.59998921	0.00000000	18.97145000	4.73671200
184.79998920	0.00000000	19.01451000	4.73671200
184.99998919	0.00000000	19.38976000	4.69365100
185.19998918	0.00000000	20.13410000	4.31840500
185.39998916	0.00000000	20.46014000	3.57406500
185.59998915	0.00000000	20.17716000	3.19881900
185.79998914	0.00000000	19.80807000	3.15575800
185.99998913	0.00000000	20.17716000	3.15575800
186.19998912	0.00000000	20.46014000	3.15575800
186.39998910	0.00000000	20.13410000	3.19881900
186.59998909	0.00000000	19.38976000	3.57406500
186.79998908	0.00000000	19.01451000	4.31840500
186.99998907	0.00000000	18.97145000	4.69365100
187.19998906	0.00000000	18.97145000	4.73671200
187.39998904	0.00000000	18.97145000	4.73671200
187.59998903	0.00000000	18.97145000	4.73671200
187.79998902	0.00000000	18.97145000	4.73671200
187.99998901	0.00000000	19.01451000	4.73671200
188.19998900	0.00000000	19.38976000	4.69365100
188.39998899	0.00000000	20.13410000	4.31840500
188.59998897	0.00000000	20.50935000	3.57406500
188.79998896	0.00000000	20.55241000	3.19881900
188.99998895	0.00000000	20.50935000	3.15575800
189.19998894	0.00000000	20.13410000	3.15575800
189.39998893	0.00000000	19.43897000	3.19881900
189.59998891	0.00000000	19.38976000	3.53100400
189.79998890	0.00000000	19.71580000	3.94315900
189.99998889	0.00000000	19.34670000	3.94931100
190.19998888	0.00000000	19.01451000	4.31840500
190.39998887	0.00000000	18.97145000	4.31840500
190.59998885	0.00000000	19.01451000	3.99237200
190.79998884	0.00000000	19.34670000	4.36146600
190.99998883	0.00000000	19.75886000	4.69365100
191.19998882	0.00000000	19.76501000	4.73671200
191.39998881	0.00000000	20.17716000	4.73671200
191.59998880	0.00000000	20.50935000	4.69365100
191.79998878	0.00000000	20.55241000	4.31840500
191.99998877	0.00000000	20.50935000	3.57406500
192.19998876	0.00000000	20.13410000	3.19881900
192.39998875	0.00000000	19.38976000	3.19881900
192.59998874	0.00000000	19.01451000	3.53100400
192.79998872	0.00000000	18.97145000	3.94315900
192.99998871	0.00000000	18.97145000	3.94931100
193.19998870	0.00000000	18.97145000	4.36146600
193.39998869	0.00000000	18.97145000	4.69365100
193.59998868	0.00000000	18.97145000	4.73671200
193.79998866	0.00000000	19.01451000	4.73671200
193.99998865	0.00000000	19.34670000	4.73671200
194.19998864	0.00000000	19.75886000	4.73671200
194.39998863	0.00000000	19.76501000	4.73671200
194.59998862	0.00000000	20.13410000	4.69365100
194.79998861	0.00000000	20.08489000	4.31840500
194.99998859	0.00000000	19.38976000	3.62327700
195.19998858	0.00000000	19.06373000	3.57406500
195.39998857	0.00000000	19.34670000	3.90009800
195.59998856	-0.15871060	19.71580000	3.53100400
195.79998855	0.00000000	19.34670000	3.19881900
195.99998853	0.00000000	19.01451000	3.15575800
