Time	Channel A	Channel B	Channel C
(us)	(V)	(mV)	(mV)

-4.49999956	0.00000000	26.50098000	7.05585600
-4.29999957	0.00000000	26.83317000	6.68676100
-4.09999958	0.00000000	26.87623000	6.35457700
-3.89999959	0.00000000	26.87623000	6.31151500
-3.69999960	0.00000000	26.87623000	6.31151500
-3.49999962	0.00000000	26.83317000	6.31151500
-3.29999963	0.00000000	26.50098000	6.31151500
-3.09999964	0.00000000	26.13189000	6.31151500
-2.89999965	0.00000000	26.50098000	6.35457700
-2.69999966	0.00000000	26.83317000	6.72982200
-2.49999968	0.00000000	26.87623000	7.47416300
-2.29999969	0.00000000	26.87623000	7.84940900
-2.09999970	0.00000000	26.87623000	7.89247000
-1.89999971	0.00000000	26.87623000	7.89247000
-1.69999972	0.00000000	26.87623000	7.89247000
-1.49999973	0.00000000	26.87623000	7.84940900
-1.29999975	0.00000000	26.87623000	7.47416300
-1.09999976	0.00000000	26.87623000	6.72982200
-0.89999977	0.00000000	26.87623000	6.35457700
-0.69999978	0.00000000	26.87623000	6.31151500
-0.49999979	0.00000000	26.87623000	6.31151500
-0.29999981	0.31803640	26.87623000	6.31151500
-0.09999982	0.63668800	26.83317000	6.31151500
0.10000017	0.95533960	26.50098000	6.31151500
0.30000016	0.95533960	26.08883000	6.31151500
0.50000015	0.79601380	26.12574000	6.31151500
0.70000013	0.15871060	26.04577000	6.31151500
0.90000012	-0.63668800	26.12574000	6.31151500
1.10000011	-1.75196900	26.08883000	6.31151500
1.30000010	-2.54859700	26.50098000	6.31151500
1.50000009	-2.86724900	26.83317000	6.35457700
1.70000008	-2.22994600	26.87623000	6.72982200
1.90000006	-1.11466500	26.87623000	7.47416300
2.10000005	0.95533960	26.87623000	7.84940900
2.30000004	2.86724900	26.83317000	7.84940900
2.50000003	4.61921700	26.45792000	7.47416300
2.70000002	5.25652100	25.71358000	6.72982200
2.90000000	4.61921700	25.33834000	6.35457700
3.09999999	2.54859700	25.29527000	6.31151500
3.29999998	-0.63668800	25.29527000	6.31151500
3.49999997	-3.98191400	25.29527000	6.31151500
3.69999996	-6.69045300	25.33834000	6.35457700
3.89999994	-7.96444400	25.71358000	6.77903500
4.09999993	-7.16781500	26.45792000	7.84940900
4.29999992	-4.45989200	26.78395000	8.58759800
4.49999991	-0.47736220	26.50098000	8.26771600
4.69999990	3.98191400	26.13189000	7.89247000
4.89999989	7.64579200	26.45792000	7.47416300
5.09999987	9.39837600	26.40871000	6.72982200
5.29999986	8.76107300	25.71358000	6.35457700
5.49999985	6.05315000	25.33834000	6.31151500
5.69999984	1.75196900	25.29527000	6.31151500
5.89999983	-3.18590100	25.33834000	6.31151500
6.09999981	-7.16781500	25.71358000	6.31151500
6.29999980	-9.23905000	26.45792000	6.35457700
6.49999979	-9.07972400	26.83317000	6.72982200
6.69999978	-6.69045300	26.83317000	7.47416300
6.89999977	-2.70792300	26.50098000	7.84940900
7.09999975	1.59264300	26.08883000	7.84940900
7.29999974	5.25652100	26.08268000	7.47416300
7.49999973	7.48646600	25.67052000	6.72982200
7.69999972	7.48646600	25.33834000	6.35457700
7.89999971	5.89382400	25.29527000	6.31151500
8.09999970	2.86724900	25.29527000	6.31151500
8.29999968	-0.31803640	25.29527000	6.31151500
8.49999967	-3.18590100	25.29527000	6.31151500
8.69999966	-4.93786900	25.29527000	6.31151500
8.89999965	-5.09719500	25.29527000	6.31151500
9.09999964	-4.14124000	25.29527000	6.31151500
9.29999962	-2.38927200	25.29527000	6.31151500
9.49999961	-0.47736220	25.29527000	6.31151500
9.69999960	1.27399100	25.33834000	6.31151500
9.89999959	2.22994600	25.67052000	6.31151500
10.09999958	2.54859700	26.03961000	6.31151500
10.29999956	2.07062000	25.67052000	6.31151500
10.49999955	1.27399100	25.33834000	6.31151500
10.69999954	0.31803640	25.29527000	6.31151500
10.89999953	-0.31803640	25.29527000	6.31151500
11.09999952	-0.79601380	25.29527000	6.31151500
11.29999951	-0.95533960	25.29527000	6.31151500
11.49999949	-0.95533960	25.29527000	6.31151500
11.69999948	-0.63668800	25.29527000	6.31151500
11.89999947	-0.31803640	25.29527000	6.31151500
12.09999946	-0.15871060	25.29527000	6.31151500
12.29999945	-0.15871060	25.33834000	6.31151500
12.49999943	0.00000000	25.67052000	6.31151500
12.69999942	0.00000000	26.03961000	6.31151500
12.89999941	0.00000000	25.67052000	6.31151500
13.09999940	0.00000000	25.33834000	6.31151500
13.29999939	0.00000000	25.29527000	6.31151500
13.49999937	0.00000000	25.29527000	6.31151500
13.69999936	0.00000000	25.29527000	6.31151500
13.89999935	0.00000000	25.29527000	6.31151500
14.09999934	-0.15871060	25.29527000	6.31151500
14.29999933	-0.15871060	25.29527000	6.31151500
14.49999932	-0.15871060	25.29527000	6.31151500
14.69999930	-0.15871060	25.29527000	6.31151500
14.89999929	0.00000000	25.29527000	6.31151500
15.09999928	0.00000000	25.29527000	6.31151500
15.29999927	0.00000000	25.29527000	6.31151500
15.49999926	0.00000000	25.29527000	6.31151500
15.69999924	0.00000000	25.29527000	6.31151500
15.89999923	0.00000000	25.29527000	6.31151500
16.09999922	0.00000000	25.29527000	6.31151500
16.29999921	-0.15871060	25.33834000	6.31151500
16.49999920	-0.15871060	25.71358000	6.31151500
16.69999919	-0.15871060	26.45792000	6.31151500
16.89999917	-0.15871060	26.87623000	6.31151500
17.09999916	0.00000000	27.25147000	6.31151500
17.29999915	0.00000000	27.66363000	6.31151500
17.49999914	0.00000000	27.62672000	6.31151500
17.69999913	0.00000000	27.66363000	6.31151500
17.89999911	0.00000000	27.15920000	6.31151500
18.09999910	0.00000000	26.03961000	6.31151500
18.29999909	0.00000000	24.13263000	6.31151500
18.49999908	0.00000000	22.60088000	6.31151500
18.69999907	0.00000000	21.75812000	6.31151500
18.89999905	0.00000000	21.01993000	6.31151500
19.09999904	0.00000000	21.10605000	6.31151500
19.29999903	0.00000000	22.64394000	6.31151500
19.49999902	0.00000000	25.38755000	6.31151500
19.69999901	0.00000000	28.87549000	6.31151500
19.89999900	0.00000000	32.73868000	6.31151500
20.09999898	0.00000000	35.76525000	6.31151500
20.29999897	0.00000000	36.92790000	6.31151500
20.49999896	0.00000000	35.67913000	6.31151500
20.69999895	0.00000000	31.76058000	6.31151500
20.89999894	0.00000000	25.15994000	6.31151500
21.09999892	0.00000000	17.48277000	6.31151500
21.29999891	0.00000000	10.50689000	6.31151500
21.49999890	0.00000000	5.94242000	6.31151500
21.69999889	0.00000000	5.24729300	6.31151500
21.89999888	0.00000000	9.56569900	6.31151500
22.09999886	0.00000000	18.49778000	6.31151500
22.29999885	0.00000000	30.50566000	6.31151500
22.49999884	0.00000000	43.20866000	6.31151500
22.69999883	0.00000000	53.21112000	6.31151500
22.89999882	0.00000000	57.77559000	6.35457700
23.09999881	0.00000000	55.35186000	6.72982200
23.29999879	0.00000000	45.25713000	7.47416300
23.49999878	-0.15871060	29.39837000	7.89247000
23.69999877	0.00000000	11.24508000	8.26771600
23.89999876	0.00000000	-5.30880900	8.63681000
24.09999875	0.00000000	-15.64345000	8.26771600
24.29999873	0.00000000	-16.80610000	7.84940900
24.49999872	0.00000000	-8.24926100	7.01279500
24.69999871	0.00000000	8.45226300	5.11195900
24.89999870	0.00000000	30.46260000	3.19881900
25.09999869	0.00000000	52.79281000	1.66707700
25.29999867	0.00000000	69.36516000	0.92888770
25.49999866	0.00000000	76.29182000	1.71013800
25.69999865	0.00000000	71.64124000	3.61712600
25.89999864	0.00000000	56.15157000	6.40378900
26.09999863	0.00000000	33.34769000	9.89173200
26.29999862	0.00000000	7.89862200	13.74262000
26.49999860	0.00000000	-13.68725000	16.76919000
26.69999859	0.00000000	-26.06422000	17.92569000
26.89999858	0.00000000	-26.85162000	16.72613000
27.09999857	0.00000000	-15.64345000	13.18898000
27.29999856	0.00000000	4.77977300	7.29576700
27.49999854	0.00000000	29.48450000	-0.37524600
27.69999853	0.00000000	52.70054000	-8.03395600
27.89999852	0.00000000	69.36516000	-13.01058000
28.09999851	0.00000000	76.34103000	-14.12401000
28.29999850	0.00000000	72.05955000	-10.59301000
28.49999848	0.00000000	57.44340000	-2.46678100
28.69999847	0.00000000	36.23277000	8.35998900
28.89999846	0.00000000	13.80413000	19.97416000
29.09999845	0.00000000	-5.17962600	29.95817000
29.29999844	0.00000000	-16.76304000	35.67913000
29.49999843	0.00000000	-18.38706000	35.26082000
29.69999841	0.00000000	-10.34080000	28.24803000
29.89999840	0.00000000	4.69365100	15.88336000
30.09999839	0.00000000	23.25295000	0.41830710
30.29999838	0.00000000	41.02485000	-14.59153000
30.49999837	0.00000000	54.23843000	-25.78740000
30.69999835	0.00000000	60.51919000	-30.34572000
30.89999834	0.00000000	59.39960000	-26.90084000
31.09999833	0.00000000	51.67323000	-16.08022000
31.29999832	0.00000000	38.92716000	-0.60285430
31.49999831	0.00000000	24.26796000	16.81225000
31.69999829	0.00000000	11.06053000	32.60949000
31.89999828	0.00000000	1.75319900	43.06717000
32.09999827	0.00000000	-2.14689900	46.13681000
32.29999826	0.00000000	0.17224410	41.06791000
32.49999825	0.00000000	7.80634800	28.34030000
32.69999824	0.00000000	18.63927000	11.00517000
32.89999822	0.00000000	29.81668000	-6.78518600
33.09999821	0.00000000	39.16092000	-21.51206000
33.29999820	0.00000000	44.56200000	-30.43184000
33.49999819	0.00000000	45.39862000	-31.92052000
33.69999818	0.00000000	41.53543000	-25.36909000
33.89999816	0.00000000	34.27657000	-11.89715000
34.09999815	0.00000000	25.76279000	4.69365100
34.29999814	0.00000000	18.03642000	20.95226000
34.49999813	0.00000000	12.64149000	33.72293000
34.69999812	0.00000000	11.06053000	40.28051000
34.89999810	0.00000000	13.33661000	39.53002000
35.09999809	0.00000000	18.31939000	31.45300000
35.29999808	0.00000000	24.82775000	18.35015000
35.49999807	0.00000000	30.60408000	3.29109200
35.69999806	0.00000000	34.14124000	-10.54995000
35.89999805	0.00000000	35.30389000	-19.42667000
36.09999803	0.00000000	33.72293000	-21.41978000
36.29999802	0.00000000	29.52756000	-16.86762000
36.49999801	0.00000000	24.18184000	-7.20349400
36.69999800	0.00000000	19.56816000	5.06889700
36.89999799	0.00000000	16.83071000	17.00295000
37.09999797	0.00000000	16.45546000	25.04306000
37.29999796	0.00000000	18.36245000	27.45448000
37.49999795	0.00000000	22.22564000	24.02190000
37.69999794	0.00000000	26.83317000	16.35089000
37.89999793	0.00000000	31.06545000	6.36072800
38.09999791	0.00000000	33.76599000	-3.16190900
38.29999790	0.00000000	34.18430000	-8.92593500
38.49999789	0.00000000	32.64640000	-9.34424200
38.69999788	0.00000000	29.52756000	-4.78592500
38.89999787	0.00000000	25.33834000	3.29109200
39.09999786	0.00000000	21.38902000	12.45079000
39.29999784	0.00000000	18.31324000	20.11565000
39.49999783	0.00000000	16.00025000	23.51132000
39.69999782	0.00000000	16.03715000	21.60433000
39.89999781	0.00000000	17.85802000	14.72687000
40.09999780	0.00000000	20.64468000	5.15501900
40.29999778	0.00000000	24.13263000	-4.04773600
40.49999777	0.00000000	28.03888000	-10.59301000
40.69999776	0.00000000	31.48376000	-12.45694000
40.89999775	0.00000000	33.80905000	-9.06126900
41.09999774	0.00000000	34.23351000	-1.35334600
41.29999772	0.00000000	33.11393000	8.22465500
41.49999771	0.00000000	31.10851000	17.46432000
41.69999770	0.00000000	27.98966000	23.60359000
41.89999769	0.00000000	24.13263000	25.17839000
42.09999768	0.00000000	20.68774000	22.10876000
42.29999767	0.00000000	18.31939000	15.18824000
42.49999765	0.00000000	17.52584000	6.36072800
42.69999764	0.00000000	17.90108000	-2.09768700
42.89999763	0.00000000	19.48204000	-7.89862200
43.09999762	0.00000000	22.13336000	-9.85482200
43.29999761	0.00000000	24.82775000	-7.94783400
43.49999759	0.00000000	26.83317000	-2.60211600
43.69999758	0.00000000	28.41412000	4.26919300
43.89999757	0.00000000	29.52756000	10.49459000
44.09999756	0.00000000	29.57062000	15.14518000
44.29999755	0.00000000	28.87549000	17.46432000
44.49999753	0.00000000	28.50024000	16.72613000
44.69999752	0.00000000	28.45718000	13.69956000
44.89999751	0.00000000	28.41412000	9.47342500
45.09999750	0.00000000	27.98966000	5.24729300
45.29999749	0.00000000	26.83317000	2.12844500
45.49999748	0.00000000	25.25221000	0.51058070
45.69999746	0.00000000	23.24680000	0.13533460
45.89999745	0.00000000	20.50935000	0.92888770
46.09999744	0.00000000	17.48277000	3.19881900
46.29999743	0.00000000	15.24975000	5.89320800
46.49999742	0.00000000	15.29281000	8.21850300
46.69999740	0.00000000	17.98720000	10.16855000
46.89999739	0.00000000	22.64394000	10.91289000
47.09999738	0.00000000	28.50640000	10.58686000
47.29999737	0.00000000	34.65182000	9.38115100
47.49999736	0.00000000	39.62844000	7.47416300
47.69999734	0.00000000	41.49237000	5.15501900
47.89999733	0.00000000	39.57923000	3.24803100
48.09999732	0.00000000	34.09818000	2.04232300
48.29999731	0.00000000	25.99655000	1.66707700
48.49999730	0.00000000	16.78149000	2.08538400
48.69999729	-0.15871060	9.47957600	3.66633800
48.89999727	0.00000000	5.98548200	6.36072800
49.09999726	0.00000000	6.73597400	9.42421200
49.29999725	0.00000000	11.79872000	12.11860000
49.49999724	0.00000000	19.94340000	13.61343000
49.69999723	0.00000000	29.95201000	13.23819000
49.89999721	0.00000000	39.16092000	10.91289000
50.09999720	0.00000000	44.56200000	7.47416300
50.29999719	0.00000000	45.34940000	3.57406500
50.49999718	0.00000000	41.07406000	0.13533460
50.69999717	0.00000000	32.64640000	-2.18380900
50.89999715	0.00000000	22.64394000	-2.50984200
51.09999714	0.00000000	13.75492000	-0.64591530
51.29999713	0.00000000	7.98474400	2.82972400
51.49999712	0.00000000	6.82824800	6.68676100
51.69999711	0.00000000	10.68528000	10.58686000
51.89999710	0.00000000	18.31939000	13.60728000
52.09999708	0.00000000	27.52830000	14.81299000
52.29999707	0.00000000	35.21161000	14.03174000
52.49999706	0.00000000	39.49311000	11.70029000
52.69999705	0.00000000	39.53617000	7.84940900
52.89999704	0.00000000	35.67913000	3.66633800
53.09999702	0.00000000	29.15846000	0.59670270
53.29999701	0.00000000	21.48130000	-0.60285430
53.49999700	0.00000000	15.33587000	0.13533460
53.69999699	0.00000000	12.26624000	2.04232300
53.89999698	0.00000000	13.01673000	4.73671200
54.09999696	0.00000000	17.56890000	7.43110200
54.29999695	0.00000000	23.71432000	9.33809000
54.49999694	0.00000000	29.90280000	10.11934000
54.69999693	0.00000000	34.88558000	9.38115100
54.89999692	0.00000000	36.79257000	7.89247000
55.09999691	0.00000000	35.30389000	6.31151500
55.29999689	0.00000000	31.06545000	4.82283400
55.49999688	0.00000000	25.29527000	4.08464600
55.69999687	0.00000000	19.52510000	4.87204700
55.89999686	0.00000000	15.33587000	6.72982200
56.09999685	0.00000000	14.17938000	9.00590400
56.29999683	0.00000000	16.45546000	10.49459000
56.49999682	0.00000000	21.01993000	10.49459000
56.69999681	0.00000000	26.40871000	8.96284400
56.89999680	0.00000000	31.02239000	6.22539300
57.09999679	0.00000000	33.76599000	2.78051200
57.29999677	0.00000000	34.14124000	-0.60285430
57.49999676	0.00000000	32.22810000	-2.09153500
57.69999675	0.00000000	28.41412000	-0.97810030
57.89999674	0.00000000	24.18184000	2.12844500
58.09999673	0.00000000	20.68774000	6.77903500
58.29999672	0.00000000	18.36245000	12.11860000
58.49999670	0.00000000	17.98720000	16.35089000
58.69999669	0.00000000	19.48204000	18.25787000
58.89999668	0.00000000	22.17643000	17.46432000
59.09999667	0.00000000	25.25221000	13.56422000
59.29999666	0.00000000	27.94660000	7.43110200
59.49999664	0.00000000	29.48450000	0.51058070
59.69999663	0.00000000	29.52756000	-5.20423200
59.89999662	0.00000000	28.36491000	-7.94783400
60.09999661	0.00000000	26.45792000	-7.16043300
60.29999660	0.00000000	24.13263000	-3.29724400
60.49999658	0.00000000	22.26870000	3.29109200
60.69999657	0.00000000	21.48130000	10.91289000
60.89999656	0.00000000	22.22564000	17.50738000
61.09999655	0.00000000	23.71432000	21.32751000
61.29999654	0.00000000	25.25221000	21.69045000
61.49999653	0.00000000	26.40871000	17.83957000
61.69999651	0.00000000	26.78395000	10.96211000
61.89999650	0.00000000	26.40871000	3.24803100
62.09999649	0.00000000	25.29527000	-3.72170300
62.29999648	0.00000000	24.13263000	-8.36614100
62.49999647	0.00000000	23.29601000	-9.89788300
62.69999645	-0.15871060	22.17643000	-7.89862200
62.89999644	0.00000000	21.48130000	-2.14074800
63.09999643	0.00000000	22.22564000	5.89320800
63.29999642	0.00000000	23.75738000	13.56422000
63.49999641	0.00000000	25.67052000	19.04527000
63.69999639	0.00000000	27.57136000	21.37057000
63.89999638	0.00000000	28.36491000	20.62008000
64.09999637	0.00000000	28.41412000	16.71998000
64.29999636	0.00000000	27.94660000	10.58686000
64.49999635	0.00000000	26.40871000	3.66633800
64.69999634	0.00000000	24.18184000	-2.14074800
64.89999632	0.00000000	22.60088000	-5.62253900
65.09999631	0.00000000	21.80118000	-6.45300100
65.29999630	0.00000000	21.43824000	-4.55831700
65.49999629	0.00000000	22.22564000	-1.11343500
65.69999628	0.00000000	23.71432000	3.15575800
65.89999626	0.00000000	25.25221000	7.43110200
66.09999625	0.00000000	26.40871000	10.96211000
66.29999624	0.00000000	26.74089000	13.69956000
66.49999623	0.00000000	25.99040000	15.23130000
66.69999622	0.00000000	24.13263000	15.27436000
66.89999620	0.00000000	22.64394000	14.11786000
67.09999619	0.00000000	22.17643000	12.11860000
67.29999618	0.00000000	22.17643000	9.00590400
67.49999617	0.00000000	22.64394000	5.15501900
67.69999616	0.00000000	24.22490000	1.66707700
67.89999615	0.00000000	26.83317000	-1.11343500
68.09999613	0.00000000	29.10925000	-3.02042300
68.29999612	0.00000000	29.90280000	-3.76476400
68.49999611	0.00000000	29.48450000	-2.60211600
68.69999610	0.00000000	27.52830000	0.13533460
68.89999609	0.00000000	24.04650000	3.99237200
69.09999607	0.00000000	20.22022000	8.67987200
69.29999606	0.00000000	16.73843000	12.91215000
69.49999605	0.00000000	14.87451000	16.43701000
69.69999604	0.00000000	15.24975000	18.25787000
69.89999603	0.00000000	17.98720000	17.50738000
70.09999601	0.00000000	22.60088000	14.03174000
70.29999600	0.00000000	27.98966000	9.05511800
70.49999599	0.00000000	32.64640000	3.57406500
70.69999598	0.00000000	35.72219000	-1.39640700
70.89999597	0.00000000	36.46653000	-4.87204700
71.09999596	0.00000000	34.09818000	-5.67175200
71.29999594	0.00000000	29.15846000	-4.13385800
71.49999593	0.00000000	22.92692000	-0.60285430
71.69999592	0.00000000	17.15059000	4.73671200
71.89999591	0.00000000	12.54921000	10.11934000
72.09999590	0.00000000	11.01747000	13.98253000
72.29999588	0.00000000	12.87525000	15.92642000
72.49999587	0.00000000	16.73843000	15.18824000
72.69999586	0.00000000	22.17643000	12.53691000
72.89999585	0.00000000	27.94660000	9.05511800
73.09999584	0.00000000	32.64640000	5.24729300
73.29999582	0.00000000	35.72219000	2.54675200
73.49999581	0.00000000	36.46653000	1.71013800
73.69999580	0.00000000	34.14124000	2.04232300
73.89999579	0.00000000	29.57677000	3.24803100
74.09999578	0.00000000	24.18184000	5.11195900
74.29999577	0.00000000	19.52510000	6.96358300
74.49999575	0.00000000	16.40625000	7.33882900
74.69999574	0.00000000	15.24975000	6.26845500
74.89999573	0.00000000	16.36319000	4.77977300
75.09999572	0.00000000	19.06373000	3.62327700
75.29999571	0.00000000	22.55167000	3.24803100
75.49999569	0.00000000	26.36565000	3.66633800
75.69999568	0.00000000	29.06619000	5.24729300
75.89999567	0.00000000	29.90280000	7.89247000
76.09999566	0.00000000	29.57062000	10.58686000
76.29999565	0.00000000	28.41412000	12.49385000
76.49999563	0.00000000	26.87623000	13.18898000
76.69999562	0.00000000	25.29527000	11.65723000
76.89999561	0.00000000	23.80659000	8.22465500
77.09999560	0.00000000	23.01919000	4.31840500
77.29999559	0.00000000	23.38214000	0.04306102
77.49999558	0.00000000	24.04650000	-3.71555100
77.69999556	0.00000000	24.45866000	-5.20423200
77.89999555	0.00000000	24.04650000	-3.67249000
78.09999554	0.00000000	23.33907000	0.51058070
78.29999553	0.00000000	22.55167000	5.89320800
78.49999552	0.00000000	22.17643000	10.95595000
78.69999550	0.00000000	22.17643000	15.18824000
78.89999549	0.00000000	22.60088000	17.50738000
79.09999548	0.00000000	23.80659000	17.13829000
79.29999547	0.00000000	25.71358000	14.81299000
79.49999546	0.00000000	27.98966000	10.53765000
79.69999544	0.00000000	29.52756000	5.19808000
79.89999543	0.00000000	29.85974000	0.55364170
80.09999542	0.00000000	28.73400000	-2.55905500
80.29999541	0.00000000	26.04577000	-3.76476400
80.49999540	0.00000000	23.33907000	-3.02042300
80.69999539	0.00000000	20.59547000	-1.07037400
80.89999537	0.00000000	18.36245000	2.04232300
81.09999536	0.00000000	17.94414000	5.89320800
81.29999535	0.00000000	19.06373000	9.33809000
81.49999534	0.00000000	21.01993000	11.74951000
81.69999533	0.00000000	23.75738000	12.91215000
81.89999531	0.00000000	26.78395000	13.32431000
82.09999530	0.00000000	29.06619000	12.53691000
82.29999529	0.00000000	29.52756000	11.00517000
82.49999528	0.00000000	28.78937000	9.00590400
82.69999527	0.00000000	27.57136000	6.31151500
82.89999525	0.00000000	25.25221000	3.57406500
83.09999524	0.00000000	22.64394000	1.24877000
83.29999523	0.00000000	21.06299000	-0.69512790
83.49999522	0.00000000	20.64468000	-1.39640700
83.69999521	0.00000000	20.97072000	-0.64591530
83.89999520	0.00000000	21.75812000	1.62401600
84.09999518	0.00000000	22.55167000	4.36146600
84.29999517	0.00000000	23.71432000	7.14812900
84.49999516	0.00000000	24.82775000	10.62992000
84.69999515	0.00000000	25.25221000	13.65650000
84.89999514	0.00000000	25.25221000	15.18824000
85.09999512	0.00000000	24.92003000	14.76993000
85.29999511	0.00000000	24.55093000	12.07554000
85.49999510	0.00000000	24.92003000	7.84940900
85.69999509	0.00000000	25.25221000	3.24803100
85.89999508	0.00000000	25.29527000	-0.64591530
86.09999506	0.00000000	25.25221000	-2.97736200
86.29999505	0.00000000	24.87697000	-3.71555100
86.49999504	0.00000000	24.08957000	-2.14074800
86.69999503	0.00000000	23.29601000	1.66707700
86.89999502	0.00000000	22.17643000	6.26845500
87.09999501	0.00000000	21.43824000	10.53765000
87.29999499	0.00000000	21.80118000	13.60728000
87.49999498	0.00000000	22.55167000	14.76993000
87.69999497	0.00000000	23.75738000	13.60728000
87.89999496	0.00000000	25.25221000	10.53765000
88.09999495	0.00000000	26.40871000	6.31151500
88.29999493	0.00000000	26.83317000	2.08538400
88.49999492	0.00000000	26.83317000	-1.02116100
88.69999491	0.00000000	26.40871000	-2.50984200
88.89999490	0.00000000	25.25221000	-1.72244100
89.09999489	0.00000000	23.71432000	1.71013800
89.29999487	0.00000000	22.22564000	6.26845500
89.49999486	0.00000000	21.43824000	10.53765000
89.69999485	0.00000000	21.80118000	13.60728000
89.89999484	0.00000000	22.50861000	14.76993000
90.09999483	0.00000000	23.33907000	13.60728000
90.29999482	0.00000000	24.08957000	10.49459000
90.49999480	0.00000000	24.87697000	5.93626900
90.69999479	0.00000000	25.25221000	1.34719500
90.89999478	0.00000000	25.29527000	-1.35334600
91.09999477	0.00000000	25.29527000	-2.18380900
91.29999476	0.00000000	25.25221000	-0.97810030
91.49999474	0.00000000	24.92003000	2.08538400
91.69999473	0.00000000	24.55093000	6.31151500
91.89999472	0.00000000	24.92003000	10.53765000
92.09999471	0.00000000	25.25221000	13.60728000
92.29999470	0.00000000	25.25221000	14.72687000
92.49999468	0.00000000	24.87697000	13.18898000
92.69999467	0.00000000	24.08957000	9.38115100
92.89999466	0.00000000	23.33907000	4.77977300
93.09999465	0.00000000	22.50861000	0.55364170
93.29999464	0.00000000	21.75812000	-2.09153500
93.49999463	0.00000000	21.01993000	-2.14074800
93.69999461	0.00000000	21.06299000	0.13533460
93.89999460	0.00000000	22.17643000	3.57406500
94.09999459	0.00000000	23.75738000	7.47416300
94.29999458	0.00000000	25.71358000	10.91289000
94.49999457	0.00000000	27.98966000	13.18898000
94.69999455	0.00000000	29.48450000	13.14591000
94.89999454	0.00000000	29.52756000	10.53765000
95.09999453	0.00000000	28.36491000	6.72982200
95.29999452	0.00000000	26.36565000	3.19881900
95.49999451	0.00000000	23.29601000	0.13533460
95.69999449	0.00000000	19.85728000	-1.71628900
95.89999448	0.00000000	17.52584000	-0.97810030
96.09999447	0.00000000	16.36319000	1.62401600
96.29999446	0.00000000	16.83071000	4.73671200
96.49999445	0.00000000	19.48204000	7.84940900
96.69999444	0.00000000	23.29601000	10.49459000
96.89999442	0.00000000	26.83317000	11.65723000
97.09999441	0.00000000	29.94586000	10.91289000
97.29999440	0.00000000	32.22810000	9.05511800
97.49999439	0.00000000	32.60334000	6.68676100
97.69999438	0.00000000	31.06545000	4.40452700
97.89999436	0.00000000	27.98966000	2.50369100
98.09999435	0.00000000	24.08957000	2.08538400
98.29999434	0.00000000	20.22022000	2.78051200
98.49999433	0.00000000	16.78149000	3.57406500
98.69999432	0.00000000	15.24975000	4.73671200
98.89999430	0.00000000	15.94488000	5.89320800
99.09999429	0.00000000	17.90108000	6.64370100
99.29999428	0.00000000	21.01993000	7.09891700
99.49999427	0.00000000	24.87697000	7.06200700
99.69999426	0.00000000	28.36491000	7.14197800
99.89999425	0.00000000	31.06545000	7.10506800
100.09999423	0.00000000	32.22810000	7.51722400
100.29999422	0.00000000	31.48376000	7.84940900
100.49999421	0.00000000	29.57062000	7.89247000
100.69999420	0.00000000	26.83317000	7.84940900
100.89999419	0.00000000	23.75738000	7.38188900
101.09999417	0.00000000	21.01993000	5.85014700
101.29999416	0.00000000	19.06373000	3.61712600
101.49999415	0.00000000	17.90108000	2.08538400
101.69999414	0.00000000	17.94414000	1.66707700
101.89999413	0.00000000	19.43897000	2.04232300
102.09999411	0.00000000	21.75812000	3.24803100
102.29999410	0.00000000	24.08957000	5.19808000
102.49999409	0.00000000	26.45792000	7.89247000
102.69999408	-0.15871060	28.32185000	10.53765000
102.89999407	0.00000000	29.15231000	12.07554000
103.09999406	0.00000000	28.74015000	12.07554000
103.29999404	0.00000000	27.62057000	10.53765000
103.49999403	0.00000000	25.67052000	7.84940900
103.69999402	0.00000000	23.75738000	4.77977300
103.89999401	0.00000000	22.13336000	2.04232300
104.09999400	0.00000000	20.59547000	0.13533460
104.29999398	0.00000000	19.48204000	-0.60285430
104.49999397	0.00000000	19.48204000	0.55364170
104.69999396	0.00000000	20.59547000	3.19881900
104.89999395	0.00000000	22.17643000	6.26845500
105.09999394	0.00000000	24.08957000	8.96284400
105.29999392	0.00000000	25.99040000	10.53765000
105.49999391	0.00000000	26.74089000	10.91289000
105.69999390	0.00000000	26.45792000	10.16855000
105.89999389	0.00000000	25.67052000	8.21850300
106.09999388	0.00000000	24.87697000	5.93626900
106.29999387	0.00000000	23.71432000	3.61712600
106.49999385	0.00000000	22.60088000	2.12844500
106.69999384	0.00000000	22.22564000	2.08538400
106.89999383	0.00000000	22.55167000	3.19881900
107.09999382	0.00000000	23.33907000	4.73671200
107.29999381	0.00000000	24.08957000	6.31151500
107.49999379	0.00000000	24.87697000	7.84940900
107.69999378	0.00000000	25.25221000	8.96284400
107.89999377	0.00000000	25.25221000	8.96284400
108.09999376	0.00000000	24.82775000	7.84940900
108.29999375	0.00000000	23.71432000	6.31151500
108.49999374	0.00000000	22.55167000	4.73671200
108.69999372	0.00000000	21.80118000	3.24803100
108.89999371	0.00000000	21.38902000	2.50369100
109.09999370	0.00000000	21.80118000	3.24803100
109.29999369	0.00000000	22.55167000	4.73671200
109.49999368	0.00000000	23.71432000	6.31151500
109.69999366	0.00000000	24.82775000	7.84940900
109.89999365	0.00000000	25.25221000	9.00590400
110.09999364	0.00000000	25.29527000	9.38115100
110.29999363	0.00000000	25.25221000	9.00590400
110.49999362	0.00000000	24.82775000	7.84940900
110.69999360	0.00000000	23.71432000	6.31151500
110.89999359	0.00000000	22.60088000	4.77977300
111.09999358	0.00000000	22.17643000	3.62327700
111.29999357	0.00000000	22.13336000	3.19881900
111.49999356	0.00000000	22.17643000	3.19881900
111.69999355	0.00000000	22.55167000	3.57406500
111.89999353	0.00000000	23.33907000	4.36146600
112.09999352	0.00000000	24.04650000	5.11195900
112.29999351	0.00000000	24.50172000	5.93626900
112.49999350	0.00000000	24.50787000	6.68676100
112.69999349	0.00000000	24.87697000	7.42495000
112.89999347	0.00000000	24.82775000	7.42495000
113.09999346	0.00000000	24.13263000	6.72982200
113.29999345	0.00000000	23.75738000	6.35457700
113.49999344	0.00000000	23.71432000	6.26845500
113.69999343	0.00000000	23.71432000	5.89320800
113.89999341	0.00000000	23.71432000	5.15501900
114.09999340	0.00000000	23.71432000	4.77977300
114.29999339	0.00000000	23.71432000	4.73671200
114.49999338	0.00000000	23.71432000	4.73671200
114.69999337	0.00000000	23.71432000	4.73671200
114.89999336	0.00000000	23.71432000	4.73671200
115.09999334	0.00000000	23.71432000	4.73671200
115.29999333	0.00000000	23.71432000	4.73671200
115.49999332	0.00000000	23.71432000	4.77977300
115.69999331	0.00000000	23.71432000	5.19808000
115.89999330	0.00000000	23.71432000	6.31151500
116.09999328	0.00000000	23.71432000	7.42495000
116.29999327	0.00000000	23.67126000	7.84940900
116.49999326	0.00000000	23.29601000	7.84940900
116.69999325	0.00000000	22.60088000	7.47416300
116.89999324	0.00000000	22.60088000	6.68676100
117.09999322	0.00000000	23.33907000	5.93626900
117.29999321	0.00000000	24.08957000	5.11195900
117.49999320	0.00000000	24.87697000	4.36146600
117.69999319	0.00000000	25.25221000	3.57406500
117.89999318	0.00000000	25.29527000	3.24803100
118.09999317	0.00000000	25.25221000	3.57406500
118.29999315	0.00000000	24.87697000	4.36146600
118.49999314	0.00000000	24.08957000	5.11195900
118.69999313	0.00000000	23.33907000	5.93626900
118.89999312	0.00000000	22.50861000	6.68676100
119.09999311	0.00000000	21.75812000	7.47416300
119.29999309	0.00000000	21.01993000	7.80019600
119.49999308	0.00000000	21.01993000	7.47416300
119.69999307	0.00000000	21.75812000	6.72982200
119.89999306	0.00000000	22.55167000	6.31151500
120.09999305	0.00000000	23.75738000	5.89320800
120.29999303	0.00000000	25.25221000	5.15501900
120.49999302	0.00000000	26.40871000	4.77977300
120.69999301	0.00000000	26.78395000	4.73671200
120.89999300	0.00000000	26.40871000	4.73671200
121.09999299	0.00000000	25.25221000	4.73671200
121.29999298	0.00000000	23.75738000	4.73671200
121.49999296	0.00000000	22.55167000	4.77977300
121.69999295	0.00000000	21.75812000	5.15501900
121.89999294	0.00000000	20.97072000	5.89320800
122.09999293	0.00000000	20.64468000	6.26845500
122.29999292	0.00000000	20.97072000	6.31151500
122.49999290	0.00000000	21.75812000	6.31151500
122.69999289	0.00000000	22.55167000	6.31151500
122.89999288	0.00000000	23.71432000	6.31151500
123.09999287	0.00000000	24.82775000	6.31151500
123.29999286	0.00000000	25.25221000	6.26845500
123.49999284	0.00000000	25.29527000	5.89320800
123.69999283	0.00000000	25.29527000	5.15501900
123.89999282	0.00000000	25.25221000	4.77977300
124.09999281	0.00000000	24.87697000	4.73671200
124.29999280	0.00000000	24.08957000	4.73671200
124.49999279	0.00000000	23.33907000	4.73671200
124.69999277	0.00000000	22.50861000	4.77977300
124.89999276	0.00000000	21.80118000	5.15501900
125.09999275	0.00000000	21.34596000	5.89320800
125.29999274	0.00000000	21.38287000	6.26845500
125.49999273	0.00000000	21.38902000	6.31151500
125.69999271	0.00000000	22.22564000	6.31151500
125.89999270	0.00000000	23.67126000	6.31151500
126.09999269	0.00000000	24.82775000	6.31151500
126.29999268	0.00000000	25.25221000	6.31151500
126.49999267	0.00000000	25.29527000	6.26845500
126.69999265	0.00000000	25.25221000	5.89320800
126.89999264	0.00000000	24.82775000	5.15501900
127.09999263	0.00000000	23.71432000	4.77977300
127.29999262	0.00000000	22.55167000	4.73671200
127.49999261	0.00000000	21.75812000	4.73671200
127.69999260	0.00000000	20.97072000	4.73671200
127.89999258	0.00000000	20.64468000	4.77977300
128.09999257	-0.15871060	21.01993000	5.15501900
128.29999256	0.00000000	22.17643000	5.89320800
128.49999255	0.00000000	23.67126000	6.26845500
128.69999254	0.00000000	24.82775000	6.31151500
128.89999252	0.00000000	25.25221000	6.31151500
129.09999251	0.00000000	25.25221000	6.26845500
129.29999250	0.00000000	24.87697000	5.89320800
129.49999249	0.00000000	24.08957000	5.15501900
129.69999248	0.00000000	23.29601000	4.77977300
129.89999246	0.00000000	22.13336000	4.73671200
130.09999245	0.00000000	21.06299000	4.73671200
130.29999244	0.00000000	21.01993000	4.77977300
130.49999243	0.00000000	21.75812000	5.15501900
130.69999242	0.00000000	22.50861000	5.89320800
130.89999241	0.00000000	23.33907000	6.26845500
131.09999239	0.00000000	24.08957000	6.31151500
131.29999238	0.00000000	24.87697000	6.26845500
131.49999237	0.00000000	25.20300000	5.89320800
131.69999236	0.00000000	24.87697000	5.15501900
131.89999235	0.00000000	24.08957000	4.77977300
132.09999233	0.00000000	23.33907000	4.73671200
132.29999232	0.00000000	22.55167000	4.73671200
132.49999231	0.00000000	22.17643000	4.73671200
132.69999230	0.00000000	22.13336000	4.77977300
132.89999229	0.00000000	22.13336000	5.15501900
133.09999227	0.00000000	22.17643000	5.89320800
133.29999226	0.00000000	22.55167000	6.31151500
133.49999225	0.00000000	23.29601000	6.68676100
133.69999224	0.00000000	23.67126000	7.05585600
133.89999223	0.00000000	23.71432000	6.68676100
134.09999222	0.00000000	23.71432000	6.31151500
134.29999220	0.00000000	23.71432000	5.89320800
134.49999219	0.00000000	23.71432000	5.11195900
134.69999218	0.00000000	23.71432000	4.40452700
134.89999217	0.00000000	23.71432000	3.99237200
135.09999216	0.00000000	23.71432000	4.36146600
135.29999214	0.00000000	23.71432000	4.73671200
135.49999213	0.00000000	23.67126000	5.15501900
135.69999212	0.00000000	23.29601000	5.89320800
135.89999211	0.00000000	22.55167000	6.26845500
136.09999210	0.00000000	22.17643000	6.31151500
136.29999208	0.00000000	22.13336000	6.31151500
136.49999207	0.00000000	22.13336000	6.31151500
136.69999206	0.00000000	22.13336000	6.26845500
136.89999205	0.00000000	22.17643000	5.89320800
137.09999204	0.00000000	22.55167000	5.15501900
137.29999203	0.00000000	23.29601000	4.77977300
137.49999201	0.00000000	23.71432000	4.73671200
137.69999200	0.00000000	24.13263000	4.69365100
137.89999199	0.00000000	24.82775000	4.36146600
138.09999198	0.00000000	24.82775000	3.99237200
138.29999197	0.00000000	24.08957000	4.36146600
138.49999195	0.00000000	23.33907000	4.69365100
138.69999194	0.00000000	22.55167000	4.77977300
138.89999193	0.00000000	22.17643000	5.15501900
139.09999192	0.00000000	22.13336000	5.89320800
139.29999191	0.00000000	22.17643000	6.26845500
139.49999189	0.00000000	22.55167000	6.31151500
139.69999188	0.00000000	23.29601000	6.31151500
139.89999187	0.00000000	23.67126000	6.31151500
140.09999186	0.00000000	23.71432000	6.26845500
140.29999185	0.00000000	23.71432000	5.89320800
140.49999184	0.00000000	23.71432000	5.11195900
140.69999182	0.00000000	23.67126000	4.36146600
140.89999181	0.00000000	23.29601000	3.57406500
141.09999180	0.00000000	22.55167000	3.24803100
141.29999179	0.00000000	22.17643000	3.57406500
141.49999178	0.00000000	22.13336000	4.36146600
141.69999176	0.00000000	22.17643000	5.15501900
141.89999175	0.00000000	22.55167000	6.31151500
142.09999174	0.00000000	23.29601000	7.42495000
142.29999173	0.00000000	23.67126000	7.80019600
142.49999172	0.00000000	23.71432000	7.47416300
142.69999170	0.00000000	23.67126000	6.68676100
142.89999169	0.00000000	23.29601000	5.93626900
143.09999168	0.00000000	22.55167000	5.11195900
143.29999167	0.00000000	22.17643000	4.36146600
143.49999166	0.00000000	22.13336000	3.57406500
143.69999165	0.00000000	22.17643000	3.24803100
143.89999163	0.00000000	22.55167000	3.57406500
144.09999162	0.00000000	23.33907000	4.36146600
144.29999161	0.00000000	24.04650000	5.11195900
144.49999160	0.00000000	24.45866000	5.89320800
144.69999159	0.00000000	24.08957000	6.26845500
144.89999157	0.00000000	23.75738000	6.31151500
145.09999156	0.00000000	23.67126000	6.31151500
145.29999155	0.00000000	23.29601000	6.26845500
145.49999154	0.00000000	22.55167000	5.89320800
145.69999153	0.00000000	22.17643000	5.15501900
145.89999151	0.00000000	22.13336000	4.73671200
146.09999150	0.00000000	22.13336000	4.36146600
146.29999149	0.00000000	22.17643000	3.99237200
146.49999148	0.00000000	22.55167000	4.36146600
146.69999147	0.00000000	23.29601000	4.69365100
146.89999146	0.00000000	23.67126000	4.77977300
147.09999144	0.00000000	23.71432000	5.15501900
147.29999143	0.00000000	23.71432000	5.89320800
147.49999142	0.00000000	23.67126000	6.26845500
147.69999141	0.00000000	23.29601000	6.31151500
147.89999140	0.00000000	22.55167000	6.31151500
148.09999138	0.00000000	22.17643000	6.26845500
148.29999137	0.00000000	22.13336000	5.89320800
148.49999136	0.00000000	22.13336000	5.15501900
148.69999135	0.00000000	22.13336000	4.77977300
148.89999134	0.00000000	22.17643000	4.73671200
149.09999132	0.00000000	22.55167000	4.73671200
149.29999131	0.00000000	23.29601000	4.73671200
149.49999130	0.00000000	23.67126000	4.73671200
149.69999129	0.00000000	23.71432000	4.77977300
149.89999128	0.00000000	23.71432000	5.15501900
150.09999127	0.00000000	23.67126000	5.89320800
150.29999125	0.00000000	23.29601000	6.26845500
150.49999124	0.00000000	22.55167000	6.31151500
150.69999123	0.00000000	22.17643000	6.31151500
150.89999122	0.00000000	22.13336000	6.31151500
151.09999121	0.00000000	22.13336000	6.26845500
151.29999119	0.00000000	22.13336000	5.89320800
151.49999118	0.00000000	22.13336000	5.15501900
151.69999117	0.00000000	22.17643000	4.77977300
151.89999116	0.00000000	22.55167000	4.73671200
152.09999115	0.00000000	23.29601000	4.73671200
152.29999113	0.00000000	23.67126000	4.73671200
152.49999112	0.00000000	23.71432000	4.73671200
152.69999111	0.00000000	23.71432000	4.77977300
152.89999110	0.00000000	23.71432000	5.11195900
153.09999109	0.00000000	23.67126000	5.51796200
153.29999108	0.00000000	23.29601000	5.53026500
153.49999106	0.00000000	22.55167000	5.93626900
153.69999105	0.00000000	22.17643000	6.26845500
153.89999104	0.00000000	22.13336000	6.31151500
154.09999103	0.00000000	22.13336000	6.31151500
154.29999102	0.00000000	22.13336000	6.26845500
154.49999100	0.00000000	22.17643000	5.89320800
154.69999099	0.00000000	22.55167000	5.15501900
154.89999098	0.00000000	23.29601000	4.77977300
155.09999097	0.00000000	23.67126000	4.73671200
155.29999096	0.00000000	23.71432000	4.73671200
155.49999094	0.00000000	23.71432000	4.73671200
155.69999093	0.00000000	23.71432000	4.73671200
155.89999092	0.00000000	23.67126000	4.73671200
156.09999091	0.00000000	23.29601000	4.77977300
156.29999090	0.00000000	22.55167000	5.15501900
156.49999089	0.00000000	22.17643000	5.89320800
156.69999087	0.00000000	22.13336000	6.26845500
156.89999086	0.00000000	22.13336000	6.31151500
157.09999085	0.00000000	22.13336000	6.31151500
157.29999084	0.00000000	22.17643000	6.26845500
157.49999083	0.00000000	22.55167000	5.89320800
157.69999081	0.00000000	23.29601000	5.15501900
157.89999080	0.00000000	23.67126000	4.77977300
158.09999079	0.00000000	23.71432000	4.73671200
158.29999078	0.00000000	23.71432000	4.73671200
158.49999077	0.00000000	23.71432000	4.73671200
158.69999075	0.00000000	23.71432000	4.77977300
158.89999074	0.00000000	23.67126000	5.11195900
159.09999073	0.00000000	23.29601000	5.51796200
159.29999072	0.00000000	22.55167000	5.53026500
159.49999071	0.00000000	22.17643000	5.93626900
159.69999070	0.00000000	22.13336000	6.26845500
159.89999068	0.00000000	22.13336000	6.31151500
160.09999067	0.00000000	22.13336000	6.26845500
160.29999066	0.00000000	22.13336000	5.89320800
160.49999065	0.00000000	22.13336000	5.15501900
160.69999064	0.00000000	22.13336000	4.77977300
160.89999062	0.00000000	22.13336000	4.73671200
161.09999061	0.00000000	22.17643000	4.73671200
161.29999060	0.00000000	22.55167000	4.73671200
161.49999059	0.00000000	23.29601000	4.73671200
161.69999058	0.00000000	23.67126000	4.73671200
161.89999056	0.00000000	23.67126000	4.77977300
162.09999055	0.00000000	23.33907000	5.15501900
162.29999054	0.00000000	22.92692000	5.89320800
162.49999053	0.00000000	22.92076000	6.26845500
162.69999052	0.00000000	22.50861000	6.31151500
162.89999051	0.00000000	22.17643000	6.26845500
163.09999049	0.00000000	22.09030000	5.93626900
163.29999048	0.00000000	21.75812000	5.53026500
163.49999047	0.00000000	21.38902000	5.51796200
163.69999046	0.00000000	21.75812000	5.11195900
163.89999045	0.00000000	22.09030000	4.77977300
164.09999043	0.00000000	22.13336000	4.73671200
164.29999042	0.00000000	22.17643000	4.73671200
164.49999041	0.00000000	22.50861000	4.73671200
164.69999040	0.00000000	22.92076000	4.73671200
164.89999039	0.00000000	22.92692000	4.73671200
165.09999037	0.00000000	23.33907000	4.73671200
165.29999036	0.00000000	23.62205000	4.73671200
165.49999035	0.00000000	23.29601000	4.73671200
165.69999034	0.00000000	22.55167000	4.77977300
165.89999033	0.00000000	22.17643000	5.15501900
166.09999032	0.00000000	22.13336000	5.89320800
166.29999030	0.00000000	22.13336000	6.21924200
166.49999029	0.00000000	22.13336000	5.89320800
166.69999028	0.00000000	22.13336000	5.15501900
166.89999027	0.00000000	22.13336000	4.77977300
167.09999026	0.00000000	22.17643000	4.73671200
167.29999024	0.00000000	22.55167000	4.73671200
167.49999023	0.00000000	23.29601000	4.73671200
167.69999022	0.00000000	23.62205000	4.73671200
167.89999021	0.00000000	23.33907000	4.77977300
168.09999020	0.00000000	22.92692000	5.11195900
168.29999018	0.00000000	22.96383000	5.47490100
168.49999017	0.00000000	22.88386000	5.11195900
168.69999016	0.00000000	22.92076000	4.77977300
168.89999015	0.00000000	22.50861000	4.73671200
169.09999014	0.00000000	22.17643000	4.73671200
169.29999013	0.00000000	22.13336000	4.73671200
169.49999011	0.00000000	22.13336000	4.73671200
169.69999010	0.00000000	22.13336000	4.73671200
169.89999009	0.00000000	22.13336000	4.73671200
170.09999008	0.00000000	22.13336000	4.73671200
170.29999007	0.00000000	22.13336000	4.73671200
170.49999005	0.00000000	22.13336000	4.73671200
170.69999004	0.00000000	22.13336000	4.73671200
170.89999003	0.00000000	22.17643000	4.73671200
171.09999002	0.00000000	22.50861000	4.73671200
171.29999001	0.00000000	22.87770000	4.73671200
171.49998999	0.00000000	22.50861000	4.73671200
171.69998998	0.00000000	22.17643000	4.73671200
171.89998997	0.00000000	22.13336000	4.73671200
172.09998996	0.00000000	22.13336000	4.73671200
172.29998995	0.00000000	22.13336000	4.73671200
172.49998994	0.00000000	22.13336000	4.73671200
172.69998992	0.00000000	22.13336000	4.73671200
172.89998991	0.00000000	22.13336000	4.73671200
173.09998990	0.00000000	22.13336000	4.73671200
173.29998989	0.00000000	22.13336000	4.73671200
173.49998988	0.00000000	22.13336000	4.73671200
173.69998986	0.00000000	22.13336000	4.73671200
173.89998985	0.00000000	22.13336000	4.73671200
174.09998984	0.00000000	22.13336000	4.73671200
174.29998983	0.00000000	22.13336000	4.73671200
174.49998982	0.00000000	22.13336000	4.73671200
174.69998980	0.00000000	22.13336000	4.77977300
174.89998979	0.00000000	22.13336000	5.11195900
175.09998978	0.00000000	22.13336000	5.47490100
175.29998977	0.00000000	22.13336000	5.11195900
175.49998976	0.00000000	22.13336000	4.77977300
175.69998975	0.00000000	22.13336000	4.73671200
175.89998973	0.00000000	22.13336000	4.73671200
176.09998972	0.00000000	22.13336000	4.73671200
176.29998971	0.00000000	22.17643000	4.73671200
176.49998970	0.00000000	22.50861000	4.73671200
176.69998969	0.00000000	22.87770000	4.73671200
176.89998967	0.00000000	22.50861000	4.73671200
177.09998966	0.00000000	22.17643000	4.73671200
177.29998965	0.00000000	22.13336000	4.73671200
177.49998964	0.00000000	22.13336000	4.73671200
177.69998963	0.00000000	22.13336000	4.73671200
177.89998961	0.00000000	22.13336000	4.73671200
178.09998960	0.00000000	22.13336000	4.77977300
178.29998959	0.00000000	22.13336000	5.15501900
178.49998958	0.00000000	22.13336000	5.89320800
178.69998957	0.00000000	22.13336000	6.21924200
178.89998956	0.00000000	22.13336000	5.93626900
179.09998954	0.00000000	22.13336000	5.53026500
179.29998953	0.00000000	22.13336000	5.51796200
179.49998952	0.00000000	22.13336000	5.11195900
179.69998951	0.00000000	22.13336000	4.77977300
179.89998950	0.00000000	22.13336000	4.73671200
180.09998948	0.00000000	22.13336000	4.73671200
180.29998947	0.00000000	22.13336000	4.73671200
180.49998946	0.00000000	22.13336000	4.73671200
180.69998945	0.00000000	22.13336000	4.73671200
180.89998944	0.00000000	22.13336000	4.73671200
181.09998942	0.00000000	22.13336000	4.73671200
181.29998941	0.00000000	22.13336000	4.77977300
181.49998940	0.00000000	22.13336000	5.15501900
181.69998939	0.00000000	22.13336000	5.89320800
181.89998938	0.00000000	22.13336000	6.21924200
182.09998937	0.00000000	22.13336000	5.89320800
182.29998935	0.00000000	22.13336000	5.15501900
182.49998934	0.00000000	22.13336000	4.77977300
182.69998933	0.00000000	22.13336000	4.73671200
182.89998932	0.00000000	22.13336000	4.73671200
183.09998931	0.00000000	22.13336000	4.73671200
183.29998929	0.00000000	22.13336000	4.73671200
183.49998928	0.00000000	22.13336000	4.73671200
183.69998927	0.00000000	22.13336000	4.73671200
183.89998926	0.00000000	22.13336000	4.77977300
184.09998925	0.00000000	22.13336000	5.15501900
184.29998923	0.00000000	22.13336000	5.89320800
184.49998922	0.00000000	22.13336000	6.26845500
184.69998921	0.00000000	22.13336000	6.31151500
184.89998920	0.00000000	22.13336000	6.26845500
185.09998919	0.00000000	22.13336000	5.89320800
185.29998918	0.00000000	22.13336000	5.15501900
185.49998916	0.00000000	22.13336000	4.77977300
185.69998915	0.00000000	22.13336000	4.73671200
185.89998914	0.00000000	22.13336000	4.73671200
186.09998913	0.00000000	22.13336000	4.73671200
186.29998912	0.00000000	22.13336000	4.73671200
186.49998910	0.00000000	22.13336000	4.73671200
186.69998909	0.00000000	22.13336000	4.73671200
186.89998908	0.00000000	22.13336000	4.73671200
187.09998907	0.00000000	22.13336000	4.77977300
187.29998906	0.00000000	22.13336000	5.15501900
187.49998904	0.00000000	22.13336000	5.89320800
187.69998903	0.00000000	22.13336000	6.21924200
187.89998902	0.00000000	22.13336000	5.89320800
188.09998901	0.00000000	22.13336000	5.15501900
188.29998900	0.00000000	22.13336000	4.77977300
188.49998899	0.00000000	22.13336000	4.73671200
188.69998897	0.00000000	22.13336000	4.73671200
188.89998896	0.00000000	22.13336000	4.73671200
189.09998895	0.00000000	22.13336000	4.73671200
189.29998894	0.00000000	22.13336000	4.73671200
189.49998893	0.00000000	22.13336000	4.73671200
189.69998891	0.00000000	22.13336000	4.73671200
189.89998890	0.00000000	22.13336000	4.73671200
190.09998889	0.00000000	22.13336000	4.73671200
190.29998888	0.00000000	22.13336000	4.73671200
190.49998887	0.00000000	22.13336000	4.73671200
190.69998885	0.00000000	22.13336000	4.77977300
190.89998884	0.00000000	22.13336000	5.11195900
191.09998883	0.00000000	22.13336000	5.47490100
191.29998882	0.00000000	22.13336000	5.11195900
191.49998881	0.00000000	22.13336000	4.77977300
191.69998880	0.00000000	22.13336000	4.73671200
191.89998878	0.00000000	22.13336000	4.73671200
192.09998877	0.00000000	22.13336000	4.73671200
192.29998876	0.00000000	22.13336000	4.73671200
192.49998875	0.00000000	22.13336000	4.73671200
192.69998874	0.00000000	22.13336000	4.73671200
192.89998872	0.00000000	22.13336000	4.73671200
193.09998871	0.00000000	22.13336000	4.73671200
193.29998870	0.00000000	22.13336000	4.73671200
193.49998869	0.00000000	22.13336000	4.77977300
193.69998868	0.00000000	22.13336000	5.11195900
193.89998866	0.00000000	22.13336000	5.47490100
194.09998865	0.00000000	22.13336000	5.11195900
194.29998864	0.00000000	22.13336000	4.77977300
194.49998863	0.00000000	22.13336000	4.73671200
194.69998862	0.00000000	22.13336000	4.73671200
194.89998861	0.00000000	22.13336000	4.73671200
195.09998859	0.00000000	22.13336000	4.73671200
195.29998858	0.00000000	22.13336000	4.73671200
195.49998857	0.00000000	22.13336000	4.73671200
195.69998856	0.00000000	22.13336000	4.73671200
195.89998855	0.00000000	22.13336000	4.73671200
196.09998853	0.00000000	22.13336000	4.73671200
