Time	Channel A	Channel B
(us)	(V)	(mV)

-4.59999956	0.00000000	0.00000000
-4.39999957	0.00000000	0.00000000
-4.19999958	0.00000000	0.00000000
-3.99999959	0.00000000	0.00000000
-3.79999960	0.00000000	0.00000000
-3.59999962	0.00000000	0.00000000
-3.39999963	0.00000000	0.04921259
-3.19999964	0.00000000	0.41215550
-2.99999965	0.00000000	0.81200780
-2.79999966	0.00000000	0.41215550
-2.59999968	0.00000000	0.04921259
-2.39999969	0.00000000	0.00000000
-2.19999970	0.00000000	0.00000000
-1.99999971	0.00000000	0.00000000
-1.79999972	0.00000000	0.00000000
-1.59999973	0.00000000	0.00000000
-1.39999975	0.00000000	0.00000000
-1.19999976	0.00000000	0.00000000
-0.99999977	0.00000000	0.00000000
-0.79999978	0.00000000	0.00000000
-0.59999979	0.00000000	0.00000000
-0.39999981	0.17531990	0.00000000
-0.19999982	0.52657480	0.00000000
0.00000017	0.87844490	0.00000000
0.20000016	1.05376500	0.00000000
0.40000015	0.87844490	0.00000000
0.60000013	0.52657480	0.00000000
0.80000012	-0.17531990	0.00000000
1.00000011	-1.22970000	0.00000000
1.20000010	-2.10814500	0.00000000
1.40000009	-2.81127000	0.04921259
1.60000008	-2.63533500	0.41215550
1.80000006	-1.75689000	0.86122040
2.00000005	0.00000000	0.81815940
2.20000004	1.93282500	0.86122040
2.40000003	4.04096900	0.41215550
2.60000002	5.09534900	0.04921259
2.80000000	5.09534900	0.00000000
2.99999999	3.68971500	0.00000000
3.19999998	0.87844490	0.00000000
3.39999997	-2.45940000	0.00000000
3.59999996	-5.62254000	0.04921259
3.79999994	-7.73129900	0.46136810
3.99999993	-7.90661900	1.26722400
4.19999992	-5.97379400	1.63016700
4.39999991	-2.45940000	1.26722400
4.59999990	2.10814500	0.46136810
4.79999989	6.14972900	0.04921259
4.99999987	8.96099900	0.00000000
5.19999986	9.31225400	0.00000000
5.39999985	7.55536400	0.00000000
5.59999984	3.68971500	0.00000000
5.79999983	-1.22970000	0.00000000
5.99999981	-5.62254000	0.00000000
6.19999980	-8.60974400	0.04921259
6.39999979	-9.48818900	0.46136810
6.59999978	-7.90661900	1.21801200
6.79999977	-4.56816000	1.21801200
6.99999975	-0.17531990	0.46136810
7.19999974	3.86565000	0.00000000
7.39999973	6.67691900	-0.41215550
7.59999972	7.73129900	-0.81200780
7.79999971	6.67691900	-0.41215550
7.99999970	4.04096900	-0.04921259
8.19999968	0.87844490	0.00000000
8.39999967	-2.10814500	0.00000000
8.59999966	-4.39283900	0.00000000
8.79999965	-5.09534900	0.04921259
8.99999964	-4.56816000	0.46136810
9.19999962	-2.98659000	1.21801200
9.39999961	-1.05376500	1.21801200
9.59999960	0.87844490	0.46136810
9.79999959	2.10814500	0.04921259
9.99999958	2.45940000	0.00000000
10.19999956	2.28408000	0.00000000
10.39999955	1.40563500	0.00000000
10.59999954	0.52657480	0.00000000
10.79999953	-0.17531990	0.00000000
10.99999952	-0.87844490	0.00000000
11.19999951	-0.87844490	0.00000000
11.39999949	-0.87844490	0.00000000
11.59999948	-0.70250980	0.00000000
11.79999947	-0.35125490	0.00000000
11.99999946	0.00000000	0.00000000
12.19999945	0.00000000	0.00000000
12.39999943	0.00000000	0.00000000
12.59999942	-0.17531990	0.00000000
12.79999941	-0.17531990	0.00000000
12.99999940	-0.17531990	0.00000000
13.19999939	-0.17531990	0.00000000
13.39999937	-0.17531990	0.00000000
13.59999936	0.00000000	0.00000000
13.79999935	0.00000000	0.00000000
13.99999934	0.00000000	0.00000000
14.19999933	0.00000000	0.00000000
14.39999932	0.00000000	0.00000000
14.59999930	0.00000000	0.00000000
14.79999929	0.00000000	0.00000000
14.99999928	0.00000000	0.00000000
15.19999927	0.00000000	0.00000000
15.39999926	0.00000000	0.00000000
15.59999924	0.00000000	0.00000000
15.79999923	0.00000000	0.00000000
15.99999922	0.00000000	0.04921259
16.19999921	0.00000000	0.41215550
16.39999920	0.00000000	0.81200780
16.59999919	0.00000000	0.41215550
16.79999917	0.00000000	0.04921259
16.99999916	0.00000000	0.00000000
17.19999915	0.00000000	0.00000000
17.39999914	0.00000000	0.04921259
17.59999913	0.00000000	0.46136810
17.79999911	0.00000000	1.26722400
17.99999910	0.00000000	1.63016700
18.19999909	0.00000000	1.26722400
18.39999908	0.00000000	0.51058070
18.59999907	0.00000000	0.46136810
18.79999905	0.00000000	0.86122040
18.99999904	0.00000000	0.81815940
19.19999903	0.00000000	0.86122040
19.39999902	0.00000000	0.41215550
19.59999901	0.00000000	0.04921259
19.79999900	0.00000000	0.00000000
19.99999898	0.00000000	0.00000000
20.19999897	0.00000000	0.00000000
20.39999896	0.00000000	0.00000000
20.59999895	0.00000000	0.00000000
20.79999894	0.00000000	0.00000000
20.99999892	0.00000000	0.00000000
21.19999891	0.00000000	0.00000000
21.39999890	0.00000000	0.00000000
21.59999889	0.00000000	0.00000000
21.79999888	0.00000000	0.04921259
21.99999886	0.00000000	0.46136810
22.19999885	0.00000000	1.16879900
22.39999884	0.00000000	0.86122040
22.59999883	0.00000000	0.05536417
22.79999882	0.00000000	0.44906490
22.99999881	0.00000000	0.36294290
23.19999879	0.00000000	0.00000000
23.39999878	0.00000000	-0.41215550
23.59999877	0.00000000	-0.86122040
23.79999876	0.00000000	-0.81815940
23.99999875	0.00000000	-0.86122040
24.19999873	0.00000000	-0.36294290
24.39999872	0.00000000	0.46136810
24.59999871	0.00000000	1.72859200
24.79999870	0.00000000	3.00196800
24.99999869	0.00000000	3.82627900
25.19999867	0.00000000	4.27534400
25.39999866	0.00000000	3.77706700
25.59999865	0.00000000	2.54675200
25.79999864	0.00000000	0.36294290
25.99999863	0.00000000	-2.18996000
26.19999862	0.00000000	-5.14271600
26.39999860	0.00000000	-7.64025500
26.59999859	0.00000000	-8.45841400
26.79999858	0.00000000	-7.54183000
26.99999857	0.00000000	-4.07849400
27.19999856	0.00000000	1.77780500
27.39999854	0.00000000	8.14468500
27.59999853	0.00000000	13.65650000
27.79999852	0.00000000	17.42126000
27.99999851	0.00000000	17.73499000
28.19999850	0.00000000	13.85950000
28.39999848	0.00000000	5.76402500
28.59999847	0.00000000	-5.19192900
28.79999846	0.00000000	-16.19710000
28.99999845	0.00000000	-24.61245000
29.19999844	0.00000000	-28.32800000
29.39999843	0.00000000	-25.27682000
29.59999841	0.00000000	-15.49582000
29.79999840	0.00000000	-0.66437010
29.99999839	0.00000000	16.25246000
30.19999838	0.00000000	30.97933000
30.39999837	0.00000000	39.89296000
30.59999835	0.00000000	40.56963000
30.79999834	0.00000000	32.04355000
30.99999833	0.00000000	14.62844000
31.19999832	0.00000000	-7.28961600
31.39999831	0.00000000	-28.88779000
31.59999829	0.00000000	-44.89419000
31.79999828	0.00000000	-51.21186000
31.99999827	0.00000000	-46.01378000
32.19999826	0.00000000	-29.50295000
32.39999825	0.00000000	-4.99507900
32.59999824	0.00000000	21.24754000
32.79999822	0.00000000	43.71924000
32.99999821	0.00000000	57.57874000
33.19999820	0.00000000	58.80290000
33.39999819	0.00000000	46.52436000
33.59999818	0.00000000	23.69586000
33.79999816	0.00000000	-4.68750000
33.99999815	0.00000000	-32.20350000
34.19999814	0.00000000	-52.89739000
34.39999813	0.00000000	-61.76181000
34.59999812	0.00000000	-56.21309000
34.79999810	0.00000000	-37.65379000
34.99999809	0.00000000	-10.19316000
35.19999808	0.00000000	19.00837000
35.39999807	0.00000000	43.57160000
35.59999806	0.00000000	58.39690000
35.79999805	0.00000000	59.67642000
35.99999803	0.00000000	47.89616000
36.19999802	0.00000000	25.83661000
36.39999801	0.00000000	-1.58095500
36.59999800	0.00000000	-27.82357000
36.79999799	0.00000000	-46.42593000
36.99999797	0.00000000	-53.65403000
37.19999796	0.00000000	-47.79773000
37.39999795	0.00000000	-30.97933000
37.59999794	0.00000000	-8.19389700
37.79999793	0.00000000	15.08366000
37.99999791	0.00000000	33.28002000
38.19999790	0.00000000	42.64886000
38.39999789	0.00000000	41.43085000
38.59999788	0.00000000	30.56717000
38.79999787	0.00000000	13.70571000
38.99999786	0.00000000	-4.48449800
39.19999784	0.00000000	-20.12795000
39.39999783	0.00000000	-29.45374000
39.59999782	0.00000000	-30.37032000
39.79999781	0.00000000	-23.68971000
39.99999780	0.00000000	-11.50960000
40.19999778	0.00000000	2.34990100
40.39999777	0.00000000	13.76107000
40.59999776	0.00000000	20.17716000
40.79999775	0.00000000	20.68774000
40.99999774	0.00000000	16.14788000
41.19999772	0.00000000	8.55684000
41.39999771	0.00000000	0.14763780
41.59999770	0.00000000	-7.03125000
41.79999769	0.00000000	-10.80832000
41.99999768	0.00000000	-10.49459000
42.19999767	0.00000000	-6.77903500
42.39999765	0.00000000	-1.82701800
42.59999764	0.00000000	2.44832700
42.79999763	0.00000000	4.99507900
42.99999762	0.00000000	5.90551100
43.19999761	0.00000000	5.04429100
43.39999759	0.00000000	3.00196800
43.59999758	0.00000000	0.55979330
43.79999757	0.00000000	-0.71358260
43.99999756	0.00000000	-0.36294290
44.19999755	0.00000000	0.41215550
44.39999753	0.00000000	1.26722400
44.59999752	0.00000000	1.63016700
44.79999751	0.00000000	1.21801200
44.99999750	0.00000000	-0.04921259
45.19999749	0.00000000	-1.67938000
45.39999748	0.00000000	-2.95275600
45.59999746	0.00000000	-3.36491100
45.79999745	0.00000000	-2.90354300
45.99999744	0.00000000	-1.17495100
46.19999743	0.00000000	1.72859200
46.39999742	0.00000000	4.68134800
46.59999740	0.00000000	6.77903500
46.79999739	0.00000000	7.59104300
46.99999738	0.00000000	6.26845500
47.19999737	0.00000000	2.95275600
47.39999736	0.00000000	-1.21801200
47.59999734	0.00000000	-4.63213500
47.79999733	0.00000000	-6.77903500
47.99999732	0.00000000	-7.59104300
48.19999731	0.00000000	-6.26845500
48.39999730	0.00000000	-2.95275600
48.59999729	0.00000000	1.21801200
48.79999727	0.00000000	4.63213500
48.99999726	0.00000000	6.82824800
49.19999725	0.00000000	8.04626000
49.39999724	0.00000000	7.64025500
49.59999723	0.00000000	5.55487200
49.79999721	0.00000000	3.00196800
49.99999720	0.00000000	0.00000000
50.19999719	0.00000000	-2.90354300
50.39999718	0.00000000	-4.58292300
50.59999717	0.00000000	-4.63213500
50.79999715	0.00000000	-3.41412400
50.99999714	0.00000000	-1.72859200
51.19999713	0.00000000	0.00000000
51.39999712	0.00000000	1.67938000
51.59999711	0.00000000	2.95275600
51.79999710	0.00000000	3.46333600
51.99999708	0.00000000	3.87549200
52.19999707	0.00000000	4.22613100
52.39999706	0.00000000	3.41412400
52.59999705	0.00000000	2.18996000
52.79999704	0.00000000	1.26722400
52.99999702	0.00000000	0.00000000
53.19999701	0.00000000	-1.21801200
53.39999700	0.00000000	-1.67938000
53.59999699	0.00000000	-1.77780500
53.79999698	0.00000000	-2.09153500
53.99999696	0.00000000	-2.03617100
54.19999695	0.00000000	-0.41215550
54.39999694	0.00000000	1.21801200
54.59999693	0.00000000	2.14074800
54.79999692	0.00000000	3.00196800
54.99999691	0.00000000	3.36491100
55.19999689	0.00000000	2.95275600
55.39999688	0.00000000	1.67938000
55.59999687	0.00000000	0.04921259
55.79999686	0.00000000	-1.21801200
55.99999685	0.00000000	-1.67938000
56.19999683	0.00000000	-1.67938000
56.39999682	0.00000000	-1.21801200
56.59999681	0.00000000	0.04921259
56.79999680	0.00000000	1.67938000
56.99999679	0.00000000	2.95275600
57.19999677	0.00000000	3.41412400
57.39999676	0.00000000	3.36491100
57.59999675	0.00000000	2.49753900
57.79999674	0.00000000	0.41215550
57.99999673	0.00000000	-1.67938000
58.19999672	0.00000000	-3.41412400
58.39999670	0.00000000	-4.58292300
58.59999669	0.00000000	-4.17691900
58.79999668	0.00000000	-2.09153500
58.99999667	0.00000000	0.46136810
59.19999666	0.00000000	3.41412400
59.39999664	0.00000000	5.91166300
59.59999663	0.00000000	6.77903500
59.79999662	0.00000000	6.36687900
59.99999661	0.00000000	4.63213500
60.19999660	0.00000000	1.67938000
60.39999658	0.00000000	-1.67938000
60.59999657	0.00000000	-4.63213500
60.79999656	0.00000000	-6.26845500
60.99999655	0.00000000	-5.91166300
61.19999654	0.00000000	-3.82627900
61.39999653	0.00000000	-1.27337600
61.59999651	0.00000000	1.72859200
61.79999650	0.00000000	4.63213500
61.99999649	0.00000000	6.36687900
62.19999648	0.00000000	6.82824800
62.39999647	0.00000000	6.36687900
62.59999645	0.00000000	4.68134800
62.79999644	0.00000000	2.18996000
62.99999643	0.00000000	0.04921259
63.19999642	0.00000000	-1.67938000
63.39999641	0.00000000	-2.95275600
63.59999639	0.00000000	-3.36491100
63.79999638	0.00000000	-2.95275600
63.99999637	0.00000000	-1.72859200
64.19999636	0.00000000	-0.46136810
64.39999635	0.00000000	0.46136810
64.59999634	0.00000000	1.77780500
64.79999632	0.00000000	3.41412400
64.99999631	0.00000000	4.73056000
65.19999630	0.00000000	5.55487200
65.39999629	0.00000000	6.00393600
65.59999628	0.00000000	5.55487200
65.79999626	0.00000000	4.63213500
65.99999625	0.00000000	2.44832700
66.19999624	0.00000000	-1.26722400
66.39999623	0.00000000	-4.63213500
66.59999622	0.00000000	-6.77903500
66.79999620	0.00000000	-7.64025500
66.99999619	0.00000000	-6.72982200
67.19999618	0.00000000	-4.17691900
67.39999617	0.00000000	0.04921259
67.59999616	0.00000000	4.68134800
67.79999615	0.00000000	8.55684000
67.99999613	0.00000000	11.46038000
68.19999612	0.00000000	12.27854000
68.39999611	0.00000000	10.14395000
68.59999610	0.00000000	5.96087600
68.79999609	0.00000000	0.41215550
68.99999607	0.00000000	-5.09350300
69.19999606	0.00000000	-9.78100300
69.39999605	0.00000000	-12.63533000
69.59999604	0.00000000	-12.22933000
69.79999603	0.00000000	-8.45841400
69.99999601	0.00000000	-2.95275600
70.19999600	0.00000000	3.41412400
70.39999599	0.00000000	9.27657400
70.59999598	0.00000000	12.69070000
70.79999597	0.00000000	13.14591000
70.99999596	0.00000000	11.05438000
71.19999594	0.00000000	6.77903500
71.39999593	0.00000000	1.32258800
71.59999592	0.00000000	-4.22613100
71.79999591	0.00000000	-8.40920300
71.99999590	0.00000000	-10.54380000
72.19999588	0.00000000	-9.73179100
72.39999587	0.00000000	-6.77903500
72.59999586	0.00000000	-2.54675200
72.79999585	0.00000000	2.54675200
72.99999584	0.00000000	6.77903500
73.19999582	0.00000000	9.78100300
73.39999581	0.00000000	11.00517000
73.59999580	0.00000000	9.73179100
73.79999579	0.00000000	6.36687900
73.99999578	0.00000000	1.72859200
74.19999577	0.00000000	-2.95275600
74.39999575	0.00000000	-6.72982200
74.59999574	0.00000000	-8.86441900
74.79999573	0.00000000	-8.45841400
74.99999572	0.00000000	-6.31766700
75.19999571	0.00000000	-2.49753900
75.39999569	0.00000000	2.54675200
75.59999568	0.00000000	6.72982200
75.79999567	0.00000000	9.32578700
75.99999566	0.00000000	9.73179100
76.19999565	0.00000000	8.04626000
76.39999563	0.00000000	4.63213500
76.59999562	0.00000000	0.00000000
76.79999561	0.00000000	-4.63213500
76.99999560	0.00000000	-7.99704600
77.19999559	0.00000000	-9.27042300
77.39999558	0.00000000	-7.99704600
77.59999556	0.00000000	-4.58292300
77.79999555	0.00000000	0.46136810
77.99999554	0.00000000	5.96087600
78.19999553	0.00000000	10.19316000
78.39999552	0.00000000	12.73991000
78.59999550	0.00000000	12.69070000
78.79999549	0.00000000	9.68257800
78.99999548	0.00000000	4.22613100
79.19999547	0.00000000	-2.54675200
79.39999546	0.00000000	-8.40920300
79.59999544	0.00000000	-12.27854000
79.79999543	0.00000000	-13.09670000
79.99999542	0.00000000	-11.00517000
80.19999541	0.00000000	-6.26845500
80.39999540	0.00000000	0.46136810
80.59999539	0.00000000	7.64025500
80.79999537	0.00000000	13.14591000
80.99999536	0.00000000	16.09867000
81.19999535	0.00000000	15.69267000
81.39999534	0.00000000	11.87254000
81.59999533	0.00000000	5.91166300
81.79999531	0.00000000	-1.67938000
81.99999530	0.00000000	-8.86441900
82.19999529	0.00000000	-13.55807000
82.39999528	0.00000000	-15.69267000
82.59999527	0.00000000	-14.32087000
82.79999525	0.00000000	-9.31963500
82.99999524	0.00000000	-2.14074800
83.19999523	0.00000000	5.09350300
83.39999522	0.00000000	11.46038000
83.59999521	0.00000000	15.69267000
83.79999520	0.00000000	16.56004000
83.99999518	0.00000000	14.46850000
84.19999517	0.00000000	9.78100300
84.39999516	0.00000000	3.41412400
84.59999515	0.00000000	-3.36491100
84.79999514	0.00000000	-9.32578700
84.99999512	0.00000000	-13.14591000
85.19999511	0.00000000	-14.46850000
85.39999510	0.00000000	-13.09670000
85.59999509	0.00000000	-8.86441900
85.79999508	0.00000000	-2.09153500
85.99999506	0.00000000	5.04429100
86.19999505	0.00000000	11.05438000
86.39999504	0.00000000	14.87451000
86.59999503	0.00000000	16.19710000
86.79999502	0.00000000	14.87451000
86.99999501	0.00000000	11.00517000
87.19999499	0.00000000	4.63213500
87.39999498	0.00000000	-2.90354300
87.59999497	0.00000000	-9.27657400
87.79999496	0.00000000	-13.14591000
87.99999495	0.00000000	-14.41929000
88.19999493	0.00000000	-12.73376000
88.39999492	0.00000000	-8.45841400
88.59999491	0.00000000	-2.49753900
88.79999490	0.00000000	4.68134800
88.99999489	0.00000000	11.00517000
89.19999487	0.00000000	14.82529000
89.39999486	0.00000000	15.69267000
89.59999485	0.00000000	13.14591000
89.79999484	0.00000000	8.09547100
89.99999483	0.00000000	1.77780500
90.19999482	0.00000000	-4.17691900
90.39999480	0.00000000	-8.50762700
90.59999479	0.00000000	-11.46038000
90.79999478	0.00000000	-12.22933000
90.99999477	0.00000000	-9.73179100
91.19999476	0.00000000	-5.09350300
91.39999474	0.00000000	0.41215550
91.59999473	0.00000000	5.91166300
91.79999472	0.00000000	9.73179100
91.99999471	0.00000000	11.46038000
92.19999470	0.00000000	11.05438000
92.39999468	0.00000000	8.50762700
92.59999467	0.00000000	4.73056000
92.79999466	0.00000000	0.46136810
92.99999465	0.00000000	-3.36491100
93.19999464	0.00000000	-6.26845500
93.39999463	0.00000000	-7.12967500
93.59999461	0.00000000	-5.50565900
93.79999460	0.00000000	-3.05118100
93.99999459	0.00000000	-0.41215550
94.19999458	0.00000000	2.09153500
94.39999457	0.00000000	4.22613100
94.59999455	0.00000000	5.09350300
94.79999454	0.00000000	5.14271600
94.99999453	0.00000000	4.68134800
95.19999452	0.00000000	3.41412400
95.39999451	0.00000000	1.77780500
95.59999449	0.00000000	0.46136810
95.79999448	0.00000000	-0.41215550
95.99999447	0.00000000	-1.26722400
96.19999446	0.00000000	-1.67938000
96.39999445	0.00000000	-1.67938000
96.59999444	0.00000000	-1.26722400
96.79999442	0.00000000	-0.46136810
96.99999441	0.00000000	0.00000000
97.19999440	0.00000000	0.46136810
97.39999439	0.00000000	1.26722400
97.59999438	0.00000000	1.72859200
97.79999436	0.00000000	2.18996000
97.99999435	0.00000000	2.95275600
98.19999434	0.00000000	2.95275600
98.39999433	0.00000000	2.18996000
98.59999432	0.00000000	1.72859200
98.79999430	0.00000000	1.26722400
98.99999429	0.00000000	0.46136810
99.19999428	0.00000000	0.00000000
99.39999427	0.00000000	-0.41215550
99.59999426	0.00000000	-0.81200780
99.79999425	0.00000000	-0.41215550
99.99999423	0.00000000	0.00000000
100.19999422	0.00000000	0.51058070
100.39999421	0.00000000	1.72859200
100.59999420	0.00000000	2.90354300
100.79999419	0.00000000	2.95275600
100.99999417	0.00000000	2.18996000
101.19999416	0.00000000	1.72859200
101.39999415	0.00000000	1.26722400
101.59999414	0.00000000	0.41215550
101.79999413	0.00000000	-0.41215550
101.99999411	0.00000000	-1.21801200
102.19999410	0.00000000	-1.21801200
102.39999409	0.00000000	-0.46136810
102.59999408	0.00000000	0.00000000
102.79999407	0.00000000	0.46136810
102.99999406	0.00000000	1.31643700
103.19999404	0.00000000	2.09153500
103.39999403	0.00000000	2.54060000
103.59999402	0.00000000	2.14074800
103.79999401	0.00000000	1.77780500
103.99999400	0.00000000	1.67938000
104.19999398	0.00000000	1.26722400
104.39999397	0.00000000	0.46136810
104.59999396	0.00000000	0.04921259
104.79999395	0.00000000	0.00000000
104.99999394	0.00000000	0.00000000
105.19999392	0.00000000	0.04921259
105.39999391	0.00000000	0.46136810
105.59999390	0.00000000	1.26722400
105.79999389	0.00000000	1.72859200
105.99999388	0.00000000	2.18996000
106.19999387	0.00000000	2.95275600
106.39999385	0.00000000	2.95275600
106.59999384	0.00000000	2.14074800
106.79999383	0.00000000	1.26722400
106.99999382	0.00000000	0.00000000
107.19999381	0.00000000	-1.21801200
107.39999379	0.00000000	-1.67938000
107.59999378	0.00000000	-1.67938000
107.79999377	0.00000000	-1.21801200
107.99999376	0.00000000	0.04921259
108.19999375	0.00000000	1.67938000
108.39999374	0.00000000	3.00196800
108.59999372	0.00000000	3.82627900
108.79999371	0.00000000	4.27534400
108.99999370	0.00000000	3.82627900
109.19999369	0.00000000	3.00196800
109.39999368	0.00000000	1.67938000
109.59999366	0.00000000	0.00000000
109.79999365	0.00000000	-1.67938000
109.99999364	0.00000000	-2.95275600
110.19999363	0.00000000	-3.36491100
110.39999362	0.00000000	-2.95275600
110.59999360	0.00000000	-1.63016700
110.79999359	0.00000000	0.46136810
110.99999358	0.00000000	3.00196800
111.19999357	0.00000000	5.04429100
111.39999356	0.00000000	5.95472400
111.59999355	0.00000000	5.50565900
111.79999353	0.00000000	4.27534400
111.99999352	0.00000000	2.09153500
112.19999351	0.00000000	-0.41215550
112.39999350	0.00000000	-2.95275600
112.59999349	0.00000000	-4.58292300
112.79999347	0.00000000	-4.63213500
112.99999346	0.00000000	-3.41412400
113.19999345	0.00000000	-1.67938000
113.39999344	0.00000000	0.51058070
113.59999343	0.00000000	3.41412400
113.79999341	0.00000000	5.91166300
113.99999340	0.00000000	6.77903500
114.19999339	0.00000000	6.36687900
114.39999338	0.00000000	4.63213500
114.59999337	0.00000000	1.72859200
114.79999336	0.00000000	-1.22416300
114.99999334	0.00000000	-3.36491100
115.19999333	0.00000000	-4.63213500
115.39999332	0.00000000	-4.63213500
115.59999331	0.00000000	-3.36491100
115.79999330	0.00000000	-1.27337600
115.99999328	0.00000000	1.27337600
116.19999327	0.00000000	3.41412400
116.39999326	0.00000000	5.09350300
116.59999325	0.00000000	5.90551100
116.79999324	0.00000000	5.04429100
116.99999322	0.00000000	3.00196800
117.19999321	0.00000000	0.51058070
117.39999320	0.00000000	-1.21801200
117.59999319	0.00000000	-2.09153500
117.79999318	0.00000000	-2.49138800
117.99999317	0.00000000	-1.63016700
118.19999315	0.00000000	0.00000000
118.39999314	0.00000000	1.67938000
118.59999313	0.00000000	3.00196800
118.79999312	0.00000000	3.82627900
118.99999311	0.00000000	4.27534400
119.19999309	0.00000000	3.77706700
119.39999308	0.00000000	2.59596400
119.59999307	0.00000000	0.91658460
119.79999306	0.00000000	0.04921259
119.99999305	0.00000000	-0.46136810
120.19999303	0.00000000	-1.26722400
120.39999302	0.00000000	-1.63016700
120.59999301	0.00000000	-1.21801200
120.79999300	0.00000000	0.00000000
120.99999299	0.00000000	1.26722400
121.19999298	0.00000000	2.14074800
121.39999296	0.00000000	3.00196800
121.59999295	0.00000000	3.36491100
121.79999294	0.00000000	3.00196800
121.99999293	0.00000000	2.14074800
122.19999292	0.00000000	1.31643700
122.39999290	0.00000000	0.46136810
122.59999289	0.00000000	0.04921259
122.79999288	0.00000000	0.00000000
122.99999287	0.00000000	0.04921259
123.19999286	0.00000000	0.46136810
123.39999284	0.00000000	1.26722400
123.59999283	0.00000000	1.67938000
123.79999282	0.00000000	1.72859200
123.99999281	0.00000000	1.72859200
124.19999280	0.00000000	1.72859200
124.39999279	0.00000000	1.67938000
124.59999277	0.00000000	1.26722400
124.79999276	0.00000000	0.46136810
124.99999275	0.00000000	0.04921259
125.19999274	0.00000000	0.00000000
125.39999273	0.00000000	0.04921259
125.59999271	0.00000000	0.46136810
125.79999270	0.00000000	1.31643700
125.99999269	0.00000000	2.14074800
126.19999268	0.00000000	3.00196800
126.39999267	0.00000000	3.36491100
126.59999265	0.00000000	3.00196800
126.79999264	0.00000000	2.14074800
126.99999263	0.00000000	1.26722400
127.19999262	0.00000000	0.00000000
127.39999261	0.00000000	-1.21801200
127.59999260	0.00000000	-1.63016700
127.79999258	0.00000000	-1.26722400
127.99999257	0.00000000	-0.41215550
128.19999256	0.00000000	0.46136810
128.39999255	0.00000000	1.72859200
128.59999254	0.00000000	2.95275600
128.79999252	0.00000000	3.41412400
128.99999251	0.00000000	3.41412400
129.19999250	0.00000000	2.95275600
129.39999249	0.00000000	1.72859200
129.59999248	0.00000000	0.51058070
129.79999246	0.00000000	0.04921259
129.99999245	0.00000000	0.00000000
130.19999244	0.00000000	0.00000000
130.39999243	0.00000000	0.04921259
130.59999242	0.00000000	0.51058070
130.79999241	0.00000000	1.67938000
130.99999239	0.00000000	2.49138800
131.19999238	0.00000000	2.14074800
131.39999237	0.00000000	1.77780500
131.59999236	0.00000000	1.67938000
131.79999235	0.00000000	1.26722400
131.99999233	0.00000000	0.41215550
132.19999232	0.00000000	-0.31373030
132.39999231	0.00000000	-0.39985230
132.59999230	0.00000000	0.44906490
132.79999229	0.00000000	0.81815940
132.99999227	0.00000000	1.31643700
133.19999226	0.00000000	1.72859200
133.39999225	0.00000000	2.14074800
133.59999224	0.00000000	2.49138800
133.79999223	0.00000000	1.67938000
133.99999222	0.00000000	0.51058070
134.19999220	0.00000000	0.04921259
134.39999219	0.00000000	0.00000000
134.59999218	0.00000000	0.00000000
134.79999217	0.00000000	0.04921259
134.99999216	0.00000000	0.46136810
135.19999214	0.00000000	1.31643700
135.39999213	0.00000000	2.14074800
135.59999212	0.00000000	3.00196800
135.79999211	0.00000000	3.41412400
135.99999210	0.00000000	3.41412400
136.19999208	0.00000000	2.95275600
136.39999207	0.00000000	1.67938000
136.59999206	0.00000000	0.04921259
136.79999205	0.00000000	-1.21801200
136.99999204	0.00000000	-1.67938000
137.19999203	0.00000000	-1.67938000
137.39999201	0.00000000	-1.21801200
137.59999200	0.00000000	0.04921259
137.79999199	0.00000000	1.72859200
137.99999198	0.00000000	3.41412400
138.19999197	0.00000000	4.68134800
138.39999195	0.00000000	5.09350300
138.59999194	0.00000000	4.68134800
138.79999193	0.00000000	3.41412400
138.99999192	0.00000000	1.77780500
139.19999191	0.00000000	0.46136810
139.39999189	0.00000000	-0.41215550
139.59999188	0.00000000	-1.26722400
139.79999187	0.00000000	-1.67938000
139.99999186	0.00000000	-1.67938000
140.19999185	0.00000000	-1.21801200
140.39999184	0.00000000	0.04921259
140.59999182	0.00000000	1.67938000
140.79999181	0.00000000	2.95275600
140.99999180	0.00000000	3.41412400
141.19999179	0.00000000	3.46333600
141.39999178	0.00000000	3.41412400
141.59999176	0.00000000	2.95275600
141.79999175	0.00000000	1.72859200
141.99999174	0.00000000	0.46136810
142.19999173	0.00000000	-0.41215550
142.39999172	0.00000000	-1.26722400
142.59999170	0.00000000	-1.67938000
142.79999169	0.00000000	-1.67938000
142.99999168	0.00000000	-1.21801200
143.19999167	0.00000000	0.00000000
143.39999166	0.00000000	1.26722400
143.59999165	0.00000000	2.14074800
143.79999163	0.00000000	3.00196800
143.99999162	0.00000000	3.41412400
144.19999161	0.00000000	3.41412400
144.39999160	0.00000000	3.00196800
144.59999159	0.00000000	2.14074800
144.79999157	0.00000000	1.31643700
144.99999156	0.00000000	0.41215550
145.19999155	0.00000000	-0.41215550
145.39999154	0.00000000	-1.21801200
145.59999153	0.00000000	-1.21801200
145.79999151	0.00000000	-0.46136810
145.99999150	0.00000000	0.00000000
146.19999149	0.00000000	0.46136810
146.39999148	0.00000000	1.31643700
146.59999147	0.00000000	2.14074800
146.79999146	0.00000000	3.00196800
146.99999144	0.00000000	3.41412400
147.19999143	0.00000000	3.41412400
147.39999142	0.00000000	3.00196800
147.59999141	0.00000000	2.14074800
147.79999140	0.00000000	1.31643700
147.99999138	0.00000000	0.46136810
148.19999137	0.00000000	0.04921259
148.39999136	0.00000000	0.00000000
148.59999135	0.00000000	0.00000000
148.79999134	0.00000000	0.00000000
148.99999132	0.00000000	0.04921259
149.19999131	0.00000000	0.51058070
149.39999130	0.00000000	1.72859200
149.59999129	0.00000000	2.95275600
149.79999128	0.00000000	3.41412400
149.99999127	0.00000000	3.41412400
150.19999125	0.00000000	3.00196800
150.39999124	0.00000000	2.14074800
150.59999123	0.00000000	1.31643700
150.79999122	0.00000000	0.46136810
150.99999121	0.00000000	0.04921259
151.19999119	0.00000000	0.00000000
151.39999118	0.00000000	0.00000000
151.59999117	0.00000000	0.04921259
151.79999116	0.00000000	0.46136810
151.99999115	0.00000000	1.31643700
152.19999113	0.00000000	2.09153500
152.39999112	0.00000000	2.54060000
152.59999111	0.00000000	2.14074800
152.79999110	0.00000000	1.77780500
152.99999109	0.00000000	1.72859200
153.19999108	0.00000000	1.67938000
153.39999106	0.00000000	1.31643700
153.59999105	0.00000000	0.86737200
153.79999104	0.00000000	0.86122040
153.99999103	0.00000000	0.46136810
154.19999102	0.00000000	0.51058070
154.39999100	0.00000000	1.26722400
154.59999099	0.00000000	1.67938000
154.79999098	0.00000000	1.72859200
154.99999097	0.00000000	1.72859200
155.19999096	0.00000000	1.72859200
155.39999094	0.00000000	1.72859200
155.59999093	0.00000000	1.72859200
155.79999092	0.00000000	1.72859200
155.99999091	0.00000000	1.72859200
156.19999090	0.00000000	1.72859200
156.39999089	0.00000000	1.72859200
156.59999087	0.00000000	1.72859200
156.79999086	0.00000000	1.72859200
156.99999085	0.00000000	1.67938000
157.19999084	0.00000000	1.31643700
157.39999083	0.00000000	0.86737200
157.59999081	0.00000000	0.91043300
157.79999080	0.00000000	0.86737200
157.99999079	0.00000000	1.31643700
158.19999078	0.00000000	1.67938000
158.39999077	0.00000000	1.72859200
158.59999075	0.00000000	1.72859200
158.79999074	0.00000000	1.72859200
158.99999073	0.00000000	1.72859200
159.19999072	0.00000000	1.72859200
159.39999071	0.00000000	1.67938000
159.59999070	0.00000000	1.26722400
159.79999068	0.00000000	0.46136810
159.99999067	0.00000000	0.04921259
160.19999066	0.00000000	0.00000000
160.39999065	0.00000000	0.04921259
160.59999064	0.00000000	0.46136810
160.79999062	0.00000000	1.26722400
160.99999061	0.00000000	1.67938000
161.19999060	0.00000000	1.72859200
161.39999059	0.00000000	1.72859200
161.59999058	0.00000000	1.72859200
161.79999056	0.00000000	1.72859200
161.99999055	0.00000000	1.72859200
162.19999054	0.00000000	1.72859200
162.39999053	0.00000000	1.72859200
162.59999052	0.00000000	1.67938000
162.79999051	0.00000000	1.26722400
162.99999049	0.00000000	0.51058070
163.19999048	0.00000000	0.51058070
163.39999047	0.00000000	1.26722400
163.59999046	0.00000000	1.67938000
163.79999045	0.00000000	1.72859200
163.99999043	0.00000000	1.72859200
164.19999042	0.00000000	1.72859200
164.39999041	0.00000000	1.72859200
164.59999040	0.00000000	1.72859200
164.79999039	0.00000000	1.67938000
164.99999037	0.00000000	1.31643700
165.19999036	0.00000000	0.86737200
165.39999035	0.00000000	0.91043300
165.59999034	0.00000000	0.86737200
165.79999033	0.00000000	1.31643700
165.99999032	0.00000000	1.67938000
166.19999030	0.00000000	1.72859200
166.39999029	0.00000000	1.72859200
166.59999028	0.00000000	1.72859200
166.79999027	0.00000000	1.72859200
166.99999026	0.00000000	1.67938000
167.19999024	0.00000000	1.26722400
167.39999023	0.00000000	0.46136810
167.59999022	0.00000000	0.04921259
167.79999021	0.00000000	0.00000000
167.99999020	0.00000000	0.00000000
168.19999018	0.00000000	0.04921259
168.39999017	0.00000000	0.46136810
168.59999016	0.00000000	1.26722400
168.79999015	0.00000000	1.67938000
168.99999014	0.00000000	1.72859200
169.19999013	0.00000000	1.72859200
169.39999011	0.00000000	1.72859200
169.59999010	0.00000000	1.72859200
169.79999009	0.00000000	1.72859200
169.99999008	0.00000000	1.72859200
170.19999007	0.00000000	1.72859200
170.39999005	0.00000000	1.67938000
170.59999004	0.00000000	1.31643700
170.79999003	0.00000000	0.86737200
170.99999002	0.00000000	0.91043300
171.19999001	0.00000000	0.86737200
171.39998999	0.00000000	1.31643700
171.59998998	0.00000000	1.67938000
171.79998997	0.00000000	1.72859200
171.99998996	0.00000000	1.72859200
172.19998995	0.00000000	1.72859200
172.39998994	0.00000000	1.72859200
172.59998992	0.00000000	1.72859200
172.79998991	0.00000000	1.67938000
172.99998990	0.00000000	1.26722400
173.19998989	0.00000000	0.46136810
173.39998988	0.00000000	0.09842519
173.59998986	0.00000000	0.46136810
173.79998985	0.00000000	1.26722400
173.99998984	0.00000000	1.67938000
174.19998983	0.00000000	1.72859200
174.39998982	0.00000000	1.72859200
174.59998980	0.00000000	1.72859200
174.79998979	0.00000000	1.72859200
174.99998978	0.00000000	1.67938000
175.19998977	0.00000000	1.26722400
175.39998976	0.00000000	0.46136810
175.59998975	0.00000000	0.04921259
175.79998973	0.00000000	0.00000000
175.99998972	0.00000000	0.04921259
176.19998971	0.00000000	0.46136810
176.39998970	0.00000000	1.26722400
176.59998969	0.00000000	1.67938000
176.79998967	0.00000000	1.72859200
176.99998966	0.00000000	1.72859200
177.19998965	0.00000000	1.72859200
177.39998964	0.00000000	1.72859200
177.59998963	0.00000000	1.72859200
177.79998961	0.00000000	1.72859200
177.99998960	0.00000000	1.67938000
178.19998959	0.00000000	1.26722400
178.39998958	0.00000000	0.51058070
178.59998957	0.00000000	0.51058070
178.79998956	0.00000000	1.21801200
178.99998954	0.00000000	1.26722400
179.19998953	0.00000000	0.91658460
179.39998952	0.00000000	1.31643700
179.59998951	0.00000000	1.67938000
179.79998950	0.00000000	1.72859200
179.99998948	0.00000000	1.72859200
180.19998947	0.00000000	1.72859200
180.39998946	0.00000000	1.67938000
180.59998945	0.00000000	1.31643700
180.79998944	0.00000000	0.91658460
180.99998942	0.00000000	1.31643700
181.19998941	0.00000000	1.67938000
181.39998940	0.00000000	1.67938000
181.59998939	0.00000000	1.31643700
181.79998938	0.00000000	0.91658460
181.99998937	0.00000000	1.26722400
182.19998935	0.00000000	1.26722400
182.39998934	0.00000000	0.91658460
182.59998933	0.00000000	1.31643700
182.79998932	0.00000000	1.67938000
182.99998931	0.00000000	1.72859200
183.19998929	0.00000000	1.72859200
183.39998928	0.00000000	1.72859200
183.59998927	0.00000000	1.72859200
183.79998926	0.00000000	1.72859200
183.99998925	0.00000000	1.72859200
184.19998923	0.00000000	1.72859200
184.39998922	0.00000000	1.72859200
184.59998921	0.00000000	1.72859200
184.79998920	0.00000000	1.72859200
184.99998919	0.00000000	1.72859200
185.19998918	0.00000000	1.72859200
185.39998916	0.00000000	1.72859200
185.59998915	0.00000000	1.72859200
185.79998914	0.00000000	1.72859200
185.99998913	0.00000000	1.72859200
186.19998912	0.00000000	1.72859200
186.39998910	0.00000000	1.72859200
186.59998909	0.00000000	1.72859200
186.79998908	0.00000000	1.72859200
186.99998907	0.00000000	1.72859200
187.19998906	0.00000000	1.72859200
187.39998904	0.00000000	1.72859200
187.59998903	0.00000000	1.72859200
187.79998902	0.00000000	1.67938000
187.99998901	0.00000000	1.26722400
188.19998900	0.00000000	0.46136810
188.39998899	0.00000000	0.04921259
188.59998897	0.00000000	0.00000000
188.79998896	0.00000000	0.04921259
188.99998895	0.00000000	0.46136810
189.19998894	0.00000000	1.26722400
189.39998893	0.00000000	1.67938000
189.59998891	0.00000000	1.72859200
189.79998890	0.00000000	1.72859200
189.99998889	0.00000000	1.72859200
190.19998888	0.00000000	1.72859200
190.39998887	0.00000000	1.72859200
190.59998885	0.00000000	1.67938000
190.79998884	0.00000000	1.26722400
190.99998883	0.00000000	0.46136810
191.19998882	0.00000000	0.04921259
191.39998881	0.00000000	0.00000000
191.59998880	0.00000000	0.04921259
191.79998878	0.00000000	0.46136810
191.99998877	0.00000000	1.26722400
192.19998876	0.00000000	1.67938000
192.39998875	0.00000000	1.77780500
192.59998874	0.00000000	2.14074800
192.79998872	0.00000000	2.54060000
192.99998871	0.00000000	2.09153500
193.19998870	0.00000000	1.36565000
193.39998869	0.00000000	0.86737200
193.59998868	0.00000000	0.86122040
193.79998866	0.00000000	0.41215550
193.99998865	0.00000000	0.04921259
194.19998864	0.00000000	0.04921259
194.39998863	0.00000000	0.46136810
194.59998862	0.00000000	1.26722400
194.79998861	0.00000000	1.67938000
194.99998859	0.00000000	1.72859200
195.19998858	0.00000000	1.72859200
195.39998857	0.00000000	1.72859200
195.59998856	0.00000000	1.72859200
195.79998855	0.00000000	1.72859200
195.99998853	0.00000000	1.72859200
