Time	Channel A	Channel B	Channel C
(us)	(V)	(mV)	(mV)

-4.49999956	0.00000000	-9.95324800	-8.26771600
-4.29999957	0.00000000	-10.64838000	-7.93553100
-4.09999958	0.00000000	-10.97441000	-7.89247000
-3.89999959	0.00000000	-10.69144000	-7.89247000
-3.69999960	0.00000000	-10.32234000	-7.89247000
-3.49999962	0.00000000	-10.64838000	-7.89247000
-3.29999963	0.00000000	-10.59916000	-7.89247000
-3.09999964	0.00000000	-9.90403500	-7.89247000
-2.89999965	0.00000000	-9.57800100	-7.89247000
-2.69999966	0.00000000	-9.90403500	-7.89247000
-2.49999968	0.00000000	-10.64838000	-7.93553100
-2.29999969	0.00000000	-11.02362000	-8.26771600
-2.09999970	0.00000000	-11.06668000	-8.63681000
-1.89999971	0.00000000	-11.06668000	-8.26771600
-1.69999972	0.00000000	-11.06668000	-7.93553100
-1.49999973	0.00000000	-11.06668000	-7.89247000
-1.29999975	0.00000000	-11.02362000	-7.89247000
-1.09999976	0.00000000	-10.64838000	-7.89247000
-0.89999977	0.00000000	-9.95324800	-7.89247000
-0.69999978	0.00000000	-9.95324800	-7.89247000
-0.49999979	0.00000000	-10.59916000	-7.89247000
-0.29999981	0.31803640	-10.64838000	-7.89247000
-0.09999982	0.63668800	-10.32234000	-7.89247000
0.10000017	0.95533960	-10.69144000	-7.89247000
0.30000016	0.95533960	-10.97441000	-7.89247000
0.50000015	0.79601380	-10.69144000	-7.89247000
0.70000013	0.15871060	-10.32234000	-7.89247000
0.90000012	-0.79601380	-10.69144000	-7.93553100
1.10000011	-1.75196900	-11.02362000	-8.26771600
1.30000010	-2.54859700	-11.02362000	-8.63681000
1.50000009	-2.86724900	-10.69144000	-8.26771600
1.70000008	-2.22994600	-10.27928000	-7.93553100
1.90000006	-0.95533960	-10.27313000	-7.89247000
2.10000005	0.95533960	-9.86097400	-7.89247000
2.30000004	3.02657500	-9.57800100	-7.89247000
2.50000003	4.77854300	-9.90403500	-7.93553100
2.70000002	5.25652100	-10.64838000	-8.31077700
2.90000000	4.61921700	-11.02362000	-9.05511800
3.09999999	2.22994600	-11.06668000	-9.43036400
3.29999998	-0.79601380	-11.06668000	-9.47342500
3.49999997	-4.14124000	-11.06668000	-9.43036400
3.69999996	-6.84916400	-11.06668000	-9.05511800
3.89999994	-7.96444400	-11.02362000	-8.31077700
4.09999993	-7.00848900	-10.64838000	-7.93553100
4.29999992	-4.30056600	-9.90403500	-7.89247000
4.49999991	-0.15871060	-9.52879000	-7.89247000
4.69999990	4.14124000	-9.52879000	-7.89247000
4.89999989	7.80511800	-9.90403500	-7.93553100
5.09999987	9.39837600	-10.64838000	-8.31077700
5.29999986	8.76107300	-11.02362000	-9.05511800
5.49999985	5.89382400	-11.06668000	-9.43036400
5.69999984	1.43331700	-11.06668000	-9.47342500
5.89999983	-3.50393700	-11.06668000	-9.43036400
6.09999981	-7.32714100	-11.02362000	-9.05511800
6.29999980	-9.39837600	-10.64838000	-8.31077700
6.49999979	-9.07972400	-9.90403500	-7.93553100
6.69999978	-6.53112700	-9.52879000	-7.89247000
6.89999977	-2.38927200	-9.48572700	-7.89247000
7.09999975	1.91129400	-9.52879000	-7.89247000
7.29999974	5.57517200	-9.90403500	-7.89247000
7.49999973	7.48646600	-10.64838000	-7.89247000
7.69999972	7.48646600	-11.02362000	-7.93553100
7.89999971	5.73449800	-11.06668000	-8.26771600
8.09999970	2.70792300	-11.06668000	-8.63681000
8.29999968	-0.63668800	-11.06668000	-8.26771600
8.49999967	-3.34522600	-11.06668000	-7.93553100
8.69999966	-4.93786900	-11.06668000	-7.89247000
8.89999965	-5.09719500	-11.06668000	-7.89247000
9.09999964	-4.14124000	-11.02362000	-7.89247000
9.29999962	-2.22994600	-10.69144000	-7.89247000
9.49999961	-0.31803640	-10.32234000	-7.89247000
9.69999960	1.43331700	-10.69144000	-7.89247000
9.89999959	2.38927200	-11.02362000	-7.89247000
10.09999958	2.54859700	-11.06668000	-7.89247000
10.29999956	2.07062000	-11.06668000	-7.89247000
10.49999955	1.27399100	-11.06668000	-7.93553100
10.69999954	0.31803640	-11.06668000	-8.26771600
10.89999953	-0.31803640	-11.06668000	-8.63681000
11.09999952	-0.79601380	-11.02362000	-8.26771600
11.29999951	-0.95533960	-10.69144000	-7.93553100
11.49999949	-0.95533960	-10.32234000	-7.89247000
11.69999948	-0.63668800	-10.69144000	-7.89247000
11.89999947	-0.31803640	-11.02362000	-7.89247000
12.09999946	-0.15871060	-11.06668000	-7.89247000
12.29999945	-0.15871060	-11.06668000	-7.89247000
12.49999943	0.00000000	-11.06668000	-7.89247000
12.69999942	0.00000000	-11.06668000	-7.89247000
12.89999941	0.00000000	-11.06668000	-7.93553100
13.09999940	0.00000000	-11.06668000	-8.26771600
13.29999939	0.00000000	-11.06668000	-8.63681000
13.49999937	0.00000000	-11.06668000	-8.26771600
13.69999936	0.00000000	-11.02362000	-7.93553100
13.89999935	-0.15871060	-10.69144000	-7.89247000
14.09999934	-0.15871060	-10.32234000	-7.89247000
14.29999933	-0.15871060	-10.69144000	-7.89247000
14.49999932	-0.15871060	-11.02362000	-7.89247000
14.69999930	0.00000000	-11.06668000	-7.89247000
14.89999929	0.00000000	-11.06668000	-7.89247000
15.09999928	0.00000000	-11.06668000	-7.89247000
15.29999927	0.00000000	-11.06668000	-7.89247000
15.49999926	0.00000000	-11.06668000	-7.89247000
15.69999924	0.00000000	-11.06668000	-7.89247000
15.89999923	0.00000000	-11.06668000	-7.89247000
16.09999922	0.00000000	-11.06668000	-7.89247000
16.29999921	-0.15871060	-11.02362000	-7.89247000
16.49999920	-0.15871060	-10.64838000	-7.93553100
16.69999919	-0.15871060	-9.90403500	-8.31077700
16.89999917	0.00000000	-9.52879000	-9.00590400
17.09999916	0.00000000	-9.44266700	-9.00590400
17.29999915	0.00000000	-9.06742000	-8.31077700
17.49999914	0.00000000	-8.37229300	-7.93553100
17.69999913	0.00000000	-8.37229300	-7.89247000
17.89999911	0.00000000	-9.11048200	-7.89247000
18.09999910	0.00000000	-9.95324800	-7.89247000
18.29999909	0.00000000	-11.48499000	-7.89247000
18.49999908	0.00000000	-13.39198000	-7.89247000
18.69999907	0.00000000	-14.56078000	-7.89247000
18.89999905	0.00000000	-15.34203000	-7.89247000
19.09999904	0.00000000	-15.25591000	-7.93553100
19.29999903	0.00000000	-13.67495000	-8.26771600
19.49999902	0.00000000	-10.59916000	-8.63681000
19.69999901	0.00000000	-6.74212600	-8.26771600
19.89999900	0.00000000	-3.25418300	-7.93553100
20.09999898	0.00000000	-0.51058070	-7.93553100
20.29999897	0.00000000	0.93503930	-8.26771600
20.49999896	0.00000000	0.04921259	-8.63681000
20.69999895	0.00000000	-4.22613100	-8.26771600
20.89999894	0.00000000	-11.15896000	-7.93553100
21.09999892	0.00000000	-18.87918000	-7.89247000
21.29999891	0.00000000	-25.85507000	-7.93553100
21.49999890	0.00000000	-30.41954000	-8.26771600
21.69999889	0.00000000	-31.11466000	-8.67987200
21.89999888	0.00000000	-26.79626000	-8.68602300
22.09999886	0.00000000	-17.90723000	-9.09817800
22.29999885	0.00000000	-6.28075700	-9.43036400
22.49999884	0.00000000	5.72711600	-9.47342500
22.69999883	0.00000000	15.72958000	-9.43036400
22.89999882	0.00000000	20.98917000	-9.05511800
23.09999881	-0.15871060	18.98376000	-8.26771600
23.29999879	0.00000000	9.27042300	-7.51722400
23.49999878	0.00000000	-6.18233200	-6.72982200
23.69999877	0.00000000	-24.32333000	-6.35457700
23.89999876	0.00000000	-40.51427000	-6.31151500
24.09999875	0.00000000	-50.89813000	-6.35457700
24.29999873	0.00000000	-52.75591000	-6.77903500
24.49999872	0.00000000	-44.56816000	-7.93553100
24.69999871	0.00000000	-27.95891000	-9.47342500
24.89999870	0.00000000	-6.28075700	-11.04823000
25.09999869	0.00000000	15.68651000	-12.58612000
25.29999867	0.00000000	32.62180000	-13.69956000
25.49999866	0.00000000	39.92372000	-13.65650000
25.69999865	0.00000000	35.64837000	-12.07554000
25.89999864	0.00000000	20.57087000	-9.00590400
26.09999863	0.00000000	-2.22687000	-5.11195900
26.29999862	0.00000000	-27.30684000	-1.24877000
26.49999860	0.00000000	-48.94193000	2.18380900
26.69999859	0.00000000	-62.06324000	3.67249000
26.89999858	0.00000000	-63.60112000	2.46678100
27.09999857	0.00000000	-53.17421000	-1.43946800
27.29999856	0.00000000	-33.07701000	-8.02780400
27.49999854	0.00000000	-7.99704600	-15.74188000
27.69999853	0.00000000	16.33243000	-23.08686000
27.89999852	0.00000000	34.06742000	-28.38337000
28.09999851	0.00000000	41.08636000	-29.49680000
28.29999850	0.00000000	36.15895000	-25.63976000
28.49999848	0.00000000	21.49975000	-17.83957000
28.69999847	0.00000000	0.60900590	-6.96358300
28.89999846	0.00000000	-22.18873000	5.33956700
29.09999845	0.00000000	-41.49852000	15.70497000
29.29999844	0.00000000	-53.13115000	21.46899000
29.49999843	0.00000000	-54.75516000	21.05069000
29.69999841	0.00000000	-46.70890000	14.03789000
29.89999840	0.00000000	-31.67446000	1.67322800
30.09999839	0.00000000	-13.11516000	-13.79183000
30.29999838	0.00000000	4.70595500	-28.84473000
30.49999837	0.00000000	18.28863000	-40.41584000
30.69999835	0.00000000	25.26452000	-45.71235000
30.89999834	0.00000000	24.15108000	-42.64886000
31.09999833	0.00000000	15.72958000	-31.82825000
31.29999832	0.00000000	2.60826800	-15.97564000
31.49999831	0.00000000	-12.09400000	2.18380900
31.69999829	0.00000000	-25.30143000	18.35630000
31.89999828	0.00000000	-34.61491000	28.80782000
32.09999827	0.00000000	-38.47195000	31.54527000
32.29999826	0.00000000	-35.82062000	26.11343000
32.49999825	0.00000000	-27.76821000	13.75492000
32.69999824	0.00000000	-16.92298000	-3.24803100
32.89999822	0.00000000	-5.33956700	-21.03838000
33.09999821	0.00000000	4.28764700	-36.09744000
33.29999820	0.00000000	9.40575800	-45.38631000
33.49999819	0.00000000	9.82406400	-46.55511000
33.69999818	0.00000000	5.95472400	-39.99754000
33.89999816	0.00000000	-1.71628900	-26.89468000
34.09999815	0.00000000	-10.55610000	-10.26698000
34.29999814	0.00000000	-18.32554000	5.95472400
34.49999813	0.00000000	-23.72047000	19.09449000
34.69999812	0.00000000	-25.25836000	25.65207000
34.89999810	0.00000000	-22.65010000	24.53248000
35.09999809	0.00000000	-17.29823000	16.44316000
35.29999808	0.00000000	-11.10974000	2.97736200
35.49999807	0.00000000	-5.29650500	-12.03248000
35.69999806	0.00000000	-1.10728300	-25.22145000
35.89999805	0.00000000	0.04921259	-34.09818000
36.09999803	0.00000000	-2.22687000	-36.79257000
36.29999802	0.00000000	-6.79133800	-32.56643000
36.49999801	0.00000000	-12.18012000	-22.61934000
36.69999800	0.00000000	-16.79380000	-9.94094400
36.89999799	0.00000000	-19.48819000	1.95620100
37.09999797	0.00000000	-19.53125000	10.08243000
37.29999796	0.00000000	-17.21210000	12.41388000
37.49999795	0.00000000	-13.34276000	9.01205700
37.69999794	0.00000000	-8.32308000	0.97810030
37.89999793	0.00000000	-3.75861200	-8.96284400
38.09999791	0.00000000	-1.02116100	-17.79650000
38.29999790	0.00000000	-0.64591530	-23.18528000
38.49999789	0.00000000	-2.55290300	-23.56053000
38.69999788	0.00000000	-6.36687900	-19.00221000
38.89999787	0.00000000	-10.64838000	-10.96211000
39.09999786	0.00000000	-14.56078000	-2.12844500
39.29999784	0.00000000	-18.04257000	5.11811000
39.49999783	0.00000000	-19.90650000	8.50147600
39.69999782	0.00000000	-19.58046000	6.23154500
39.89999781	0.00000000	-17.29823000	-0.64591530
40.09999780	0.00000000	-14.22859000	-9.84867000
40.29999778	0.00000000	-11.06668000	-19.08834000
40.49999777	0.00000000	-7.94783400	-25.55364000
40.69999776	0.00000000	-5.21038300	-27.49754000
40.89999775	0.00000000	-3.29724400	-24.02190000
41.09999774	0.00000000	-2.50984200	-16.35089000
41.29999772	0.00000000	-3.29724400	-6.36072800
41.49999771	0.00000000	-5.21038300	3.21112200
41.69999770	0.00000000	-7.94783400	9.38730200
41.89999769	0.00000000	-11.02362000	10.92520000
42.09999768	0.00000000	-13.81028000	7.48031400
42.29999767	0.00000000	-16.09252000	-0.13533460
42.49999765	0.00000000	-17.62426000	-8.96284400
42.69999764	0.00000000	-17.25517000	-16.72613000
42.89999763	0.00000000	-15.76649000	-22.15797000
43.09999762	0.00000000	-13.81028000	-24.06496000
43.29999761	0.00000000	-11.48499000	-22.20103000
43.49999759	0.00000000	-9.52879000	-17.18750000
43.69999758	0.00000000	-7.94783400	-10.67298000
43.89999757	0.00000000	-6.79133800	-4.12770700
44.09999756	0.00000000	-6.36687900	0.51673230
44.29999755	0.00000000	-6.32381900	2.46678100
44.49999753	0.00000000	-6.36687900	1.76550200
44.69999752	0.00000000	-6.74212600	-1.29183100
44.89999751	0.00000000	-7.48646600	-5.15501900
45.09999750	0.00000000	-7.94783400	-9.43036400
45.29999749	0.00000000	-8.79060000	-13.23819000
45.49999748	0.00000000	-10.73450000	-15.18824000
45.69999746	0.00000000	-13.06594000	-15.23130000
45.89999745	0.00000000	-15.80955000	-13.69956000
46.09999744	0.00000000	-18.50394000	-11.04823000
46.29999743	0.00000000	-20.37401000	-8.35383800
46.49999742	0.00000000	-20.69390000	-6.36072800
46.69999740	0.00000000	-18.32554000	-4.77977300
46.89999739	0.00000000	-13.67495000	-3.66633800
47.09999738	0.00000000	-7.48646600	-3.66633800
47.29999737	0.00000000	-0.92888770	-4.82283400
47.49999736	0.00000000	4.01082700	-6.77903500
47.69999734	0.00000000	5.95472400	-9.47342500
47.89999733	0.00000000	3.96161400	-12.16781000
48.09999732	0.00000000	-1.43946800	-14.07480000
48.29999731	0.00000000	-9.57800100	-14.81299000
48.49999730	0.00000000	-18.41781000	-13.69956000
48.69999729	0.00000000	-25.76895000	-11.38041000
48.89999727	0.00000000	-30.00123000	-8.67987200
49.09999726	0.00000000	-29.95817000	-5.57332700
49.29999725	0.00000000	-25.30143000	-3.24803100
49.49999724	0.00000000	-16.79380000	-1.71013800
49.69999723	0.00000000	-6.45915300	-1.39025600
49.89999721	0.00000000	2.79281500	-3.33415300
50.09999720	0.00000000	8.24311000	-6.72982200
50.29999719	0.00000000	9.40575800	-10.62992000
50.49999718	0.00000000	5.86860200	-14.07480000
50.69999717	0.00000000	-2.17765700	-16.39395000
50.89999715	0.00000000	-12.18012000	-16.76919000
51.09999714	0.00000000	-21.40133000	-15.23130000
51.29999713	0.00000000	-27.57751000	-12.11860000
51.49999712	0.00000000	-28.74631000	-7.89247000
51.69999711	0.00000000	-25.34449000	-3.66633800
51.89999710	0.00000000	-18.37475000	-0.59670270
52.09999708	0.00000000	-9.57800100	0.55979330
52.29999707	0.00000000	-1.48253000	-0.55364170
52.49999706	0.00000000	3.50024600	-3.24803100
52.69999705	0.00000000	4.33070900	-6.72982200
52.89999704	0.00000000	0.84891720	-10.58686000
53.09999702	0.00000000	-5.62869100	-13.65650000
53.29999701	0.00000000	-13.34276000	-15.23130000
53.49999700	0.00000000	-19.82037000	-15.18824000
53.69999699	0.00000000	-23.30216000	-13.28125000
53.89999698	0.00000000	-22.55782000	-9.89173200
54.09999696	0.00000000	-18.37475000	-6.86515700
54.29999695	0.00000000	-12.22933000	-5.24729300
54.49999694	0.00000000	-5.71481200	-4.82898600
54.69999693	0.00000000	-1.10728300	-5.24729300
54.89999692	0.00000000	0.47367120	-6.77903500
55.09999691	0.00000000	-1.06422200	-9.00590400
55.29999689	0.00000000	-5.29650500	-10.49459000
55.49999688	0.00000000	-11.06668000	-10.53765000
55.69999687	0.00000000	-16.79380000	-9.38115100
55.89999686	0.00000000	-20.65084000	-7.47416300
56.09999685	0.00000000	-21.44439000	-5.19808000
56.29999683	0.00000000	-19.53125000	-3.70939900
56.49999682	0.00000000	-15.29897000	-3.70939900
56.69999681	0.00000000	-9.95324800	-5.29035400
56.89999680	0.00000000	-5.29650500	-8.35998900
57.09999679	0.00000000	-2.22687000	-12.16166000
57.29999677	0.00000000	-1.43946800	-15.23130000
57.49999676	0.00000000	-3.34030500	-16.76919000
57.69999675	0.00000000	-6.79133800	-16.35089000
57.89999674	0.00000000	-11.02362000	-13.56422000
58.09999673	0.00000000	-14.88066000	-8.63681000
58.29999672	0.00000000	-17.21210000	-2.87893700
58.49999670	0.00000000	-17.99951000	1.31028500
58.69999669	0.00000000	-16.83686000	3.29724400
58.89999668	0.00000000	-14.18553000	2.46678100
59.09999667	0.00000000	-11.06668000	-1.01501000
59.29999666	0.00000000	-7.99704600	-6.82209600
59.49999664	0.00000000	-5.71481200	-13.69956000
59.69999663	0.00000000	-5.29650500	-19.46358000
59.89999662	0.00000000	-6.41609200	-22.53322000
60.09999661	0.00000000	-8.32308000	-22.15797000
60.29999660	0.00000000	-10.64838000	-18.25787000
60.49999658	0.00000000	-12.55536000	-11.74951000
60.69999657	0.00000000	-13.71801000	-4.04158400
60.89999656	0.00000000	-13.71801000	2.46678100
61.09999655	0.00000000	-12.55536000	6.36687900
61.29999654	0.00000000	-10.69144000	6.69291300
61.49999653	0.00000000	-8.79060000	3.25418300
61.69999651	0.00000000	-8.04010800	-3.29109200
61.89999650	0.00000000	-8.37229300	-10.96211000
62.09999649	0.00000000	-9.52879000	-17.92569000
62.29999648	0.00000000	-11.06668000	-22.57628000
62.49999647	0.00000000	-12.60458000	-24.10802000
62.69999645	0.00000000	-13.76107000	-22.15797000
62.89999644	0.00000000	-14.13632000	-16.76919000
63.09999643	0.00000000	-13.76107000	-9.47342500
63.29999642	0.00000000	-12.55536000	-2.12844500
63.49999641	0.00000000	-10.64838000	3.62942900
63.69999639	0.00000000	-8.37229300	6.32381900
63.89999638	0.00000000	-6.83439900	5.20423200
64.09999637	0.00000000	-6.45915300	1.02116100
64.29999636	0.00000000	-7.20964500	-4.73671200
64.49999635	0.00000000	-9.11048200	-10.58686000
64.69999634	0.00000000	-11.02362000	-15.64960000
64.89999632	0.00000000	-12.60458000	-19.50664000
65.09999631	0.00000000	-13.76107000	-21.04454000
65.29999630	0.00000000	-14.13632000	-19.88189000
65.49999629	0.00000000	-13.71801000	-16.48622000
65.69999628	0.00000000	-12.18012000	-11.84178000
65.89999626	0.00000000	-9.95324800	-7.60949800
66.09999625	0.00000000	-8.45841400	-4.03543200
66.29999624	0.00000000	-8.41535400	-1.71013800
66.49999623	0.00000000	-9.52879000	-0.46136810
66.69999622	0.00000000	-11.06668000	-0.13533460
66.89999620	0.00000000	-12.60458000	-0.87967510
67.09999619	0.00000000	-13.71801000	-2.82972400
67.29999618	0.00000000	-13.71801000	-5.15501900
67.49999617	0.00000000	-12.55536000	-7.93553100
67.69999616	0.00000000	-10.64838000	-11.04823000
67.89999615	0.00000000	-8.32308000	-14.16092000
68.09999613	0.00000000	-6.41609200	-16.85531000
68.29999612	0.00000000	-5.29650500	-18.35015000
68.49999611	0.00000000	-5.71481200	-17.97490000
68.69999610	0.00000000	-7.99704600	-15.60654000
68.89999609	0.00000000	-11.10974000	-11.74336000
69.09999607	0.00000000	-14.60384000	-6.68676100
69.29999606	0.00000000	-18.04257000	-1.71013800
69.49999605	0.00000000	-19.90650000	2.18380900
69.69999604	0.00000000	-19.53125000	4.09079700
69.89999603	0.00000000	-16.83686000	3.67249000
70.09999601	0.00000000	-12.55536000	0.55979330
70.29999600	0.00000000	-7.52952700	-4.82898600
70.49999599	0.00000000	-2.50984200	-10.96211000
70.69999598	0.00000000	0.89197830	-16.39395000
70.89999597	0.00000000	1.67938000	-19.88189000
71.09999596	0.00000000	-0.64591530	-21.04454000
71.29999594	0.00000000	-5.29650500	-19.46358000
71.49999593	0.00000000	-11.48499000	-15.28051000
71.69999592	0.00000000	-17.99951000	-9.89173200
71.89999591	0.00000000	-22.60704000	-4.87204700
72.09999590	0.00000000	-24.23105000	-0.97194880
72.29999588	0.00000000	-23.06841000	0.93503930
72.49999587	0.00000000	-19.53125000	0.55979330
72.69999586	0.00000000	-13.76107000	-2.08538400
72.89999585	0.00000000	-7.25270600	-5.89320800
73.09999584	0.00000000	-2.17765700	-9.38115100
73.29999582	0.00000000	0.93503930	-12.07554000
73.49999581	0.00000000	1.72244100	-13.23819000
73.69999580	0.00000000	-0.27066930	-12.53691000
73.89999579	0.00000000	-4.46604300	-11.04823000
74.09999578	0.00000000	-10.27313000	-9.47342500
74.29999577	0.00000000	-15.63115000	-7.98474400
74.49999575	0.00000000	-19.53125000	-7.24040300
74.69999574	0.00000000	-21.06914000	-8.02780400
74.89999573	0.00000000	-19.95571000	-9.84867000
75.09999572	0.00000000	-16.92298000	-11.70029000
75.29999571	0.00000000	-13.06594000	-12.07554000
75.49999569	0.00000000	-9.57800100	-10.96211000
75.69999568	0.00000000	-6.83439900	-9.00590400
75.89999567	0.00000000	-5.29650500	-6.31151500
76.09999566	0.00000000	-5.25344500	-3.57406500
76.29999565	0.00000000	-6.41609200	-1.33489200
76.49999563	0.00000000	-8.32308000	-0.23375980
76.69999562	0.00000000	-10.59916000	-1.84547200
76.89999561	0.00000000	-12.13706000	-5.61638700
77.09999560	0.00000000	-12.55536000	-10.62992000
77.29999559	0.00000000	-12.22933000	-15.23130000
77.49999558	0.00000000	-11.44193000	-18.35015000
77.69999556	0.00000000	-10.73450000	-19.50664000
77.89999555	0.00000000	-10.37155000	-18.30093000
78.09999554	0.00000000	-11.10974000	-14.81299000
78.29999553	0.00000000	-12.18012000	-9.42421200
78.49999552	0.00000000	-12.60458000	-3.66633800
78.69999550	0.00000000	-12.60458000	0.97810030
78.89999549	0.00000000	-12.18012000	3.67249000
79.09999548	0.00000000	-10.97441000	3.67249000
79.29999547	0.00000000	-9.06742000	1.02116100
79.49999546	0.00000000	-6.79133800	-3.24803100
79.69999544	0.00000000	-5.29650500	-8.26771600
79.89999543	0.00000000	-5.25344500	-13.28125000
80.09999542	0.00000000	-6.41609200	-16.72613000
80.29999541	0.00000000	-8.37229300	-17.97490000
80.49999540	0.00000000	-11.06668000	-17.23056000
80.69999539	0.00000000	-13.76107000	-15.32357000
80.89999537	0.00000000	-15.71727000	-12.53691000
81.09999536	0.00000000	-16.83686000	-9.09817800
81.29999535	0.00000000	-16.41855000	-5.61638700
81.49999534	0.00000000	-14.13632000	-3.29109200
81.69999533	0.00000000	-11.10974000	-2.04232300
81.89999531	0.00000000	-8.37229300	-1.66707700
82.09999530	0.00000000	-6.45915300	-2.04232300
82.29999529	0.00000000	-5.67175200	-3.24803100
82.49999528	0.00000000	-6.41609200	-5.19808000
82.69999527	0.00000000	-7.94783400	-7.93553100
82.89999525	0.00000000	-9.90403500	-11.00517000
83.09999524	0.00000000	-12.18012000	-13.69956000
83.29999523	0.00000000	-13.71801000	-15.27436000
83.49999522	0.00000000	-14.13632000	-15.69267000
83.69999521	0.00000000	-13.81028000	-15.27436000
83.89999520	0.00000000	-13.02288000	-13.69956000
84.09999518	0.00000000	-12.22933000	-11.00517000
84.29999517	0.00000000	-11.06668000	-7.84940900
84.49999516	0.00000000	-9.95324800	-4.36146600
84.69999515	0.00000000	-9.52879000	-0.97194880
84.89999514	0.00000000	-9.52879000	0.55979330
85.09999512	0.00000000	-9.86097400	-0.17839570
85.29999511	0.00000000	-10.23007000	-2.50369100
85.49999510	0.00000000	-9.86097400	-6.40378900
85.69999509	0.00000000	-9.52879000	-11.00517000
85.89999508	0.00000000	-9.48572700	-15.23130000
86.09999506	0.00000000	-9.52879000	-17.92569000
86.29999505	0.00000000	-9.95324800	-18.35015000
86.49999504	0.00000000	-11.06668000	-16.76919000
86.69999503	0.00000000	-12.22933000	-13.28125000
86.89999502	0.00000000	-13.02288000	-8.31077700
87.09999501	0.00000000	-13.81028000	-3.70939900
87.29999499	0.00000000	-14.13632000	-0.59670270
87.49999498	0.00000000	-13.76107000	0.55979330
87.69999497	0.00000000	-12.60458000	-0.59670270
87.89999496	0.00000000	-11.06668000	-3.66633800
88.09999495	0.00000000	-9.52879000	-7.89247000
88.29999493	0.00000000	-8.37229300	-12.11860000
88.49999492	0.00000000	-7.99704600	-15.23130000
88.69999491	0.00000000	-8.37229300	-16.76919000
88.89999490	0.00000000	-9.52879000	-16.35089000
89.09999489	0.00000000	-11.06668000	-13.65650000
89.29999487	0.00000000	-12.60458000	-9.47342500
89.49999486	0.00000000	-13.71801000	-5.19808000
89.69999485	0.00000000	-13.76107000	-1.84547200
89.89999484	0.00000000	-13.02288000	-0.60900590
90.09999483	0.00000000	-12.22933000	-2.12229300
90.29999482	0.00000000	-11.06668000	-4.41067900
90.49999480	0.00000000	-9.95324800	-8.02780400
90.69999479	0.00000000	-9.52879000	-12.53691000
90.89999478	0.00000000	-9.48572700	-16.30167000
91.09999477	0.00000000	-9.52879000	-17.46432000
91.29999476	0.00000000	-9.90403500	-15.60654000
91.49999474	0.00000000	-10.64838000	-12.11860000
91.69999473	0.00000000	-11.02362000	-7.51722400
91.89999472	0.00000000	-11.06668000	-2.97121000
92.09999471	0.00000000	-11.06668000	-0.63976370
92.29999470	0.00000000	-11.06668000	-0.55364170
92.49999468	0.00000000	-11.06668000	-2.17765700
92.69999467	0.00000000	-11.10974000	-5.66560000
92.89999466	0.00000000	-11.48499000	-10.58686000
93.09999465	0.00000000	-12.27239000	-14.76993000
93.29999464	0.00000000	-13.02288000	-16.76919000
93.49999463	0.00000000	-13.76107000	-16.76919000
93.69999461	0.00000000	-13.71801000	-14.81299000
93.89999460	0.00000000	-12.60458000	-10.95595000
94.09999459	0.00000000	-11.02362000	-6.40378900
94.29999458	0.00000000	-9.06742000	-2.54675200
94.49999457	0.00000000	-6.79133800	-0.63976370
94.69999455	0.00000000	-5.29650500	-1.01501000
94.89999454	0.00000000	-5.29650500	-3.70939900
95.09999453	0.00000000	-6.79133800	-7.84940900
95.29999452	0.00000000	-9.15354300	-11.74951000
95.49999451	0.00000000	-11.90330000	-14.45005000
95.69999449	0.00000000	-15.34203000	-15.97564000
95.89999448	0.00000000	-17.99951000	-15.18824000
96.09999447	0.00000000	-18.79306000	-12.58612000
96.29999446	0.00000000	-18.04257000	-9.47342500
96.49999445	0.00000000	-15.67421000	-6.36072800
96.69999444	0.00000000	-12.22933000	-3.70939900
96.89999442	0.00000000	-8.32308000	-2.54675200
97.09999441	0.00000000	-4.87819900	-3.29109200
97.29999440	0.00000000	-2.55290300	-5.19808000
97.49999439	0.00000000	-2.17765700	-7.89247000
97.69999438	0.00000000	-3.71555100	-10.53765000
97.89999436	0.00000000	-6.79133800	-12.11860000
98.09999435	0.00000000	-10.69144000	-12.53691000
98.29999434	0.00000000	-14.56078000	-12.16166000
98.49999433	0.00000000	-18.04257000	-11.00517000
98.69999432	0.00000000	-19.90650000	-9.51648500
98.89999430	0.00000000	-19.58046000	-8.35998900
99.09999429	0.00000000	-17.29823000	-7.93553100
99.29999428	0.00000000	-14.18553000	-7.89247000
99.49999427	0.00000000	-10.69144000	-7.89247000
99.69999426	0.00000000	-7.16043300	-7.84940900
99.89999425	0.00000000	-4.50295200	-7.47416300
100.09999423	0.00000000	-2.92814900	-6.72982200
100.29999422	0.00000000	-3.34030500	-6.35457700
100.49999421	0.00000000	-5.21038300	-6.31151500
100.69999420	0.00000000	-7.94783400	-6.35457700
100.89999419	0.00000000	-11.02362000	-6.82209600
101.09999417	0.00000000	-13.76107000	-8.35383800
101.29999416	0.00000000	-15.71727000	-10.58686000
101.49999415	0.00000000	-16.87992000	-12.11860000
101.69999414	0.00000000	-16.87992000	-12.58612000
101.89999413	0.00000000	-15.71727000	-12.53691000
102.09999411	0.00000000	-13.76107000	-11.70029000
102.29999410	0.00000000	-11.06668000	-9.38115100
102.49999409	0.00000000	-8.41535400	-6.36072800
102.69999408	0.00000000	-6.83439900	-3.66633800
102.89999407	0.00000000	-6.36687900	-2.12844500
103.09999406	0.00000000	-6.41609200	-2.12844500
103.29999404	0.00000000	-7.20964500	-3.66633800
103.49999403	0.00000000	-9.11048200	-6.36072800
103.69999402	0.00000000	-11.02362000	-9.47342500
103.89999401	0.00000000	-12.64764000	-12.53691000
104.09999400	0.00000000	-14.18553000	-14.81299000
104.29999398	0.00000000	-15.29897000	-15.23130000
104.49999397	0.00000000	-15.29897000	-14.11786000
104.69999396	0.00000000	-14.18553000	-12.16781000
104.89999395	0.00000000	-12.64764000	-9.42421200
105.09999394	0.00000000	-11.06668000	-6.40378900
105.29999392	0.00000000	-9.57800100	-4.08464600
105.49999391	0.00000000	-8.79060000	-3.37721400
105.69999390	0.00000000	-9.11048200	-4.41067900
105.89999389	0.00000000	-9.48572700	-6.72367100
106.09999388	0.00000000	-9.95324800	-8.64296200
106.29999387	0.00000000	-11.06668000	-10.62992000
106.49999385	0.00000000	-12.18012000	-12.07554000
106.69999384	0.00000000	-12.60458000	-12.11860000
106.89999383	0.00000000	-12.60458000	-11.00517000
107.09999382	0.00000000	-12.18012000	-9.47342500
107.29999381	0.00000000	-11.06668000	-7.93553100
107.49999379	0.00000000	-9.95324800	-6.77903500
107.69999378	0.00000000	-9.52879000	-6.35457700
107.89999377	0.00000000	-9.52879000	-6.35457700
108.09999376	0.00000000	-9.95324800	-6.77903500
108.29999375	0.00000000	-11.06668000	-7.93553100
108.49999374	0.00000000	-12.22933000	-9.47342500
108.69999372	0.00000000	-12.97982000	-10.96211000
108.89999371	0.00000000	-13.39198000	-11.74336000
109.09999370	0.00000000	-12.97982000	-11.33120000
109.29999369	0.00000000	-12.22933000	-10.21161000
109.49999368	0.00000000	-11.06668000	-8.26771600
109.69999366	0.00000000	-9.90403500	-6.40378900
109.89999365	0.00000000	-9.15354300	-5.24729300
110.09999364	0.00000000	-8.74138700	-5.19808000
110.29999363	0.00000000	-9.15354300	-5.93626900
110.49999362	0.00000000	-9.90403500	-6.72982200
110.69999360	0.00000000	-11.06668000	-7.93553100
110.89999359	0.00000000	-12.18012000	-9.47342500
111.09999358	0.00000000	-12.60458000	-10.96211000
111.29999357	0.00000000	-12.64764000	-11.74336000
111.49999356	0.00000000	-12.60458000	-11.38041000
111.69999355	0.00000000	-12.22933000	-10.62992000
111.89999353	0.00000000	-11.44193000	-9.47342500
112.09999352	0.00000000	-10.73450000	-8.35998900
112.29999351	0.00000000	-10.32234000	-7.93553100
112.49999350	0.00000000	-10.69144000	-7.84940900
112.69999349	0.00000000	-11.02362000	-7.51722400
112.89999347	0.00000000	-11.06668000	-7.14812900
113.09999346	0.00000000	-11.06668000	-7.51722400
113.29999345	0.00000000	-11.06668000	-7.84940900
113.49999344	0.00000000	-11.06668000	-7.93553100
113.69999343	0.00000000	-11.06668000	-8.31077700
113.89999341	0.00000000	-11.06668000	-9.05511800
114.09999340	0.00000000	-11.06668000	-9.43036400
114.29999339	0.00000000	-11.06668000	-9.51648500
114.49999338	0.00000000	-11.06668000	-9.84867000
114.69999337	0.00000000	-11.06668000	-10.25467000
114.89999336	0.00000000	-11.06668000	-10.21776000
115.09999334	0.00000000	-11.06668000	-10.25467000
115.29999333	0.00000000	-11.06668000	-9.84867000
115.49999332	0.00000000	-11.06668000	-9.47342500
115.69999331	0.00000000	-11.06668000	-9.05511800
115.89999330	0.00000000	-11.06668000	-8.26771600
116.09999328	0.00000000	-11.10974000	-7.51722400
116.29999327	0.00000000	-11.48499000	-6.72982200
116.49999326	0.00000000	-12.22933000	-6.35457700
116.69999325	0.00000000	-12.55536000	-6.35457700
116.89999324	0.00000000	-12.22933000	-6.77903500
117.09999322	0.00000000	-11.48499000	-7.93553100
117.29999321	0.00000000	-11.06668000	-9.42421200
117.49999320	0.00000000	-10.64838000	-10.58686000
117.69999319	0.00000000	-9.90403500	-11.00517000
117.89999318	0.00000000	-9.52879000	-11.00517000
118.09999317	0.00000000	-9.48572700	-10.62992000
118.29999315	0.00000000	-9.52879000	-9.84867000
118.49999314	0.00000000	-9.95324800	-9.09817800
118.69999313	0.00000000	-11.10974000	-8.26771600
118.89999312	0.00000000	-12.60458000	-7.51722400
119.09999311	0.00000000	-13.71801000	-6.72982200
119.29999309	0.00000000	-13.76107000	-6.35457700
119.49999308	0.00000000	-13.02288000	-6.35457700
119.69999307	0.00000000	-12.22933000	-6.72982200
119.89999306	0.00000000	-11.06668000	-7.51722400
120.09999305	0.00000000	-9.90403500	-8.26771600
120.29999303	0.00000000	-9.11048200	-9.05511800
120.49999302	0.00000000	-8.37229300	-9.43036400
120.69999301	0.00000000	-8.37229300	-9.47342500
120.89999300	0.00000000	-9.06742000	-9.47342500
121.09999299	0.00000000	-9.48572700	-9.47342500
121.29999298	0.00000000	-9.99630800	-9.43036400
121.49999296	0.00000000	-11.48499000	-9.09817800
121.69999295	-0.15871060	-13.34276000	-8.68602300
121.89999294	-0.15871060	-14.13632000	-8.67987200
122.09999293	0.00000000	-14.18553000	-8.26771600
122.29999292	0.00000000	-13.81028000	-7.93553100
122.49999290	0.00000000	-13.02288000	-7.89247000
122.69999289	0.00000000	-12.22933000	-7.89247000
122.89999288	0.00000000	-11.06668000	-7.89247000
123.09999287	0.00000000	-9.95324800	-7.89247000
123.29999286	0.00000000	-9.52879000	-7.89247000
123.49999284	0.00000000	-9.48572700	-7.93553100
123.69999283	0.00000000	-9.48572700	-8.31077700
123.89999282	0.00000000	-9.48572700	-9.05511800
124.09999281	0.00000000	-9.52879000	-9.43036400
124.29999280	0.00000000	-9.95324800	-9.47342500
124.49999279	0.00000000	-11.06668000	-9.47342500
124.69999277	0.00000000	-12.22933000	-9.47342500
124.89999276	0.00000000	-12.97982000	-9.47342500
125.09999275	0.00000000	-13.39198000	-9.43036400
125.29999274	0.00000000	-13.02288000	-9.05511800
125.49999273	0.00000000	-12.64764000	-8.31077700
125.69999271	0.00000000	-12.18012000	-7.93553100
125.89999270	0.00000000	-11.06668000	-7.89247000
126.09999269	0.00000000	-9.95324800	-7.89247000
126.29999268	0.00000000	-9.52879000	-7.89247000
126.49999267	0.00000000	-9.48572700	-7.93553100
126.69999265	0.00000000	-9.52879000	-8.31077700
126.89999264	0.00000000	-9.90403500	-9.05511800
127.09999263	0.00000000	-10.69144000	-9.43036400
127.29999262	0.00000000	-11.48499000	-9.47342500
127.49999261	0.00000000	-12.64764000	-9.47342500
127.69999260	0.00000000	-13.76107000	-9.47342500
127.89999258	0.00000000	-14.13632000	-9.43036400
128.09999257	0.00000000	-13.76107000	-9.05511800
128.29999256	0.00000000	-12.60458000	-8.31077700
128.49999255	0.00000000	-11.06668000	-7.93553100
128.69999254	0.00000000	-9.52879000	-7.89247000
128.89999252	0.00000000	-8.41535400	-7.89247000
129.09999251	0.00000000	-8.37229300	-7.89247000
129.29999250	0.00000000	-9.11048200	-7.89247000
129.49999249	0.00000000	-9.90403500	-7.93553100
129.69999248	0.00000000	-11.06668000	-8.31077700
129.89999246	0.00000000	-12.22933000	-9.05511800
130.09999245	0.00000000	-12.97982000	-9.43036400
130.29999244	0.00000000	-13.39198000	-9.47342500
130.49999243	0.00000000	-12.97982000	-9.43036400
130.69999242	0.00000000	-12.22933000	-9.05511800
130.89999241	0.00000000	-11.06668000	-8.31077700
131.09999239	0.00000000	-9.95324800	-7.98474400
131.29999238	0.00000000	-9.52879000	-8.35998900
131.49999237	0.00000000	-9.48572700	-9.42421200
131.69999236	0.00000000	-9.52879000	-10.16855000
131.89999235	0.00000000	-9.90403500	-9.84867000
132.09999233	0.00000000	-10.69144000	-9.51648500
132.29999232	0.00000000	-11.44193000	-9.47342500
132.49999231	0.00000000	-12.18012000	-9.47342500
132.69999230	0.00000000	-12.18012000	-9.43036400
132.89999229	0.00000000	-11.48499000	-9.05511800
133.09999227	0.00000000	-11.10974000	-8.31077700
133.29999226	0.00000000	-11.06668000	-7.93553100
133.49999225	0.00000000	-11.06668000	-7.89247000
133.69999224	0.00000000	-11.06668000	-7.89247000
133.89999223	0.00000000	-11.06668000	-7.93553100
134.09999222	0.00000000	-11.06668000	-8.31077700
134.29999220	0.00000000	-11.06668000	-9.05511800
134.49999219	0.00000000	-11.06668000	-9.47342500
134.69999218	0.00000000	-11.06668000	-9.84867000
134.89999217	0.00000000	-11.02362000	-10.21161000
135.09999216	0.00000000	-10.64838000	-9.84867000
135.29999214	0.00000000	-9.95324800	-9.51648500
135.49999213	0.00000000	-9.95324800	-9.43036400
135.69999212	0.00000000	-10.64838000	-9.05511800
135.89999211	0.00000000	-11.06668000	-8.31077700
136.09999210	0.00000000	-11.48499000	-7.93553100
136.29999208	0.00000000	-12.22933000	-7.89247000
136.49999207	0.00000000	-12.60458000	-7.89247000
136.69999206	0.00000000	-12.60458000	-7.89247000
136.89999205	0.00000000	-12.22933000	-7.93553100
137.09999204	0.00000000	-11.48499000	-8.31077700
137.29999203	0.00000000	-11.10974000	-9.05511800
137.49999201	-0.15871060	-11.02362000	-9.43036400
137.69999200	0.00000000	-10.64838000	-9.47342500
137.89999199	0.00000000	-9.95324800	-9.47342500
138.09999198	0.00000000	-9.95324800	-9.47342500
138.29999197	0.00000000	-10.69144000	-9.47342500
138.49999195	0.00000000	-11.44193000	-9.47342500
138.69999194	0.00000000	-12.22933000	-9.43036400
138.89999193	0.00000000	-12.60458000	-9.05511800
139.09999192	0.00000000	-12.64764000	-8.31077700
139.29999191	0.00000000	-12.60458000	-7.93553100
139.49999189	0.00000000	-12.22933000	-7.89247000
139.69999188	0.00000000	-11.48499000	-7.89247000
139.89999187	0.00000000	-11.06668000	-7.89247000
140.09999186	0.00000000	-10.64838000	-7.93553100
140.29999185	0.00000000	-9.95324800	-8.31077700
140.49999184	0.00000000	-9.95324800	-9.09817800
140.69999182	0.00000000	-10.64838000	-9.84867000
140.89999181	0.00000000	-11.02362000	-10.58686000
141.09999180	0.00000000	-11.10974000	-10.58686000
141.29999179	0.00000000	-11.48499000	-9.84867000
141.49999178	0.00000000	-12.18012000	-9.09817800
141.69999176	0.00000000	-12.18012000	-8.31077700
141.89999175	0.00000000	-11.48499000	-7.89247000
142.09999174	0.00000000	-11.10974000	-7.47416300
142.29999173	0.00000000	-11.06668000	-6.77903500
142.49999172	0.00000000	-11.06668000	-6.77903500
142.69999170	0.00000000	-11.06668000	-7.51722400
142.89999169	0.00000000	-11.06668000	-8.26771600
143.09999168	0.00000000	-11.06668000	-9.09817800
143.29999167	0.00000000	-11.10974000	-9.84867000
143.49999166	0.00000000	-11.44193000	-10.58686000
143.69999165	0.00000000	-11.81102000	-10.58686000
143.89999163	0.00000000	-11.44193000	-9.89173200
144.09999162	0.00000000	-11.10974000	-9.47342500
144.29999161	0.00000000	-11.06668000	-9.05511800
144.49999160	0.00000000	-11.02362000	-8.26771600
144.69999159	0.00000000	-10.69144000	-7.56028500
144.89999157	0.00000000	-10.32234000	-7.14812900
145.09999156	0.00000000	-10.69144000	-7.56028500
145.29999155	0.00000000	-11.06668000	-8.22465500
145.49999154	0.00000000	-11.44193000	-8.67987200
145.69999153	0.00000000	-11.85408000	-8.68602300
145.89999151	0.00000000	-11.86024000	-9.09817800
146.09999150	0.00000000	-12.22933000	-9.43036400
146.29999149	0.00000000	-12.18012000	-9.47342500
146.49999148	0.00000000	-11.48499000	-9.47342500
146.69999147	0.00000000	-11.10974000	-9.47342500
146.89999146	0.00000000	-11.06668000	-9.43036400
147.09999144	0.00000000	-11.06668000	-9.05511800
147.29999143	0.00000000	-11.06668000	-8.31077700
147.49999142	0.00000000	-11.06668000	-7.93553100
147.69999141	0.00000000	-11.06668000	-7.89247000
147.89999140	0.00000000	-11.10974000	-7.89247000
148.09999138	0.00000000	-11.44193000	-7.89247000
148.29999137	0.00000000	-11.85408000	-7.93553100
148.49999136	0.00000000	-11.81717000	-8.31077700
148.69999135	0.00000000	-11.85408000	-9.05511800
148.89999134	0.00000000	-11.44193000	-9.43036400
149.09999132	0.00000000	-11.10974000	-9.47342500
149.29999131	0.00000000	-11.06668000	-9.47342500
149.49999130	0.00000000	-11.06668000	-9.47342500
149.69999129	0.00000000	-11.06668000	-9.43036400
149.89999128	0.00000000	-11.06668000	-9.05511800
150.09999127	0.00000000	-11.06668000	-8.31077700
150.29999125	0.00000000	-11.06668000	-7.93553100
150.49999124	0.00000000	-11.06668000	-7.89247000
150.69999123	0.00000000	-11.10974000	-7.89247000
150.89999122	0.00000000	-11.48499000	-7.89247000
151.09999121	0.00000000	-12.22933000	-7.89247000
151.29999119	0.00000000	-12.55536000	-7.93553100
151.49999118	0.00000000	-12.22933000	-8.31077700
151.69999117	0.00000000	-11.48499000	-9.05511800
151.89999116	0.00000000	-11.10974000	-9.43036400
152.09999115	0.00000000	-11.06668000	-9.47342500
152.29999113	0.00000000	-11.02362000	-9.47342500
152.49999112	0.00000000	-10.64838000	-9.43036400
152.69999111	0.00000000	-9.95324800	-9.05511800
152.89999110	0.00000000	-9.95324800	-8.31077700
153.09999109	0.00000000	-10.64838000	-7.93553100
153.29999108	0.00000000	-11.02362000	-7.89247000
153.49999106	0.00000000	-11.10974000	-7.93553100
153.69999105	0.00000000	-11.48499000	-8.26771600
153.89999104	0.00000000	-12.22933000	-8.63681000
154.09999103	0.00000000	-12.60458000	-8.26771600
154.29999102	0.00000000	-12.60458000	-7.93553100
154.49999100	0.00000000	-12.22933000	-7.93553100
154.69999099	0.00000000	-11.48499000	-8.31077700
154.89999098	0.00000000	-11.10974000	-9.05511800
155.09999097	0.00000000	-11.06668000	-9.43036400
155.29999096	0.00000000	-11.06668000	-9.47342500
155.49999094	0.00000000	-11.06668000	-9.47342500
155.69999093	0.00000000	-11.06668000	-9.47342500
155.89999092	0.00000000	-11.06668000	-9.43036400
156.09999091	0.00000000	-11.06668000	-9.05511800
156.29999090	0.00000000	-11.10974000	-8.31077700
156.49999089	0.00000000	-11.48499000	-7.93553100
156.69999087	0.00000000	-12.22933000	-7.89247000
156.89999086	0.00000000	-12.60458000	-7.89247000
157.09999085	0.00000000	-12.60458000	-7.89247000
157.29999084	0.00000000	-12.22933000	-7.89247000
157.49999083	0.00000000	-11.48499000	-7.93553100
157.69999081	0.00000000	-11.10974000	-8.31077700
157.89999080	0.00000000	-11.06668000	-9.05511800
158.09999079	0.00000000	-11.06668000	-9.43036400
158.29999078	0.00000000	-11.02362000	-9.47342500
158.49999077	0.00000000	-10.69144000	-9.47342500
158.69999075	0.00000000	-10.32234000	-9.47342500
158.89999074	0.00000000	-10.69144000	-9.43036400
159.09999073	0.00000000	-11.02362000	-9.05511800
159.29999072	0.00000000	-11.06668000	-8.26771600
159.49999071	0.00000000	-11.10974000	-7.56028500
159.69999070	0.00000000	-11.48499000	-7.14812900
159.89999068	0.00000000	-12.18012000	-7.51722400
160.09999067	0.00000000	-12.22933000	-7.84940900
160.29999066	0.00000000	-11.86024000	-7.93553100
160.49999065	0.00000000	-11.85408000	-8.31077700
160.69999064	0.00000000	-11.44193000	-9.05511800
160.89999062	0.00000000	-11.10974000	-9.43036400
161.09999061	0.00000000	-11.06668000	-9.47342500
161.29999060	0.00000000	-11.06668000	-9.47342500
161.49999059	0.00000000	-11.06668000	-9.47342500
161.69999058	0.00000000	-11.06668000	-9.47342500
161.89999056	0.00000000	-11.06668000	-9.47342500
162.09999055	0.00000000	-11.06668000	-9.43036400
162.29999054	0.00000000	-11.06668000	-9.05511800
162.49999053	0.00000000	-11.06668000	-8.31077700
162.69999052	0.00000000	-11.06668000	-7.93553100
162.89999051	0.00000000	-11.10974000	-7.89247000
163.09999049	0.00000000	-11.48499000	-7.93553100
163.29999048	0.00000000	-12.22933000	-8.31077700
163.49999047	0.00000000	-12.60458000	-9.05511800
163.69999046	0.00000000	-12.64764000	-9.43036400
163.89999045	0.00000000	-12.60458000	-9.47342500
164.09999043	0.00000000	-12.22933000	-9.47342500
164.29999042	0.00000000	-11.48499000	-9.47342500
164.49999041	0.00000000	-11.10974000	-9.47342500
164.69999040	0.00000000	-11.06668000	-9.43036400
164.89999039	0.00000000	-11.06668000	-9.09817800
165.09999037	0.00000000	-11.06668000	-8.68602300
165.29999036	0.00000000	-11.06668000	-8.72293300
165.49999035	0.00000000	-11.06668000	-8.64296200
165.69999034	0.00000000	-11.10974000	-8.72293300
165.89999033	0.00000000	-11.48499000	-8.64296200
166.09999032	0.00000000	-12.22933000	-8.72293300
166.29999030	0.00000000	-12.60458000	-8.64296200
166.49999029	0.00000000	-12.64764000	-8.72293300
166.69999028	0.00000000	-12.60458000	-8.68602300
166.89999027	0.00000000	-12.22933000	-9.09817800
167.09999026	0.00000000	-11.48499000	-9.43036400
167.29999024	0.00000000	-11.10974000	-9.47342500
167.49999023	0.00000000	-11.06668000	-9.47342500
167.69999022	0.00000000	-11.06668000	-9.47342500
167.89999021	0.00000000	-11.06668000	-9.47342500
168.09999020	0.00000000	-11.06668000	-9.47342500
168.29999018	0.00000000	-11.06668000	-9.47342500
168.49999017	0.00000000	-11.06668000	-9.47342500
168.69999016	0.00000000	-11.06668000	-9.47342500
168.89999015	0.00000000	-11.06668000	-9.43036400
169.09999014	0.00000000	-11.06668000	-9.05511800
169.29999013	0.00000000	-11.06668000	-8.35998900
169.49999011	0.00000000	-11.06668000	-8.31077700
169.69999010	0.00000000	-11.06668000	-8.63681000
169.89999009	0.00000000	-11.10974000	-8.31077700
170.09999008	0.00000000	-11.44193000	-8.31077700
170.29999007	0.00000000	-11.81102000	-8.67987200
170.49999005	0.00000000	-11.44193000	-8.68602300
170.69999004	0.00000000	-11.10974000	-9.09817800
170.89999003	0.00000000	-11.06668000	-9.43036400
171.09999002	0.00000000	-11.06668000	-9.47342500
171.29999001	0.00000000	-11.06668000	-9.43036400
171.49998999	0.00000000	-11.06668000	-9.09817800
171.69998998	0.00000000	-11.06668000	-8.72908400
171.89998997	0.00000000	-11.06668000	-9.09817800
172.09998996	0.00000000	-11.06668000	-9.38115100
172.29998995	0.00000000	-11.06668000	-9.09817800
172.49998994	0.00000000	-11.10974000	-8.72908400
172.69998992	0.00000000	-11.44193000	-9.09817800
172.89998991	0.00000000	-11.81102000	-9.43036400
173.09998990	0.00000000	-11.48499000	-9.47342500
173.29998989	0.00000000	-11.48499000	-9.43036400
173.49998988	0.00000000	-11.81102000	-9.09817800
173.69998986	0.00000000	-11.44193000	-8.72908400
173.89998985	0.00000000	-11.10974000	-9.05511800
174.09998984	0.00000000	-11.06668000	-9.05511800
174.29998983	0.00000000	-11.06668000	-8.72908400
174.49998982	0.00000000	-11.06668000	-9.05511800
174.69998980	0.00000000	-11.06668000	-9.00590400
174.89998979	0.00000000	-11.06668000	-8.35998900
175.09998978	0.00000000	-11.06668000	-8.35998900
175.29998977	0.00000000	-11.06668000	-9.05511800
175.49998976	0.00000000	-11.06668000	-9.38115100
175.69998975	0.00000000	-11.06668000	-9.05511800
175.89998973	0.00000000	-11.06668000	-8.35998900
176.09998972	0.00000000	-11.06668000	-8.31077700
176.29998971	0.00000000	-11.06668000	-8.63681000
176.49998970	0.00000000	-11.06668000	-8.31077700
176.69998969	0.00000000	-11.06668000	-8.31077700
176.89998967	0.00000000	-11.06668000	-8.67987200
177.09998966	0.00000000	-11.06668000	-8.68602300
177.29998965	0.00000000	-11.06668000	-9.09817800
177.49998964	0.00000000	-11.06668000	-9.43036400
177.69998963	0.00000000	-11.06668000	-9.47342500
177.89998961	0.00000000	-11.06668000	-9.47342500
178.09998960	0.00000000	-11.06668000	-9.47342500
178.29998959	0.00000000	-11.06668000	-9.47342500
178.49998958	0.00000000	-11.06668000	-9.43036400
178.69998957	0.00000000	-11.06668000	-9.05511800
178.89998956	0.00000000	-11.06668000	-8.35998900
179.09998954	0.00000000	-11.06668000	-8.35998900
179.29998953	0.00000000	-11.06668000	-9.05511800
179.49998952	0.00000000	-11.06668000	-9.43036400
179.69998951	0.00000000	-11.06668000	-9.47342500
179.89998950	0.00000000	-11.06668000	-9.47342500
180.09998948	0.00000000	-11.06668000	-9.47342500
180.29998947	0.00000000	-11.06668000	-9.47342500
180.49998946	0.00000000	-11.06668000	-9.47342500
180.69998945	0.00000000	-11.06668000	-9.47342500
180.89998944	0.00000000	-11.06668000	-9.43036400
181.09998942	0.00000000	-11.06668000	-9.05511800
181.29998941	0.00000000	-11.06668000	-8.31077700
181.49998940	0.00000000	-11.06668000	-7.93553100
181.69998939	0.00000000	-11.06668000	-7.89247000
181.89998938	0.00000000	-11.06668000	-7.89247000
182.09998937	0.00000000	-11.06668000	-7.93553100
182.29998935	0.00000000	-11.06668000	-8.31077700
182.49998934	0.00000000	-11.06668000	-9.05511800
182.69998933	0.00000000	-11.06668000	-9.38115100
182.89998932	0.00000000	-11.06668000	-9.09817800
183.09998931	0.00000000	-11.10974000	-8.72908400
183.29998929	0.00000000	-11.44193000	-9.09817800
183.49998928	0.00000000	-11.81102000	-9.43036400
183.69998927	0.00000000	-11.44193000	-9.47342500
183.89998926	0.00000000	-11.10974000	-9.43036400
184.09998925	0.00000000	-11.06668000	-9.05511800
184.29998923	0.00000000	-11.10974000	-8.31077700
184.49998922	0.00000000	-11.44193000	-7.93553100
184.69998921	0.00000000	-11.81102000	-7.89247000
184.89998920	0.00000000	-11.44193000	-7.89247000
185.09998919	0.00000000	-11.10974000	-7.93553100
185.29998918	0.00000000	-11.06668000	-8.31077700
185.49998916	0.00000000	-11.06668000	-9.05511800
185.69998915	0.00000000	-11.06668000	-9.43036400
185.89998914	0.00000000	-11.06668000	-9.47342500
186.09998913	0.00000000	-11.06668000	-9.47342500
186.29998912	0.00000000	-11.06668000	-9.47342500
186.49998910	0.00000000	-11.10974000	-9.47342500
186.69998909	0.00000000	-11.48499000	-9.43036400
186.89998908	0.00000000	-12.18012000	-9.05511800
187.09998907	0.00000000	-12.18012000	-8.31077700
187.29998906	0.00000000	-11.48499000	-7.93553100
187.49998904	0.00000000	-11.15896000	-7.89247000
187.69998903	0.00000000	-11.44193000	-7.89247000
187.89998902	0.00000000	-11.81102000	-7.89247000
188.09998901	0.00000000	-11.44193000	-7.93553100
188.29998900	0.00000000	-11.10974000	-8.31077700
188.49998899	0.00000000	-11.06668000	-9.05511800
188.69998897	0.00000000	-11.06668000	-9.43036400
188.89998896	0.00000000	-11.06668000	-9.47342500
189.09998895	0.00000000	-11.06668000	-9.47342500
189.29998894	0.00000000	-11.06668000	-9.47342500
189.49998893	0.00000000	-11.06668000	-9.47342500
189.69998891	0.00000000	-11.06668000	-9.47342500
189.89998890	0.00000000	-11.06668000	-9.43036400
190.09998889	0.00000000	-11.10974000	-9.05511800
190.29998888	0.00000000	-11.44193000	-8.35998900
190.49998887	0.00000000	-11.85408000	-8.31077700
190.69998885	0.00000000	-11.81717000	-8.67987200
190.89998884	0.00000000	-11.85408000	-8.64296200
191.09998883	0.00000000	-11.44193000	-8.67987200
191.29998882	0.00000000	-11.10974000	-8.31077700
191.49998881	0.00000000	-11.06668000	-8.35998900
191.69998880	0.00000000	-11.06668000	-9.05511800
191.89998878	0.00000000	-11.06668000	-9.43036400
192.09998877	0.00000000	-11.06668000	-9.47342500
192.29998876	0.00000000	-11.06668000	-9.47342500
192.49998875	0.00000000	-11.06668000	-9.47342500
192.69998874	0.00000000	-11.10974000	-9.47342500
192.89998872	0.00000000	-11.48499000	-9.47342500
193.09998871	0.00000000	-12.18012000	-9.43036400
193.29998870	0.00000000	-12.18012000	-9.05511800
193.49998869	0.00000000	-11.48499000	-8.31077700
193.69998868	0.00000000	-11.10974000	-7.93553100
193.89998866	0.00000000	-11.06668000	-7.89247000
194.09998865	0.00000000	-11.06668000	-7.89247000
194.29998864	0.00000000	-11.06668000	-7.89247000
194.49998863	0.00000000	-11.06668000	-7.89247000
194.69998862	0.00000000	-11.06668000	-7.89247000
194.89998861	0.00000000	-11.06668000	-7.93553100
195.09998859	0.00000000	-11.06668000	-8.31077700
195.29998858	0.00000000	-11.10974000	-9.05511800
195.49998857	0.00000000	-11.44193000	-9.43036400
195.69998856	0.00000000	-11.81102000	-9.47342500
195.89998855	0.00000000	-11.48499000	-9.47342500
196.09998853	0.00000000	-11.53420000	-9.47342500
