Time	Channel A	Channel B	Channel C
(us)	(V)	(mV)	(mV)

-4.49999956	0.00000000	-13.76107000	-9.47342500
-4.29999957	0.00000000	-13.81028000	-9.47342500
-4.09999958	0.00000000	-13.44119000	-9.47342500
-3.89999959	0.00000000	-13.47810000	-9.47342500
-3.69999960	0.00000000	-13.44119000	-9.47342500
-3.49999962	0.00000000	-13.81028000	-9.47342500
-3.29999963	0.00000000	-13.76107000	-9.47342500
-3.09999964	0.00000000	-13.06594000	-9.47342500
-2.89999965	0.00000000	-12.73991000	-9.47342500
-2.69999966	0.00000000	-13.02288000	-9.47342500
-2.49999968	0.00000000	-13.39198000	-9.47342500
-2.29999969	0.00000000	-13.02288000	-9.47342500
-2.09999970	0.00000000	-12.69070000	-9.47342500
-1.89999971	0.00000000	-12.69070000	-9.47342500
-1.69999972	0.00000000	-13.02288000	-9.47342500
-1.49999973	0.00000000	-13.43504000	-9.47342500
-1.29999975	0.00000000	-13.44119000	-9.47342500
-1.09999976	0.00000000	-13.85334000	-9.47342500
-0.89999977	0.00000000	-14.18553000	-9.47342500
-0.69999978	0.00000000	-14.18553000	-9.47342500
-0.49999979	0.00000000	-13.81028000	-9.47342500
-0.29999981	0.31803640	-13.11516000	-9.47342500
-0.09999982	0.63668800	-13.11516000	-9.47342500
0.10000017	0.95533960	-13.76107000	-9.47342500
0.30000016	0.95533960	-13.81028000	-9.47342500
0.50000015	0.79601380	-13.48425000	-9.51648500
0.70000013	0.31803640	-13.85334000	-9.84867000
0.90000012	-0.63668800	-14.18553000	-10.25467000
1.10000011	-1.59264300	-14.18553000	-10.21776000
1.30000010	-2.38927200	-13.81028000	-10.25467000
1.50000009	-2.86724900	-13.06594000	-9.84867000
1.70000008	-2.38927200	-12.69070000	-9.51648500
1.90000006	-1.11466500	-12.69070000	-9.43036400
2.10000005	0.79601380	-13.02288000	-9.09817800
2.30000004	2.86724900	-13.39198000	-8.72908400
2.50000003	4.61921700	-13.06594000	-9.09817800
2.70000002	5.41584600	-13.11516000	-9.43036400
2.90000000	4.77854300	-13.81028000	-9.51648500
3.09999999	2.70792300	-14.18553000	-9.84867000
3.29999998	-0.31803640	-14.22859000	-10.21161000
3.49999997	-3.82258900	-14.22859000	-9.84867000
3.69999996	-6.53112700	-14.22859000	-9.51648500
3.89999994	-7.96444400	-14.18553000	-9.43036400
4.09999993	-7.32714100	-13.81028000	-9.09817800
4.29999992	-4.77854300	-13.06594000	-8.72908400
4.49999991	-0.79601380	-12.69070000	-9.09817800
4.69999990	3.66326300	-12.64764000	-9.43036400
4.89999989	7.32714100	-12.69070000	-9.51648500
5.09999987	9.23905000	-13.02288000	-9.89173200
5.29999986	8.92039900	-13.43504000	-10.58686000
5.49999985	6.37180100	-13.44119000	-10.58686000
5.69999984	2.07062000	-13.85334000	-9.89173200
5.89999983	-2.70792300	-14.18553000	-9.51648500
6.09999981	-6.84916400	-14.18553000	-9.47342500
6.29999980	-9.23905000	-13.81028000	-9.47342500
6.49999979	-9.23905000	-13.11516000	-9.47342500
6.69999978	-7.00848900	-13.06594000	-9.47342500
6.89999977	-3.02657500	-13.43504000	-9.47342500
7.09999975	1.27399100	-13.44119000	-9.47342500
7.29999974	5.09719500	-13.85334000	-9.47342500
7.49999973	7.32714100	-14.18553000	-9.51648500
7.69999972	7.64579200	-14.22859000	-9.89173200
7.89999971	6.05315000	-14.22859000	-10.62992000
8.09999970	3.18590100	-14.22859000	-10.95595000
8.29999968	-0.15871060	-14.22859000	-10.62992000
8.49999967	-3.02657500	-14.22859000	-9.89173200
8.69999966	-4.77854300	-14.22859000	-9.51648500
8.89999965	-5.09719500	-14.22859000	-9.51648500
9.09999964	-4.30056600	-14.22859000	-9.84867000
9.29999962	-2.54859700	-14.22859000	-10.21161000
9.49999961	-0.47736220	-14.22859000	-9.89173200
9.69999960	1.11466500	-14.22859000	-9.89173200
9.89999959	2.22994600	-14.22859000	-10.21161000
10.09999958	2.54859700	-14.22859000	-9.89173200
10.29999956	2.07062000	-14.22859000	-9.89173200
10.49999955	1.43331700	-14.22859000	-10.25467000
10.69999954	0.47736220	-14.22859000	-10.21776000
10.89999953	-0.31803640	-14.22859000	-10.30389000
11.09999952	-0.79601380	-14.22859000	-10.21776000
11.29999951	-0.95533960	-14.22859000	-10.25467000
11.49999949	-0.95533960	-14.22859000	-9.84867000
11.69999948	-0.79601380	-14.22859000	-9.56569900
11.89999947	-0.47736220	-14.22859000	-9.84867000
12.09999946	-0.15871060	-14.22859000	-10.21161000
12.29999945	-0.15871060	-14.22859000	-9.84867000
12.49999943	-0.15871060	-14.22859000	-9.56569900
12.69999942	0.00000000	-14.22859000	-9.84867000
12.89999941	0.00000000	-14.22859000	-10.25467000
13.09999940	0.00000000	-14.22859000	-10.21776000
13.29999939	0.00000000	-14.22859000	-10.25467000
13.49999937	0.00000000	-14.22859000	-9.84867000
13.69999936	0.00000000	-14.22859000	-9.51648500
13.89999935	-0.15871060	-14.22859000	-9.47342500
14.09999934	-0.15871060	-14.22859000	-9.47342500
14.29999933	-0.15871060	-14.22859000	-9.47342500
14.49999932	-0.15871060	-14.22859000	-9.47342500
14.69999930	-0.15871060	-14.22859000	-9.51648500
14.89999929	0.00000000	-14.22859000	-9.84867000
15.09999928	0.00000000	-14.22859000	-10.21161000
15.29999927	0.00000000	-14.22859000	-9.89173200
15.49999926	0.00000000	-14.22859000	-9.89173200
15.69999924	0.00000000	-14.22859000	-10.21161000
15.89999923	0.00000000	-14.22859000	-9.84867000
16.09999922	0.00000000	-14.22859000	-9.51648500
16.29999921	-0.15871060	-14.22859000	-9.47342500
16.49999920	-0.15871060	-14.18553000	-9.47342500
16.69999919	-0.15871060	-13.81028000	-9.47342500
16.89999917	-0.15871060	-13.06594000	-9.47342500
17.09999916	0.00000000	-12.69070000	-9.51648500
17.29999915	0.00000000	-12.64764000	-9.84867000
17.49999914	0.00000000	-12.64764000	-10.21161000
17.69999913	0.00000000	-12.69070000	-9.84867000
17.89999911	0.00000000	-13.06594000	-9.51648500
18.09999910	0.00000000	-13.89641000	-9.51648500
18.29999909	0.00000000	-15.06521000	-9.84867000
18.49999908	0.00000000	-16.97219000	-10.21161000
18.69999907	-0.15871060	-18.46087000	-9.84867000
18.89999905	0.00000000	-18.92839000	-9.56569900
19.09999904	-0.15871060	-18.87918000	-9.84867000
19.29999903	0.00000000	-17.99951000	-10.21161000
19.49999902	0.00000000	-15.29897000	-9.84867000
19.69999901	0.00000000	-11.48499000	-9.51648500
19.89999900	0.00000000	-7.94783400	-9.47342500
20.09999898	0.00000000	-4.87819900	-9.51648500
20.29999897	0.00000000	-3.02042300	-9.89173200
20.49999896	0.00000000	-3.85088600	-10.62992000
20.69999895	0.00000000	-7.34498000	-11.00517000
20.89999894	0.00000000	-13.24434000	-11.04823000
21.09999892	0.00000000	-20.92766000	-11.04823000
21.29999891	0.00000000	-28.59867000	-11.00517000
21.49999890	0.00000000	-33.58760000	-10.67298000
21.69999889	0.00000000	-34.75024000	-10.31004000
21.89999888	0.00000000	-31.49606000	-10.67298000
22.09999886	0.00000000	-23.34522000	-11.00517000
22.29999885	0.00000000	-11.39887000	-11.04823000
22.49999884	0.00000000	0.93503930	-11.04823000
22.69999883	0.00000000	11.02977000	-11.04823000
22.89999882	0.00000000	16.70768000	-11.00517000
23.09999881	0.00000000	15.82185000	-10.62992000
23.29999879	0.00000000	7.26500900	-9.89173200
23.49999878	0.00000000	-7.43110200	-9.47342500
23.69999877	0.00000000	-25.20915000	-9.05511800
23.89999876	0.00000000	-42.14444000	-8.35998900
24.09999875	0.00000000	-53.68479000	-8.35998900
24.29999873	0.00000000	-56.71136000	-9.09817800
24.49999872	0.00000000	-50.05536000	-9.93479300
24.69999871	0.00000000	-34.19045000	-11.51575000
24.89999870	0.00000000	-12.60458000	-13.74262000
25.09999869	0.00000000	9.40575800	-15.32357000
25.29999867	0.00000000	26.80241000	-16.11712000
25.49999866	0.00000000	35.59916000	-16.43701000
25.69999865	0.00000000	33.22466000	-15.18824000
25.89999864	0.00000000	19.31594000	-12.11860000
26.09999863	0.00000000	-2.68823800	-7.89247000
26.29999862	0.00000000	-27.81742000	-3.66633800
26.49999860	0.00000000	-50.56594000	-0.59670270
26.69999859	0.00000000	-65.22514000	0.60285430
26.89999858	0.00000000	-68.34399000	-0.27066930
27.09999857	0.00000000	-59.45497000	-3.38951800
27.29999856	0.00000000	-40.51427000	-9.27657400
27.49999854	0.00000000	-15.80955000	-16.53543000
27.69999853	0.00000000	8.89517700	-23.91732000
27.89999852	0.00000000	27.82972000	-29.21998000
28.09999851	0.00000000	36.71875000	-31.12082000
28.29999850	0.00000000	33.73523000	-28.34030000
28.49999848	0.00000000	20.24483000	-20.99532000
28.69999847	0.00000000	0.14148620	-10.54380000
28.89999846	0.00000000	-22.69931000	1.07037400
29.09999845	0.00000000	-43.12254000	11.47884000
29.29999844	0.00000000	-56.29306000	18.31324000
29.49999843	0.00000000	-59.45497000	19.05143000
29.69999841	0.00000000	-52.61442000	12.83218000
29.89999840	0.00000000	-38.33046000	1.25492100
30.09999839	0.00000000	-20.13410000	-13.88410000
30.29999838	0.00000000	-1.57480300	-29.26919000
30.49999837	0.00000000	13.12746000	-41.62155000
30.69999835	0.00000000	20.93996000	-47.71161000
30.89999834	0.00000000	20.98917000	-45.80462000
31.09999833	0.00000000	13.68110000	-36.09744000
31.29999832	0.00000000	0.93503930	-20.66314000
31.49999831	0.00000000	-14.13632000	-2.50369100
31.69999829	0.00000000	-28.46333000	14.08095000
31.89999828	0.00000000	-38.89025000	25.69513000
32.09999827	0.00000000	-43.21481000	29.92126000
32.29999826	0.00000000	-40.98179000	25.65207000
32.49999825	0.00000000	-33.67372000	13.70571000
32.69999824	0.00000000	-23.20374000	-3.29109200
32.89999822	0.00000000	-11.62032000	-21.46284000
33.09999821	0.00000000	-1.57480300	-37.30315000
33.29999820	0.00000000	4.61368100	-47.33637000
33.49999819	0.00000000	5.81938900	-49.33562000
33.69999818	0.00000000	2.00541300	-43.52854000
33.89999816	0.00000000	-5.25344500	-31.17003000
34.09999815	0.00000000	-13.71801000	-14.58538000
34.29999814	0.00000000	-21.16142000	2.00541300
34.49999813	0.00000000	-26.56250000	15.24360000
34.69999812	0.00000000	-29.25074000	22.91462000
34.89999810	0.00000000	-27.67593000	23.32062000
35.09999809	0.00000000	-22.78543000	15.98794000
35.29999808	0.00000000	-16.22785000	3.29724400
35.49999807	0.00000000	-10.08243000	-12.11860000
35.69999806	0.00000000	-5.80708600	-26.34104000
35.89999805	0.00000000	-4.26919300	-35.67913000
36.09999803	0.00000000	-5.80708600	-38.84104000
36.29999802	0.00000000	-9.99630800	-35.72219000
36.49999801	0.00000000	-15.39124000	-26.85162000
36.69999800	0.00000000	-20.37401000	-14.21014000
36.89999799	0.00000000	-23.85581000	-1.57480300
37.09999797	0.00000000	-24.60630000	7.30191900
37.29999796	0.00000000	-22.69316000	10.45768000
37.49999795	0.00000000	-18.46087000	7.81250000
37.69999794	0.00000000	-13.11516000	0.51673230
37.89999793	0.00000000	-8.50147600	-9.47342500
38.09999791	0.00000000	-5.76402500	-19.42052000
38.29999790	0.00000000	-5.33956700	-26.29798000
38.49999789	0.00000000	-6.87746000	-27.87278000
38.69999788	0.00000000	-9.99630800	-24.06496000
38.89999787	0.00000000	-14.22859000	-16.39395000
39.09999786	0.00000000	-18.50394000	-6.82209600
39.29999784	0.00000000	-21.99803000	1.53789400
39.49999783	0.00000000	-24.32333000	5.72096400
39.69999782	0.00000000	-24.69857000	4.23228400
39.89999781	0.00000000	-23.16068000	-2.26377900
40.09999780	0.00000000	-20.08489000	-11.46653000
40.29999778	0.00000000	-16.22785000	-21.08760000
40.49999777	0.00000000	-12.73991000	-28.34030000
40.69999776	0.00000000	-9.95324800	-31.03469000
40.89999775	0.00000000	-8.04010800	-28.34030000
41.09999774	0.00000000	-7.25270600	-21.03838000
41.29999772	0.00000000	-7.99704600	-11.04823000
41.49999771	0.00000000	-9.57800100	-1.10728300
41.69999770	0.00000000	-11.95251000	5.85629900
41.89999769	0.00000000	-15.43430000	8.18774500
42.09999768	0.00000000	-18.87918000	5.90551100
42.29999767	0.00000000	-21.62278000	-0.64591530
42.49999765	0.00000000	-23.16068000	-9.51648500
42.69999764	0.00000000	-23.16068000	-18.67618000
42.89999763	0.00000000	-21.62278000	-25.54749000
43.09999762	0.00000000	-18.97145000	-27.17766000
43.29999761	0.00000000	-16.27707000	-24.66781000
43.49999759	0.00000000	-14.27165000	-19.97416000
43.69999758	0.00000000	-12.69070000	-13.79183000
43.89999757	0.00000000	-11.53420000	-7.24040300
44.09999756	0.00000000	-11.10974000	-2.22071800
44.29999755	0.00000000	-11.06668000	0.51673230
44.49999753	0.00000000	-11.10974000	0.51673230
44.69999752	0.00000000	-11.48499000	-2.12844500
44.89999751	0.00000000	-12.27239000	-6.35457700
45.09999750	0.00000000	-13.02288000	-10.95595000
45.29999749	0.00000000	-13.89641000	-14.81299000
45.49999748	0.00000000	-15.11442000	-16.81225000
45.69999746	0.00000000	-17.48277000	-17.23056000
45.89999745	0.00000000	-20.50935000	-16.43701000
46.09999744	0.00000000	-23.24680000	-14.16092000
46.29999743	0.00000000	-25.11688000	-11.46653000
46.49999742	0.00000000	-25.43676000	-9.14124000
46.69999740	0.00000000	-23.06841000	-7.14812900
46.89999739	0.00000000	-18.46087000	-6.02854300
47.09999738	0.00000000	-12.60458000	-5.61638700
47.29999737	0.00000000	-6.45915300	-6.44685000
47.49999736	0.00000000	-1.43946800	-8.35383800
47.69999734	0.00000000	0.79970470	-11.04823000
47.89999733	0.00000000	-0.36909450	-13.74262000
48.09999732	0.00000000	-5.43184000	-15.69882000
48.29999731	0.00000000	-13.15822000	-16.81225000
48.49999730	0.00000000	-22.04109000	-16.39395000
48.69999729	0.00000000	-30.09350000	-14.11786000
48.89999727	0.00000000	-34.75024000	-11.09744000
49.09999726	0.00000000	-35.11934000	-8.31077700
49.29999725	0.00000000	-31.20694000	-5.98548200
49.49999724	0.00000000	-23.06841000	-4.08464600
49.69999723	0.00000000	-12.73991000	-3.75246000
49.89999721	0.00000000	-3.11269700	-5.29035400
50.09999720	0.00000000	3.08193900	-8.40305000
50.29999719	0.00000000	4.66289300	-12.62918000
50.49999718	0.00000000	1.54404500	-16.85531000
50.69999717	0.00000000	-5.80708600	-19.88189000
50.89999715	0.00000000	-15.76649000	-20.66929000
51.09999714	0.00000000	-25.39370000	-18.76845000
51.29999713	0.00000000	-31.95743000	-15.32357000
51.49999712	0.00000000	-34.28272000	-11.04823000
51.69999711	0.00000000	-31.58218000	-6.82209600
51.89999710	0.00000000	-24.69857000	-3.75246000
52.09999708	0.00000000	-15.85261000	-2.54675200
52.29999707	0.00000000	-7.43110200	-3.33415300
52.49999706	0.00000000	-2.03617100	-5.66560000
52.69999705	0.00000000	-1.19955700	-9.51648500
52.89999704	0.00000000	-4.26919300	-13.69956000
53.09999702	0.00000000	-10.41462000	-16.81225000
53.29999701	0.00000000	-18.08563000	-18.39321000
53.49999700	0.00000000	-24.60630000	-18.39321000
53.69999699	0.00000000	-28.46333000	-16.85531000
53.89999698	0.00000000	-28.46333000	-14.16092000
54.09999696	0.00000000	-24.64936000	-11.09744000
54.29999695	0.00000000	-18.55315000	-8.44611200
54.49999694	0.00000000	-11.99557000	-7.28346400
54.69999693	0.00000000	-7.01279500	-8.02780400
54.89999692	0.00000000	-4.69365100	-9.89173200
55.09999691	0.00000000	-5.85014700	-12.16781000
55.29999689	0.00000000	-10.03937000	-13.65650000
55.49999688	0.00000000	-15.80955000	-13.69956000
55.69999687	0.00000000	-21.53666000	-12.53691000
55.89999686	0.00000000	-25.43676000	-10.62992000
56.09999685	0.00000000	-26.60556000	-8.35383800
56.29999683	0.00000000	-25.43676000	-6.82209600
56.49999682	0.00000000	-21.57972000	-6.48991100
56.69999681	0.00000000	-16.22785000	-7.65871000
56.89999680	0.00000000	-11.24508000	-10.76525000
57.09999679	0.00000000	-7.76328700	-14.53617000
57.29999677	0.00000000	-6.96973400	-18.01796000
57.49999676	0.00000000	-8.45841400	-19.88189000
57.69999675	0.00000000	-11.57726000	-19.50664000
57.89999674	0.00000000	-15.80955000	-16.76919000
58.09999673	0.00000000	-19.99877000	-12.16166000
58.29999672	0.00000000	-22.69316000	-6.77903500
58.49999670	0.00000000	-23.16068000	-2.17765700
58.69999669	0.00000000	-21.99803000	0.51673230
58.89999668	0.00000000	-19.66658000	0.42445860
59.09999667	0.00000000	-16.22785000	-3.01427100
59.29999666	0.00000000	-13.20128000	-9.14124000
59.49999664	0.00000000	-11.62032000	-15.69882000
59.69999663	0.00000000	-11.57726000	-21.50590000
59.89999662	0.00000000	-12.73991000	-25.31373000
60.09999661	0.00000000	-14.64690000	-25.63976000
60.29999660	0.00000000	-16.97219000	-22.20103000
60.49999658	0.00000000	-18.83612000	-15.64960000
60.69999657	0.00000000	-19.66658000	-7.98474400
60.89999656	0.00000000	-19.25443000	-1.01501000
61.09999655	0.00000000	-18.13484000	3.53715500
61.29999654	0.00000000	-16.18479000	4.32455700
61.49999653	0.00000000	-14.36393000	0.88582670
61.69999651	0.00000000	-13.53346000	-5.24729300
61.89999650	0.00000000	-13.89641000	-12.62918000
62.09999649	0.00000000	-14.64690000	-19.92495000
62.29999648	0.00000000	-15.85261000	-25.31373000
62.49999647	0.00000000	-17.39050000	-27.26378000
62.69999645	0.00000000	-18.92839000	-25.68897000
62.89999644	0.00000000	-20.04183000	-20.66314000
63.09999643	0.00000000	-19.99877000	-13.00443000
63.29999642	0.00000000	-18.50394000	-5.33341500
63.49999641	0.00000000	-16.22785000	0.46751960
63.69999639	0.00000000	-14.27165000	3.21112200
63.89999638	0.00000000	-12.73991000	2.46678100
64.09999637	0.00000000	-11.99557000	-0.97194880
64.29999636	0.00000000	-12.73991000	-6.40378900
64.49999635	0.00000000	-14.27165000	-12.58612000
64.69999634	0.00000000	-16.22785000	-18.35015000
64.89999632	0.00000000	-18.50394000	-22.24409000
65.09999631	0.00000000	-19.99877000	-23.46210000
65.29999630	0.00000000	-20.04183000	-22.71161000
65.49999629	0.00000000	-18.92839000	-19.97416000
65.69999628	0.00000000	-17.39050000	-15.78494000
65.89999626	0.00000000	-15.85261000	-11.51575000
66.09999625	0.00000000	-14.69611000	-7.98474400
66.29999624	0.00000000	-14.32087000	-5.24729300
66.49999623	0.00000000	-14.69611000	-3.66633800
66.69999622	0.00000000	-15.85261000	-3.24803100
66.89999620	0.00000000	-17.39050000	-3.66633800
67.09999619	0.00000000	-18.87918000	-5.24729300
67.29999618	0.00000000	-19.62352000	-7.93553100
67.49999617	0.00000000	-18.83612000	-11.04823000
67.69999616	0.00000000	-16.97219000	-14.21014000
67.89999615	0.00000000	-14.64690000	-17.32283000
68.09999613	0.00000000	-12.73991000	-20.01722000
68.29999612	0.00000000	-11.57726000	-21.54897000
68.49999611	0.00000000	-11.62032000	-21.50590000
68.69999610	0.00000000	-13.20128000	-19.54970000
68.89999609	0.00000000	-16.27707000	-15.69882000
69.09999607	0.00000000	-20.13410000	-11.04823000
69.29999606	0.00000000	-23.57899000	-6.35457700
69.49999605	0.00000000	-25.90428000	-2.12844500
69.69999604	0.00000000	-26.23031000	0.51673230
69.89999603	0.00000000	-24.27411000	0.46751960
70.09999601	0.00000000	-19.99877000	-2.59596400
70.29999600	0.00000000	-14.27165000	-7.98474400
70.49999599	0.00000000	-8.87672100	-14.11786000
70.69999598	0.00000000	-5.38877900	-19.55585000
70.89999597	0.00000000	-4.26919300	-23.08686000
71.09999596	0.00000000	-6.22539300	-24.61860000
71.29999594	0.00000000	-11.20202000	-23.78199000
71.49999593	0.00000000	-17.34744000	-19.97416000
71.69999592	0.00000000	-23.20374000	-14.62844000
71.89999591	0.00000000	-27.86048000	-9.56569900
72.09999590	0.00000000	-30.51181000	-5.29035400
72.29999588	0.00000000	-30.13656000	-2.63902500
72.49999587	0.00000000	-26.64862000	-2.59596400
72.69999586	0.00000000	-21.24754000	-4.87204700
72.89999585	0.00000000	-14.69611000	-8.31077700
73.09999584	0.00000000	-8.92593500	-12.16166000
73.29999582	0.00000000	-5.43184000	-15.23130000
73.49999581	0.00000000	-4.64443900	-16.76919000
73.69999580	0.00000000	-6.92052100	-16.43701000
73.89999579	0.00000000	-11.15896000	-14.58538000
74.09999578	0.00000000	-16.18479000	-12.72146000
74.29999577	0.00000000	-21.24754000	-11.51575000
74.49999575	0.00000000	-25.06767000	-11.14050000
74.69999574	0.00000000	-27.01772000	-11.51575000
74.89999573	0.00000000	-26.23031000	-12.67224000
75.09999572	0.00000000	-23.24680000	-14.16092000
75.29999571	0.00000000	-19.38976000	-15.27436000
75.49999569	0.00000000	-15.90182000	-15.23130000
75.69999568	0.00000000	-13.15822000	-13.65650000
75.89999567	0.00000000	-11.62032000	-10.62992000
76.09999566	0.00000000	-11.57726000	-7.19734200
76.29999565	0.00000000	-12.69070000	-4.87204700
76.49999563	0.00000000	-14.27165000	-3.75246000
76.69999562	0.00000000	-16.18479000	-4.59522600
76.89999561	0.00000000	-18.08563000	-8.02780400
77.09999560	0.00000000	-18.87918000	-12.62918000
77.29999559	0.00000000	-18.92839000	-17.27362000
77.49999558	0.00000000	-18.55315000	-21.13066000
77.69999556	0.00000000	-17.80881000	-22.99459000
77.89999555	0.00000000	-17.48277000	-22.24409000
78.09999554	0.00000000	-17.80881000	-18.76845000
78.29999553	0.00000000	-18.59621000	-13.79183000
78.49999552	0.00000000	-19.30364000	-8.35998900
78.69999550	0.00000000	-19.71580000	-3.70939900
78.89999549	0.00000000	-19.25443000	-0.64591530
79.09999548	0.00000000	-18.13484000	0.09842519
79.29999547	0.00000000	-16.18479000	-2.17765700
79.49999546	0.00000000	-14.27165000	-6.40378900
79.69999544	0.00000000	-12.73991000	-11.42347000
79.89999543	0.00000000	-11.99557000	-16.43701000
80.09999542	0.00000000	-12.78297000	-19.92495000
80.29999541	0.00000000	-14.69611000	-21.54897000
80.49999540	0.00000000	-17.39050000	-21.50590000
80.69999539	0.00000000	-20.08489000	-19.59892000
80.89999537	0.00000000	-22.04109000	-16.16018000
81.09999536	0.00000000	-23.16068000	-12.67224000
81.29999535	0.00000000	-22.74237000	-9.51648500
81.49999534	0.00000000	-20.46014000	-6.82209600
81.69999533	0.00000000	-17.39050000	-5.24729300
81.89999531	0.00000000	-14.32087000	-4.82898600
82.09999530	0.00000000	-12.03863000	-5.19808000
82.29999529	0.00000000	-11.62032000	-6.40378900
82.49999528	0.00000000	-12.69070000	-8.35383800
82.69999527	0.00000000	-14.22859000	-11.04823000
82.89999525	0.00000000	-15.85261000	-13.79183000
83.09999524	0.00000000	-17.80881000	-16.11712000
83.29999523	0.00000000	-20.08489000	-18.06102000
83.49999522	0.00000000	-21.57972000	-18.85458000
83.69999521	0.00000000	-21.62278000	-18.85458000
83.89999520	0.00000000	-20.50935000	-18.01796000
84.09999518	0.00000000	-19.01451000	-15.64960000
84.29999517	0.00000000	-17.80881000	-12.21087000
84.49999516	0.00000000	-17.05832000	-8.35998900
84.69999515	0.00000000	-16.64616000	-5.29035400
84.89999514	0.00000000	-17.01525000	-3.75246000
85.09999512	0.00000000	-17.34744000	-4.12770700
85.29999511	0.00000000	-17.34744000	-6.44685000
85.49999510	0.00000000	-16.97219000	-9.93479300
85.69999509	0.00000000	-16.22785000	-14.21014000
85.89999508	0.00000000	-15.90182000	-18.39321000
86.09999506	0.00000000	-16.22785000	-21.13066000
86.29999505	0.00000000	-17.01525000	-21.92421000
86.49999504	0.00000000	-17.80881000	-21.08760000
86.69999503	0.00000000	-18.97145000	-17.97490000
86.89999502	0.00000000	-20.08489000	-13.04749000
87.09999501	0.00000000	-20.50935000	-8.44611200
87.29999499	0.00000000	-20.50935000	-5.29035400
87.49999498	0.00000000	-20.08489000	-3.75246000
87.69999497	0.00000000	-18.92839000	-4.17076700
87.89999496	0.00000000	-17.39050000	-6.86515700
88.09999495	0.00000000	-15.85261000	-11.04823000
88.29999493	0.00000000	-14.69611000	-15.32357000
88.49999492	0.00000000	-14.32087000	-18.76845000
88.69999491	0.00000000	-14.69611000	-20.66929000
88.89999490	0.00000000	-15.85261000	-19.92495000
89.09999489	0.00000000	-17.39050000	-17.23056000
89.29999487	0.00000000	-18.92839000	-13.37352000
89.49999486	0.00000000	-20.08489000	-8.77829600
89.69999485	0.00000000	-20.50935000	-5.33341500
89.89999484	0.00000000	-20.50935000	-3.75246000
90.09999483	0.00000000	-20.08489000	-4.17076700
90.29999482	0.00000000	-18.92839000	-6.90821800
90.49999480	0.00000000	-17.43356000	-11.46653000
90.69999479	0.00000000	-16.27707000	-16.39395000
90.89999478	0.00000000	-15.85261000	-19.50664000
91.09999477	0.00000000	-15.85261000	-20.30020000
91.29999476	0.00000000	-16.22785000	-19.13140000
91.49999474	0.00000000	-16.97219000	-15.64960000
91.69999473	0.00000000	-17.34744000	-11.09129000
91.89999472	0.00000000	-17.39050000	-6.82209600
92.09999471	0.00000000	-17.39050000	-3.75246000
92.29999470	0.00000000	-17.39050000	-2.63902500
92.49999468	0.00000000	-17.43356000	-4.17076700
92.69999467	0.00000000	-17.80881000	-7.98474400
92.89999466	0.00000000	-18.59621000	-12.58612000
93.09999465	0.00000000	-19.34670000	-16.85531000
93.29999464	0.00000000	-20.13410000	-19.92495000
93.49999463	0.00000000	-20.50935000	-21.04454000
93.69999461	0.00000000	-20.50935000	-19.50664000
93.89999460	0.00000000	-20.04183000	-15.69882000
94.09999459	0.00000000	-18.50394000	-11.09129000
94.29999458	0.00000000	-16.22785000	-6.86515700
94.49999457	0.00000000	-14.27165000	-4.21998000
94.69999455	0.00000000	-12.73991000	-4.17076700
94.89999454	0.00000000	-11.99557000	-6.44685000
95.09999453	0.00000000	-12.78297000	-9.89173200
95.29999452	0.00000000	-14.73917000	-13.79183000
95.49999451	0.00000000	-17.85802000	-17.23056000
95.69999449	0.00000000	-21.66585000	-19.50664000
95.89999448	0.00000000	-24.74163000	-19.50664000
96.09999447	0.00000000	-26.27953000	-17.23056000
96.29999446	0.00000000	-25.90428000	-13.79183000
96.49999445	0.00000000	-23.57899000	-9.98400600
96.69999444	0.00000000	-20.08489000	-7.28346400
96.89999442	0.00000000	-15.85261000	-6.44685000
97.09999441	0.00000000	-11.99557000	-6.82209600
97.29999440	0.00000000	-9.66412400	-8.40305000
97.49999439	0.00000000	-8.87672100	-11.04823000
97.69999438	0.00000000	-10.08243000	-13.69956000
97.89999436	0.00000000	-13.15822000	-15.32357000
98.09999435	0.00000000	-17.39050000	-16.06791000
98.29999434	0.00000000	-21.62278000	-16.06176000
98.49999433	0.00000000	-24.78469000	-14.58538000
98.69999432	0.00000000	-26.69783000	-13.09670000
98.89999430	0.00000000	-27.06078000	-12.29700000
99.09999429	0.00000000	-25.15994000	-11.84178000
99.29999428	0.00000000	-22.09030000	-11.83563000
99.49999427	0.00000000	-18.55315000	-11.42347000
99.69999426	0.00000000	-14.69611000	-11.09129000
99.89999425	0.00000000	-11.66339000	-11.04823000
100.09999423	0.00000000	-10.41462000	-11.04823000
100.29999422	0.00000000	-10.82677000	-11.04823000
100.49999421	0.00000000	-12.37082000	-11.04823000
100.69999420	0.00000000	-15.47736000	-11.09129000
100.89999419	0.00000000	-18.87918000	-11.51575000
101.09999417	0.00000000	-21.66585000	-12.67224000
101.29999416	0.00000000	-23.62205000	-14.21014000
101.49999415	0.00000000	-24.78469000	-15.74188000
101.69999414	0.00000000	-24.78469000	-16.85531000
101.89999413	0.00000000	-23.62205000	-16.85531000
102.09999411	0.00000000	-21.66585000	-15.69882000
102.29999410	0.00000000	-18.97145000	-13.74262000
102.49999409	0.00000000	-16.32013000	-11.04823000
102.69999408	0.00000000	-14.73917000	-8.40305000
102.89999407	0.00000000	-14.27165000	-6.86515700
103.09999406	0.00000000	-14.27165000	-6.86515700
103.29999404	0.00000000	-14.69611000	-8.40305000
103.49999403	0.00000000	-15.90182000	-11.09744000
103.69999402	0.00000000	-17.80881000	-14.16092000
103.89999401	0.00000000	-20.08489000	-16.90453000
104.09999400	0.00000000	-21.66585000	-18.81152000
104.29999398	0.00000000	-22.46555000	-19.55585000
104.49999397	0.00000000	-22.82849000	-18.39321000
104.69999396	0.00000000	-22.04109000	-15.74188000
104.89999395	0.00000000	-20.55241000	-12.67224000
105.09999394	0.00000000	-18.97145000	-9.93479300
105.29999392	0.00000000	-17.43356000	-8.02780400
105.49999391	0.00000000	-16.27707000	-7.24040300
105.69999390	0.00000000	-15.90182000	-8.02780400
105.89999389	0.00000000	-16.27707000	-9.89173200
106.09999388	0.00000000	-17.43356000	-12.21087000
106.29999387	0.00000000	-18.92839000	-14.16092000
106.49999385	0.00000000	-20.08489000	-15.69882000
106.69999384	0.00000000	-20.50935000	-16.43701000
106.89999383	0.00000000	-20.50935000	-15.69882000
107.09999382	0.00000000	-20.08489000	-14.16092000
107.29999381	0.00000000	-18.97145000	-12.25394000
107.49999379	0.00000000	-17.80881000	-10.35310000
107.69999378	0.00000000	-17.05832000	-9.56569900
107.89999377	0.00000000	-16.69537000	-9.51648500
108.09999376	0.00000000	-17.43356000	-9.93479300
108.29999375	0.00000000	-18.55315000	-11.09744000
108.49999374	0.00000000	-19.34670000	-12.62918000
108.69999372	0.00000000	-20.13410000	-14.16092000
108.89999371	0.00000000	-20.50935000	-15.27436000
109.09999370	0.00000000	-20.46014000	-15.23130000
109.29999369	0.00000000	-19.71580000	-13.79183000
109.49999368	0.00000000	-18.22711000	-11.88484000
109.69999366	0.00000000	-17.43356000	-10.72219000
109.89999365	0.00000000	-16.97219000	-9.89173200
110.09999364	0.00000000	-16.27707000	-9.56569900
110.29999363	0.00000000	-16.32013000	-9.89173200
110.49999362	0.00000000	-17.39050000	-10.72219000
110.69999360	0.00000000	-18.55315000	-11.88484000
110.89999359	0.00000000	-19.34670000	-13.79183000
111.09999358	0.00000000	-20.13410000	-15.27436000
111.29999357	0.00000000	-20.50935000	-15.69267000
111.49999356	0.00000000	-20.50935000	-15.36663000
111.69999355	0.00000000	-20.13410000	-14.58538000
111.89999353	0.00000000	-19.34670000	-13.83489000
112.09999352	0.00000000	-18.59621000	-13.00443000
112.29999351	0.00000000	-17.80881000	-12.25394000
112.49999350	0.00000000	-17.48277000	-11.46653000
112.69999349	0.00000000	-17.80881000	-11.14050000
112.89999347	0.00000000	-18.55315000	-11.46653000
113.09999346	0.00000000	-18.92839000	-12.21087000
113.29999345	0.00000000	-18.97145000	-12.58612000
113.49999344	0.00000000	-18.97145000	-12.67224000
113.69999343	0.00000000	-18.97145000	-13.04749000
113.89999341	0.00000000	-18.97145000	-13.79183000
114.09999340	0.00000000	-18.97145000	-14.16708000
114.29999339	0.00000000	-18.97145000	-14.21014000
114.49999338	0.00000000	-18.97145000	-14.21014000
114.69999337	0.00000000	-18.97145000	-14.25320000
114.89999336	0.00000000	-18.92839000	-14.58538000
115.09999334	0.00000000	-18.59621000	-14.94833000
115.29999333	0.00000000	-18.22711000	-14.58538000
115.49999332	0.00000000	-18.59621000	-14.21014000
115.69999331	0.00000000	-18.92839000	-13.79183000
115.89999330	0.00000000	-19.01451000	-13.00443000
116.09999328	0.00000000	-19.38976000	-12.25394000
116.29999327	0.00000000	-20.13410000	-11.46653000
116.49999326	0.00000000	-20.50935000	-11.14050000
116.69999325	0.00000000	-20.55241000	-11.46653000
116.89999324	0.00000000	-20.50935000	-12.25394000
117.09999322	0.00000000	-20.13410000	-13.00443000
117.29999321	0.00000000	-19.34670000	-13.83489000
117.49999320	0.00000000	-18.59621000	-14.58538000
117.69999319	0.00000000	-17.80881000	-15.36663000
117.89999318	0.00000000	-17.43356000	-15.69267000
118.09999317	0.00000000	-17.43356000	-15.36663000
118.29999315	0.00000000	-17.80881000	-14.58538000
118.49999314	0.00000000	-18.59621000	-13.83489000
118.69999313	0.00000000	-19.38976000	-13.00443000
118.89999312	0.00000000	-20.55241000	-12.25394000
119.09999311	0.00000000	-21.66585000	-11.46653000
119.29999309	0.00000000	-22.04109000	-11.09129000
119.49999308	0.00000000	-21.71506000	-11.09129000
119.69999307	0.00000000	-20.92766000	-11.46653000
119.89999306	0.00000000	-20.13410000	-12.21087000
120.09999305	0.00000000	-18.97145000	-12.58612000
120.29999303	0.00000000	-17.80881000	-12.67224000
120.49999302	0.00000000	-17.01525000	-13.04749000
120.69999301	0.00000000	-16.27707000	-13.79183000
120.89999300	0.00000000	-16.32013000	-14.16708000
121.09999299	0.00000000	-17.43356000	-14.16708000
121.29999298	0.00000000	-18.92839000	-13.79183000
121.49999296	0.00000000	-20.13410000	-13.04749000
121.69999295	0.00000000	-20.92766000	-12.67224000
121.89999294	0.00000000	-21.71506000	-12.62918000
122.09999293	0.00000000	-22.09030000	-12.62918000
122.29999292	0.00000000	-22.09030000	-12.62918000
122.49999290	0.00000000	-21.66585000	-12.58612000
122.69999289	0.00000000	-20.55241000	-12.25394000
122.89999288	0.00000000	-19.38976000	-11.84178000
123.09999287	0.00000000	-18.59621000	-11.87869000
123.29999286	0.00000000	-17.80881000	-11.84178000
123.49999284	0.00000000	-17.43356000	-12.25394000
123.69999283	0.00000000	-17.39050000	-12.62918000
123.89999282	0.00000000	-17.43356000	-13.04749000
124.09999281	0.00000000	-17.80881000	-13.79183000
124.29999280	0.00000000	-18.59621000	-14.16708000
124.49999279	0.00000000	-19.34670000	-14.21014000
124.69999277	0.00000000	-20.17716000	-14.16708000
124.89999276	0.00000000	-20.92766000	-13.79183000
125.09999275	0.00000000	-21.66585000	-13.00443000
125.29999274	0.00000000	-21.66585000	-12.29700000
125.49999273	0.00000000	-20.92766000	-11.88484000
125.69999271	0.00000000	-20.17716000	-12.21087000
125.89999270	0.00000000	-19.34670000	-12.21087000
126.09999269	0.00000000	-18.59621000	-11.84178000
126.29999268	0.00000000	-17.80881000	-11.87869000
126.49999267	0.00000000	-17.43356000	-11.88484000
126.69999265	0.00000000	-17.43356000	-12.67224000
126.89999264	0.00000000	-17.80881000	-13.74262000
127.09999263	0.00000000	-18.59621000	-14.16708000
127.29999262	0.00000000	-19.38976000	-14.21014000
127.49999261	0.00000000	-20.55241000	-14.21014000
127.69999260	0.00000000	-21.66585000	-14.21014000
127.89999258	0.00000000	-22.04109000	-14.16708000
128.09999257	0.00000000	-21.71506000	-13.79183000
128.29999256	0.00000000	-20.92766000	-13.04749000
128.49999255	0.00000000	-20.13410000	-12.67224000
128.69999254	0.00000000	-18.97145000	-12.62918000
128.89999252	0.00000000	-17.85802000	-12.62918000
129.09999251	0.00000000	-17.48277000	-12.67224000
129.29999250	0.00000000	-17.85802000	-13.04749000
129.49999249	0.00000000	-18.97145000	-13.79183000
129.69999248	0.00000000	-20.13410000	-14.16708000
129.89999246	0.00000000	-20.92766000	-14.21014000
130.09999245	0.00000000	-21.71506000	-14.21014000
130.29999244	0.00000000	-22.04109000	-14.16708000
130.49999243	0.00000000	-21.71506000	-13.79183000
130.69999242	0.00000000	-20.92766000	-13.04749000
130.89999241	0.00000000	-20.13410000	-12.67224000
131.09999239	0.00000000	-19.01451000	-12.67224000
131.29999238	0.00000000	-18.27633000	-13.04749000
131.49999237	0.00000000	-18.59621000	-13.79183000
131.69999236	0.00000000	-18.97145000	-14.16708000
131.89999235	0.00000000	-19.38976000	-14.21014000
132.09999233	0.00000000	-20.13410000	-14.21014000
132.29999232	0.00000000	-20.50935000	-14.21014000
132.49999231	0.00000000	-20.55241000	-14.21014000
132.69999230	0.00000000	-20.55241000	-14.16708000
132.89999229	0.00000000	-20.55241000	-13.79183000
133.09999227	0.00000000	-20.55241000	-13.04749000
133.29999226	0.00000000	-20.55241000	-12.67224000
133.49999225	0.00000000	-20.55241000	-12.58612000
133.69999224	0.00000000	-20.55241000	-12.25394000
133.89999223	0.00000000	-20.55241000	-11.88484000
134.09999222	0.00000000	-20.55241000	-12.29700000
134.29999220	0.00000000	-20.55241000	-13.00443000
134.49999219	0.00000000	-20.55241000	-13.83489000
134.69999218	0.00000000	-20.50935000	-14.58538000
134.89999217	0.00000000	-20.13410000	-15.32357000
135.09999216	0.00000000	-19.38976000	-15.32357000
135.29999214	0.00000000	-19.01451000	-14.62844000
135.49999213	0.00000000	-19.01451000	-14.21014000
135.69999212	0.00000000	-19.38976000	-13.79183000
135.89999211	0.00000000	-20.13410000	-13.04749000
136.09999210	0.00000000	-20.55241000	-12.67224000
136.29999208	0.00000000	-20.97072000	-12.62918000
136.49999207	0.00000000	-21.71506000	-12.62918000
136.69999206	0.00000000	-22.09030000	-12.62918000
136.89999205	0.00000000	-22.09030000	-12.62918000
137.09999204	0.00000000	-21.66585000	-12.67224000
137.29999203	0.00000000	-20.55241000	-13.04749000
137.49999201	0.00000000	-19.43897000	-13.79183000
137.69999200	0.00000000	-19.01451000	-14.16708000
137.89999199	0.00000000	-18.97145000	-14.21014000
138.09999198	0.00000000	-19.01451000	-14.21014000
138.29999197	0.00000000	-19.38976000	-14.21014000
138.49999195	0.00000000	-20.13410000	-14.16708000
138.69999194	0.00000000	-20.55241000	-13.79183000
138.89999193	0.00000000	-20.97072000	-13.04749000
139.09999192	0.00000000	-21.71506000	-12.67224000
139.29999191	0.00000000	-22.04109000	-12.62918000
139.49999189	0.00000000	-21.71506000	-12.62918000
139.69999188	0.00000000	-20.92766000	-12.58612000
139.89999187	0.00000000	-20.17716000	-12.25394000
140.09999186	0.00000000	-19.38976000	-11.88484000
140.29999185	0.00000000	-19.01451000	-12.29700000
140.49999184	0.00000000	-19.01451000	-13.00443000
140.69999182	0.00000000	-19.38976000	-13.79183000
140.89999181	0.00000000	-20.13410000	-14.16708000
141.09999180	0.00000000	-20.50935000	-14.21014000
141.29999179	0.00000000	-20.55241000	-14.21014000
141.49999178	0.00000000	-20.55241000	-14.16708000
141.69999176	0.00000000	-20.55241000	-13.74262000
141.89999175	0.00000000	-20.50935000	-12.62918000
142.09999174	0.00000000	-20.13410000	-11.51575000
142.29999173	0.00000000	-19.43897000	-11.09129000
142.49999172	0.00000000	-19.38976000	-11.09129000
142.69999170	0.00000000	-19.75886000	-11.51575000
142.89999169	0.00000000	-19.76501000	-12.62918000
143.09999168	0.00000000	-20.22022000	-13.79183000
143.29999167	0.00000000	-20.88459000	-14.58538000
143.49999166	0.00000000	-21.29675000	-15.36663000
143.69999165	0.00000000	-20.97072000	-15.69267000
143.89999163	0.00000000	-20.97072000	-15.36663000
144.09999162	0.00000000	-21.29675000	-14.58538000
144.29999161	0.00000000	-20.92766000	-13.83489000
144.49999160	0.00000000	-20.59547000	-13.04749000
144.69999159	0.00000000	-20.55241000	-12.67224000
144.89999157	0.00000000	-20.55241000	-12.62918000
145.09999156	0.00000000	-20.55241000	-12.62918000
145.29999155	0.00000000	-20.55241000	-12.67224000
145.49999154	0.00000000	-20.55241000	-13.04749000
145.69999153	0.00000000	-20.59547000	-13.79183000
145.89999151	0.00000000	-20.97072000	-14.16708000
146.09999150	0.00000000	-21.66585000	-14.25320000
146.29999149	0.00000000	-21.66585000	-14.58538000
146.49999148	0.00000000	-20.97072000	-14.94833000
146.69999147	0.00000000	-20.59547000	-14.58538000
146.89999146	0.00000000	-20.55241000	-14.21014000
147.09999144	0.00000000	-20.55241000	-13.79183000
147.29999143	0.00000000	-20.55241000	-13.04749000
147.49999142	0.00000000	-20.55241000	-12.67224000
147.69999141	0.00000000	-20.59547000	-12.62918000
147.89999140	0.00000000	-20.97072000	-12.62918000
148.09999138	0.00000000	-21.71506000	-12.67224000
148.29999137	0.00000000	-22.09030000	-13.04749000
148.49999136	0.00000000	-22.13336000	-13.79183000
148.69999135	0.00000000	-22.09030000	-14.16708000
148.89999134	0.00000000	-21.71506000	-14.21014000
149.09999132	0.00000000	-20.97072000	-14.21014000
149.29999131	0.00000000	-20.59547000	-14.21014000
149.49999130	0.00000000	-20.55241000	-14.21014000
149.69999129	0.00000000	-20.55241000	-14.16708000
149.89999128	0.00000000	-20.55241000	-13.79183000
150.09999127	0.00000000	-20.55241000	-13.04749000
150.29999125	0.00000000	-20.55241000	-12.67224000
150.49999124	0.00000000	-20.59547000	-12.62918000
150.69999123	0.00000000	-20.97072000	-12.67224000
150.89999122	0.00000000	-21.71506000	-13.04749000
151.09999121	0.00000000	-22.09030000	-13.79183000
151.29999119	0.00000000	-22.09030000	-14.16708000
151.49999118	0.00000000	-21.71506000	-14.21014000
151.69999117	0.00000000	-20.97072000	-14.21014000
151.89999116	-0.15871060	-20.59547000	-14.21014000
152.09999115	0.00000000	-20.55241000	-14.21014000
152.29999113	0.00000000	-20.55241000	-14.21014000
152.49999112	0.00000000	-20.55241000	-14.21014000
152.69999111	0.00000000	-20.55241000	-14.16708000
152.89999110	0.00000000	-20.55241000	-13.79183000
153.09999109	0.00000000	-20.55241000	-13.04749000
153.29999108	0.00000000	-20.59547000	-12.67224000
153.49999106	0.00000000	-20.97072000	-12.62918000
153.69999105	0.00000000	-21.71506000	-12.62918000
153.89999104	0.00000000	-22.09030000	-12.62918000
154.09999103	0.00000000	-22.13336000	-12.62918000
154.29999102	0.00000000	-22.13336000	-12.67224000
154.49999100	0.00000000	-22.13336000	-13.00443000
154.69999099	0.00000000	-22.09030000	-13.41658000
154.89999098	0.00000000	-21.71506000	-13.42274000
155.09999097	0.00000000	-20.97072000	-13.83489000
155.29999096	0.00000000	-20.59547000	-14.16708000
155.49999094	0.00000000	-20.55241000	-14.16708000
155.69999093	0.00000000	-20.55241000	-13.83489000
155.89999092	0.00000000	-20.55241000	-13.42274000
156.09999091	0.00000000	-20.55241000	-13.41658000
156.29999090	0.00000000	-20.59547000	-13.00443000
156.49999089	0.00000000	-20.97072000	-12.67224000
156.69999087	0.00000000	-21.71506000	-12.62918000
156.89999086	0.00000000	-22.09030000	-12.62918000
157.09999085	0.00000000	-22.13336000	-12.62918000
157.29999084	0.00000000	-22.13336000	-12.62918000
157.49999083	0.00000000	-22.09030000	-12.67224000
157.69999081	0.00000000	-21.71506000	-13.04749000
157.89999080	0.00000000	-20.97072000	-13.79183000
158.09999079	0.00000000	-20.59547000	-14.16708000
158.29999078	0.00000000	-20.55241000	-14.21014000
158.49999077	0.00000000	-20.55241000	-14.21014000
158.69999075	0.00000000	-20.55241000	-14.21014000
158.89999074	0.00000000	-20.55241000	-14.21014000
159.09999073	0.00000000	-20.59547000	-14.16708000
159.29999072	0.00000000	-20.97072000	-13.79183000
159.49999071	0.00000000	-21.71506000	-13.04749000
159.69999070	0.00000000	-22.09030000	-12.67224000
159.89999068	0.00000000	-22.13336000	-12.62918000
160.09999067	0.00000000	-22.13336000	-12.67224000
160.29999066	0.00000000	-22.13336000	-13.04749000
160.49999065	0.00000000	-22.13336000	-13.79183000
160.69999064	0.00000000	-22.13336000	-14.21014000
160.89999062	0.00000000	-22.13336000	-14.62844000
161.09999061	0.00000000	-22.13336000	-15.36663000
161.29999060	0.00000000	-22.13336000	-15.69267000
161.49999059	0.00000000	-22.13336000	-15.36663000
161.69999058	0.00000000	-22.09030000	-14.62844000
161.89999056	0.00000000	-21.75812000	-14.25320000
162.09999055	0.00000000	-21.34596000	-14.21014000
162.29999054	0.00000000	-21.38287000	-14.21014000
162.49999053	0.00000000	-21.34596000	-14.21014000
162.69999052	0.00000000	-21.75812000	-14.21014000
162.89999051	0.00000000	-22.09030000	-14.21014000
163.09999049	0.00000000	-22.13336000	-14.21014000
163.29999048	0.00000000	-22.17643000	-14.21014000
163.49999047	0.00000000	-22.50861000	-14.21014000
163.69999046	0.00000000	-22.87770000	-14.21014000
163.89999045	0.00000000	-22.50861000	-14.21014000
164.09999043	0.00000000	-22.17643000	-14.21014000
164.29999042	0.00000000	-22.13336000	-14.21014000
164.49999041	0.00000000	-22.09030000	-14.21014000
164.69999040	0.00000000	-21.75812000	-14.21014000
164.89999039	0.00000000	-21.34596000	-14.21014000
165.09999037	0.00000000	-21.33981000	-14.21014000
165.29999036	0.00000000	-20.97072000	-14.21014000
165.49999035	0.00000000	-21.01993000	-14.21014000
165.69999034	0.00000000	-21.71506000	-14.21014000
165.89999033	0.00000000	-22.09030000	-14.21014000
166.09999032	0.00000000	-22.13336000	-14.21014000
166.29999030	0.00000000	-22.13336000	-14.21014000
166.49999029	0.00000000	-22.13336000	-14.21014000
166.69999028	0.00000000	-22.13336000	-14.21014000
166.89999027	0.00000000	-22.13336000	-14.21014000
167.09999026	0.00000000	-22.13336000	-14.21014000
167.29999024	0.00000000	-22.13336000	-14.25320000
167.49999023	0.00000000	-22.13336000	-14.58538000
167.69999022	0.00000000	-22.09030000	-14.94833000
167.89999021	0.00000000	-21.71506000	-14.58538000
168.09999020	0.00000000	-21.01993000	-14.25320000
168.29999018	0.00000000	-21.01993000	-14.21014000
168.49999017	0.00000000	-21.71506000	-14.16708000
168.69999016	0.00000000	-22.09030000	-13.83489000
168.89999015	0.00000000	-22.13336000	-13.46580000
169.09999014	0.00000000	-22.13336000	-13.83489000
169.29999013	0.00000000	-22.13336000	-14.16708000
169.49999011	0.00000000	-22.13336000	-14.21014000
169.69999010	0.00000000	-22.13336000	-14.21014000
169.89999009	0.00000000	-22.13336000	-14.21014000
170.09999008	0.00000000	-22.13336000	-14.21014000
170.29999007	0.00000000	-22.13336000	-14.21014000
170.49999005	0.00000000	-22.13336000	-14.21014000
170.69999004	0.00000000	-22.13336000	-14.21014000
170.89999003	0.00000000	-22.13336000	-14.21014000
171.09999002	0.00000000	-22.13336000	-14.21014000
171.29999001	0.00000000	-22.13336000	-14.21014000
171.49998999	0.00000000	-22.13336000	-14.21014000
171.69998998	0.00000000	-22.13336000	-14.21014000
171.89998997	0.00000000	-22.13336000	-14.21014000
172.09998996	0.00000000	-22.13336000	-14.21014000
172.29998995	0.00000000	-22.13336000	-14.21014000
172.49998994	0.00000000	-22.13336000	-14.21014000
172.69998992	0.00000000	-22.13336000	-14.21014000
172.89998991	0.00000000	-22.13336000	-14.21014000
173.09998990	0.00000000	-22.13336000	-14.21014000
173.29998989	0.00000000	-22.13336000	-14.21014000
173.49998988	0.00000000	-22.13336000	-14.21014000
173.69998986	0.00000000	-22.13336000	-14.21014000
173.89998985	0.00000000	-22.13336000	-14.21014000
174.09998984	0.00000000	-22.13336000	-14.21014000
174.29998983	0.00000000	-22.13336000	-14.21014000
174.49998982	0.00000000	-22.13336000	-14.21014000
174.69998980	0.00000000	-22.13336000	-14.21014000
174.89998979	0.00000000	-22.13336000	-14.21014000
175.09998978	0.00000000	-22.13336000	-14.21014000
175.29998977	0.00000000	-22.13336000	-14.21014000
175.49998976	0.00000000	-22.13336000	-14.21014000
175.69998975	0.00000000	-22.13336000	-14.21014000
175.89998973	0.00000000	-22.13336000	-14.21014000
176.09998972	0.00000000	-22.13336000	-14.21014000
176.29998971	0.00000000	-22.13336000	-14.21014000
176.49998970	0.00000000	-22.13336000	-14.21014000
176.69998969	0.00000000	-22.13336000	-14.21014000
176.89998967	0.00000000	-22.13336000	-14.21014000
177.09998966	0.00000000	-22.13336000	-14.21014000
177.29998965	0.00000000	-22.13336000	-14.25320000
177.49998964	0.00000000	-22.13336000	-14.62844000
177.69998963	0.00000000	-22.13336000	-15.36663000
177.89998961	-0.15871060	-22.13336000	-15.69267000
178.09998960	0.00000000	-22.13336000	-15.36663000
178.29998959	0.00000000	-22.13336000	-14.62844000
178.49998958	0.00000000	-22.13336000	-14.25320000
178.69998957	0.00000000	-22.13336000	-14.21014000
178.89998956	0.00000000	-22.13336000	-14.21014000
179.09998954	0.00000000	-22.09030000	-14.21014000
179.29998953	0.00000000	-21.80118000	-14.21014000
179.49998952	0.00000000	-21.76427000	-14.21014000
179.69998951	0.00000000	-22.50246000	-14.21014000
179.89998950	0.00000000	-22.46555000	-14.21014000
180.09998948	0.00000000	-22.17643000	-14.21014000
180.29998947	0.00000000	-22.13336000	-14.21014000
180.49998946	0.00000000	-22.13336000	-14.21014000
180.69998945	0.00000000	-22.17643000	-14.21014000
180.89998944	0.00000000	-22.50861000	-14.21014000
181.09998942	0.00000000	-22.92076000	-14.21014000
181.29998941	0.00000000	-22.92692000	-14.21014000
181.49998940	0.00000000	-23.29601000	-14.21014000
181.69998939	0.00000000	-23.24680000	-14.21014000
181.89998938	0.00000000	-22.55167000	-14.21014000
182.09998937	0.00000000	-22.17643000	-14.21014000
182.29998935	0.00000000	-22.13336000	-14.21014000
182.49998934	0.00000000	-22.13336000	-14.21014000
182.69998933	0.00000000	-22.13336000	-14.25320000
182.89998932	0.00000000	-22.13336000	-14.62844000
183.09998931	0.00000000	-22.13336000	-15.32357000
183.29998929	0.00000000	-22.13336000	-15.32357000
183.49998928	0.00000000	-22.13336000	-14.62844000
183.69998927	0.00000000	-22.17643000	-14.25320000
183.89998926	0.00000000	-22.55167000	-14.21014000
184.09998925	0.00000000	-23.24680000	-14.21014000
184.29998923	0.00000000	-23.29601000	-14.21014000
184.49998922	0.00000000	-22.92692000	-14.21014000
184.69998921	0.00000000	-22.96383000	-14.21014000
184.89998920	0.00000000	-22.88386000	-14.21014000
185.09998919	0.00000000	-22.96383000	-14.21014000
185.29998918	0.00000000	-22.88386000	-14.21014000
185.49998916	0.00000000	-22.92076000	-14.25320000
185.69998915	0.00000000	-22.50861000	-14.58538000
185.89998914	0.00000000	-22.17643000	-14.99139000
186.09998913	0.00000000	-22.13336000	-15.00369000
186.29998912	0.00000000	-22.13336000	-15.40969000
186.49998910	0.00000000	-22.13336000	-15.69267000
186.69998909	0.00000000	-22.17643000	-15.36663000
186.89998908	0.00000000	-22.55167000	-14.62844000
187.09998907	0.00000000	-23.29601000	-14.25320000
187.29998906	0.00000000	-23.67126000	-14.21014000
187.49998904	0.00000000	-23.71432000	-14.21014000
187.69998903	0.00000000	-23.71432000	-14.21014000
187.89998902	0.00000000	-23.67126000	-14.21014000
188.09998901	0.00000000	-23.29601000	-14.21014000
188.29998900	0.00000000	-22.55167000	-14.25320000
188.49998899	0.00000000	-22.22564000	-14.62844000
188.69998897	0.00000000	-22.50861000	-15.36663000
188.89998896	0.00000000	-22.92076000	-15.74188000
189.09998895	0.00000000	-22.92692000	-15.78494000
189.29998894	0.00000000	-23.33907000	-15.78494000
189.49998893	0.00000000	-23.67126000	-15.74188000
189.69998891	0.00000000	-23.71432000	-15.36663000
189.89998890	0.00000000	-23.71432000	-14.62844000
190.09998889	0.00000000	-23.71432000	-14.25320000
190.29998888	0.00000000	-23.71432000	-14.21014000
190.49998887	0.00000000	-23.71432000	-14.21014000
190.69998885	0.00000000	-23.71432000	-14.21014000
190.89998884	0.00000000	-23.71432000	-14.21014000
191.09998883	0.00000000	-23.71432000	-14.25320000
191.29998882	0.00000000	-23.71432000	-14.58538000
191.49998881	0.00000000	-23.71432000	-14.99139000
191.69998880	0.00000000	-23.71432000	-14.95448000
191.89998878	0.00000000	-23.71432000	-15.04060000
192.09998877	0.00000000	-23.71432000	-15.00369000
192.29998876	0.00000000	-23.71432000	-15.40969000
192.49998875	0.00000000	-23.71432000	-15.74188000
192.69998874	0.00000000	-23.71432000	-15.78494000
192.89998872	0.00000000	-23.71432000	-15.78494000
193.09998871	0.00000000	-23.71432000	-15.78494000
193.29998870	0.00000000	-23.71432000	-15.74188000
193.49998869	0.00000000	-23.71432000	-15.40969000
193.69998868	0.00000000	-23.71432000	-15.00369000
193.89998866	0.00000000	-23.71432000	-14.99139000
194.09998865	0.00000000	-23.71432000	-14.58538000
194.29998864	0.00000000	-23.67126000	-14.25320000
194.49998863	0.00000000	-23.33907000	-14.25320000
194.69998862	0.00000000	-22.96998000	-14.62844000
194.89998861	0.00000000	-23.33907000	-15.36663000
195.09998859	-0.15871060	-23.71432000	-15.74188000
195.29998858	0.00000000	-24.08957000	-15.82800000
195.49998857	0.00000000	-24.45866000	-16.11712000
195.69998856	0.00000000	-24.08957000	-16.15404000
195.89998855	0.00000000	-23.75738000	-15.42200000
196.09998853	0.00000000	-23.71432000	-15.45891000
