Time	Channel A	Channel B	Channel C
(us)	(V)	(mV)	(mV)

-4.49999956	0.00000000	-15.01599000	-11.14050000
-4.29999957	0.00000000	-14.60384000	-11.42347000
-4.09999958	0.00000000	-14.27165000	-11.83563000
-3.89999959	0.00000000	-14.22859000	-11.79872000
-3.69999960	0.00000000	-14.22859000	-11.83563000
-3.49999962	0.00000000	-14.27165000	-11.42347000
-3.29999963	0.00000000	-14.60384000	-11.09129000
-3.09999964	0.00000000	-14.97293000	-11.04823000
-2.89999965	0.00000000	-14.60384000	-11.09129000
-2.69999966	0.00000000	-14.27165000	-11.42347000
-2.49999968	0.00000000	-14.22859000	-11.79257000
-2.29999969	0.00000000	-14.22859000	-11.42347000
-2.09999970	0.00000000	-14.27165000	-11.09129000
-1.89999971	0.00000000	-14.60384000	-11.04823000
-1.69999972	0.00000000	-15.01599000	-11.04823000
-1.49999973	0.00000000	-14.97908000	-11.04823000
-1.29999975	0.00000000	-15.01599000	-11.04823000
-1.09999976	0.00000000	-14.60384000	-11.04823000
-0.89999977	0.00000000	-14.27165000	-11.04823000
-0.69999978	0.00000000	-14.22859000	-11.04823000
-0.49999979	0.00000000	-14.22859000	-11.04823000
-0.29999981	0.15871060	-14.22859000	-11.04823000
-0.09999982	0.63668800	-14.22859000	-11.04823000
0.10000017	0.95533960	-14.22859000	-11.04823000
0.30000016	0.95533960	-14.22859000	-11.04823000
0.50000015	0.95533960	-14.22859000	-11.09129000
0.70000013	0.47736220	-14.22859000	-11.42347000
0.90000012	-0.31803640	-14.22859000	-11.79257000
1.10000011	-1.27399100	-14.22859000	-11.42347000
1.30000010	-2.22994600	-14.22859000	-11.09129000
1.50000009	-2.70792300	-14.22859000	-11.04823000
1.70000008	-2.54859700	-14.22859000	-11.04823000
1.90000006	-1.59264300	-14.22859000	-11.04823000
2.10000005	0.00000000	-14.22859000	-11.04823000
2.30000004	2.07062000	-14.22859000	-11.04823000
2.50000003	4.14124000	-14.22859000	-11.04823000
2.70000002	5.25652100	-14.27165000	-11.04823000
2.90000000	5.09719500	-14.64690000	-11.04823000
3.09999999	3.50393700	-15.34203000	-11.09129000
3.29999998	0.79601380	-15.39124000	-11.42347000
3.49999997	-2.70792300	-15.02214000	-11.79257000
3.69999996	-5.73449800	-15.05905000	-11.42347000
3.89999994	-7.64579200	-14.97908000	-11.09129000
4.09999993	-7.80511800	-15.01599000	-11.04823000
4.29999992	-5.73449800	-14.60384000	-11.04823000
4.49999991	-2.22994600	-14.27165000	-11.04823000
4.69999990	2.38927200	-14.27165000	-11.09129000
4.89999989	6.37180100	-14.64690000	-11.46653000
5.09999987	8.92039900	-15.39124000	-12.21087000
5.29999986	9.39837600	-15.76649000	-12.58612000
5.49999985	7.32714100	-15.80955000	-12.62918000
5.69999984	3.50393700	-15.80955000	-12.62918000
5.89999983	-1.27399100	-15.80955000	-12.62918000
6.09999981	-5.73449800	-15.80955000	-12.58612000
6.29999980	-8.60174700	-15.76649000	-12.21087000
6.49999979	-9.39837600	-15.43430000	-11.46653000
6.69999978	-7.80511800	-15.06521000	-11.09129000
6.89999977	-4.30056600	-15.43430000	-11.04823000
7.09999975	0.00000000	-15.76649000	-11.04823000
7.29999974	3.98191400	-15.80955000	-11.09129000
7.49999973	6.84916400	-15.80955000	-11.46653000
7.69999972	7.80511800	-15.80955000	-12.21087000
7.89999971	6.69045300	-15.80955000	-12.58612000
8.09999970	4.14124000	-15.80955000	-12.62918000
8.29999968	0.95533960	-15.80955000	-12.62918000
8.49999967	-2.07062000	-15.80955000	-12.62918000
8.69999966	-4.30056600	-15.80955000	-12.58612000
8.89999965	-5.25652100	-15.80955000	-12.21087000
9.09999964	-4.61921700	-15.80955000	-11.46653000
9.29999962	-3.18590100	-15.80955000	-11.09129000
9.49999961	-1.11466500	-15.80955000	-11.09129000
9.69999960	0.63668800	-15.80955000	-11.42347000
9.89999959	2.07062000	-15.80955000	-11.79257000
10.09999958	2.54859700	-15.80955000	-11.42347000
10.29999956	2.38927200	-15.80955000	-11.14050000
10.49999955	1.59264300	-15.80955000	-11.42347000
10.69999954	0.79601380	-15.80955000	-11.79257000
10.89999953	0.00000000	-15.80955000	-11.42347000
11.09999952	-0.63668800	-15.80955000	-11.09129000
11.29999951	-0.95533960	-15.80955000	-11.04823000
11.49999949	-0.95533960	-15.80955000	-11.09129000
11.69999948	-0.79601380	-15.80955000	-11.46653000
11.89999947	-0.47736220	-15.80955000	-12.21087000
12.09999946	-0.15871060	-15.80955000	-12.58612000
12.29999945	-0.15871060	-15.80955000	-12.58612000
12.49999943	-0.15871060	-15.80955000	-12.25394000
12.69999942	0.00000000	-15.85261000	-11.84178000
12.89999941	0.00000000	-16.18479000	-11.83563000
13.09999940	0.00000000	-16.55389000	-11.42347000
13.29999939	0.15871060	-16.18479000	-11.14050000
13.49999937	0.00000000	-15.85261000	-11.46653000
13.69999936	0.00000000	-15.80955000	-12.21087000
13.89999935	0.00000000	-15.80955000	-12.58612000
14.09999934	-0.15871060	-15.80955000	-12.62918000
14.29999933	-0.15871060	-15.80955000	-12.62918000
14.49999932	-0.15871060	-15.80955000	-12.58612000
14.69999930	0.00000000	-15.80955000	-12.25394000
14.89999929	0.00000000	-15.80955000	-11.88484000
15.09999928	0.00000000	-15.80955000	-12.21087000
15.29999927	0.00000000	-15.80955000	-12.16166000
15.49999926	0.00000000	-15.80955000	-11.51575000
15.69999924	0.00000000	-15.80955000	-11.51575000
15.89999923	0.00000000	-15.80955000	-12.21087000
16.09999922	0.00000000	-15.80955000	-12.58612000
16.29999921	0.00000000	-15.80955000	-12.62918000
16.49999920	-0.15871060	-15.80955000	-12.62918000
16.69999919	-0.15871060	-15.80955000	-12.62918000
16.89999917	-0.15871060	-15.76649000	-12.58612000
17.09999916	0.00000000	-15.39124000	-12.25394000
17.29999915	0.00000000	-14.64690000	-11.84178000
17.49999914	0.00000000	-14.27165000	-11.87869000
17.69999913	0.00000000	-14.27165000	-11.84178000
17.89999911	0.00000000	-14.69611000	-12.25394000
18.09999910	0.00000000	-15.80955000	-12.53691000
18.29999909	0.00000000	-17.01525000	-12.25394000
18.49999908	0.00000000	-18.18405000	-11.88484000
18.69999907	0.00000000	-19.75886000	-12.25394000
18.89999905	0.00000000	-20.83538000	-12.53691000
19.09999904	0.00000000	-21.24754000	-12.25394000
19.29999903	0.00000000	-20.37401000	-11.88484000
19.49999902	0.00000000	-18.08563000	-12.25394000
19.69999901	0.00000000	-14.56078000	-12.53691000
19.89999900	0.00000000	-10.73450000	-12.25394000
20.09999898	0.00000000	-7.20964500	-11.84178000
20.29999897	0.00000000	-4.97047200	-11.87869000
20.49999896	0.00000000	-4.64443900	-11.84178000
20.69999895	0.00000000	-7.43110200	-12.25394000
20.89999894	0.00000000	-13.20128000	-12.58612000
21.09999892	0.00000000	-20.59547000	-12.62918000
21.29999891	0.00000000	-28.27879000	-12.62918000
21.49999890	0.00000000	-34.46112000	-12.62918000
21.69999889	0.00000000	-37.08169000	-12.62918000
21.89999888	0.00000000	-35.48843000	-12.62918000
22.09999886	0.00000000	-28.79552000	-12.62918000
22.29999885	0.00000000	-17.99951000	-12.62918000
22.49999884	0.00000000	-5.25344500	-12.62918000
22.69999883	0.00000000	6.28690900	-12.62918000
22.89999882	0.00000000	13.58883000	-12.62918000
23.09999881	0.00000000	14.70842000	-12.58612000
23.29999879	0.00000000	8.80290300	-12.21087000
23.49999878	0.00000000	-3.61712600	-11.46653000
23.69999877	0.00000000	-20.64468000	-11.04823000
23.89999876	0.00000000	-38.37352000	-10.67298000
24.09999875	0.00000000	-52.61442000	-10.31004000
24.29999873	0.00000000	-59.45497000	-10.72219000
24.49999872	0.00000000	-56.33612000	-11.46653000
24.69999871	0.00000000	-43.54699000	-12.67224000
24.89999870	0.00000000	-23.85581000	-14.21014000
25.09999869	0.00000000	-1.43946800	-15.78494000
25.29999867	0.00000000	18.24557000	-17.27362000
25.49999866	0.00000000	30.94857000	-18.01796000
25.69999865	0.00000000	33.18159000	-17.23056000
25.89999864	0.00000000	23.54823000	-15.27436000
26.09999863	0.00000000	4.61368100	-12.11860000
26.29999862	0.00000000	-19.34670000	-7.93553100
26.49999860	0.00000000	-43.30709000	-4.08464600
26.69999859	0.00000000	-61.41117000	-1.75319900
26.89999858	0.00000000	-69.54970000	-1.05807100
27.09999857	0.00000000	-65.64345000	-3.01427100
27.29999856	0.00000000	-50.60900000	-7.69562000
27.49999854	0.00000000	-27.86048000	-13.93332000
27.69999853	0.00000000	-3.15575800	-21.68430000
27.89999852	0.00000000	17.73499000	-28.89395000
28.09999851	0.00000000	30.53026000	-33.12008000
28.29999850	0.00000000	32.48646000	-33.07701000
28.49999848	0.00000000	23.64050000	-28.38337000
28.69999847	0.00000000	6.28690900	-19.46358000
28.89999846	0.00000000	-15.29897000	-7.84940900
29.09999845	0.00000000	-35.82062000	4.09079700
29.29999844	0.00000000	-50.98425000	13.70571000
29.49999843	0.00000000	-58.37844000	18.26402000
29.69999841	0.00000000	-56.84670000	16.31397000
29.89999840	0.00000000	-46.83809000	7.76943800
30.09999839	0.00000000	-31.06545000	-5.75172200
30.29999838	0.00000000	-13.61959000	-21.59203000
30.49999837	0.00000000	1.87007900	-36.23277000
30.69999835	0.00000000	12.75221000	-46.26599000
30.89999834	0.00000000	16.66462000	-49.33562000
31.09999833	0.00000000	13.63804000	-44.64198000
31.29999832	0.00000000	4.74901600	-32.60949000
31.49999831	0.00000000	-7.99704600	-15.28051000
31.69999829	0.00000000	-21.53666000	3.21112200
31.89999828	0.00000000	-33.16929000	18.31324000
32.09999827	0.00000000	-40.56348000	27.23302000
32.29999826	0.00000000	-42.56274000	28.34645000
32.49999825	0.00000000	-39.49311000	20.95841000
32.69999824	0.00000000	-32.09276000	6.32381900
32.89999822	0.00000000	-21.66585000	-12.21087000
33.09999821	0.00000000	-10.50689000	-30.37647000
33.29999820	0.00000000	-1.61786400	-44.69119000
33.49999819	0.00000000	3.08193900	-52.03002000
33.69999818	0.00000000	3.12500000	-50.87352000
33.89999816	0.00000000	-1.10728300	-41.62155000
34.09999815	0.00000000	-8.45841400	-26.24262000
34.29999814	0.00000000	-17.29823000	-8.82135800
34.49999813	0.00000000	-25.39370000	7.06815900
34.69999812	0.00000000	-30.41954000	19.05143000
34.89999810	0.00000000	-31.62524000	24.02805000
35.09999809	0.00000000	-28.97392000	21.00148000
35.29999808	0.00000000	-23.62205000	10.96826000
35.49999807	0.00000000	-17.43356000	-3.66633800
35.69999806	0.00000000	-11.62032000	-19.50664000
35.89999805	0.00000000	-7.43110200	-32.98474000
36.09999803	0.00000000	-6.27460600	-41.11097000
36.29999802	0.00000000	-8.55068800	-41.90453000
36.49999801	0.00000000	-13.11516000	-35.81446000
36.69999800	0.00000000	-18.50394000	-24.66166000
36.89999799	0.00000000	-23.16068000	-11.60802000
37.09999797	0.00000000	-26.23031000	-0.03690945
37.29999796	0.00000000	-26.97465000	7.30191900
37.49999795	0.00000000	-24.69857000	8.83366100
37.69999794	0.00000000	-20.50935000	4.27534400
37.89999793	0.00000000	-15.85261000	-4.91510800
38.09999791	0.00000000	-11.62032000	-15.60654000
38.29999790	0.00000000	-8.87672100	-24.80315000
38.49999789	0.00000000	-8.13238100	-29.45374000
38.69999788	0.00000000	-9.30118100	-28.71555000
38.89999787	0.00000000	-12.78297000	-23.36368000
39.09999786	0.00000000	-17.34744000	-14.54232000
39.29999784	0.00000000	-21.62278000	-5.38262700
39.49999783	0.00000000	-24.74163000	1.53789400
39.69999782	0.00000000	-26.32259000	4.18922200
39.89999781	0.00000000	-26.32259000	1.49483300
40.09999780	0.00000000	-24.78469000	-5.80093500
40.29999778	0.00000000	-22.04109000	-15.74188000
40.49999777	0.00000000	-18.55315000	-25.31373000
40.69999776	0.00000000	-14.69611000	-31.45300000
40.89999775	0.00000000	-11.57726000	-32.60949000
41.09999774	0.00000000	-9.62106200	-28.38337000
41.29999772	0.00000000	-8.87672100	-19.93110000
41.49999771	0.00000000	-10.03937000	-9.56569900
41.69999770	0.00000000	-12.69070000	0.00615157
41.89999769	0.00000000	-15.80955000	5.81323800
42.09999768	0.00000000	-18.92839000	6.60679100
42.29999767	0.00000000	-21.66585000	2.79281500
42.49999765	0.00000000	-23.62205000	-4.91510800
42.69999764	0.00000000	-24.74163000	-14.11786000
42.89999763	0.00000000	-24.36639000	-22.57628000
43.09999762	0.00000000	-22.50861000	-28.00812000
43.29999761	0.00000000	-20.55241000	-29.17692000
43.49999759	0.00000000	-18.59621000	-26.56250000
43.69999758	0.00000000	-16.64616000	-20.76772000
43.89999757	0.00000000	-15.47736000	-13.87795000
44.09999756	0.00000000	-14.64690000	-7.33267600
44.29999755	0.00000000	-14.27165000	-3.05733300
44.49999753	0.00000000	-14.18553000	-1.80241100
44.69999752	0.00000000	-13.85334000	-2.54675200
44.89999751	0.00000000	-13.48425000	-5.29035400
45.09999750	0.00000000	-13.81028000	-9.47342500
45.29999749	0.00000000	-13.89641000	-13.74262000
45.49999748	0.00000000	-14.41929000	-17.18750000
45.69999746	0.00000000	-17.10753000	-19.13140000
45.89999745	0.00000000	-20.55241000	-18.81152000
46.09999744	0.00000000	-24.08957000	-17.32283000
46.29999743	0.00000000	-27.52830000	-15.36663000
46.49999742	0.00000000	-29.34916000	-13.00443000
46.69999740	0.00000000	-28.59867000	-10.72219000
46.89999739	0.00000000	-25.06767000	-8.77214500
47.09999738	0.00000000	-19.66658000	-8.02780400
47.29999737	0.00000000	-13.06594000	-8.35998900
47.49999736	0.00000000	-6.92052100	-9.51648500
47.69999734	0.00000000	-2.64517700	-11.09744000
47.89999733	0.00000000	-1.15649600	-13.04749000
48.09999732	0.00000000	-3.15575800	-15.36663000
48.29999731	0.00000000	-8.96899500	-17.23056000
48.49999730	0.00000000	-17.43356000	-18.01796000
48.69999729	0.00000000	-26.32259000	-17.23056000
48.89999727	0.00000000	-33.63066000	-15.32357000
49.09999726	0.00000000	-37.49385000	-12.58612000
49.29999725	0.00000000	-36.70644000	-9.51648500
49.49999724	0.00000000	-31.67446000	-6.82209600
49.69999723	0.00000000	-23.16068000	-5.33341500
49.89999721	0.00000000	-13.15822000	-5.70866100
50.09999720	0.00000000	-4.31840500	-8.02780400
50.29999719	0.00000000	1.07652500	-11.46653000
50.49999718	0.00000000	1.50098400	-15.36663000
50.69999717	0.00000000	-2.73745100	-18.81152000
50.89999715	0.00000000	-10.45768000	-21.13066000
51.09999714	0.00000000	-20.04183000	-21.46284000
51.29999713	0.00000000	-28.51255000	-19.54970000
51.49999712	0.00000000	-33.58760000	-15.74188000
51.69999711	0.00000000	-34.75024000	-11.51575000
51.89999710	0.00000000	-31.67446000	-7.98474400
52.09999708	0.00000000	-25.15994000	-5.29035400
52.29999707	0.00000000	-17.48277000	-4.17691900
52.49999706	0.00000000	-10.50689000	-5.33341500
52.69999705	0.00000000	-5.94242000	-8.40305000
52.89999704	0.00000000	-5.15501900	-12.62918000
53.09999702	0.00000000	-8.55068800	-16.85531000
53.29999701	0.00000000	-14.27165000	-19.92495000
53.49999700	0.00000000	-20.46014000	-21.13066000
53.69999699	0.00000000	-25.85507000	-20.39247000
53.89999698	0.00000000	-28.93085000	-18.47933000
54.09999696	0.00000000	-28.93085000	-15.74188000
54.29999695	0.00000000	-25.85507000	-12.72146000
54.49999694	0.00000000	-20.55241000	-10.40231000
54.69999693	0.00000000	-15.15748000	-9.65182000
54.89999692	0.00000000	-11.29429000	-10.35310000
55.09999691	0.00000000	-9.38730200	-12.25394000
55.29999689	0.00000000	-10.54995000	-14.11786000
55.49999688	0.00000000	-14.32087000	-15.27436000
55.69999687	0.00000000	-18.87918000	-15.23130000
55.89999686	0.00000000	-22.78543000	-13.74262000
56.09999685	0.00000000	-25.11688000	-11.51575000
56.29999683	0.00000000	-25.90428000	-9.93479300
56.49999682	0.00000000	-24.69857000	-9.19045200
56.69999681	0.00000000	-21.66585000	-9.23966500
56.89999680	0.00000000	-17.85802000	-11.18356000
57.09999679	0.00000000	-14.73917000	-14.25320000
57.29999677	0.00000000	-12.78297000	-17.74114000
57.49999676	0.00000000	-12.03863000	-21.13066000
57.69999675	0.00000000	-13.20128000	-22.57628000
57.89999674	0.00000000	-15.85261000	-21.03838000
58.09999673	0.00000000	-18.92839000	-16.81225000
58.29999672	0.00000000	-21.62278000	-11.04823000
58.49999670	0.00000000	-23.16068000	-5.29035400
58.69999669	0.00000000	-23.16068000	-1.06422200
58.89999668	0.00000000	-21.66585000	0.46751960
59.09999667	0.00000000	-19.38976000	-1.10728300
59.29999666	0.00000000	-17.43356000	-5.75172200
59.49999664	0.00000000	-15.90182000	-12.67840000
59.69999663	0.00000000	-15.15748000	-19.97416000
59.89999662	0.00000000	-15.90182000	-25.73203000
60.09999661	0.00000000	-17.39050000	-28.42643000
60.29999660	0.00000000	-18.92839000	-27.26993000
60.49999658	0.00000000	-20.08489000	-22.61934000
60.69999657	0.00000000	-20.50935000	-15.27436000
60.89999656	0.00000000	-20.50935000	-6.82209600
61.09999655	0.00000000	-20.04183000	0.42445860
61.29999654	0.00000000	-18.50394000	4.27534400
61.49999653	0.00000000	-16.27707000	3.53715500
61.69999651	0.00000000	-14.78223000	-1.06422200
61.89999650	0.00000000	-14.73917000	-8.44611200
62.09999649	0.00000000	-15.90182000	-17.27362000
62.29999648	0.00000000	-17.80881000	-25.31373000
62.49999647	0.00000000	-20.13410000	-29.95817000
62.69999645	0.00000000	-22.04109000	-30.42569000
62.89999644	0.00000000	-23.24680000	-27.31299000
63.09999643	0.00000000	-23.57899000	-21.13066000
63.29999642	0.00000000	-22.78543000	-13.04749000
63.49999641	0.00000000	-20.46014000	-5.33341500
63.69999639	0.00000000	-17.43356000	0.46751960
63.89999638	0.00000000	-14.73917000	3.16190900
64.09999637	0.00000000	-13.20128000	2.00541300
64.29999636	0.00000000	-13.15822000	-2.59596400
64.49999635	0.00000000	-14.32087000	-9.51648500
64.69999634	0.00000000	-16.27707000	-16.81225000
64.89999632	0.00000000	-18.97145000	-22.66240000
65.09999631	0.00000000	-21.66585000	-26.15034000
65.29999630	0.00000000	-23.57899000	-26.98080000
65.49999629	0.00000000	-24.36639000	-25.08612000
65.69999628	0.00000000	-23.57899000	-21.59203000
65.89999626	0.00000000	-21.66585000	-16.89837000
66.09999625	0.00000000	-18.97145000	-11.55881000
66.29999624	0.00000000	-16.36319000	-7.28346400
66.49999623	0.00000000	-15.15748000	-4.87204700
66.69999622	0.00000000	-15.52657000	-3.66633800
66.89999620	0.00000000	-16.64616000	-3.70939900
67.09999619	0.00000000	-18.59621000	-5.24729300
67.29999618	0.00000000	-20.46014000	-7.93553100
67.49999617	0.00000000	-21.62278000	-11.09744000
67.69999616	0.00000000	-21.57972000	-14.62844000
67.89999615	0.00000000	-20.08489000	-18.47933000
68.09999613	0.00000000	-17.80881000	-21.54897000
68.29999612	0.00000000	-15.90182000	-23.12992000
68.49999611	0.00000000	-14.73917000	-23.17298000
68.69999610	0.00000000	-14.73917000	-21.96727000
68.89999609	0.00000000	-15.94488000	-19.59892000
69.09999607	0.00000000	-18.27633000	-15.69882000
69.29999606	0.00000000	-21.75812000	-11.04823000
69.49999605	0.00000000	-25.15994000	-6.40378900
69.69999604	0.00000000	-27.43602000	-2.59596400
69.89999603	0.00000000	-27.43602000	-1.05807100
70.09999601	0.00000000	-25.15994000	-2.22071800
70.29999600	0.00000000	-21.66585000	-5.70866100
70.49999599	0.00000000	-17.34744000	-11.09744000
70.69999598	0.00000000	-12.78297000	-16.85531000
70.89999597	0.00000000	-9.34424200	-21.54897000
71.09999596	0.00000000	-8.59375000	-24.61860000
71.29999594	0.00000000	-10.45768000	-25.40600000
71.49999593	0.00000000	-14.36393000	-23.50517000
71.69999592	0.00000000	-19.38976000	-20.01722000
71.89999591	0.00000000	-24.78469000	-15.36663000
72.09999590	0.00000000	-29.01698000	-10.40231000
72.29999588	0.00000000	-30.97318000	-6.91437000
72.49999587	0.00000000	-30.59793000	-5.33341500
72.69999586	0.00000000	-27.86048000	-5.70866100
72.89999585	0.00000000	-23.24680000	-7.98474400
73.09999584	0.00000000	-17.85802000	-11.04823000
73.29999582	0.00000000	-13.20128000	-14.11786000
73.49999581	0.00000000	-10.08243000	-16.43701000
73.69999580	0.00000000	-8.96899500	-17.23056000
73.89999579	0.00000000	-10.50689000	-16.89837000
74.09999578	0.00000000	-14.32087000	-15.74188000
74.29999577	0.00000000	-18.92839000	-14.25320000
74.49999575	0.00000000	-23.20374000	-13.13976000
74.69999574	0.00000000	-26.27953000	-13.13976000
74.89999573	0.00000000	-27.43602000	-14.25320000
75.09999572	0.00000000	-26.36565000	-15.78494000
75.29999571	0.00000000	-24.08957000	-17.27362000
75.49999569	0.00000000	-21.71506000	-17.97490000
75.69999568	0.00000000	-18.97145000	-16.81225000
75.89999567	0.00000000	-16.36319000	-14.16092000
76.09999566	0.00000000	-15.15748000	-11.04823000
76.29999565	0.00000000	-15.47736000	-7.93553100
76.49999563	0.00000000	-16.22785000	-5.29035400
76.69999562	0.00000000	-17.39050000	-4.21998000
76.89999561	0.00000000	-18.55315000	-5.75172200
77.09999560	0.00000000	-19.34670000	-9.60875900
77.29999559	0.00000000	-20.08489000	-14.58538000
77.49999558	0.00000000	-20.08489000	-19.64198000
77.69999556	0.00000000	-19.38976000	-23.50517000
77.89999555	0.00000000	-19.06373000	-25.77510000
78.09999554	0.00000000	-19.43897000	-25.35679000
78.29999553	0.00000000	-20.55241000	-21.88115000
78.49999552	0.00000000	-21.66585000	-16.52928000
78.69999550	0.00000000	-22.09030000	-10.35310000
78.89999549	0.00000000	-22.09030000	-5.33341500
79.09999548	0.00000000	-21.66585000	-2.17765700
79.29999547	0.00000000	-20.46014000	-1.05807100
79.49999546	0.00000000	-18.55315000	-2.59596400
79.69999544	0.00000000	-16.27707000	-6.44685000
79.89999543	0.00000000	-14.73917000	-11.46653000
80.09999542	0.00000000	-14.32087000	-16.89837000
80.29999541	0.00000000	-14.73917000	-21.50590000
80.49999540	0.00000000	-16.32013000	-24.24335000
80.69999539	0.00000000	-19.01451000	-24.66781000
80.89999537	0.00000000	-22.04109000	-23.12992000
81.09999536	0.00000000	-24.36639000	-20.01722000
81.29999535	0.00000000	-25.15994000	-15.78494000
81.49999534	0.00000000	-24.82775000	-11.51575000
81.69999533	0.00000000	-23.57899000	-7.98474400
81.89999531	0.00000000	-21.29675000	-5.29035400
82.09999530	0.00000000	-18.22711000	-4.12770700
82.29999529	0.00000000	-15.94488000	-4.87204700
82.49999528	0.00000000	-14.73917000	-6.77903500
82.69999527	0.00000000	-14.78223000	-9.55954600
82.89999525	0.00000000	-16.27707000	-13.04749000
83.09999524	0.00000000	-18.50394000	-16.94759000
83.29999523	0.00000000	-20.08489000	-20.39247000
83.49999522	0.00000000	-20.97072000	-22.75467000
83.69999521	0.00000000	-22.09030000	-23.50517000
83.89999520	0.00000000	-22.82849000	-22.75467000
84.09999518	0.00000000	-22.50861000	-20.39247000
84.29999517	0.00000000	-22.13336000	-16.90453000
84.49999516	0.00000000	-21.71506000	-12.58612000
84.69999515	0.00000000	-20.97072000	-8.02780400
84.89999514	0.00000000	-20.59547000	-4.54601300
85.09999512	0.00000000	-20.55241000	-3.37721400
85.29999511	0.00000000	-20.50935000	-4.12770700
85.49999510	0.00000000	-20.13410000	-6.86515700
85.69999509	0.00000000	-19.34670000	-11.09129000
85.89999508	0.00000000	-18.59621000	-15.78494000
86.09999506	0.00000000	-17.80881000	-20.43553000
86.29999505	0.00000000	-17.52584000	-24.24335000
86.49999504	0.00000000	-18.22711000	-25.73203000
86.69999503	0.00000000	-19.75886000	-24.24335000
86.89999502	0.00000000	-20.92766000	-20.43553000
87.09999501	0.00000000	-22.17643000	-15.78494000
87.29999499	0.00000000	-23.62205000	-11.09129000
87.49999498	0.00000000	-24.36639000	-6.86515700
87.69999497	0.00000000	-23.62205000	-4.21998000
87.89999496	0.00000000	-22.13336000	-4.21998000
88.09999495	0.00000000	-20.55241000	-6.86515700
88.29999493	0.00000000	-18.97145000	-11.09129000
88.49999492	0.00000000	-17.43356000	-15.74188000
88.69999491	0.00000000	-16.32013000	-19.97416000
88.89999490	0.00000000	-16.32013000	-22.66855000
89.09999489	0.00000000	-17.48277000	-23.03765000
89.29999487	0.00000000	-19.38976000	-21.13066000
89.49999486	0.00000000	-21.71506000	-17.27362000
89.69999485	0.00000000	-23.57899000	-12.67224000
89.89999484	0.00000000	-24.40945000	-8.44611200
90.09999483	0.00000000	-24.04650000	-5.75172200
90.29999482	0.00000000	-23.24680000	-5.37647600
90.49999480	0.00000000	-21.71506000	-7.28346400
90.69999479	0.00000000	-19.85728000	-11.14050000
90.89999478	0.00000000	-19.01451000	-15.69882000
91.09999477	0.00000000	-18.59621000	-19.54970000
91.29999476	0.00000000	-18.22711000	-21.50590000
91.49999474	0.00000000	-18.63927000	-21.50590000
91.69999473	0.00000000	-19.34670000	-19.54970000
91.89999472	0.00000000	-20.13410000	-15.69882000
92.09999471	0.00000000	-20.50935000	-11.14050000
92.29999470	0.00000000	-20.55241000	-7.28346400
92.49999468	0.00000000	-20.55241000	-5.37647600
92.69999467	0.00000000	-20.55241000	-5.75172200
92.89999466	0.00000000	-20.59547000	-8.44611200
93.09999465	0.00000000	-20.97072000	-12.67224000
93.29999464	0.00000000	-21.75812000	-17.27362000
93.49999463	0.00000000	-22.46555000	-21.03838000
93.69999461	0.00000000	-22.87770000	-22.20103000
93.89999460	0.00000000	-22.46555000	-20.34941000
94.09999459	0.00000000	-21.71506000	-16.90453000
94.29999458	0.00000000	-20.46014000	-12.67224000
94.49999457	0.00000000	-18.55315000	-8.86441900
94.69999455	0.00000000	-16.32013000	-6.90821800
94.89999454	0.00000000	-15.15748000	-6.86515700
95.09999453	0.00000000	-15.52657000	-8.44611200
95.29999452	0.00000000	-16.69537000	-11.55881000
95.49999451	0.00000000	-19.06373000	-15.74188000
95.69999449	0.00000000	-22.13336000	-19.54970000
95.89999448	0.00000000	-25.20300000	-21.46284000
96.09999447	0.00000000	-27.52830000	-21.13066000
96.29999446	0.00000000	-28.27879000	-18.85458000
96.49999445	0.00000000	-27.52830000	-15.78494000
96.69999444	0.00000000	-25.15994000	-12.67224000
96.89999442	0.00000000	-21.71506000	-9.98400600
97.09999441	0.00000000	-17.80881000	-8.44611200
97.29999440	0.00000000	-14.36393000	-8.48917200
97.49999439	0.00000000	-12.03863000	-10.40231000
97.69999438	0.00000000	-11.66339000	-13.79183000
97.89999436	0.00000000	-13.20128000	-16.81225000
98.09999435	0.00000000	-16.32013000	-18.43627000
98.29999434	0.00000000	-20.55241000	-18.85458000
98.49999433	0.00000000	-24.78469000	-18.47933000
98.69999432	0.00000000	-27.90354000	-17.27362000
98.89999430	0.00000000	-29.48450000	-15.40969000
99.09999429	0.00000000	-29.48450000	-13.50886000
99.29999428	0.00000000	-27.90354000	-12.72146000
99.49999427	0.00000000	-24.78469000	-12.62918000
99.69999426	0.00000000	-20.59547000	-12.67224000
99.89999425	0.00000000	-16.73843000	-13.04749000
100.09999423	0.00000000	-14.36393000	-13.79183000
100.29999422	0.00000000	-13.15822000	-14.11786000
100.49999421	0.00000000	-13.24434000	-13.79183000
100.69999420	0.00000000	-15.15748000	-13.04749000
100.89999419	0.00000000	-18.59621000	-12.72146000
101.09999417	0.00000000	-22.04109000	-13.13976000
101.29999416	0.00000000	-24.82775000	-14.62844000
101.49999415	0.00000000	-26.78395000	-16.48622000
101.69999414	0.00000000	-27.94660000	-17.32283000
101.89999413	0.00000000	-27.94660000	-17.78420000
102.09999411	0.00000000	-26.78395000	-18.47933000
102.29999410	0.00000000	-24.82775000	-18.39321000
102.49999409	0.00000000	-22.13336000	-16.85531000
102.69999408	0.00000000	-19.43897000	-14.21014000
102.89999407	0.00000000	-17.48277000	-11.55881000
103.09999406	0.00000000	-16.32013000	-9.98400600
103.29999404	0.00000000	-16.36319000	-9.60875900
103.49999403	0.00000000	-17.85802000	-10.35310000
103.69999402	0.00000000	-20.13410000	-12.30315000
103.89999401	0.00000000	-22.09030000	-14.62844000
104.09999400	0.00000000	-23.67126000	-17.32283000
104.29999398	0.00000000	-24.82775000	-19.59892000
104.49999397	0.00000000	-25.20300000	-20.34941000
104.69999396	0.00000000	-24.82775000	-19.59892000
104.89999395	0.00000000	-23.67126000	-17.32283000
105.09999394	0.00000000	-22.13336000	-14.62844000
105.29999392	0.00000000	-20.59547000	-12.30315000
105.49999391	0.00000000	-19.43897000	-10.35310000
105.69999390	0.00000000	-19.06373000	-9.60875900
105.89999389	0.00000000	-19.38976000	-9.98400600
106.09999388	0.00000000	-20.17716000	-11.51575000
106.29999387	0.00000000	-20.97072000	-13.79183000
106.49999385	0.00000000	-22.13336000	-15.69882000
106.69999384	0.00000000	-23.20374000	-16.89837000
106.89999383	0.00000000	-23.24680000	-17.27362000
107.09999382	0.00000000	-22.46555000	-16.85531000
107.29999381	0.00000000	-21.33981000	-15.32357000
107.49999379	0.00000000	-19.80807000	-13.04749000
107.69999378	0.00000000	-19.06373000	-11.18356000
107.89999377	0.00000000	-19.01451000	-10.40231000
108.09999376	0.00000000	-19.43897000	-11.14050000
108.29999375	0.00000000	-20.59547000	-12.62918000
108.49999374	0.00000000	-22.09030000	-14.21014000
108.69999372	0.00000000	-23.24680000	-15.74188000
108.89999371	0.00000000	-23.67126000	-16.89837000
109.09999370	0.00000000	-23.67126000	-17.27362000
109.29999369	0.00000000	-23.29601000	-16.89837000
109.49999368	0.00000000	-22.46555000	-15.69882000
109.69999366	0.00000000	-21.33981000	-13.79183000
109.89999365	0.00000000	-19.80807000	-11.51575000
110.09999364	0.00000000	-19.06373000	-10.02707000
110.29999363	0.00000000	-19.01451000	-9.93479300
110.49999362	0.00000000	-19.43897000	-10.67298000
110.69999360	0.00000000	-20.59547000	-11.51575000
110.89999359	0.00000000	-22.09030000	-13.09055000
111.09999358	0.00000000	-23.24680000	-15.36663000
111.29999357	0.00000000	-23.67126000	-17.23056000
111.49999356	0.00000000	-23.67126000	-18.06102000
111.69999355	0.00000000	-23.29601000	-17.69808000
111.89999353	0.00000000	-22.50861000	-16.94759000
112.09999352	0.00000000	-21.75812000	-15.74188000
112.29999351	0.00000000	-20.97072000	-14.25320000
112.49999350	0.00000000	-20.59547000	-13.09670000
112.69999349	0.00000000	-20.55241000	-12.67224000
112.89999347	0.00000000	-20.59547000	-12.67224000
113.09999346	0.00000000	-20.97072000	-13.04749000
113.29999345	0.00000000	-21.71506000	-13.79183000
113.49999344	0.00000000	-22.09030000	-14.21014000
113.69999343	0.00000000	-22.17643000	-14.62844000
113.89999341	0.00000000	-22.55167000	-15.36663000
114.09999340	0.00000000	-23.24680000	-15.74188000
114.29999339	0.00000000	-23.24680000	-15.78494000
114.49999338	0.00000000	-22.55167000	-15.78494000
114.69999337	0.00000000	-22.17643000	-15.78494000
114.89999336	0.00000000	-22.09030000	-15.78494000
115.09999334	0.00000000	-21.71506000	-15.78494000
115.29999333	0.00000000	-21.01993000	-15.78494000
115.49999332	0.00000000	-21.01993000	-15.78494000
115.69999331	0.00000000	-21.71506000	-15.74188000
115.89999330	0.00000000	-22.09030000	-15.36663000
116.09999328	0.00000000	-22.17643000	-14.62844000
116.29999327	0.00000000	-22.55167000	-14.21014000
116.49999326	0.00000000	-23.24680000	-13.79183000
116.69999325	0.00000000	-23.29601000	-13.09670000
116.89999324	0.00000000	-22.96998000	-13.09670000
117.09999322	0.00000000	-23.29601000	-13.83489000
117.29999321	0.00000000	-23.20374000	-14.58538000
117.49999320	0.00000000	-22.13336000	-15.36663000
117.69999319	0.00000000	-20.97072000	-15.78494000
117.89999318	0.00000000	-20.22022000	-16.16018000
118.09999317	0.00000000	-19.80807000	-16.52928000
118.29999315	0.00000000	-20.22022000	-16.16018000
118.49999314	0.00000000	-20.97072000	-15.82800000
118.69999313	0.00000000	-22.13336000	-15.74188000
118.89999312	0.00000000	-23.29601000	-15.36663000
119.09999311	0.00000000	-24.08957000	-14.62844000
119.29999309	0.00000000	-24.87697000	-14.21014000
119.49999308	0.00000000	-25.20300000	-13.83489000
119.69999307	0.00000000	-24.87697000	-13.42274000
119.89999306	0.00000000	-24.08957000	-13.45964000
120.09999305	0.00000000	-23.29601000	-13.42274000
120.29999303	0.00000000	-22.09030000	-13.83489000
120.49999302	0.00000000	-20.59547000	-14.21014000
120.69999301	0.00000000	-19.43897000	-14.62844000
120.89999300	0.00000000	-19.06373000	-15.36663000
121.09999299	0.00000000	-19.43897000	-15.74188000
121.29999298	0.00000000	-20.59547000	-15.78494000
121.49999296	0.00000000	-22.09030000	-15.78494000
121.69999295	0.00000000	-23.29601000	-15.78494000
121.89999294	0.00000000	-24.08957000	-15.78494000
122.09999293	0.00000000	-24.87697000	-15.74188000
122.29999292	0.00000000	-25.20300000	-15.32357000
122.49999290	0.00000000	-24.87697000	-14.21014000
122.69999289	0.00000000	-24.08957000	-13.09670000
122.89999288	0.00000000	-23.29601000	-12.67224000
123.09999287	0.00000000	-22.13336000	-12.62918000
123.29999286	0.00000000	-21.01993000	-12.67224000
123.49999284	0.00000000	-20.59547000	-13.04749000
123.69999283	0.00000000	-20.55241000	-13.83489000
123.89999282	0.00000000	-20.59547000	-14.58538000
124.09999281	0.00000000	-20.97072000	-15.36663000
124.29999280	0.00000000	-21.71506000	-15.74188000
124.49999279	0.00000000	-22.13336000	-15.78494000
124.69999277	0.00000000	-22.55167000	-15.78494000
124.89999276	0.00000000	-23.33907000	-15.74188000
125.09999275	0.00000000	-24.04650000	-15.36663000
125.29999274	0.00000000	-24.45866000	-14.62844000
125.49999273	0.00000000	-24.08957000	-14.21014000
125.69999271	0.00000000	-23.71432000	-13.83489000
125.89999270	0.00000000	-23.29601000	-13.46580000
126.09999269	0.00000000	-22.50861000	-13.83489000
126.29999268	0.00000000	-21.75812000	-14.16708000
126.49999267	0.00000000	-20.97072000	-14.21014000
126.69999265	0.00000000	-20.59547000	-14.25320000
126.89999264	0.00000000	-20.59547000	-14.62844000
127.09999263	0.00000000	-20.97072000	-15.36663000
127.29999262	0.00000000	-21.75812000	-15.74188000
127.49999261	0.00000000	-22.55167000	-15.78494000
127.69999260	0.00000000	-23.71432000	-15.78494000
127.89999258	0.00000000	-24.82775000	-15.78494000
128.09999257	0.00000000	-25.20300000	-15.74188000
128.29999256	0.00000000	-24.87697000	-15.36663000
128.49999255	0.00000000	-24.08957000	-14.62844000
128.69999254	0.00000000	-23.29601000	-14.25320000
128.89999252	0.00000000	-22.13336000	-14.21014000
129.09999251	0.00000000	-21.01993000	-14.21014000
129.29999250	0.00000000	-20.64468000	-14.25320000
129.49999249	0.00000000	-20.97072000	-14.62844000
129.69999248	0.00000000	-21.75812000	-15.36663000
129.89999246	0.00000000	-22.55167000	-15.74188000
130.09999245	0.00000000	-23.71432000	-15.78494000
130.29999244	0.00000000	-24.82775000	-15.78494000
130.49999243	0.00000000	-25.20300000	-15.74188000
130.69999242	0.00000000	-24.87697000	-15.36663000
130.89999241	0.00000000	-24.08957000	-14.58538000
131.09999239	0.00000000	-23.33907000	-13.87795000
131.29999238	0.00000000	-22.50861000	-13.46580000
131.49999237	0.00000000	-21.80118000	-13.87795000
131.69999236	0.00000000	-21.38902000	-14.58538000
131.89999235	0.00000000	-21.75812000	-15.40969000
132.09999233	0.00000000	-22.13336000	-16.16018000
132.29999232	0.00000000	-22.55167000	-16.94759000
132.49999231	0.00000000	-23.29601000	-17.27362000
132.69999230	0.00000000	-23.67126000	-16.94759000
132.89999229	0.00000000	-23.71432000	-16.20325000
133.09999227	0.00000000	-23.71432000	-15.78494000
133.29999226	0.00000000	-23.71432000	-15.36663000
133.49999225	0.00000000	-23.71432000	-14.58538000
133.69999224	0.00000000	-23.71432000	-13.83489000
133.89999223	0.00000000	-23.71432000	-13.09670000
134.09999222	0.00000000	-23.71432000	-13.13976000
134.29999220	0.00000000	-23.71432000	-14.21014000
134.49999219	0.00000000	-23.71432000	-15.36663000
134.69999218	0.00000000	-23.71432000	-16.16018000
134.89999217	0.00000000	-23.71432000	-16.94759000
135.09999216	0.00000000	-23.67126000	-17.32283000
135.29999214	0.00000000	-23.33907000	-17.36589000
135.49999213	0.00000000	-22.92692000	-17.32283000
135.69999212	0.00000000	-22.92076000	-16.89837000
135.89999211	0.00000000	-22.55167000	-15.78494000
136.09999210	0.00000000	-22.60088000	-14.67150000
136.29999208	0.00000000	-23.33907000	-14.25320000
136.49999207	0.00000000	-24.08957000	-14.21014000
136.69999206	0.00000000	-24.87697000	-14.21014000
136.89999205	0.00000000	-25.20300000	-14.21014000
137.09999204	0.00000000	-24.87697000	-14.25320000
137.29999203	0.00000000	-24.08957000	-14.62844000
137.49999201	0.00000000	-23.33907000	-15.36663000
137.69999200	0.00000000	-22.55167000	-15.74188000
137.89999199	0.00000000	-22.17643000	-15.78494000
138.09999198	0.00000000	-22.13336000	-15.82800000
138.29999197	0.00000000	-22.13336000	-16.16018000
138.49999195	0.00000000	-22.17643000	-16.52928000
138.69999194	0.00000000	-22.55167000	-16.11712000
138.89999193	0.00000000	-23.33907000	-15.40969000
139.09999192	0.00000000	-24.08957000	-14.58538000
139.29999191	0.00000000	-24.82775000	-13.83489000
139.49999189	0.00000000	-24.82775000	-13.04749000
139.69999188	0.00000000	-24.13263000	-12.67224000
139.89999187	0.00000000	-23.71432000	-12.67224000
140.09999186	0.00000000	-23.29601000	-13.04749000
140.29999185	0.00000000	-22.55167000	-13.83489000
140.49999184	0.00000000	-22.17643000	-14.58538000
140.69999182	0.00000000	-22.13336000	-15.40969000
140.89999181	0.00000000	-22.17643000	-16.16018000
141.09999180	0.00000000	-22.55167000	-16.94759000
141.29999179	0.00000000	-23.29601000	-17.27362000
141.49999178	0.00000000	-23.67126000	-16.94759000
141.69999176	0.00000000	-23.71432000	-16.16018000
141.89999175	0.00000000	-23.71432000	-15.36663000
142.09999174	0.00000000	-23.71432000	-14.21014000
142.29999173	0.00000000	-23.71432000	-13.09670000
142.49999172	0.00000000	-23.71432000	-12.67224000
142.69999170	0.00000000	-23.71432000	-12.67224000
142.89999169	0.00000000	-23.71432000	-13.09670000
143.09999168	0.00000000	-23.71432000	-14.21014000
143.29999167	0.00000000	-23.75738000	-15.36663000
143.49999166	0.00000000	-24.08957000	-16.16018000
143.69999165	0.00000000	-24.45866000	-16.94759000
143.89999163	0.00000000	-24.08957000	-17.32283000
144.09999162	0.00000000	-23.75738000	-17.32283000
144.29999161	0.00000000	-23.71432000	-16.89837000
144.49999160	0.00000000	-23.71432000	-15.78494000
144.69999159	0.00000000	-23.71432000	-14.67150000
144.89999157	0.00000000	-23.71432000	-14.25320000
145.09999156	0.00000000	-23.71432000	-14.21014000
145.29999155	0.00000000	-23.71432000	-14.25320000
145.49999154	0.00000000	-23.71432000	-14.62844000
145.69999153	0.00000000	-23.75738000	-15.36663000
145.89999151	0.00000000	-24.13263000	-15.74188000
146.09999150	0.00000000	-24.87697000	-15.78494000
146.29999149	0.00000000	-25.25221000	-15.82800000
146.49999148	0.00000000	-25.25221000	-16.20325000
146.69999147	0.00000000	-24.87697000	-16.94759000
146.89999146	0.00000000	-24.13263000	-17.27362000
147.09999144	0.00000000	-23.75738000	-16.94759000
147.29999143	0.00000000	-23.71432000	-16.20325000
147.49999142	0.00000000	-23.71432000	-15.82800000
147.69999141	0.00000000	-23.71432000	-15.74188000
147.89999140	0.00000000	-23.75738000	-15.40969000
148.09999138	0.00000000	-24.13263000	-15.04675000
148.29999137	0.00000000	-24.82775000	-15.40969000
148.49999136	0.00000000	-24.87697000	-15.74188000
148.69999135	0.00000000	-24.55093000	-15.78494000
148.89999134	0.00000000	-24.87697000	-15.78494000
149.09999132	0.00000000	-24.82775000	-15.78494000
149.29999131	0.00000000	-24.13263000	-15.78494000
149.49999130	0.00000000	-23.75738000	-15.78494000
149.69999129	0.00000000	-23.71432000	-15.78494000
149.89999128	0.00000000	-23.71432000	-15.78494000
150.09999127	0.00000000	-23.71432000	-15.78494000
150.29999125	0.00000000	-23.71432000	-15.78494000
150.49999124	0.00000000	-23.75738000	-15.78494000
150.69999123	0.00000000	-24.13263000	-15.78494000
150.89999122	0.00000000	-24.87697000	-15.78494000
151.09999121	0.00000000	-25.25221000	-15.78494000
151.29999119	0.00000000	-25.29527000	-15.78494000
151.49999118	0.00000000	-25.29527000	-15.78494000
151.69999117	0.00000000	-25.29527000	-15.78494000
151.89999116	0.00000000	-25.29527000	-15.78494000
152.09999115	0.00000000	-25.25221000	-15.78494000
152.29999113	0.00000000	-24.87697000	-15.78494000
152.49999112	0.00000000	-24.13263000	-15.78494000
152.69999111	0.00000000	-23.75738000	-15.78494000
152.89999110	0.00000000	-23.71432000	-15.78494000
153.09999109	0.00000000	-23.71432000	-15.74188000
153.29999108	0.00000000	-23.71432000	-15.36663000
153.49999106	0.00000000	-23.71432000	-14.62844000
153.69999105	0.00000000	-23.75738000	-14.25320000
153.89999104	0.00000000	-24.13263000	-14.21014000
154.09999103	0.00000000	-24.87697000	-14.21014000
154.29999102	0.00000000	-25.25221000	-14.21014000
154.49999100	0.00000000	-25.29527000	-14.21014000
154.69999099	0.00000000	-25.29527000	-14.21014000
154.89999098	0.00000000	-25.25221000	-14.21014000
155.09999097	0.00000000	-24.87697000	-14.25320000
155.29999096	0.00000000	-24.13263000	-14.62844000
155.49999094	0.00000000	-23.71432000	-15.36663000
155.69999093	0.00000000	-23.33907000	-15.74188000
155.89999092	0.00000000	-22.96998000	-15.78494000
156.09999091	0.00000000	-23.33907000	-15.74188000
156.29999090	0.00000000	-23.67126000	-15.36663000
156.49999089	0.00000000	-23.71432000	-14.62844000
156.69999087	0.00000000	-23.75738000	-14.25320000
156.89999086	0.00000000	-24.13263000	-14.21014000
157.09999085	0.00000000	-24.87697000	-14.21014000
157.29999084	0.00000000	-25.25221000	-14.21014000
157.49999083	0.00000000	-25.29527000	-14.21014000
157.69999081	0.00000000	-25.29527000	-14.25320000
157.89999080	0.00000000	-25.25221000	-14.62844000
158.09999079	0.00000000	-24.87697000	-15.36663000
158.29999078	0.00000000	-24.13263000	-15.74188000
158.49999077	0.00000000	-23.75738000	-15.82800000
158.69999075	0.00000000	-23.71432000	-16.16018000
158.89999074	0.00000000	-23.71432000	-16.57234000
159.09999073	0.00000000	-23.71432000	-16.53543000
159.29999072	0.00000000	-23.71432000	-16.57234000
159.49999071	0.00000000	-23.75738000	-16.16018000
159.69999070	0.00000000	-24.13263000	-15.78494000
159.89999068	0.00000000	-24.87697000	-15.40969000
160.09999067	0.00000000	-25.25221000	-15.00369000
160.29999066	0.00000000	-25.29527000	-15.04060000
160.49999065	0.00000000	-25.29527000	-15.00369000
160.69999064	0.00000000	-25.29527000	-15.40969000
160.89999062	0.00000000	-25.29527000	-15.78494000
161.09999061	0.00000000	-25.29527000	-16.20325000
161.29999060	0.00000000	-25.29527000	-16.94759000
161.49999059	0.00000000	-25.29527000	-17.32283000
161.69999058	0.00000000	-25.29527000	-17.36589000
161.89999056	0.00000000	-25.25221000	-17.36589000
162.09999055	0.00000000	-24.92003000	-17.32283000
162.29999054	0.00000000	-24.55093000	-16.94759000
162.49999053	0.00000000	-24.87697000	-16.20325000
162.69999052	0.00000000	-24.87697000	-15.82800000
162.89999051	0.00000000	-24.55093000	-15.78494000
163.09999049	0.00000000	-24.92003000	-15.78494000
163.29999048	0.00000000	-25.29527000	-15.78494000
163.49999047	0.00000000	-25.71358000	-15.78494000
163.69999046	0.00000000	-26.40871000	-15.78494000
163.89999045	0.00000000	-26.40871000	-15.78494000
164.09999043	0.00000000	-25.71358000	-15.82800000
164.29999042	0.00000000	-25.33834000	-16.20325000
164.49999041	0.00000000	-25.29527000	-16.89837000
164.69999040	0.00000000	-25.29527000	-16.89837000
164.89999039	0.00000000	-25.25221000	-16.25246000
165.09999037	0.00000000	-24.87697000	-16.20325000
165.29999036	0.00000000	-24.18184000	-16.52928000
165.49999035	0.00000000	-24.18184000	-16.16018000
165.69999034	0.00000000	-24.87697000	-15.82800000
165.89999033	0.00000000	-25.25221000	-15.78494000
166.09999032	0.00000000	-25.29527000	-15.78494000
166.29999030	0.00000000	-25.29527000	-15.78494000
166.49999029	0.00000000	-25.29527000	-15.78494000
166.69999028	0.00000000	-25.29527000	-15.78494000
166.89999027	0.00000000	-25.29527000	-15.78494000
167.09999026	0.00000000	-25.29527000	-15.78494000
167.29999024	0.00000000	-25.29527000	-15.78494000
167.49999023	0.00000000	-25.29527000	-15.78494000
167.69999022	0.00000000	-25.29527000	-15.78494000
167.89999021	0.00000000	-25.29527000	-15.78494000
168.09999020	0.00000000	-25.25221000	-15.78494000
168.29999018	0.00000000	-24.87697000	-15.78494000
168.49999017	0.00000000	-24.13263000	-15.78494000
168.69999016	0.00000000	-23.80659000	-15.78494000
168.89999015	0.00000000	-24.13263000	-15.78494000
169.09999014	0.00000000	-24.87697000	-15.78494000
169.29999013	0.00000000	-25.25221000	-15.78494000
169.49999011	0.00000000	-25.29527000	-15.78494000
169.69999010	0.00000000	-25.29527000	-15.78494000
169.89999009	0.00000000	-25.29527000	-15.78494000
170.09999008	0.00000000	-25.29527000	-15.78494000
170.29999007	0.00000000	-25.29527000	-15.78494000
170.49999005	0.00000000	-25.29527000	-15.78494000
170.69999004	0.00000000	-25.29527000	-15.78494000
170.89999003	0.00000000	-25.29527000	-15.78494000
171.09999002	0.00000000	-25.29527000	-15.78494000
171.29999001	0.00000000	-25.29527000	-15.78494000
171.49998999	0.00000000	-25.29527000	-15.78494000
171.69998998	0.00000000	-25.29527000	-15.78494000
171.89998997	0.00000000	-25.29527000	-15.78494000
172.09998996	0.00000000	-25.29527000	-15.78494000
172.29998995	0.00000000	-25.29527000	-15.78494000
172.49998994	0.00000000	-25.29527000	-15.78494000
172.69998992	0.00000000	-25.29527000	-15.78494000
172.89998991	0.00000000	-25.29527000	-15.78494000
173.09998990	0.00000000	-25.29527000	-15.78494000
173.29998989	0.00000000	-25.29527000	-15.78494000
173.49998988	0.00000000	-25.29527000	-15.78494000
173.69998986	0.00000000	-25.29527000	-15.78494000
173.89998985	0.00000000	-25.29527000	-15.78494000
174.09998984	0.00000000	-25.29527000	-15.82800000
174.29998983	0.00000000	-25.33834000	-16.16018000
174.49998982	0.00000000	-25.67052000	-16.52928000
174.69998980	0.00000000	-26.03961000	-16.16018000
174.89998979	0.00000000	-25.67052000	-15.82800000
175.09998978	0.00000000	-25.38755000	-15.82800000
175.29998977	0.00000000	-25.71358000	-16.20325000
175.49998976	0.00000000	-26.40871000	-16.89837000
175.69998975	0.00000000	-26.40871000	-16.89837000
175.89998973	0.00000000	-25.76279000	-16.20325000
176.09998972	0.00000000	-25.71358000	-15.87721000
176.29998971	0.00000000	-26.03961000	-16.16018000
176.49998970	0.00000000	-25.67052000	-16.52928000
176.69998969	0.00000000	-25.33834000	-16.16018000
176.89998967	0.00000000	-25.29527000	-15.82800000
177.09998966	0.00000000	-25.29527000	-15.82800000
177.29998965	0.00000000	-25.33834000	-16.20325000
177.49998964	0.00000000	-25.71358000	-16.94759000
177.69998963	0.00000000	-26.45792000	-17.32283000
177.89998961	0.00000000	-26.83317000	-17.36589000
178.09998960	0.00000000	-26.87623000	-17.36589000
178.29998959	0.00000000	-26.87623000	-17.32283000
178.49998958	0.00000000	-26.87623000	-16.94759000
178.69998957	0.00000000	-26.87623000	-16.20325000
178.89998956	0.00000000	-26.87623000	-15.87721000
179.09998954	0.00000000	-26.83317000	-16.16018000
179.29998953	0.00000000	-26.45792000	-16.52928000
179.49998952	0.00000000	-25.71358000	-16.16018000
179.69998951	0.00000000	-25.33834000	-15.87721000
179.89998950	0.00000000	-25.29527000	-16.20325000
180.09998948	0.00000000	-25.29527000	-16.94759000
180.29998947	0.00000000	-25.33834000	-17.32283000
180.49998946	0.00000000	-25.71358000	-17.36589000
180.69998945	0.00000000	-26.45792000	-17.36589000
180.89998944	0.00000000	-26.83317000	-17.32283000
181.09998942	0.00000000	-26.87623000	-16.94759000
181.29998941	0.00000000	-26.87623000	-16.25246000
181.49998940	0.00000000	-26.83317000	-16.20325000
181.69998939	0.00000000	-26.45792000	-16.52928000
181.89998938	0.00000000	-25.71358000	-16.16018000
182.09998937	0.00000000	-25.33834000	-15.82800000
182.29998935	0.00000000	-25.29527000	-15.78494000
182.49998934	0.00000000	-25.29527000	-15.78494000
182.69998933	0.00000000	-25.29527000	-15.78494000
182.89998932	0.00000000	-25.29527000	-15.78494000
183.09998931	0.00000000	-25.29527000	-15.82800000
183.29998929	0.00000000	-25.29527000	-16.20325000
183.49998928	0.00000000	-25.33834000	-16.94759000
183.69998927	0.00000000	-25.71358000	-17.27362000
183.89998926	0.00000000	-26.45792000	-16.94759000
184.09998925	0.00000000	-26.83317000	-16.20325000
184.29998923	0.00000000	-26.87623000	-15.82800000
184.49998922	0.00000000	-26.87623000	-15.78494000
184.69998921	0.00000000	-26.87623000	-15.78494000
184.89998920	0.00000000	-26.87623000	-15.78494000
185.09998919	0.00000000	-26.87623000	-15.78494000
185.29998918	0.00000000	-26.83317000	-15.78494000
185.49998916	0.00000000	-26.50098000	-15.78494000
185.69998915	0.00000000	-26.08883000	-15.82800000
185.89998914	0.00000000	-26.08268000	-16.16018000
186.09998913	0.00000000	-25.67052000	-16.57234000
186.29998912	0.00000000	-25.38755000	-16.57849000
186.49998910	0.00000000	-25.71358000	-16.99065000
186.69998909	0.00000000	-26.45792000	-17.27362000
186.89998908	0.00000000	-26.83317000	-16.94759000
187.09998907	0.00000000	-26.87623000	-16.20325000
187.29998906	0.00000000	-26.87623000	-15.82800000
187.49998904	0.00000000	-26.87623000	-15.78494000
187.69998903	0.00000000	-26.87623000	-15.78494000
187.89998902	0.00000000	-26.87623000	-15.78494000
188.09998901	0.00000000	-26.87623000	-15.78494000
188.29998900	0.00000000	-26.87623000	-15.78494000
188.49998899	0.00000000	-26.87623000	-15.82800000
188.69998897	0.00000000	-26.83317000	-16.20325000
188.89998896	0.00000000	-26.50098000	-16.94759000
189.09998895	0.00000000	-26.13189000	-17.32283000
189.29998894	0.00000000	-26.50098000	-17.36589000
189.49998893	0.00000000	-26.83317000	-17.36589000
189.69998891	0.00000000	-26.87623000	-17.32283000
189.89998890	0.00000000	-26.87623000	-16.99065000
190.09998889	0.00000000	-26.87623000	-16.62155000
190.29998888	0.00000000	-26.87623000	-16.94759000
190.49998887	0.00000000	-26.87623000	-16.94759000
190.69998885	0.00000000	-26.87623000	-16.57849000
190.89998884	0.00000000	-26.87623000	-16.57234000
191.09998883	0.00000000	-26.87623000	-16.20325000
191.29998882	0.00000000	-26.87623000	-16.25246000
191.49998881	0.00000000	-26.87623000	-16.94759000
191.69998880	0.00000000	-26.87623000	-17.32283000
191.89998878	0.00000000	-26.87623000	-17.36589000
192.09998877	0.00000000	-26.87623000	-17.36589000
192.29998876	0.00000000	-26.87623000	-17.36589000
192.49998875	0.00000000	-26.87623000	-17.36589000
192.69998874	0.00000000	-26.87623000	-17.36589000
192.89998872	0.00000000	-26.87623000	-17.36589000
193.09998871	0.00000000	-26.91929000	-17.36589000
193.29998870	0.00000000	-27.25147000	-17.36589000
193.49998869	0.00000000	-27.62057000	-17.36589000
193.69998868	0.00000000	-27.29453000	-17.36589000
193.89998866	0.00000000	-27.29453000	-17.36589000
194.09998865	0.00000000	-27.62057000	-17.32283000
194.29998864	0.00000000	-27.25147000	-16.99065000
194.49998863	0.00000000	-26.91929000	-16.57849000
194.69998862	0.00000000	-26.87623000	-16.61540000
194.89998861	0.00000000	-26.87623000	-16.57849000
195.09998859	0.00000000	-26.87623000	-16.99065000
195.29998858	0.00000000	-26.87623000	-17.32283000
195.49998857	0.00000000	-26.87623000	-17.36589000
195.69998856	0.00000000	-26.87623000	-17.36589000
195.89998855	0.00000000	-26.87623000	-17.36589000
196.09998853	0.00000000	-26.91929000	-17.36589000
