Time	Channel A	Channel B	Channel C
(us)	(V)	(mV)	(mV)

-4.49999956	0.00000000	-26.87623000	-17.36589000
-4.29999957	0.00000000	-26.87623000	-17.36589000
-4.09999958	0.00000000	-26.87623000	-17.36589000
-3.89999959	0.00000000	-26.87623000	-17.36589000
-3.69999960	0.00000000	-26.91929000	-17.36589000
-3.49999962	0.00000000	-27.25147000	-17.36589000
-3.29999963	0.00000000	-27.62057000	-17.36589000
-3.09999964	0.00000000	-27.25147000	-17.36589000
-2.89999965	0.00000000	-26.91929000	-17.36589000
-2.69999966	0.00000000	-26.87623000	-17.36589000
-2.49999968	0.00000000	-26.87623000	-17.36589000
-2.29999969	0.00000000	-26.87623000	-17.36589000
-2.09999970	0.00000000	-26.87623000	-17.36589000
-1.89999971	0.00000000	-26.87623000	-17.36589000
-1.69999972	0.00000000	-26.87623000	-17.36589000
-1.49999973	0.00000000	-26.87623000	-17.32283000
-1.29999975	0.00000000	-26.87623000	-16.99065000
-1.09999976	0.00000000	-26.87623000	-16.62155000
-0.89999977	0.00000000	-26.87623000	-16.99065000
-0.69999978	0.00000000	-26.87623000	-17.32283000
-0.49999979	0.00000000	-26.87623000	-17.36589000
-0.29999981	0.15871060	-26.87623000	-17.36589000
-0.09999982	0.63668800	-26.87623000	-17.36589000
0.10000017	0.95533960	-26.87623000	-17.36589000
0.30000016	1.11466500	-26.87623000	-17.36589000
0.50000015	0.95533960	-26.87623000	-17.36589000
0.70000013	0.47736220	-26.87623000	-17.36589000
0.90000012	-0.31803640	-26.87623000	-17.36589000
1.10000011	-1.27399100	-26.87623000	-17.32283000
1.30000010	-2.22994600	-26.87623000	-16.94759000
1.50000009	-2.70792300	-26.87623000	-16.20325000
1.70000008	-2.54859700	-26.87623000	-15.82800000
1.90000006	-1.59264300	-26.87623000	-15.78494000
2.10000005	0.15871060	-26.87623000	-15.78494000
2.30000004	2.22994600	-26.87623000	-15.78494000
2.50000003	4.14124000	-26.87623000	-15.82800000
2.70000002	5.25652100	-26.87623000	-16.20325000
2.90000000	5.09719500	-26.87623000	-16.94759000
3.09999999	3.50393700	-26.91929000	-17.32283000
3.29999998	0.63668800	-27.25147000	-17.36589000
3.49999997	-2.86724900	-27.62057000	-17.32283000
3.69999996	-5.89382400	-27.25147000	-16.94759000
3.89999994	-7.80511800	-26.91929000	-16.20325000
4.09999993	-7.80511800	-26.87623000	-15.82800000
4.29999992	-5.73449800	-26.87623000	-15.78494000
4.49999991	-1.91129400	-26.87623000	-15.78494000
4.69999990	2.38927200	-26.87623000	-15.78494000
4.89999989	6.53112700	-26.87623000	-15.82800000
5.09999987	9.07972400	-26.87623000	-16.20325000
5.29999986	9.23905000	-26.91929000	-16.94759000
5.49999985	7.32714100	-27.25147000	-17.32283000
5.69999984	3.34522600	-27.62057000	-17.36589000
5.89999983	-1.27399100	-27.29453000	-17.36589000
6.09999981	-5.73449800	-27.29453000	-17.32283000
6.29999980	-8.76107300	-27.62057000	-16.94759000
6.49999979	-9.39837600	-27.25147000	-16.20325000
6.69999978	-7.80511800	-26.91929000	-15.82800000
6.89999977	-4.30056600	-26.87623000	-15.78494000
7.09999975	0.00000000	-26.87623000	-15.78494000
7.29999974	4.14124000	-26.87623000	-15.82800000
7.49999973	6.84916400	-26.87623000	-16.20325000
7.69999972	7.80511800	-26.87623000	-16.94759000
7.89999971	6.69045300	-26.91929000	-17.32283000
8.09999970	4.14124000	-27.25147000	-17.36589000
8.29999968	0.79601380	-27.62057000	-17.36589000
8.49999967	-2.22994600	-27.25147000	-17.36589000
8.69999966	-4.45989200	-26.91929000	-17.36589000
8.89999965	-5.25652100	-26.87623000	-17.36589000
9.09999964	-4.61921700	-26.87623000	-17.36589000
9.29999962	-3.02657500	-26.87623000	-17.36589000
9.49999961	-1.11466500	-26.87623000	-17.36589000
9.69999960	0.79601380	-26.91929000	-17.36589000
9.89999959	2.07062000	-27.29453000	-17.36589000
10.09999958	2.54859700	-28.03888000	-17.36589000
10.29999956	2.38927200	-28.41412000	-17.36589000
10.49999955	1.59264300	-28.45718000	-17.36589000
10.69999954	0.79601380	-28.45718000	-17.36589000
10.89999953	0.00000000	-28.41412000	-17.36589000
11.09999952	-0.63668800	-28.08194000	-17.36589000
11.29999951	-0.95533960	-27.71284000	-17.36589000
11.49999949	-0.95533960	-28.08194000	-17.36589000
11.69999948	-0.79601380	-28.41412000	-17.36589000
11.89999947	-0.47736220	-28.45718000	-17.36589000
12.09999946	-0.15871060	-28.41412000	-17.36589000
12.29999945	-0.15871060	-28.08194000	-17.36589000
12.49999943	0.00000000	-27.71284000	-17.36589000
12.69999942	0.00000000	-28.08194000	-17.36589000
12.89999941	0.00000000	-28.41412000	-17.36589000
13.09999940	0.00000000	-28.45718000	-17.36589000
13.29999939	0.00000000	-28.41412000	-17.36589000
13.49999937	0.00000000	-28.08194000	-17.36589000
13.69999936	0.00000000	-27.71284000	-17.36589000
13.89999935	0.00000000	-28.08194000	-17.36589000
14.09999934	-0.15871060	-28.36491000	-17.36589000
14.29999933	-0.15871060	-28.08194000	-17.36589000
14.49999932	-0.15871060	-27.71284000	-17.36589000
14.69999930	0.00000000	-28.08194000	-17.36589000
14.89999929	0.00000000	-28.41412000	-17.32283000
15.09999928	0.00000000	-28.45718000	-16.99065000
15.29999927	0.00000000	-28.45718000	-16.62155000
15.49999926	0.00000000	-28.45718000	-16.99065000
15.69999924	0.00000000	-28.45718000	-17.32283000
15.89999923	0.00000000	-28.45718000	-17.36589000
16.09999922	0.00000000	-28.45718000	-17.32283000
16.29999921	0.00000000	-28.41412000	-16.99065000
16.49999920	0.00000000	-28.03888000	-16.62155000
16.69999919	0.00000000	-27.29453000	-16.99065000
16.89999917	0.00000000	-26.91929000	-17.32283000
17.09999916	0.00000000	-26.87623000	-17.36589000
17.29999915	0.00000000	-26.83317000	-17.36589000
17.49999914	0.00000000	-26.45792000	-17.32283000
17.69999913	0.00000000	-25.76279000	-16.94759000
17.89999911	0.00000000	-25.80585000	-16.25246000
18.09999910	0.00000000	-26.91929000	-16.25246000
18.29999909	0.00000000	-28.45718000	-16.94759000
18.49999908	0.00000000	-30.03814000	-17.32283000
18.69999907	0.00000000	-31.57603000	-17.36589000
18.89999905	0.00000000	-32.68946000	-17.36589000
19.09999904	0.00000000	-32.68946000	-17.36589000
19.29999903	0.00000000	-31.52682000	-17.36589000
19.49999902	0.00000000	-29.52756000	-17.36589000
19.69999901	0.00000000	-26.40871000	-17.36589000
19.89999900	0.00000000	-22.55167000	-17.36589000
20.09999898	0.00000000	-19.10679000	-17.36589000
20.29999897	0.00000000	-16.83071000	-17.36589000
20.49999896	0.00000000	-16.87377000	-17.36589000
20.69999895	0.00000000	-19.61737000	-17.36589000
20.89999894	0.00000000	-24.73548000	-17.36589000
21.09999892	0.00000000	-32.08661000	-17.36589000
21.29999891	0.00000000	-40.13287000	-17.36589000
21.49999890	0.00000000	-46.27829000	-17.36589000
21.69999889	0.00000000	-48.93578000	-17.36589000
21.89999888	0.00000000	-46.93036000	-17.36589000
22.09999886	0.00000000	-39.91141000	-17.36589000
22.29999885	0.00000000	-29.10925000	-17.36589000
22.49999884	0.00000000	-16.69537000	-17.36589000
22.69999883	0.00000000	-5.52411400	-17.36589000
22.89999882	0.00000000	2.14689900	-17.36589000
23.09999881	0.00000000	3.54945900	-17.32283000
23.29999879	0.00000000	-2.68208600	-16.94759000
23.49999878	0.00000000	-15.84646000	-16.20325000
23.69999877	0.00000000	-33.24926000	-15.82800000
23.89999876	0.00000000	-50.97810000	-15.78494000
24.09999875	0.00000000	-64.84375000	-15.82800000
24.29999873	0.00000000	-70.94611000	-16.20325000
24.49999872	0.00000000	-67.45202000	-16.99065000
24.69999871	0.00000000	-54.61368000	-17.83341000
24.89999870	0.00000000	-34.92864000	-19.36516000
25.09999869	0.00000000	-12.50615000	-21.26599000
25.29999867	0.00000000	7.12967500	-22.43479000
25.49999866	0.00000000	19.45743000	-23.21604000
25.69999865	0.00000000	20.94611000	-23.08686000
25.89999864	0.00000000	10.94365000	-21.17372000
26.09999863	0.00000000	-8.03395600	-17.69808000
26.29999862	0.00000000	-31.99434000	-13.83489000
26.49999860	0.00000000	-55.90551000	-9.93479300
26.69999859	0.00000000	-73.64050000	-6.91437000
26.89999858	0.00000000	-81.03469000	-5.79478300
27.09999857	0.00000000	-76.80241000	-7.41879900
27.29999856	0.00000000	-62.10014000	-12.11245000
27.49999854	0.00000000	-40.04675000	-19.40822000
27.69999853	0.00000000	-15.38509000	-27.49138000
27.89999852	0.00000000	5.82554100	-34.04897000
28.09999851	0.00000000	18.25172000	-37.89985000
28.29999850	0.00000000	19.87574000	-37.81373000
28.49999848	0.00000000	10.99286000	-33.12008000
28.69999847	0.00000000	-6.36072800	-24.20029000
28.89999846	0.00000000	-27.94660000	-12.62918000
29.09999845	0.00000000	-48.46825000	-1.06422200
29.29999844	0.00000000	-63.58883000	7.81250000
29.49999843	0.00000000	-70.61392000	11.99557000
29.69999841	0.00000000	-68.33784000	9.99630800
29.89999840	0.00000000	-58.00320000	1.45177200
30.09999839	0.00000000	-42.51353000	-12.06939000
30.29999838	0.00000000	-25.47367000	-27.90969000
30.49999837	0.00000000	-9.94094400	-42.55044000
30.69999835	0.00000000	0.85506890	-52.54060000
30.89999834	0.00000000	4.80437900	-55.23499000
31.09999833	0.00000000	1.36565000	-49.79700000
31.29999832	0.00000000	-7.85556000	-37.39542000
31.49999831	0.00000000	-20.64468000	-20.01722000
31.69999829	0.00000000	-34.18430000	-1.52559000
31.89999828	0.00000000	-45.81693000	13.57037000
32.09999827	0.00000000	-53.21112000	22.44709000
32.29999826	0.00000000	-55.16732000	23.18528000
32.49999825	0.00000000	-51.72244000	15.10827000
32.69999824	0.00000000	-43.58390000	0.46751960
32.89999822	0.00000000	-32.82480000	-17.36589000
33.09999821	0.00000000	-21.99188000	-35.16240000
33.29999820	0.00000000	-13.84719000	-49.42790000
33.49999819	0.00000000	-9.52263600	-56.76673000
33.69999818	0.00000000	-9.52263600	-55.61023000
33.89999816	0.00000000	-13.75492000	-46.40133000
34.09999815	0.00000000	-21.06299000	-31.35457000
34.29999814	0.00000000	-29.57677000	-14.34547000
34.49999813	0.00000000	-37.26009000	1.53789400
34.69999812	0.00000000	-42.32283000	13.10900000
34.89999810	0.00000000	-43.49163000	17.75344000
35.09999809	0.00000000	-41.20940000	14.68996000
35.29999808	0.00000000	-35.81446000	4.65059000
35.49999807	0.00000000	-28.92470000	-9.98400600
35.69999806	0.00000000	-22.77928000	-25.78125000
35.89999805	0.00000000	-18.87303000	-38.88410000
36.09999803	0.00000000	-18.07948000	-46.26599000
36.29999802	0.00000000	-19.99262000	-46.69045000
36.49999801	0.00000000	-24.26796000	-40.55118000
36.69999800	0.00000000	-29.99508000	-29.35531000
36.89999799	0.00000000	-35.34695000	-15.92027000
37.09999797	0.00000000	-38.46580000	-3.66018700
37.29999796	0.00000000	-38.84104000	3.67864200
37.49999795	0.00000000	-36.59571000	4.51525500
37.69999794	0.00000000	-32.32653000	-0.41215550
37.89999793	0.00000000	-27.70669000	-9.65182000
38.09999791	0.00000000	-23.06225000	-20.34941000
38.29999790	0.00000000	-20.03568000	-29.58907000
38.49999789	0.00000000	-19.56816000	-34.55955000
38.69999788	0.00000000	-21.10605000	-34.19045000
38.89999787	0.00000000	-24.22490000	-28.42643000
39.09999786	0.00000000	-28.45718000	-18.90379000
39.29999784	0.00000000	-32.73868000	-8.99975300
39.49999783	0.00000000	-36.23277000	-2.07923200
39.69999782	0.00000000	-38.55807000	-0.12918310
39.89999781	0.00000000	-38.93332000	-3.24188000
40.09999780	0.00000000	-37.39542000	-10.90674000
40.29999778	0.00000000	-34.31963000	-21.22293000
40.49999777	0.00000000	-30.41338000	-30.42569000
40.69999776	0.00000000	-26.54404000	-36.23277000
40.89999775	0.00000000	-23.06225000	-37.34621000
41.09999774	0.00000000	-21.10605000	-33.07701000
41.29999772	0.00000000	-20.68774000	-24.29257000
41.49999771	0.00000000	-21.48130000	-13.55807000
41.69999770	0.00000000	-23.80659000	-4.35531500
41.89999769	0.00000000	-26.91929000	1.07652500
42.09999768	0.00000000	-30.41338000	1.49483300
42.29999767	0.00000000	-33.85827000	-2.73129900
42.49999765	0.00000000	-35.81446000	-10.44537000
42.69999764	0.00000000	-36.27584000	-20.01722000
42.89999763	0.00000000	-35.90059000	-28.47564000
43.09999762	0.00000000	-34.69488000	-33.53838000
43.29999761	0.00000000	-32.78174000	-34.74409000
43.49999759	0.00000000	-30.45644000	-32.04970000
43.69999758	0.00000000	-28.54946000	-26.32874000
43.89999757	0.00000000	-27.34375000	-19.40822000
44.09999756	0.00000000	-26.91929000	-13.22589000
44.29999755	0.00000000	-26.83317000	-8.90747900
44.49999753	0.00000000	-26.45792000	-7.00049200
44.69999752	0.00000000	-25.76279000	-7.75098400
44.89999751	0.00000000	-25.71358000	-11.18356000
45.09999750	0.00000000	-26.08268000	-15.74188000
45.29999749	0.00000000	-26.18110000	-20.01722000
45.49999748	0.00000000	-27.42987000	-23.12992000
45.69999746	0.00000000	-30.08120000	-24.71087000
45.89999745	0.00000000	-33.20005000	-24.75394000
46.09999744	0.00000000	-36.36811000	-23.59129000
46.29999743	0.00000000	-39.39468000	-21.64124000
46.49999742	0.00000000	-41.25246000	-18.94685000
46.69999740	0.00000000	-40.42199000	-16.25246000
46.89999739	0.00000000	-36.97096000	-14.29626000
47.09999738	0.00000000	-31.53297000	-13.13976000
47.29999737	0.00000000	-25.29527000	-13.13976000
47.49999736	0.00000000	-19.10679000	-14.29626000
47.69999734	0.00000000	-14.17938000	-16.20325000
47.89999733	0.00000000	-12.68455000	-18.52854000
48.09999732	0.00000000	-15.38509000	-20.47859000
48.29999731	0.00000000	-21.57357000	-22.05955000
48.49999730	0.00000000	-30.08735000	-23.12992000
48.69999729	0.00000000	-38.97638000	-22.71161000
48.89999727	0.00000000	-46.27829000	-20.43553000
49.09999726	0.00000000	-50.09227000	-17.36589000
49.29999725	0.00000000	-48.93578000	-14.25320000
49.49999724	0.00000000	-43.16560000	-11.55881000
49.69999723	0.00000000	-34.27657000	-10.07013000
49.89999721	0.00000000	-24.26796000	-10.44537000
50.09999720	0.00000000	-15.80339000	-12.76452000
50.29999719	0.00000000	-11.14665000	-16.20325000
50.49999718	0.00000000	-11.10359000	-20.10950000
50.69999717	0.00000000	-15.33587000	-23.54823000
50.89999715	0.00000000	-22.73007000	-25.86737000
51.09999714	0.00000000	-31.95128000	-26.24262000
51.29999713	0.00000000	-40.74188000	-24.71087000
51.49999712	0.00000000	-45.77386000	-21.59203000
51.69999711	0.00000000	-46.27829000	-17.36589000
51.89999710	0.00000000	-43.16560000	-13.13976000
52.09999708	0.00000000	-36.97096000	-10.07013000
52.29999707	0.00000000	-28.92470000	-8.91363100
52.49999706	0.00000000	-21.65969000	-10.02707000
52.69999705	0.00000000	-17.38435000	-12.76452000
52.89999704	0.00000000	-16.96604000	-16.62155000
53.09999702	0.00000000	-20.03568000	-21.22293000
53.29999701	0.00000000	-25.80585000	-24.61860000
53.49999700	0.00000000	-32.68946000	-25.86737000
53.69999699	0.00000000	-38.41658000	-25.12918000
53.89999698	0.00000000	-41.16019000	-23.17298000
54.09999696	0.00000000	-40.42199000	-20.10950000
54.29999695	0.00000000	-37.02018000	-16.71383000
54.49999694	0.00000000	-31.99434000	-14.80684000
54.69999693	0.00000000	-27.01156000	-14.72072000
54.89999692	0.00000000	-23.15453000	-15.83415000
55.09999691	0.00000000	-21.61663000	-17.36589000
55.29999689	0.00000000	-22.73007000	-18.90379000
55.49999688	0.00000000	-25.84892000	-20.06029000
55.69999687	0.00000000	-30.41338000	-20.39247000
55.89999686	0.00000000	-35.01476000	-19.64198000
56.09999685	0.00000000	-37.67839000	-17.74114000
56.29999683	0.00000000	-38.13361000	-15.87721000
56.49999682	0.00000000	-36.23277000	-14.72072000
56.69999681	0.00000000	-33.20005000	-14.80684000
56.89999680	0.00000000	-30.03814000	-16.71383000
57.09999679	0.00000000	-26.96850000	-20.15256000
57.29999677	0.00000000	-24.68627000	-23.59129000
57.49999676	0.00000000	-24.31102000	-26.28568000
57.69999675	0.00000000	-25.80585000	-27.39911000
57.89999674	0.00000000	-28.50024000	-26.19955000
58.09999673	0.00000000	-31.53297000	-22.71161000
58.29999672	0.00000000	-33.85827000	-17.32283000
58.49999670	0.00000000	-34.65182000	-11.60187000
58.69999669	0.00000000	-34.31963000	-7.37573800
58.89999668	0.00000000	-33.15699000	-5.84399600
59.09999667	0.00000000	-31.61909000	-7.41879900
59.29999666	0.00000000	-30.08120000	-12.06939000
59.49999664	0.00000000	-28.92470000	-18.98991000
59.69999663	0.00000000	-28.54946000	-26.28568000
59.89999662	0.00000000	-28.92470000	-32.00049000
60.09999661	0.00000000	-30.03814000	-34.32578000
60.29999660	0.00000000	-31.20078000	-32.42495000
60.49999658	0.00000000	-32.03740000	-27.44832000
60.69999657	0.00000000	-33.11393000	-20.39247000
60.89999656	0.00000000	-33.43381000	-12.34621000
61.09999655	0.00000000	-31.95128000	-5.05659400
61.29999654	0.00000000	-30.08120000	-1.24261800
61.49999653	0.00000000	-28.50024000	-1.56865100
61.69999651	0.00000000	-27.38681000	-5.88705700
61.89999650	0.00000000	-27.38681000	-13.55807000
62.09999649	0.00000000	-28.50024000	-22.75467000
62.29999648	0.00000000	-30.08120000	-30.42569000
62.49999647	0.00000000	-32.03740000	-34.74409000
62.69999645	0.00000000	-34.31963000	-35.16240000
62.89999644	0.00000000	-35.81446000	-32.04970000
63.09999643	0.00000000	-35.85752000	-25.86737000
63.29999642	0.00000000	-34.69488000	-17.74114000
63.49999641	0.00000000	-32.73868000	-9.69488100
63.69999639	0.00000000	-30.03814000	-3.52485200
63.89999638	0.00000000	-27.34375000	-1.19340500
64.09999637	0.00000000	-25.43061000	-2.68208600
64.29999636	0.00000000	-24.68627000	-7.33267600
64.49999635	0.00000000	-25.84892000	-14.21014000
64.69999634	0.00000000	-28.50024000	-21.17372000
64.89999632	0.00000000	-31.57603000	-26.61786000
65.09999631	0.00000000	-34.27657000	-30.13656000
65.29999630	0.00000000	-35.85752000	-30.88705000
65.49999629	0.00000000	-36.23277000	-29.02928000
65.69999628	0.00000000	-35.43922000	-25.17224000
65.89999626	0.00000000	-33.15699000	-20.52780000
66.09999625	0.00000000	-30.50566000	-15.87721000
66.29999624	0.00000000	-28.59252000	-11.97711000
66.49999623	0.00000000	-27.76206000	-9.60875900
66.69999622	0.00000000	-28.12500000	-8.40305000
66.89999620	0.00000000	-28.92470000	-8.44611200
67.09999619	0.00000000	-30.45644000	-9.98400600
67.29999618	0.00000000	-32.31422000	-12.72146000
67.49999617	0.00000000	-33.06471000	-16.20325000
67.69999616	0.00000000	-32.73252000	-20.10950000
67.89999615	0.00000000	-31.52682000	-23.54823000
68.09999613	0.00000000	-29.66289000	-25.95964000
68.29999612	0.00000000	-27.76206000	-27.17150000
68.49999611	0.00000000	-27.01156000	-27.90969000
68.69999610	0.00000000	-27.34375000	-27.40526000
68.89999609	0.00000000	-28.59252000	-24.71087000
69.09999607	0.00000000	-30.92396000	-20.47859000
69.29999606	0.00000000	-34.36884000	-15.83415000
69.49999605	0.00000000	-37.43848000	-11.55881000
69.69999604	0.00000000	-39.35162000	-8.48917200
69.89999603	0.00000000	-39.67150000	-7.33267600
70.09999601	0.00000000	-37.34621000	-8.48917200
70.29999600	0.00000000	-33.15699000	-11.60187000
70.49999599	0.00000000	-28.50024000	-16.29552000
70.69999598	0.00000000	-24.22490000	-22.05955000
70.89999597	0.00000000	-21.19833000	-27.39911000
71.09999596	0.00000000	-20.41092000	-30.46875000
71.29999594	0.00000000	-22.36097000	-30.56102000
71.49999593	0.00000000	-26.22416000	-28.28494000
71.69999592	0.00000000	-31.61909000	-24.75394000
71.89999591	0.00000000	-37.02018000	-20.10950000
72.09999590	0.00000000	-40.93258000	-15.13902000
72.29999588	0.00000000	-43.25172000	-11.69414000
72.49999587	0.00000000	-43.16560000	-10.44537000
72.69999586	0.00000000	-40.08981000	-11.22662000
72.89999585	0.00000000	-34.73794000	-13.51501000
73.09999584	0.00000000	-28.96776000	-16.94759000
73.29999582	0.00000000	-24.31102000	-19.97416000
73.49999581	0.00000000	-21.57357000	-21.59203000
73.69999580	0.00000000	-21.14911000	-22.01033000
73.89999579	0.00000000	-22.73007000	-21.64124000
74.09999578	0.00000000	-26.18110000	-20.47859000
74.29999577	0.00000000	-30.82554000	-18.98991000
74.49999575	0.00000000	-35.02707000	-17.87647000
74.69999574	0.00000000	-38.18282000	-17.87647000
74.89999573	0.00000000	-39.35162000	-18.98991000
75.09999572	0.00000000	-39.01944000	-20.52780000
75.29999571	0.00000000	-37.43848000	-22.01649000
75.49999569	0.00000000	-34.73794000	-22.75467000
75.69999568	0.00000000	-31.66830000	-21.96727000
75.89999567	0.00000000	-28.96776000	-20.01722000
76.09999566	0.00000000	-27.42987000	-16.90453000
76.29999565	0.00000000	-27.38681000	-13.13976000
76.49999563	0.00000000	-28.45718000	-10.48843000
76.69999562	0.00000000	-29.61983000	-10.07013000
76.89999561	0.00000000	-30.41338000	-11.60187000
77.09999560	0.00000000	-31.20078000	-14.76378000
77.29999559	0.00000000	-31.57603000	-19.36516000
77.49999558	0.00000000	-31.61909000	-24.37869000
77.69999556	0.00000000	-31.61909000	-28.19882000
77.89999555	0.00000000	-31.66215000	-30.14272000
78.09999554	0.00000000	-32.03740000	-29.31225000
78.29999553	0.00000000	-32.82480000	-25.86737000
78.49999552	0.00000000	-33.57529000	-20.47859000
78.69999550	0.00000000	-34.36884000	-14.67766000
78.89999549	0.00000000	-34.65182000	-9.65182000
79.09999548	0.00000000	-33.90133000	-6.17618100
79.29999547	0.00000000	-31.99434000	-5.42568800
79.49999546	0.00000000	-30.08120000	-7.28346400
79.69999544	0.00000000	-28.50024000	-11.22662000
79.89999543	0.00000000	-27.34375000	-16.57849000
80.09999542	0.00000000	-26.96850000	-22.37943000
80.29999541	0.00000000	-27.38681000	-26.61786000
80.49999540	0.00000000	-28.96776000	-29.02928000
80.69999539	0.00000000	-31.61909000	-29.40452000
80.89999537	0.00000000	-34.31963000	-27.86663000
81.09999536	0.00000000	-36.27584000	-24.75394000
81.29999535	0.00000000	-37.43848000	-20.52780000
81.49999534	0.00000000	-37.39542000	-16.25246000
81.69999533	0.00000000	-35.85752000	-12.76452000
81.89999531	0.00000000	-33.20005000	-10.40231000
82.09999530	0.00000000	-30.50566000	-9.60875900
82.29999529	0.00000000	-28.54946000	-9.98400600
82.49999528	0.00000000	-27.38681000	-11.55881000
82.69999527	0.00000000	-27.38681000	-14.29626000
82.89999525	0.00000000	-28.50024000	-17.78420000
83.09999524	0.00000000	-30.03814000	-21.68430000
83.29999523	0.00000000	-31.61909000	-25.12918000
83.49999522	0.00000000	-33.15699000	-27.49138000
83.69999521	0.00000000	-34.31963000	-28.24188000
83.89999520	0.00000000	-34.69488000	-27.49138000
84.09999518	0.00000000	-34.31963000	-25.12918000
84.29999517	0.00000000	-33.24926000	-21.68430000
84.49999516	0.00000000	-32.50492000	-17.69808000
84.69999515	0.00000000	-32.82480000	-13.50271000
84.89999514	0.00000000	-33.10777000	-9.65797200
85.09999512	0.00000000	-32.78174000	-8.16313900
85.29999511	0.00000000	-32.03740000	-8.86441900
85.49999510	0.00000000	-31.61909000	-11.60187000
85.69999509	0.00000000	-31.20078000	-15.83415000
85.89999508	0.00000000	-30.45644000	-20.52780000
86.09999506	0.00000000	-30.08120000	-25.12918000
86.29999505	0.00000000	-30.08120000	-28.61097000
86.49999504	0.00000000	-30.50566000	-29.73056000
86.69999503	0.00000000	-31.66215000	-28.61097000
86.89999502	0.00000000	-33.20005000	-25.12918000
87.09999501	0.00000000	-34.73794000	-20.52780000
87.29999499	0.00000000	-35.90059000	-15.83415000
87.49999498	0.00000000	-36.27584000	-11.60187000
87.69999497	0.00000000	-35.90059000	-8.95669300
87.89999496	0.00000000	-34.69488000	-8.95669300
88.09999495	0.00000000	-32.78174000	-11.60187000
88.29999493	0.00000000	-30.50566000	-15.87721000
88.49999492	0.00000000	-28.96776000	-20.85384000
88.69999491	0.00000000	-28.54946000	-25.44906000
88.89999490	0.00000000	-28.92470000	-27.82357000
89.09999489	0.00000000	-30.13041000	-28.19267000
89.29999487	0.00000000	-31.99434000	-26.60556000
89.49999486	0.00000000	-33.94439000	-22.38558000
89.69999485	0.00000000	-35.11934000	-17.50123000
89.89999484	0.00000000	-35.90059000	-13.55807000
90.09999483	0.00000000	-35.85752000	-11.27584000
90.29999482	0.00000000	-34.73794000	-10.90674000
90.49999480	0.00000000	-33.24926000	-13.22589000
90.69999479	0.00000000	-32.03740000	-17.36589000
90.89999478	0.00000000	-31.24384000	-21.64124000
91.09999477	0.00000000	-30.45644000	-25.12918000
91.29999476	0.00000000	-30.13041000	-27.40526000
91.49999474	0.00000000	-30.45644000	-27.35605000
91.69999473	0.00000000	-31.20078000	-24.71087000
91.89999472	0.00000000	-31.61909000	-20.52780000
92.09999471	0.00000000	-32.03740000	-16.25246000
92.29999470	0.00000000	-32.78174000	-12.80758000
92.49999468	0.00000000	-33.15699000	-10.90674000
92.69999467	0.00000000	-33.24311000	-11.69414000
92.89999466	0.00000000	-33.61835000	-14.72072000
93.09999465	0.00000000	-34.36884000	-18.94685000
93.29999464	0.00000000	-34.74409000	-23.17298000
93.49999463	0.00000000	-34.78716000	-26.24262000
93.69999461	0.00000000	-34.78716000	-27.35605000
93.89999460	0.00000000	-34.69488000	-25.82431000
94.09999459	0.00000000	-33.90133000	-22.01033000
94.29999458	0.00000000	-31.99434000	-17.45817000
94.49999457	0.00000000	-30.08120000	-13.55807000
94.69999455	0.00000000	-28.50024000	-11.27584000
94.89999454	0.00000000	-27.38681000	-10.86368000
95.09999453	0.00000000	-27.38681000	-12.80758000
95.29999452	0.00000000	-28.54946000	-16.25246000
95.49999451	0.00000000	-30.50566000	-20.47859000
95.69999449	0.00000000	-33.24926000	-24.29257000
95.89999448	0.00000000	-36.31890000	-26.19955000
96.09999447	0.00000000	-38.97638000	-25.86737000
96.29999446	0.00000000	-40.13902000	-23.54823000
96.49999445	0.00000000	-39.35162000	-20.10950000
96.69999444	0.00000000	-37.02018000	-16.29552000
96.89999442	0.00000000	-33.15699000	-13.60113000
97.09999441	0.00000000	-28.96776000	-12.76452000
97.29999440	0.00000000	-25.84892000	-13.13976000
97.49999439	0.00000000	-24.26796000	-14.72072000
97.69999438	0.00000000	-24.26796000	-17.36589000
97.89999436	0.00000000	-25.80585000	-20.06029000
98.09999435	0.00000000	-28.54946000	-21.96727000
98.29999434	0.00000000	-32.03740000	-22.75467000
98.49999433	0.00000000	-35.94980000	-22.01649000
98.69999432	0.00000000	-39.39468000	-20.52780000
98.89999430	0.00000000	-41.67076000	-18.98991000
99.09999429	0.00000000	-41.67076000	-17.83341000
99.29999428	0.00000000	-39.39468000	-17.40895000
99.49999427	0.00000000	-35.94980000	-17.36589000
99.69999426	0.00000000	-32.03740000	-17.40895000
99.89999425	0.00000000	-28.54946000	-17.78420000
100.09999423	0.00000000	-25.84892000	-18.47933000
100.29999422	0.00000000	-24.68627000	-18.47933000
100.49999421	0.00000000	-25.43061000	-17.78420000
100.69999420	0.00000000	-27.34375000	-17.40895000
100.89999419	0.00000000	-30.08120000	-17.40895000
101.09999417	0.00000000	-33.20005000	-17.83341000
101.29999416	0.00000000	-36.27584000	-18.98991000
101.49999415	0.00000000	-38.64419000	-20.52780000
101.69999414	0.00000000	-39.76993000	-22.05955000
101.89999413	0.00000000	-39.76377000	-23.21604000
102.09999411	0.00000000	-37.85679000	-23.54823000
102.29999410	0.00000000	-35.20546000	-22.75467000
102.49999409	0.00000000	-32.82480000	-20.47859000
102.69999408	0.00000000	-30.50566000	-17.83341000
102.89999407	0.00000000	-28.96776000	-15.87721000
103.09999406	0.00000000	-28.54946000	-14.67150000
103.29999404	0.00000000	-28.92470000	-14.34547000
103.49999403	0.00000000	-30.13041000	-15.13902000
103.69999402	0.00000000	-32.03740000	-17.45817000
103.89999401	0.00000000	-34.36884000	-20.47859000
104.09999400	0.00000000	-36.27584000	-23.22219000
104.29999398	0.00000000	-37.48154000	-25.12918000
104.49999397	0.00000000	-37.85679000	-25.91043000
104.69999396	0.00000000	-37.48154000	-25.12918000
104.89999395	0.00000000	-36.27584000	-23.22219000
105.09999394	0.00000000	-34.41191000	-20.47859000
105.29999392	0.00000000	-32.46186000	-17.45817000
105.49999391	0.00000000	-31.33612000	-15.18209000
105.69999390	0.00000000	-30.87475000	-14.76378000
105.89999389	0.00000000	-31.28691000	-15.83415000
106.09999388	0.00000000	-32.03740000	-17.40895000
106.29999387	0.00000000	-33.20005000	-19.32210000
106.49999385	0.00000000	-34.36884000	-21.26599000
106.69999384	0.00000000	-35.11934000	-22.38558000
106.89999383	0.00000000	-35.48228000	-22.79773000
107.09999382	0.00000000	-34.73794000	-22.01649000
107.29999381	0.00000000	-33.61835000	-20.47859000
107.49999379	0.00000000	-32.82480000	-18.57160000
107.69999378	0.00000000	-32.03740000	-16.67077000
107.89999377	0.00000000	-31.71137000	-15.92027000
108.09999376	0.00000000	-32.08661000	-16.25246000
108.29999375	0.00000000	-33.20005000	-17.40895000
108.49999374	0.00000000	-34.36884000	-18.94685000
108.69999372	0.00000000	-35.16240000	-20.52780000
108.89999371	0.00000000	-35.90059000	-22.01649000
109.09999370	0.00000000	-35.90059000	-22.75467000
109.29999369	0.00000000	-35.16240000	-21.96727000
109.49999368	0.00000000	-34.36884000	-20.15256000
109.69999366	0.00000000	-33.15699000	-18.20251000
109.89999365	0.00000000	-31.66215000	-16.99065000
110.09999364	0.00000000	-30.54872000	-15.83415000
110.29999363	0.00000000	-30.50566000	-15.13902000
110.49999362	0.00000000	-31.24384000	-15.87721000
110.69999360	0.00000000	-32.03740000	-17.36589000
110.89999359	0.00000000	-33.24926000	-18.94685000
111.09999358	0.00000000	-34.73794000	-20.47859000
111.29999357	0.00000000	-35.90059000	-21.64124000
111.49999356	0.00000000	-36.27584000	-22.05955000
111.69999355	0.00000000	-35.90059000	-22.05955000
111.89999353	0.00000000	-34.73794000	-21.64124000
112.09999352	0.00000000	-33.24926000	-20.47859000
112.29999351	0.00000000	-32.08661000	-18.98991000
112.49999350	0.00000000	-31.66215000	-17.83341000
112.69999349	0.00000000	-31.66215000	-17.40895000
112.89999347	0.00000000	-32.03740000	-17.36589000
113.09999346	0.00000000	-32.82480000	-17.40895000
113.29999345	0.00000000	-33.57529000	-17.78420000
113.49999344	0.00000000	-34.36884000	-18.52854000
113.69999343	0.00000000	-34.74409000	-18.94685000
113.89999341	0.00000000	-34.74409000	-19.36516000
114.09999340	0.00000000	-34.41191000	-20.10950000
114.29999339	0.00000000	-33.99975000	-20.48474000
114.49999338	0.00000000	-33.98745000	-20.52780000
114.69999337	0.00000000	-33.57529000	-20.52780000
114.89999336	0.00000000	-33.24311000	-20.52780000
115.09999334	0.00000000	-33.20005000	-20.52780000
115.29999333	0.00000000	-33.20005000	-20.52780000
115.49999332	0.00000000	-33.20005000	-20.52780000
115.69999331	0.00000000	-33.24311000	-20.52780000
115.89999330	0.00000000	-33.61835000	-20.48474000
116.09999328	0.00000000	-34.36884000	-20.10950000
116.29999327	0.00000000	-34.74409000	-19.36516000
116.49999326	0.00000000	-34.78716000	-18.98991000
116.69999325	0.00000000	-34.78716000	-18.90379000
116.89999324	0.00000000	-34.78716000	-18.57160000
117.09999322	0.00000000	-34.74409000	-18.25172000
117.29999321	0.00000000	-34.36884000	-18.98991000
117.49999320	0.00000000	-33.61835000	-20.10950000
117.69999319	0.00000000	-33.20005000	-20.90305000
117.89999318	0.00000000	-32.78174000	-21.68430000
118.09999317	0.00000000	-32.08661000	-22.05955000
118.29999315	0.00000000	-32.08661000	-22.05955000
118.49999314	0.00000000	-32.82480000	-21.68430000
118.69999313	0.00000000	-33.61835000	-20.94611000
118.89999312	0.00000000	-34.83022000	-20.52780000
119.09999311	0.00000000	-36.32505000	-20.10950000
119.29999309	0.00000000	-37.43848000	-19.36516000
119.49999308	0.00000000	-37.48154000	-18.98991000
119.69999307	0.00000000	-36.78642000	-18.94685000
119.89999306	0.00000000	-36.32505000	-18.94685000
120.09999305	0.00000000	-35.48228000	-18.94685000
120.29999303	0.00000000	-33.61835000	-18.98991000
120.49999302	0.00000000	-32.12967000	-19.36516000
120.69999301	0.00000000	-31.66215000	-20.10950000
120.89999300	0.00000000	-31.66215000	-20.48474000
121.09999299	0.00000000	-32.03740000	-20.57087000
121.29999298	0.00000000	-32.82480000	-20.90305000
121.49999296	0.00000000	-33.61835000	-21.26599000
121.69999295	0.00000000	-34.78716000	-20.90305000
121.89999294	0.00000000	-35.90059000	-20.52780000
122.09999293	0.00000000	-36.32505000	-20.10950000
122.29999292	0.00000000	-36.36811000	-19.32210000
122.49999290	0.00000000	-36.32505000	-18.57160000
122.69999289	0.00000000	-35.90059000	-17.78420000
122.89999288	0.00000000	-34.78716000	-17.40895000
123.09999287	0.00000000	-33.61835000	-17.36589000
123.29999286	0.00000000	-32.82480000	-17.40895000
123.49999284	0.00000000	-32.08661000	-17.83341000
123.69999283	0.00000000	-32.08661000	-18.94685000
123.89999282	0.00000000	-32.78174000	-20.10950000
124.09999281	0.00000000	-33.20005000	-20.85384000
124.29999280	0.00000000	-33.61835000	-21.30905000
124.49999279	0.00000000	-34.36884000	-21.27214000
124.69999277	0.00000000	-34.83022000	-21.30905000
124.89999276	0.00000000	-35.58071000	-20.85384000
125.09999275	0.00000000	-36.68799000	-20.15256000
125.29999274	0.00000000	-36.70029000	-19.36516000
125.49999273	0.00000000	-36.41117000	-18.94685000
125.69999271	0.00000000	-36.32505000	-18.52854000
125.89999270	0.00000000	-35.90059000	-17.78420000
126.09999269	0.00000000	-34.78716000	-17.45817000
126.29999268	0.00000000	-33.61835000	-17.78420000
126.49999267	0.00000000	-32.86786000	-18.52854000
126.69999265	0.00000000	-32.41265000	-18.90379000
126.89999264	0.00000000	-32.44956000	-18.98991000
127.09999263	0.00000000	-32.45571000	-19.36516000
127.29999262	0.00000000	-33.24926000	-20.10950000
127.49999261	0.00000000	-34.36884000	-20.48474000
127.69999260	0.00000000	-35.16240000	-20.48474000
127.89999258	0.00000000	-35.94980000	-20.10950000
128.09999257	0.00000000	-36.32505000	-19.36516000
128.29999256	0.00000000	-36.32505000	-18.98991000
128.49999255	0.00000000	-35.90059000	-18.94685000
128.69999254	0.00000000	-34.78716000	-18.94685000
128.89999252	0.00000000	-33.61835000	-18.94685000
129.09999251	0.00000000	-32.82480000	-18.94685000
129.29999250	0.00000000	-32.08661000	-18.98991000
129.49999249	0.00000000	-32.12967000	-19.36516000
129.69999248	0.00000000	-33.20005000	-20.10950000
129.89999246	0.00000000	-34.36884000	-20.48474000
130.09999245	0.00000000	-35.16240000	-20.48474000
130.29999244	0.00000000	-35.94980000	-20.10950000
130.49999243	0.00000000	-36.32505000	-19.36516000
130.69999242	0.00000000	-36.32505000	-18.98991000
130.89999241	0.00000000	-35.90059000	-18.94685000
131.09999239	0.00000000	-34.78716000	-18.94685000
131.29999238	0.00000000	-33.66756000	-18.94685000
131.49999237	0.00000000	-33.24311000	-18.98991000
131.69999236	0.00000000	-33.20005000	-19.36516000
131.89999235	0.00000000	-33.24311000	-20.15256000
132.09999233	0.00000000	-33.61835000	-20.90305000
132.29999232	0.00000000	-34.41191000	-21.68430000
132.49999231	0.00000000	-35.16240000	-22.05955000
132.69999230	0.00000000	-35.94980000	-22.05955000
132.89999229	0.00000000	-36.32505000	-21.64124000
133.09999227	0.00000000	-36.36811000	-20.52780000
133.29999226	0.00000000	-36.32505000	-19.41437000
133.49999225	0.00000000	-35.90059000	-18.94685000
133.69999224	0.00000000	-34.83022000	-18.57160000
133.89999223	0.00000000	-34.13509000	-18.25172000
134.09999222	0.00000000	-34.78716000	-18.98991000
134.29999220	0.00000000	-35.48228000	-20.10950000
134.49999219	0.00000000	-35.16240000	-20.90305000
134.69999218	0.00000000	-34.83022000	-21.68430000
134.89999217	0.00000000	-34.78716000	-22.10261000
135.09999216	0.00000000	-34.78716000	-22.47785000
135.29999214	0.00000000	-34.78716000	-22.79773000
135.49999213	0.00000000	-34.78716000	-22.05955000
135.69999212	0.00000000	-34.78716000	-20.98917000
135.89999211	0.00000000	-34.78716000	-20.52780000
136.09999210	0.00000000	-34.83022000	-20.10950000
136.29999208	0.00000000	-35.20546000	-19.36516000
136.49999207	0.00000000	-35.94980000	-18.98991000
136.69999206	0.00000000	-36.32505000	-18.94685000
136.89999205	0.00000000	-36.36811000	-18.94685000
137.09999204	0.00000000	-36.32505000	-18.98991000
137.29999203	0.00000000	-35.94980000	-19.36516000
137.49999201	0.00000000	-35.16240000	-20.10950000
137.69999200	0.00000000	-34.41191000	-20.52780000
137.89999199	0.00000000	-33.66756000	-20.94611000
138.09999198	0.00000000	-33.66756000	-21.68430000
138.29999197	0.00000000	-34.36884000	-22.05955000
138.49999195	0.00000000	-34.78716000	-22.05955000
138.69999194	0.00000000	-35.20546000	-21.68430000
138.89999193	0.00000000	-35.94980000	-20.90305000
139.09999192	0.00000000	-36.32505000	-20.15256000
139.29999191	0.00000000	-36.36811000	-19.32210000
139.49999189	0.00000000	-36.36811000	-18.57160000
139.69999188	0.00000000	-36.32505000	-17.78420000
139.89999187	0.00000000	-35.94980000	-17.40895000
140.09999186	0.00000000	-35.16240000	-17.40895000
140.29999185	0.00000000	-34.41191000	-17.83341000
140.49999184	0.00000000	-33.66756000	-18.94685000
140.69999182	0.00000000	-33.66756000	-20.06029000
140.89999181	0.00000000	-34.36884000	-20.52780000
141.09999180	0.00000000	-34.74409000	-20.94611000
141.29999179	0.00000000	-34.83022000	-21.64124000
141.49999178	0.00000000	-35.16240000	-21.59203000
141.69999176	0.00000000	-35.57455000	-20.52780000
141.89999175	0.00000000	-35.53765000	-19.36516000
142.09999174	0.00000000	-35.57455000	-18.57160000
142.29999173	0.00000000	-35.16240000	-17.78420000
142.49999172	0.00000000	-34.83022000	-17.40895000
142.69999170	0.00000000	-34.78716000	-17.40895000
142.89999169	0.00000000	-34.78716000	-17.83341000
143.09999168	0.00000000	-34.78716000	-18.94685000
143.29999167	0.00000000	-34.83022000	-20.10950000
143.49999166	0.00000000	-35.20546000	-20.90305000
143.69999165	0.00000000	-35.94980000	-21.68430000
143.89999163	0.00000000	-36.32505000	-22.05955000
144.09999162	0.00000000	-36.32505000	-22.05955000
144.29999161	0.00000000	-35.94980000	-21.64124000
144.49999160	0.00000000	-35.20546000	-20.52780000
144.69999159	0.00000000	-34.83022000	-19.41437000
144.89999157	0.00000000	-34.78716000	-18.98991000
145.09999156	0.00000000	-34.78716000	-18.94685000
145.29999155	0.00000000	-34.78716000	-18.94685000
145.49999154	0.00000000	-34.83022000	-18.98991000
145.69999153	0.00000000	-35.16240000	-19.36516000
145.89999151	0.00000000	-35.57455000	-20.15256000
146.09999150	0.00000000	-35.58071000	-20.90305000
146.29999149	0.00000000	-35.99286000	-21.68430000
146.49999148	0.00000000	-36.27584000	-22.01033000
146.69999147	0.00000000	-35.99286000	-21.72736000
146.89999146	0.00000000	-35.58071000	-21.32136000
147.09999144	0.00000000	-35.57455000	-21.30905000
147.29999143	0.00000000	-35.16240000	-20.90305000
147.49999142	0.00000000	-34.87943000	-20.52780000
147.69999141	0.00000000	-35.20546000	-20.10950000
147.89999140	0.00000000	-35.94980000	-19.41437000
148.09999138	0.00000000	-36.32505000	-19.41437000
148.29999137	0.00000000	-36.36811000	-20.10950000
148.49999136	0.00000000	-36.36811000	-20.48474000
148.69999135	0.00000000	-36.41117000	-20.57087000
148.89999134	0.00000000	-36.74335000	-20.90305000
149.09999132	0.00000000	-37.11245000	-21.30905000
149.29999131	0.00000000	-36.70029000	-21.32136000
149.49999130	0.00000000	-35.99286000	-21.72736000
149.69999129	0.00000000	-35.20546000	-22.01033000
149.89999128	0.00000000	-34.83022000	-21.68430000
150.09999127	0.00000000	-34.78716000	-20.94611000
150.29999125	0.00000000	-34.83022000	-20.57087000
150.49999124	0.00000000	-35.20546000	-20.48474000
150.69999123	0.00000000	-35.94980000	-20.10950000
150.89999122	0.00000000	-36.32505000	-19.41437000
151.09999121	0.00000000	-36.36811000	-19.36516000
151.29999119	0.00000000	-36.36811000	-19.73425000
151.49999118	0.00000000	-36.36811000	-19.74040000
151.69999117	0.00000000	-36.36811000	-20.15256000
151.89999116	0.00000000	-36.36811000	-20.48474000
152.09999115	0.00000000	-36.36811000	-20.52780000
152.29999113	0.00000000	-36.36811000	-20.52780000
152.49999112	0.00000000	-36.36811000	-20.52780000
152.69999111	0.00000000	-36.32505000	-20.52780000
152.89999110	0.00000000	-35.94980000	-20.52780000
153.09999109	0.00000000	-35.25467000	-20.52780000
153.29999108	0.00000000	-35.25467000	-20.52780000
153.49999106	0.00000000	-35.94980000	-20.48474000
153.69999105	0.00000000	-36.32505000	-20.10950000
153.89999104	0.00000000	-36.36811000	-19.41437000
154.09999103	0.00000000	-36.36811000	-19.36516000
154.29999102	0.00000000	-36.41117000	-19.69119000
154.49999100	0.00000000	-36.74335000	-19.36516000
154.69999099	0.00000000	-37.11245000	-19.41437000
154.89999098	0.00000000	-36.74335000	-20.10950000
155.09999097	0.00000000	-36.36811000	-20.48474000
155.29999096	0.00000000	-35.94980000	-20.52780000
155.49999094	0.00000000	-35.20546000	-20.52780000
155.69999093	0.00000000	-34.83022000	-20.52780000
155.89999092	0.00000000	-34.83022000	-20.52780000
156.09999091	0.00000000	-35.20546000	-20.52780000
156.29999090	0.00000000	-35.94980000	-20.52780000
156.49999089	0.00000000	-36.32505000	-20.48474000
156.69999087	0.00000000	-36.41117000	-20.15256000
156.89999086	0.00000000	-36.78642000	-19.74040000
157.09999085	0.00000000	-37.48154000	-19.73425000
157.29999084	0.00000000	-37.53075000	-19.32210000
157.49999083	0.00000000	-37.16166000	-18.98991000
157.69999081	0.00000000	-37.15551000	-18.94685000
157.89999080	0.00000000	-36.74335000	-18.98991000
158.09999079	0.00000000	-36.41117000	-19.36516000
158.29999078	0.00000000	-36.32505000	-20.10950000
158.49999077	0.00000000	-35.99286000	-20.48474000
158.69999075	0.00000000	-35.62377000	-20.52780000
158.89999074	0.00000000	-35.99286000	-20.52780000
159.09999073	0.00000000	-36.32505000	-20.52780000
159.29999072	0.00000000	-36.36811000	-20.52780000
159.49999071	0.00000000	-36.36811000	-20.52780000
159.69999070	0.00000000	-36.36811000	-20.48474000
159.89999068	0.00000000	-36.41117000	-20.10950000
160.09999067	0.00000000	-36.78642000	-19.36516000
160.29999066	0.00000000	-37.53075000	-19.03912000
160.49999065	0.00000000	-37.85679000	-19.36516000
160.69999064	0.00000000	-37.53075000	-20.10950000
160.89999062	0.00000000	-36.78642000	-20.48474000
161.09999061	0.00000000	-36.41117000	-20.52780000
161.29999060	0.00000000	-36.36811000	-20.57087000
161.49999059	0.00000000	-36.36811000	-20.94611000
161.69999058	0.00000000	-36.36811000	-21.64124000
161.89999056	0.00000000	-36.36811000	-21.64124000
162.09999055	0.00000000	-36.36811000	-20.94611000
162.29999054	0.00000000	-36.36811000	-20.57087000
162.49999053	0.00000000	-36.36811000	-20.52780000
162.69999052	0.00000000	-36.36811000	-20.52780000
162.89999051	0.00000000	-36.41117000	-20.52780000
163.09999049	0.00000000	-36.74335000	-20.52780000
163.29999048	0.00000000	-37.15551000	-20.52780000
163.49999047	0.00000000	-37.16166000	-20.52780000
163.69999046	0.00000000	-37.57381000	-20.52780000
163.89999045	0.00000000	-37.90600000	-20.52780000
164.09999043	0.00000000	-37.94907000	-20.57087000
164.29999042	0.00000000	-37.94907000	-20.94611000
164.49999041	0.00000000	-37.90600000	-21.68430000
164.69999040	0.00000000	-37.53075000	-22.05955000
164.89999039	0.00000000	-36.78642000	-22.10261000
165.09999037	0.00000000	-36.41117000	-22.05955000
165.29999036	0.00000000	-36.36811000	-21.68430000
165.49999035	0.00000000	-36.36811000	-20.94611000
165.69999034	0.00000000	-36.32505000	-20.57087000
165.89999033	0.00000000	-36.03592000	-20.52780000
166.09999032	0.00000000	-36.04823000	-20.52780000
166.29999030	0.00000000	-37.15551000	-20.52780000
166.49999029	0.00000000	-37.85679000	-20.52780000
166.69999028	0.00000000	-37.94907000	-20.52780000
166.89999027	0.00000000	-37.94907000	-20.52780000
167.09999026	0.00000000	-37.94907000	-20.52780000
167.29999024	0.00000000	-37.94907000	-20.52780000
167.49999023	0.00000000	-37.90600000	-20.52780000
167.69999022	0.00000000	-37.53075000	-20.57087000
167.89999021	0.00000000	-36.78642000	-20.90305000
168.09999020	0.00000000	-36.41117000	-21.26599000
168.29999018	0.00000000	-36.36811000	-20.90305000
168.49999017	0.00000000	-36.36811000	-20.57087000
168.69999016	0.00000000	-36.36811000	-20.52780000
168.89999015	0.00000000	-36.36811000	-20.52780000
169.09999014	0.00000000	-36.41117000	-20.52780000
169.29999013	0.00000000	-36.78642000	-20.52780000
169.49999011	0.00000000	-37.53075000	-20.52780000
169.69999010	0.00000000	-37.90600000	-20.52780000
169.89999009	0.00000000	-37.94907000	-20.52780000
170.09999008	0.00000000	-37.90600000	-20.52780000
170.29999007	0.00000000	-37.53075000	-20.52780000
170.49999005	0.00000000	-36.78642000	-20.52780000
170.69999004	0.00000000	-36.41117000	-20.52780000
170.89999003	0.00000000	-36.36811000	-20.52780000
171.09999002	0.00000000	-36.36811000	-20.52780000
171.29999001	0.00000000	-36.36811000	-20.52780000
171.49998999	0.00000000	-36.36811000	-20.52780000
171.69998998	0.00000000	-36.36811000	-20.52780000
171.89998997	0.00000000	-36.36811000	-20.52780000
172.09998996	0.00000000	-36.36811000	-20.52780000
172.29998995	0.00000000	-36.41117000	-20.52780000
172.49998994	0.00000000	-36.78642000	-20.52780000
172.69998992	0.00000000	-37.53075000	-20.52780000
172.89998991	0.00000000	-37.90600000	-20.52780000
173.09998990	0.00000000	-37.94907000	-20.52780000
173.29998989	0.00000000	-37.94907000	-20.52780000
173.49998988	0.00000000	-37.90600000	-20.52780000
173.69998986	0.00000000	-37.53075000	-20.52780000
173.89998985	0.00000000	-36.78642000	-20.52780000
174.09998984	0.00000000	-36.41117000	-20.52780000
174.29998983	0.00000000	-36.36811000	-20.52780000
174.49998982	0.00000000	-36.41117000	-20.52780000
174.69998980	0.00000000	-36.74335000	-20.52780000
174.89998979	0.00000000	-37.15551000	-20.52780000
175.09998978	0.00000000	-37.16166000	-20.52780000
175.29998977	0.00000000	-37.57381000	-20.52780000
175.49998976	0.00000000	-37.90600000	-20.52780000
175.69998975	0.00000000	-37.94907000	-20.52780000
175.89998973	0.00000000	-37.94907000	-20.52780000
176.09998972	0.00000000	-37.94907000	-20.52780000
176.29998971	0.00000000	-37.94907000	-20.52780000
176.49998970	0.00000000	-37.94907000	-20.52780000
176.69998969	0.00000000	-37.90600000	-20.52780000
176.89998967	0.00000000	-37.57381000	-20.52780000
177.09998966	0.00000000	-37.20472000	-20.57087000
177.29998965	0.00000000	-37.57381000	-20.94611000
177.49998964	0.00000000	-37.90600000	-21.68430000
177.69998963	0.00000000	-37.94907000	-22.05955000
177.89998961	0.00000000	-37.94907000	-22.10261000
178.09998960	0.00000000	-37.94907000	-22.10261000
178.29998959	0.00000000	-37.94907000	-22.05955000
178.49998958	0.00000000	-37.94907000	-21.72736000
178.69998957	0.00000000	-37.94907000	-21.32136000
178.89998956	0.00000000	-37.94907000	-21.30905000
179.09998954	0.00000000	-37.94907000	-20.90305000
179.29998953	0.00000000	-37.94907000	-20.57087000
179.49998952	0.00000000	-37.94907000	-20.57087000
179.69998951	0.00000000	-37.94907000	-20.94611000
179.89998950	0.00000000	-37.94907000	-21.68430000
180.09998948	0.00000000	-37.94907000	-22.05955000
180.29998947	0.00000000	-37.94907000	-22.10261000
180.49998946	0.00000000	-37.94907000	-22.05955000
180.69998945	0.00000000	-37.94907000	-21.72736000
180.89998944	0.00000000	-37.94907000	-21.36442000
181.09998942	0.00000000	-37.94907000	-21.68430000
181.29998941	0.00000000	-37.94907000	-21.64124000
181.49998940	0.00000000	-37.94907000	-20.94611000
181.69998939	0.00000000	-37.94907000	-20.57087000
181.89998938	0.00000000	-37.94907000	-20.52780000
182.09998937	0.00000000	-37.94907000	-20.52780000
182.29998935	0.00000000	-37.94907000	-20.52780000
182.49998934	0.00000000	-37.94907000	-20.52780000
182.69998933	0.00000000	-37.94907000	-20.57087000
182.89998932	0.00000000	-37.94907000	-20.94611000
183.09998931	0.00000000	-37.94907000	-21.68430000
183.29998929	0.00000000	-37.94907000	-22.05955000
183.49998928	0.00000000	-37.94907000	-22.10261000
183.69998927	0.00000000	-37.94907000	-22.10261000
183.89998926	0.00000000	-37.94907000	-22.05955000
184.09998925	0.00000000	-37.94907000	-21.68430000
184.29998923	0.00000000	-37.94907000	-20.94611000
184.49998922	0.00000000	-37.94907000	-20.57087000
184.69998921	0.00000000	-37.94907000	-20.52780000
184.89998920	0.00000000	-37.94907000	-20.52780000
185.09998919	0.00000000	-37.94907000	-20.52780000
185.29998918	0.00000000	-37.94907000	-20.52780000
185.49998916	0.00000000	-37.94907000	-20.52780000
185.69998915	0.00000000	-37.94907000	-20.52780000
185.89998914	0.00000000	-37.94907000	-20.52780000
186.09998913	0.00000000	-37.94907000	-20.57087000
186.29998912	0.00000000	-37.94907000	-20.94611000
186.49998910	0.00000000	-37.94907000	-21.68430000
186.69998909	0.00000000	-37.94907000	-22.01033000
186.89998908	0.00000000	-37.94907000	-21.68430000
187.09998907	0.00000000	-37.94907000	-20.94611000
187.29998906	0.00000000	-37.94907000	-20.57087000
187.49998904	0.00000000	-37.94907000	-20.48474000
187.69998903	0.00000000	-37.94907000	-20.15256000
187.89998902	0.00000000	-37.94907000	-19.74040000
188.09998901	0.00000000	-37.94907000	-19.77731000
188.29998900	0.00000000	-37.94907000	-19.74040000
188.49998899	0.00000000	-37.94907000	-20.15256000
188.69998897	0.00000000	-37.94907000	-20.52780000
188.89998896	0.00000000	-37.90600000	-20.90305000
189.09998895	0.00000000	-37.57381000	-21.26599000
189.29998894	0.00000000	-37.20472000	-20.90305000
189.49998893	0.00000000	-37.57381000	-20.62008000
189.69998891	0.00000000	-37.90600000	-20.90305000
189.89998890	0.00000000	-37.94907000	-21.26599000
190.09998889	0.00000000	-37.94907000	-20.90305000
190.29998888	0.00000000	-37.94907000	-20.57087000
190.49998887	0.00000000	-37.94907000	-20.52780000
190.69998885	0.00000000	-37.99213000	-20.52780000
190.89998884	0.00000000	-38.32431000	-20.52780000
191.09998883	0.00000000	-38.69341000	-20.52780000
191.29998882	0.00000000	-38.32431000	-20.52780000
191.49998881	0.00000000	-37.99213000	-20.57087000
191.69998880	0.00000000	-37.94907000	-20.94611000
191.89998878	0.00000000	-37.94907000	-21.68430000
192.09998877	0.00000000	-37.94907000	-22.01033000
192.29998876	0.00000000	-37.94907000	-21.72736000
192.49998875	0.00000000	-37.94907000	-21.36442000
192.69998874	0.00000000	-37.94907000	-21.72736000
192.89998872	0.00000000	-37.99213000	-22.05955000
193.09998871	0.00000000	-38.36737000	-22.10261000
193.29998870	0.00000000	-39.11171000	-22.10261000
193.49998869	0.00000000	-39.43774000	-22.05955000
193.69998868	0.00000000	-39.15477000	-21.68430000
193.89998866	0.00000000	-38.74261000	-20.94611000
194.09998865	0.00000000	-38.73647000	-20.57087000
194.29998864	0.00000000	-38.32431000	-20.52780000
194.49998863	0.00000000	-37.99213000	-20.52780000
194.69998862	0.00000000	-37.94907000	-20.57087000
194.89998861	0.00000000	-37.94907000	-20.94611000
195.09998859	0.00000000	-37.94907000	-21.68430000
195.29998858	0.00000000	-37.94907000	-22.05955000
195.49998857	0.00000000	-37.99213000	-22.10261000
195.69998856	0.00000000	-38.36737000	-22.10261000
195.89998855	0.00000000	-39.11171000	-22.10261000
196.09998853	0.00000000	-39.48696000	-22.10261000
