Time	Channel A	Channel B	Channel C
(us)	(V)	(mV)	(mV)

-4.59999956	0.00000000	11.06668000	-3.15575800
-4.39999957	0.00000000	11.06668000	-3.15575800
-4.19999958	0.00000000	11.06668000	-3.15575800
-3.99999959	0.00000000	11.06668000	-3.15575800
-3.79999960	0.00000000	11.06668000	-3.15575800
-3.59999962	0.00000000	11.06668000	-3.15575800
-3.39999963	0.00000000	11.06668000	-3.15575800
-3.19999964	0.00000000	11.06668000	-3.15575800
-2.99999965	0.00000000	11.06668000	-3.15575800
-2.79999966	0.00000000	11.06668000	-3.15575800
-2.59999968	0.00000000	11.06668000	-3.15575800
-2.39999969	0.00000000	11.06668000	-3.15575800
-2.19999970	0.00000000	11.06668000	-3.15575800
-1.99999971	0.00000000	11.06668000	-3.15575800
-1.79999972	0.00000000	11.06668000	-3.15575800
-1.59999973	0.00000000	11.06668000	-3.15575800
-1.39999975	0.00000000	11.06668000	-3.15575800
-1.19999976	0.00000000	11.06668000	-3.15575800
-0.99999977	0.00000000	11.06668000	-3.15575800
-0.79999978	0.00000000	11.06668000	-3.15575800
-0.59999979	0.00000000	11.06668000	-3.15575800
-0.39999981	0.00000000	11.06668000	-3.15575800
-0.19999982	0.31803640	11.06668000	-3.15575800
0.00000017	0.79601380	11.06668000	-3.15575800
0.20000016	0.95533960	11.06668000	-3.15575800
0.40000015	0.95533960	11.06668000	-3.15575800
0.60000013	0.79601380	11.06668000	-3.15575800
0.80000012	0.15871060	11.06668000	-3.15575800
1.00000011	-0.79601380	11.06668000	-3.15575800
1.20000010	-1.75196900	11.06668000	-3.15575800
1.40000009	-2.54859700	11.06668000	-3.15575800
1.60000008	-2.70792300	11.06668000	-3.15575800
1.80000006	-2.22994600	11.06668000	-3.15575800
2.00000005	-0.79601380	11.06668000	-3.15575800
2.20000004	1.11466500	11.06668000	-3.15575800
2.40000003	3.18590100	11.06668000	-3.15575800
2.60000002	4.77854300	11.02362000	-3.19881900
2.80000000	5.41584600	10.69144000	-3.57406500
2.99999999	4.45989200	10.32234000	-4.31840500
3.19999998	2.22994600	10.64838000	-4.64443900
3.39999997	-0.95533960	10.64838000	-4.31840500
3.59999996	-4.30056600	10.32234000	-3.57406500
3.79999994	-7.00848900	10.69144000	-3.19881900
3.99999993	-7.96444400	11.02362000	-3.11269700
4.19999992	-7.00848900	11.06668000	-2.78051200
4.39999991	-3.98191400	11.06668000	-2.41141700
4.59999990	0.00000000	11.06668000	-2.73745100
4.79999989	4.45989200	11.06668000	-2.73745100
4.99999987	7.80511800	11.06668000	-2.41141700
5.19999986	9.39837600	11.06668000	-2.82357300
5.39999985	8.60174700	11.06668000	-3.53100400
5.59999984	5.57517200	11.06668000	-4.31840500
5.79999983	1.11466500	11.06668000	-4.69365100
5.99999981	-3.50393700	11.06668000	-4.69365100
6.19999980	-7.48646600	11.06668000	-4.31840500
6.39999979	-9.39837600	11.06668000	-3.57406500
6.59999978	-8.92039900	11.06668000	-3.19881900
6.79999977	-6.37180100	11.06668000	-3.15575800
6.99999975	-2.22994600	11.06668000	-3.15575800
7.19999974	2.07062000	11.06668000	-3.15575800
7.39999973	5.73449800	11.02362000	-3.15575800
7.59999972	7.64579200	10.69144000	-3.15575800
7.79999971	7.48646600	10.32234000	-3.15575800
7.99999970	5.57517200	10.69144000	-3.19881900
8.19999968	2.54859700	11.02362000	-3.53100400
8.39999967	-0.79601380	11.06668000	-3.90009800
8.59999966	-3.34522600	11.02362000	-3.53100400
8.79999965	-4.93786900	10.69144000	-3.19881900
8.99999964	-5.09719500	10.32234000	-3.15575800
9.19999962	-3.98191400	10.69144000	-3.15575800
9.39999961	-2.07062000	11.02362000	-3.15575800
9.59999960	-0.15871060	11.06668000	-3.15575800
9.79999959	1.43331700	11.06668000	-3.15575800
9.99999958	2.38927200	11.06668000	-3.15575800
10.19999956	2.54859700	11.02362000	-3.15575800
10.39999955	2.07062000	10.69144000	-3.15575800
10.59999954	1.27399100	10.32234000	-3.15575800
10.79999953	0.31803640	10.69144000	-3.15575800
10.99999952	-0.31803640	11.02362000	-3.15575800
11.19999951	-0.79601380	11.06668000	-3.15575800
11.39999949	-0.95533960	11.06668000	-3.15575800
11.59999948	-0.95533960	11.02362000	-3.15575800
11.79999947	-0.63668800	10.69144000	-3.15575800
11.99999946	-0.31803640	10.32234000	-3.15575800
12.19999945	-0.15871060	10.69144000	-3.15575800
12.39999943	-0.15871060	11.02362000	-3.15575800
12.59999942	-0.15871060	11.06668000	-3.15575800
12.79999941	0.00000000	11.02362000	-3.15575800
12.99999940	0.00000000	10.69144000	-3.15575800
13.19999939	0.00000000	10.32234000	-3.15575800
13.39999937	0.00000000	10.69144000	-3.15575800
13.59999936	0.00000000	11.02362000	-3.15575800
13.79999935	0.00000000	11.06668000	-3.15575800
13.99999934	0.00000000	11.06668000	-3.15575800
14.19999933	-0.15871060	11.06668000	-3.15575800
14.39999932	-0.15871060	11.06668000	-3.15575800
14.59999930	-0.15871060	11.06668000	-3.15575800
14.79999929	0.00000000	11.06668000	-3.15575800
14.99999928	0.00000000	11.06668000	-3.15575800
15.19999927	0.00000000	11.06668000	-3.15575800
15.39999926	0.00000000	11.06668000	-3.15575800
15.59999924	0.15871060	11.02362000	-3.15575800
15.79999923	0.00000000	10.69144000	-3.15575800
15.99999922	0.00000000	10.27928000	-3.15575800
16.19999921	0.00000000	10.31619000	-3.15575800
16.39999920	0.00000000	10.27928000	-3.15575800
16.59999919	0.00000000	10.69144000	-3.15575800
16.79999917	0.00000000	11.02362000	-3.15575800
16.99999916	0.00000000	11.10974000	-3.15575800
17.19999915	0.00000000	11.48499000	-3.15575800
17.39999914	0.00000000	12.22933000	-3.15575800
17.59999913	0.00000000	12.60458000	-3.15575800
17.79999911	0.00000000	12.60458000	-3.15575800
17.99999910	0.00000000	12.18012000	-3.15575800
18.19999909	0.00000000	11.02362000	-3.15575800
18.39999908	0.00000000	9.48572700	-3.15575800
18.59999907	0.00000000	7.90477300	-3.15575800
18.79999905	0.00000000	6.36687900	-3.15575800
18.99999904	-0.15871060	5.29650500	-3.15575800
19.19999903	0.00000000	5.67175200	-3.15575800
19.39999902	0.00000000	7.62180000	-3.15575800
19.59999901	0.00000000	10.32234000	-3.15575800
19.79999900	0.00000000	13.89641000	-3.15575800
19.99999898	0.00000000	17.72268000	-3.15575800
20.19999897	0.00000000	21.16142000	-3.15575800
20.39999896	0.00000000	22.60704000	-3.15575800
20.59999895	0.00000000	21.02608000	-3.15575800
20.79999894	0.00000000	16.36934000	-3.15575800
20.99999892	0.00000000	9.39345400	-3.15575800
21.19999891	0.00000000	1.67322800	-3.15575800
21.39999890	0.00000000	-5.25959600	-3.15575800
21.59999889	0.00000000	-9.49187900	-3.15575800
21.79999888	0.00000000	-9.77485200	-3.15575800
21.99999886	0.00000000	-5.44414400	-3.15575800
22.19999885	0.00000000	3.85088600	-3.15575800
22.39999884	0.00000000	15.80955000	-3.19881900
22.59999883	0.00000000	27.81742000	-3.53100400
22.79999882	0.00000000	37.44463000	-3.90009800
22.99999881	0.00000000	41.96604000	-3.53100400
23.19999879	0.00000000	39.58538000	-3.15575800
23.39999878	0.00000000	29.82283000	-2.73745100
23.59999877	0.00000000	14.41314000	-1.99311000
23.79999876	0.00000000	-3.43873000	-1.61786400
23.99999875	0.00000000	-19.54970000	-1.57480300
24.19999873	0.00000000	-30.29035000	-1.61786400
24.39999872	0.00000000	-31.36688000	-2.04232300
24.59999871	0.00000000	-22.52707000	-3.19881900
24.79999870	0.00000000	-5.81938900	-4.73671200
24.99999869	0.00000000	15.80955000	-6.31151500
25.19999867	0.00000000	37.40157000	-7.84940900
25.39999866	0.00000000	53.59251000	-8.96284400
25.59999865	0.00000000	60.52534000	-8.91978400
25.79999864	0.00000000	56.20078000	-7.38188900
25.99999863	0.00000000	41.08022000	-4.64443900
26.19999862	0.00000000	17.95645000	-1.11343500
26.39999860	0.00000000	-7.44955700	3.06963600
26.59999859	0.00000000	-28.34030000	6.50221400
26.79999858	0.00000000	-40.39124000	7.67101300
26.99999857	0.00000000	-41.50467000	6.87746000
27.19999856	0.00000000	-31.04084000	3.67249000
27.39999854	0.00000000	-10.98671000	-2.12844500
27.59999853	0.00000000	13.67495000	-9.47342500
27.79999852	0.00000000	36.89099000	-16.76919000
27.99999851	0.00000000	53.54945000	-22.15797000
28.19999850	0.00000000	60.52534000	-23.97884000
28.39999848	0.00000000	56.29306000	-21.22908000
28.59999847	0.00000000	42.05216000	-13.47810000
28.79999846	0.00000000	21.57972000	-2.69439000
28.99999845	0.00000000	-0.42445860	8.96284400
29.19999844	0.00000000	-18.98376000	19.32825000
29.39999843	0.00000000	-29.87205000	25.83046000
29.59999841	0.00000000	-31.54527000	26.11343000
29.79999840	0.00000000	-24.61245000	19.55585000
29.99999839	0.00000000	-11.07283000	7.20349400
30.19999838	0.00000000	6.32381900	-7.89247000
30.39999837	0.00000000	23.67741000	-22.95152000
30.59999835	0.00000000	36.89099000	-34.88558000
30.79999834	0.00000000	43.54699000	-40.23745000
30.99999833	0.00000000	43.21481000	-37.95522000
31.19999832	0.00000000	36.28199000	-28.24803000
31.39999831	0.00000000	24.69857000	-13.14591000
31.59999829	0.00000000	11.15896000	4.64443900
31.79999828	0.00000000	-1.63016700	21.55512000
31.99999827	0.00000000	-10.93750000	33.12623000
32.19999826	0.00000000	-15.26206000	36.65723000
32.39999825	0.00000000	-14.09941000	32.01279000
32.59999824	0.00000000	-7.95398600	20.02337000
32.79999822	0.00000000	1.71628900	3.02042300
32.99999821	0.00000000	12.51230000	-15.14518000
33.19999820	0.00000000	22.18258000	-30.98548000
33.39999819	0.00000000	28.42027000	-41.02485000
33.59999818	0.00000000	30.37647000	-42.97490000
33.79999816	0.00000000	28.08809000	-36.84178000
33.99999815	0.00000000	21.90576000	-24.06496000
34.19999814	0.00000000	13.85334000	-7.47416300
34.39999813	0.00000000	5.67175200	9.52263600
34.59999812	0.00000000	-0.84891720	23.04995000
34.79999810	0.00000000	-4.33070900	30.43184000
34.99999809	0.00000000	-3.54330700	30.43184000
35.19999808	0.00000000	0.97194880	23.09301000
35.39999807	0.00000000	7.48646600	10.03322000
35.59999806	0.00000000	13.67495000	-5.38877900
35.79999805	0.00000000	18.32554000	-19.28519000
35.99999803	0.00000000	20.65084000	-28.98622000
36.19999802	0.00000000	19.90650000	-32.43110000
36.39999801	0.00000000	16.83686000	-28.98622000
36.59999800	0.00000000	12.18012000	-19.42052000
36.79999799	0.00000000	6.83439900	-6.73597400
36.99999797	0.00000000	2.64517700	5.57947800
37.19999796	0.00000000	1.06422200	14.81914000
37.39999795	0.00000000	2.17765700	18.31324000
37.59999794	0.00000000	5.25344500	15.66191000
37.79999793	0.00000000	9.52879000	7.99089500
37.99999791	0.00000000	14.13632000	-2.69439000
38.19999790	0.00000000	17.99951000	-12.63533000
38.39999789	0.00000000	19.90650000	-18.81767000
38.59999788	0.00000000	19.53125000	-20.02337000
38.79999787	0.00000000	16.87992000	-16.16634000
38.99999786	0.00000000	13.02288000	-8.50147600
39.19999784	0.00000000	9.11048200	1.06422200
39.39999783	0.00000000	5.21038300	9.43036400
39.59999782	0.00000000	2.17765700	13.66265000
39.79999781	0.00000000	0.97194880	12.50000000
39.99999780	0.00000000	1.75935000	6.36687900
40.19999778	0.00000000	4.09079700	-3.20497000
40.39999777	0.00000000	7.94783400	-13.14591000
40.59999776	0.00000000	12.18012000	-20.44168000
40.79999775	0.00000000	15.71727000	-23.13607000
40.99999774	0.00000000	18.41781000	-20.48474000
41.19999772	0.00000000	19.58046000	-13.56422000
41.39999771	0.00000000	18.83612000	-4.31840500
41.59999770	0.00000000	16.87992000	5.29650500
41.79999769	0.00000000	13.76107000	12.54921000
41.99999768	0.00000000	9.90403500	15.28666000
42.19999767	0.00000000	6.41609200	13.01058000
42.39999765	0.00000000	3.71555100	6.87746000
42.59999764	0.00000000	2.50984200	-1.57480300
42.79999763	0.00000000	2.87893700	-10.03322000
42.99999762	0.00000000	4.04773600	-16.21555000
43.19999761	0.00000000	6.36687900	-18.95300000
43.39999759	0.00000000	9.01820900	-17.83957000
43.59999758	0.00000000	11.02362000	-13.61343000
43.79999757	0.00000000	12.60458000	-7.47416300
43.99999756	0.00000000	13.76107000	-0.92888770
44.19999755	0.00000000	14.18553000	4.09079700
44.39999753	0.00000000	14.22859000	6.82824800
44.59999752	0.00000000	14.18553000	6.82824800
44.79999751	0.00000000	13.85334000	4.18307100
44.99999750	0.00000000	13.44119000	0.00000000
45.19999749	0.00000000	13.39198000	-4.22613100
45.39999748	0.00000000	12.51230000	-7.38188900
45.59999746	0.00000000	10.59916000	-9.33809000
45.79999745	0.00000000	7.86171200	-10.11934000
45.99999744	0.00000000	4.78592500	-9.33809000
46.19999743	0.00000000	2.04847400	-7.43110200
46.39999742	0.00000000	0.17839570	-4.73671200
46.59999740	0.00000000	-0.14148620	-2.08538400
46.79999739	0.00000000	2.22687000	-0.51058070
46.99999738	0.00000000	6.83439900	-0.04306102
47.19999737	0.00000000	12.69070000	-0.04306102
47.39999736	0.00000000	18.87918000	-0.51058070
47.59999734	0.00000000	24.23105000	-2.04232300
47.79999733	0.00000000	26.88238000	-4.31840500
47.99999732	0.00000000	25.67667000	-6.26845500
48.19999731	0.00000000	20.65084000	-7.80019600
48.39999730	0.00000000	12.55536000	-8.54453700
48.59999729	0.00000000	3.71555100	-7.80019600
48.79999727	0.00000000	-3.67864200	-6.26845500
48.99999726	0.00000000	-8.28617100	-4.26919300
49.19999725	0.00000000	-8.98129900	-1.58095500
49.39999724	0.00000000	-4.74901600	1.07037400
49.59999723	0.00000000	3.34030500	2.60211600
49.79999721	0.00000000	12.97982000	2.60211600
49.99999720	0.00000000	22.23179000	1.07037400
50.19999719	0.00000000	28.37721000	-1.66707700
50.39999718	0.00000000	29.95817000	-5.15501900
50.59999717	0.00000000	26.83932000	-8.96284400
50.79999715	0.00000000	19.53125000	-11.61417000
50.99999714	0.00000000	9.95324800	-12.03248000
51.19999713	0.00000000	1.10728300	-10.49459000
51.39999712	0.00000000	-4.74901600	-7.38188900
51.59999711	0.00000000	-6.66215500	-3.15575800
51.79999710	0.00000000	-4.37376900	1.07037400
51.99999708	0.00000000	1.80856300	4.18307100
52.19999707	0.00000000	9.81791200	5.71481200
52.39999706	0.00000000	17.53199000	5.29650500
52.59999705	0.00000000	22.51476000	2.60211600
52.79999704	0.00000000	23.76353000	-1.57480300
52.99999702	0.00000000	21.44439000	-5.85014700
53.19999701	0.00000000	16.41855000	-9.33809000
53.39999700	0.00000000	9.52879000	-11.61417000
53.59999699	0.00000000	3.02042300	-11.61417000
53.79999698	0.00000000	-0.84891720	-9.38115100
53.99999696	0.00000000	-1.63016700	-6.31151500
54.19999695	0.00000000	1.06422200	-3.19881900
54.39999694	0.00000000	6.41609200	-0.55364170
54.59999693	0.00000000	12.51230000	0.60285430
54.79999692	0.00000000	17.53199000	-0.09227362
54.99999691	0.00000000	19.86343000	-1.57480300
55.19999689	0.00000000	19.53125000	-3.15575800
55.39999688	0.00000000	16.79380000	-4.68750000
55.59999687	0.00000000	12.22933000	-5.80093500
55.79999686	0.00000000	7.20964500	-5.75787400
55.99999685	0.00000000	3.38951800	-4.26919300
56.19999683	0.00000000	1.43946800	-2.04232300
56.39999682	0.00000000	2.22687000	-0.51058070
56.59999681	0.00000000	5.21038300	-0.13533460
56.79999680	0.00000000	9.11048200	-0.92888770
56.99999679	0.00000000	12.97982000	-3.29109200
57.19999677	0.00000000	16.41855000	-6.68676100
57.39999676	0.00000000	17.90723000	-10.11934000
57.59999675	0.00000000	16.83686000	-11.98327000
57.79999674	0.00000000	14.18553000	-11.61417000
57.99999673	0.00000000	11.10974000	-8.87672100
58.19999672	0.00000000	8.37229300	-4.27534400
58.39999670	0.00000000	6.41609200	1.11343500
58.59999669	0.00000000	5.29650500	5.71481200
58.79999668	0.00000000	5.67175200	8.40920300
58.99999667	0.00000000	7.52952700	8.31692900
59.19999666	0.00000000	9.44266700	4.87819900
59.39999664	0.00000000	11.02362000	-1.29183100
59.59999663	0.00000000	12.18012000	-8.17544300
59.79999662	0.00000000	12.55536000	-14.35162000
59.99999661	0.00000000	12.18012000	-17.79035000
60.19999660	0.00000000	11.06668000	-17.79035000
60.39999658	0.00000000	9.90403500	-14.30241000
60.59999657	0.00000000	9.15354300	-7.75713500
60.79999656	0.00000000	8.74138700	-0.09227362
60.99999655	0.00000000	9.15354300	6.87746000
61.19999654	0.00000000	9.90403500	11.47884000
61.39999653	0.00000000	11.06668000	12.63533000
61.59999651	0.00000000	12.18012000	9.89788300
61.79999650	0.00000000	12.55536000	3.76476400
61.99999649	0.00000000	12.18012000	-4.31840500
62.19999648	0.00000000	11.02362000	-12.03248000
62.39999647	0.00000000	9.48572700	-17.83957000
62.59999645	0.00000000	7.94783400	-20.48474000
62.79999644	0.00000000	6.79133800	-18.95300000
62.99999643	0.00000000	6.41609200	-13.61343000
63.19999642	0.00000000	6.83439900	-6.26845500
63.39999641	0.00000000	8.37229300	1.44562000
63.59999639	0.00000000	10.69144000	7.99089500
63.79999638	0.00000000	12.97982000	11.47884000
63.99999637	0.00000000	14.88066000	11.52190000
64.19999636	0.00000000	15.25591000	8.40920300
64.39999635	0.00000000	14.13632000	2.64517700
64.59999634	0.00000000	12.22933000	-4.26919300
64.79999632	0.00000000	9.90403500	-10.45152000
64.99999631	0.00000000	7.99704600	-14.72072000
65.19999630	0.00000000	6.79133800	-16.30167000
65.39999629	0.00000000	6.41609200	-15.18824000
65.59999628	0.00000000	6.79133800	-12.11860000
65.79999626	0.00000000	7.99704600	-7.84940900
65.99999625	0.00000000	9.86097400	-3.20497000
66.19999624	0.00000000	11.76181000	1.07037400
66.39999623	0.00000000	12.51230000	4.18307100
66.59999622	0.00000000	12.18012000	5.75787400
66.79999620	0.00000000	11.02362000	5.75787400
66.99999619	0.00000000	9.48572700	4.26919300
67.19999618	0.00000000	7.99704600	1.90698800
67.39999617	0.00000000	7.20964500	-0.83661410
67.59999616	0.00000000	7.62180000	-4.36146600
67.79999615	0.00000000	8.79060000	-7.80019600
67.99999613	0.00000000	11.10974000	-10.53765000
68.19999612	0.00000000	13.71801000	-12.11860000
68.39999611	0.00000000	15.25591000	-12.53691000
68.59999610	0.00000000	15.25591000	-12.11860000
68.79999609	0.00000000	13.71801000	-10.49459000
68.99999607	0.00000000	10.97441000	-7.38188900
69.19999606	0.00000000	7.52952700	-3.11269700
69.39999605	0.00000000	4.09079700	1.48868100
69.59999604	0.00000000	2.13459600	5.33956700
69.79999603	0.00000000	1.75935000	7.24655500
69.99999601	0.00000000	2.97736200	6.92052100
70.19999600	0.00000000	6.45915300	4.55831700
70.39999599	0.00000000	11.06668000	0.69512790
70.59999598	0.00000000	15.71727000	-4.36146600
70.79999597	0.00000000	19.53125000	-9.33809000
70.99999596	0.00000000	21.06914000	-13.18898000
71.19999594	0.00000000	19.90650000	-14.76993000
71.39999593	0.00000000	16.46161000	-13.98253000
71.59999592	0.00000000	11.39887000	-11.28199000
71.79999591	0.00000000	5.99163300	-6.64370100
71.99999590	0.00000000	0.97194880	-1.71013800
72.19999588	0.00000000	-2.05462600	2.18380900
72.39999587	0.00000000	-2.09768700	4.14000900
72.59999586	0.00000000	0.59670270	4.18307100
72.79999585	0.00000000	5.21038300	2.64517700
72.99999584	0.00000000	10.64838000	-0.04306102
73.19999582	0.00000000	15.67421000	-3.11269700
73.39999581	0.00000000	19.53125000	-5.80093500
73.59999580	0.00000000	21.06914000	-7.33882900
73.79999579	0.00000000	19.95571000	-7.38188900
73.99999578	0.00000000	16.87992000	-6.26845500
74.19999577	0.00000000	12.64764000	-4.73671200
74.39999575	0.00000000	8.32308000	-3.24803100
74.59999574	0.00000000	4.50295200	-2.50369100
74.79999573	0.00000000	1.81471400	-3.24803100
74.99999572	0.00000000	1.80856300	-4.73671200
75.19999571	0.00000000	3.62942900	-6.26845500
75.39999569	0.00000000	6.36687900	-7.38188900
75.59999568	0.00000000	9.44266700	-7.33882900
75.79999567	0.00000000	12.13706000	-5.80093500
75.99999566	0.00000000	13.71801000	-3.11269700
76.19999565	0.00000000	14.13632000	-0.04306102
76.39999563	0.00000000	13.76107000	2.64517700
76.59999562	0.00000000	12.60458000	4.14000900
76.79999561	0.00000000	11.10974000	3.71555100
76.99999560	0.00000000	9.95324800	1.02116100
77.19999559	0.00000000	9.52879000	-3.20497000
77.39999558	0.00000000	9.48572700	-7.84940900
77.59999556	0.00000000	9.48572700	-12.07554000
77.79999555	0.00000000	9.44266700	-14.76993000
77.99999554	0.00000000	9.06742000	-15.09596000
78.19999553	0.00000000	8.28001900	-12.77067000
78.39999552	0.00000000	7.52952700	-7.80019600
78.59999550	0.00000000	6.74212600	-2.04232300
78.79999549	0.00000000	6.41609200	3.02042300
78.99999548	0.00000000	6.83439900	6.87746000
79.19999547	0.00000000	8.37229300	8.40920300
79.39999546	0.00000000	10.64838000	7.25270600
79.59999544	0.00000000	12.60458000	3.80782500
79.79999543	0.00000000	14.18553000	-1.19955700
79.99999542	0.00000000	15.29897000	-6.21924200
80.19999541	0.00000000	15.25591000	-10.53765000
80.39999540	0.00000000	13.71801000	-13.60728000
80.59999539	0.00000000	11.02362000	-14.76993000
80.79999537	0.00000000	7.94783400	-13.60728000
80.99999536	0.00000000	5.29650500	-10.53765000
81.19999535	0.00000000	4.13385800	-6.31151500
81.39999534	0.00000000	4.83513700	-2.04232300
81.59999533	0.00000000	6.36687900	1.48868100
81.79999531	0.00000000	8.37229300	4.18307100
81.99999530	0.00000000	11.02362000	5.33956700
82.19999529	0.00000000	13.34276000	4.60137700
82.39999528	0.00000000	14.51156000	2.69439000
82.59999527	0.00000000	14.92372000	-0.04306102
82.79999525	0.00000000	14.09326000	-3.15575800
82.99999524	0.00000000	12.22933000	-6.31151500
83.19999523	0.00000000	9.95324800	-9.42421200
83.39999522	0.00000000	8.37229300	-12.07554000
83.59999521	0.00000000	7.52952700	-13.23819000
83.79999520	0.00000000	6.79133800	-12.45079000
83.99999518	0.00000000	6.83439900	-10.16855000
84.19999517	0.00000000	7.90477300	-6.64370100
84.39999516	0.00000000	9.01820900	-2.78051200
84.59999515	0.00000000	9.44266700	1.11343500
84.79999514	0.00000000	9.52879000	4.18307100
84.99999512	0.00000000	9.90403500	5.75787400
85.19999511	0.00000000	10.64838000	5.71481200
85.39999510	0.00000000	11.02362000	3.76476400
85.59999509	0.00000000	11.10974000	-0.09227362
85.79999508	0.00000000	11.48499000	-4.69365100
85.99999506	0.00000000	12.18012000	-9.00590400
86.19999505	0.00000000	12.18012000	-12.45079000
86.39999504	0.00000000	11.44193000	-14.35162000
86.59999503	0.00000000	10.64838000	-13.56422000
86.79999502	0.00000000	9.44266700	-10.49459000
86.99999501	0.00000000	7.94783400	-5.85014700
87.19999499	0.00000000	6.79133800	-0.51058070
87.39999498	0.00000000	6.41609200	3.71555100
87.59999497	0.00000000	6.79133800	5.71481200
87.79999496	0.00000000	7.94783400	5.71481200
87.99999495	0.00000000	9.48572700	3.76476400
88.19999493	0.00000000	11.06668000	-0.13533460
88.39999492	0.00000000	12.60458000	-5.11195900
88.59999491	0.00000000	13.71801000	-10.07628000
88.79999490	0.00000000	13.67495000	-13.14591000
88.99999489	0.00000000	12.18012000	-13.56422000
89.19999487	0.00000000	9.90403500	-11.65723000
89.39999486	0.00000000	7.99704600	-7.75713500
89.59999485	0.00000000	6.79133800	-2.78051200
89.79999484	0.00000000	6.41609200	2.18380900
89.99999483	0.00000000	6.74212600	5.24729300
90.19999482	0.00000000	7.52952700	5.67175200
90.39999480	0.00000000	8.32308000	3.76476400
90.59999479	0.00000000	9.48572700	-0.13533460
90.79999478	0.00000000	10.59916000	-5.11195900
90.99999477	0.00000000	11.02362000	-10.07628000
91.19999476	0.00000000	11.06668000	-13.10285000
91.39999474	0.00000000	11.02362000	-13.14591000
91.59999473	0.00000000	10.64838000	-10.49459000
91.79999472	0.00000000	9.90403500	-6.26845500
91.99999471	0.00000000	9.52879000	-1.62401600
92.19999470	0.00000000	9.48572700	2.60211600
92.39999468	0.00000000	9.48572700	5.24729300
92.59999467	0.00000000	9.48572700	5.24729300
92.79999466	0.00000000	9.44266700	2.60211600
92.99999465	0.00000000	9.06742000	-1.62401600
93.19999464	0.00000000	8.28001900	-6.21924200
93.39999463	0.00000000	7.52952700	-10.07628000
93.59999461	0.00000000	6.79133800	-11.98327000
93.79999460	0.00000000	6.83439900	-11.61417000
93.99999459	0.00000000	7.94783400	-8.91978400
94.19999458	0.00000000	9.48572700	-4.73671200
94.39999457	0.00000000	11.06668000	-0.51058070
94.59999455	0.00000000	12.64764000	2.55905500
94.79999454	0.00000000	14.13632000	3.71555100
94.99999453	0.00000000	14.88066000	2.60211600
95.19999452	0.00000000	14.09326000	-0.09227362
95.39999451	0.00000000	12.18012000	-3.57406500
95.59999449	0.00000000	9.44266700	-7.38188900
95.79999448	0.00000000	6.36687900	-10.03322000
95.99999447	0.00000000	3.67249000	-10.45152000
96.19999446	0.00000000	2.17765700	-8.96284400
96.39999445	0.00000000	2.50984200	-6.26845500
96.59999444	0.00000000	4.45989200	-3.15575800
96.79999442	0.00000000	7.16043300	-0.13533460
96.99999441	0.00000000	10.69144000	1.76550200
97.19999440	0.00000000	14.13632000	1.43946800
97.39999439	0.00000000	16.87992000	-0.04306102
97.59999438	0.00000000	18.37475000	-1.99311000
97.79999436	0.00000000	17.95029000	-4.31840500
97.99999435	0.00000000	15.29897000	-6.22539300
98.19999434	0.00000000	11.44193000	-7.38188900
98.39999433	0.00000000	7.57258800	-7.38188900
98.59999432	0.00000000	4.09079700	-6.26845500
98.79999430	0.00000000	2.13459600	-4.77977300
98.99999429	0.00000000	1.71628900	-3.57406500
99.19999428	0.00000000	2.55290300	-2.82357300
99.39999427	0.00000000	5.25344500	-2.41141700
99.59999426	0.00000000	9.06742000	-2.78051200
99.79999425	0.00000000	12.55536000	-3.11269700
99.99999423	0.00000000	15.29897000	-3.11269700
100.19999422	0.00000000	16.83686000	-2.73745100
100.39999421	0.00000000	16.83686000	-1.99311000
100.59999420	0.00000000	15.34203000	-1.61786400
100.79999419	0.00000000	13.02288000	-1.61786400
100.99999417	0.00000000	10.64838000	-2.04232300
101.19999416	0.00000000	7.90477300	-3.19881900
101.39999415	0.00000000	5.25344500	-4.73671200
101.59999414	0.00000000	3.71555100	-6.26845500
101.79999413	0.00000000	3.67249000	-7.42495000
101.99999411	0.00000000	4.83513700	-7.75713500
102.19999410	0.00000000	6.74212600	-7.05585600
102.39999409	0.00000000	9.06742000	-5.48720400
102.59999408	0.00000000	11.02362000	-3.90009800
102.79999407	0.00000000	12.60458000	-1.58095500
102.99999406	0.00000000	13.76107000	0.64591530
103.19999404	0.00000000	14.13632000	1.43946800
103.39999403	0.00000000	13.71801000	1.06422200
103.59999402	0.00000000	12.18012000	-0.51058070
103.79999401	0.00000000	9.90403500	-3.19881900
103.99999400	0.00000000	7.94783400	-6.22539300
104.19999398	0.00000000	6.41609200	-8.54453700
104.39999397	0.00000000	5.62869100	-9.38115100
104.59999396	0.00000000	5.99163300	-9.33809000
104.79999395	0.00000000	6.74212600	-8.12622900
104.99999394	0.00000000	7.94783400	-5.11195900
105.19999392	0.00000000	9.48572700	-2.08538400
105.39999391	0.00000000	11.02362000	-0.09227362
105.59999390	0.00000000	12.13706000	1.06422200
105.79999389	0.00000000	12.13706000	1.02116100
105.99999388	0.00000000	11.06668000	-0.46751960
106.19999387	0.00000000	9.95324800	-2.73745100
106.39999385	0.00000000	9.44266700	-4.68750000
106.59999384	0.00000000	8.69217500	-6.26845500
106.79999383	0.00000000	7.62795300	-7.38188900
106.99999382	0.00000000	7.99704600	-7.33882900
107.19999381	0.00000000	9.06742000	-5.89320800
107.39999379	0.00000000	9.86097400	-3.94931100
107.59999378	0.00000000	10.64838000	-2.45447800
107.79999377	0.00000000	11.02362000	-1.25492100
107.99999376	0.00000000	11.02362000	-1.29183100
108.19999375	0.00000000	10.59916000	-1.99311000
108.39999374	0.00000000	9.48572700	-3.19881900
108.59999372	0.00000000	8.32308000	-4.73671200
108.79999371	0.00000000	7.57258800	-6.26845500
108.99999370	0.00000000	7.16043300	-7.38188900
109.19999369	0.00000000	7.57258800	-7.33882900
109.39999368	0.00000000	8.32308000	-5.85014700
109.59999366	0.00000000	9.48572700	-3.57406500
109.79999365	0.00000000	10.64838000	-1.66707700
109.99999364	0.00000000	11.44193000	-0.46136810
110.19999363	0.00000000	12.18012000	-0.09227362
110.39999362	0.00000000	12.13706000	-0.46136810
110.59999360	0.00000000	11.02362000	-1.62401600
110.79999359	0.00000000	9.52879000	-3.15575800
110.99999358	0.00000000	8.37229300	-4.68750000
111.19999357	0.00000000	7.94783400	-5.89320800
111.39999356	0.00000000	7.90477300	-6.64370100
111.59999355	0.00000000	7.94783400	-7.00664300
111.79999353	0.00000000	8.32308000	-6.26845500
111.99999352	0.00000000	9.11048200	-5.15501900
112.19999351	0.00000000	9.86097400	-4.36146600
112.39999350	0.00000000	10.64838000	-3.53100400
112.59999349	0.00000000	10.97441000	-2.82357300
112.79999347	0.00000000	10.64838000	-2.36835600
112.99999346	0.00000000	9.90403500	-2.40526600
113.19999345	0.00000000	9.52879000	-2.36835600
113.39999344	0.00000000	9.48572700	-2.82357300
113.59999343	0.00000000	9.48572700	-3.53100400
113.79999341	0.00000000	9.48572700	-4.31840500
113.99999340	0.00000000	9.48572700	-4.69365100
114.19999339	0.00000000	9.48572700	-4.73671200
114.39999338	0.00000000	9.48572700	-4.73671200
114.59999337	0.00000000	9.48572700	-4.73671200
114.79999336	0.00000000	9.48572700	-4.73671200
114.99999334	0.00000000	9.48572700	-4.73671200
115.19999333	0.00000000	9.52879000	-4.73671200
115.39999332	0.00000000	9.86097400	-4.73671200
115.59999331	0.00000000	10.23007000	-4.69365100
115.79999330	0.00000000	9.86097400	-4.31840500
115.99999328	0.00000000	9.52879000	-3.53100400
116.19999327	0.00000000	9.48572700	-2.78051200
116.39999326	0.00000000	9.44266700	-1.99311000
116.59999325	0.00000000	9.06742000	-1.61786400
116.79999324	0.00000000	8.32308000	-1.61786400
116.99999322	0.00000000	7.99704600	-1.99311000
117.19999321	0.00000000	8.37229300	-2.78051200
117.39999320	0.00000000	9.48572700	-3.53100400
117.59999319	0.00000000	10.59916000	-4.36146600
117.79999318	0.00000000	11.02362000	-5.11195900
117.99999317	0.00000000	11.06668000	-5.89320800
118.19999315	0.00000000	11.06668000	-6.21924200
118.39999314	0.00000000	11.02362000	-5.89320800
118.59999313	0.00000000	10.59916000	-5.11195900
118.79999312	0.00000000	9.48572700	-4.36146600
118.99999311	0.00000000	8.32308000	-3.53100400
119.19999309	0.00000000	7.52952700	-2.78051200
119.39999308	0.00000000	6.79133800	-1.99311000
119.59999307	0.00000000	6.79133800	-1.66707700
119.79999306	0.00000000	7.52952700	-1.99311000
119.99999305	0.00000000	8.32308000	-2.73745100
120.19999303	0.00000000	9.52879000	-3.15575800
120.39999302	0.00000000	11.02362000	-3.57406500
120.59999301	0.00000000	12.18012000	-4.31840500
120.79999300	0.00000000	12.55536000	-4.69365100
120.99999299	0.00000000	12.22933000	-4.73671200
121.19999298	0.00000000	11.39887000	-4.77977300
121.39999296	0.00000000	10.27313000	-5.11195900
121.59999295	0.00000000	8.69832600	-5.47490100
121.79999294	0.00000000	7.57258800	-5.11195900
121.99999293	0.00000000	6.74212600	-4.73671200
122.19999292	0.00000000	6.41609200	-4.31840500
122.39999290	0.00000000	6.74212600	-3.53100400
122.59999289	0.00000000	7.52952700	-2.78051200
122.79999288	0.00000000	8.32308000	-1.99311000
122.99999287	0.00000000	9.48572700	-1.66707700
123.19999286	0.00000000	10.59916000	-1.99311000
123.39999284	0.00000000	11.02362000	-2.73745100
123.59999283	0.00000000	11.06668000	-3.15575800
123.79999282	0.00000000	11.06668000	-3.57406500
123.99999281	0.00000000	11.02362000	-4.36146600
124.19999280	0.00000000	10.64838000	-5.06274600
124.39999279	0.00000000	9.86097400	-5.47490100
124.59999277	0.00000000	9.11048200	-5.11195900
124.79999276	0.00000000	8.32308000	-4.77977300
124.99999275	0.00000000	7.90477300	-4.69365100
125.19999274	0.00000000	7.52952700	-4.31840500
125.39999273	0.00000000	7.16043300	-3.57406500
125.59999271	0.00000000	7.57258800	-3.19881900
125.79999270	0.00000000	8.28001900	-3.15575800
125.99999269	0.00000000	9.11048200	-3.15575800
126.19999268	0.00000000	9.86097400	-3.15575800
126.39999267	0.00000000	10.69144000	-3.15575800
126.59999265	0.00000000	11.39887000	-3.19881900
126.79999264	0.00000000	11.81102000	-3.57406500
126.99999263	0.00000000	11.39887000	-4.31840500
127.19999262	0.00000000	10.64838000	-4.69365100
127.39999261	0.00000000	9.48572700	-4.73671200
127.59999260	0.00000000	8.32308000	-4.73671200
127.79999258	0.00000000	7.52952700	-4.73671200
127.99999257	0.00000000	6.79133800	-4.73671200
128.19999256	0.00000000	6.83439900	-4.69365100
128.39999255	0.00000000	7.90477300	-4.31840500
128.59999254	0.00000000	9.06742000	-3.57406500
128.79999252	0.00000000	9.90403500	-3.19881900
128.99999251	0.00000000	11.02362000	-3.15575800
129.19999250	0.00000000	11.76181000	-3.19881900
129.39999249	0.00000000	11.39887000	-3.57406500
129.59999248	0.00000000	10.69144000	-4.31840500
129.79999246	0.00000000	9.86097400	-4.69365100
129.99999245	0.00000000	9.06742000	-4.73671200
130.19999244	0.00000000	7.90477300	-4.73671200
130.39999243	0.00000000	6.83439900	-4.69365100
130.59999242	0.00000000	6.79133800	-4.31840500
130.79999241	0.00000000	7.52952700	-3.57406500
130.99999239	0.00000000	8.32308000	-3.19881900
131.19999238	0.00000000	9.48572700	-3.15575800
131.39999237	0.00000000	10.59916000	-3.15575800
131.59999236	0.00000000	11.02362000	-3.19881900
131.79999235	0.00000000	11.02362000	-3.57406500
131.99999233	0.00000000	10.64838000	-4.36146600
132.19999232	0.00000000	9.90403500	-5.11195900
132.39999231	0.00000000	9.48572700	-5.85014700
132.59999230	0.00000000	9.06742000	-5.85014700
132.79999229	0.00000000	8.37229300	-5.11195900
132.99999227	0.00000000	8.37229300	-4.36146600
133.19999226	0.00000000	9.06742000	-3.53100400
133.39999225	0.00000000	9.44266700	-2.78051200
133.59999224	0.00000000	9.48572700	-1.99311000
133.79999223	0.00000000	9.48572700	-1.66707700
133.99999222	0.00000000	9.48572700	-1.99311000
134.19999220	0.00000000	9.48572700	-2.78051200
134.39999219	0.00000000	9.48572700	-3.53100400
134.59999218	0.00000000	9.48572700	-4.36146600
134.79999217	0.00000000	9.48572700	-5.11195900
134.99999216	0.00000000	9.48572700	-5.89320800
135.19999214	0.00000000	9.48572700	-6.21924200
135.39999213	0.00000000	9.48572700	-5.89320800
135.59999212	0.00000000	9.48572700	-5.11195900
135.79999211	0.00000000	9.48572700	-4.36146600
135.99999210	0.00000000	9.44266700	-3.57406500
136.19999208	0.00000000	9.06742000	-3.15575800
136.39999207	0.00000000	8.32308000	-2.73745100
136.59999206	0.00000000	7.94783400	-2.04232300
136.79999205	0.00000000	7.90477300	-2.04232300
136.99999204	0.00000000	7.94783400	-2.73745100
137.19999203	0.00000000	8.32308000	-3.15575800
137.39999201	0.00000000	9.06742000	-3.57406500
137.59999200	0.00000000	9.48572700	-4.31840500
137.79999199	0.00000000	9.90403500	-4.69365100
137.99999198	0.00000000	10.59916000	-4.77977300
138.19999197	0.00000000	10.59916000	-5.11195900
138.39999195	0.00000000	9.90403500	-5.47490100
138.59999194	0.00000000	9.44266700	-5.11195900
138.79999193	0.00000000	8.69217500	-4.73671200
138.99999192	0.00000000	7.58489100	-4.31840500
139.19999191	0.00000000	7.57258800	-3.57406500
139.39999189	0.00000000	7.86171200	-3.15575800
139.59999188	0.00000000	7.94783400	-2.78051200
139.79999187	0.00000000	8.32308000	-2.41141700
139.99999186	0.00000000	9.06742000	-2.78051200
140.19999185	0.00000000	9.48572700	-3.15575800
140.39999184	0.00000000	9.86097400	-3.57406500
140.59999182	0.00000000	10.23007000	-4.36146600
140.79999181	0.00000000	9.86097400	-5.11195900
140.99999180	0.00000000	9.52879000	-5.89320800
141.19999179	0.00000000	9.44266700	-6.21924200
141.39999178	0.00000000	9.06742000	-5.89320800
141.59999176	0.00000000	8.32308000	-5.11195900
141.79999175	0.00000000	7.99704600	-4.36146600
141.99999174	0.00000000	8.32308000	-3.53100400
142.19999173	0.00000000	9.06742000	-2.78051200
142.39999172	0.00000000	9.44266700	-1.99311000
142.59999170	0.00000000	9.48572700	-1.61786400
142.79999169	0.00000000	9.48572700	-1.66707700
142.99999168	0.00000000	9.48572700	-2.41141700
143.19999167	0.00000000	9.48572700	-3.90009800
143.39999166	0.00000000	9.44266700	-4.69365100
143.59999165	0.00000000	9.06742000	-5.15501900
143.79999163	0.00000000	8.37229300	-5.85014700
143.99999162	0.00000000	8.37229300	-5.85014700
144.19999161	0.00000000	9.06742000	-5.11195900
144.39999160	0.00000000	9.44266700	-4.36146600
144.59999159	0.00000000	9.48572700	-3.57406500
144.79999157	0.00000000	9.48572700	-3.19881900
144.99999156	0.00000000	9.48572700	-3.15575800
145.19999155	0.00000000	9.48572700	-3.15575800
145.39999154	0.00000000	9.48572700	-3.15575800
145.59999153	0.00000000	9.44266700	-3.19881900
145.79999151	0.00000000	9.06742000	-3.57406500
145.99999150	0.00000000	8.37229300	-4.31840500
146.19999149	0.00000000	8.32308000	-4.69365100
146.39999148	0.00000000	8.69217500	-4.73671200
146.59999147	0.00000000	8.69832600	-4.73671200
146.79999146	0.00000000	9.11048200	-4.73671200
146.99999144	0.00000000	9.44266700	-4.69365100
147.19999143	0.00000000	9.52879000	-4.31840500
147.39999142	0.00000000	9.86097400	-3.57406500
147.59999141	0.00000000	10.23007000	-3.15575800
147.79999140	0.00000000	9.86097400	-2.78051200
147.99999138	0.00000000	9.52879000	-2.41141700
148.19999137	0.00000000	9.44266700	-2.78051200
148.39999136	0.00000000	9.06742000	-3.11269700
148.59999135	0.00000000	8.32308000	-3.19881900
148.79999134	0.00000000	7.94783400	-3.57406500
148.99999132	0.00000000	7.94783400	-4.31840500
149.19999131	0.00000000	8.32308000	-4.69365100
149.39999130	0.00000000	9.06742000	-4.73671200
149.59999129	0.00000000	9.44266700	-4.73671200
149.79999128	0.00000000	9.48572700	-4.69365100
149.99999127	0.00000000	9.48572700	-4.31840500
150.19999125	0.00000000	9.48572700	-3.57406500
150.39999124	0.00000000	9.44266700	-3.19881900
150.59999123	0.00000000	9.11048200	-3.15575800
150.79999122	0.00000000	8.69832600	-3.15575800
150.99999121	0.00000000	8.69217500	-3.15575800
151.19999119	0.00000000	8.28001900	-3.19881900
151.39999118	0.00000000	7.94783400	-3.57406500
151.59999117	0.00000000	7.94783400	-4.31840500
151.79999116	0.00000000	8.32308000	-4.69365100
151.99999115	0.00000000	9.06742000	-4.73671200
152.19999113	0.00000000	9.44266700	-4.73671200
152.39999112	0.00000000	9.48572700	-4.73671200
152.59999111	0.00000000	9.48572700	-4.73671200
152.79999110	0.00000000	9.48572700	-4.69365100
152.99999109	0.00000000	9.48572700	-4.31840500
153.19999108	0.00000000	9.48572700	-3.57406500
153.39999106	0.00000000	9.48572700	-3.19881900
153.59999105	0.00000000	9.44266700	-3.15575800
153.79999104	0.00000000	9.06742000	-3.15575800
153.99999103	0.00000000	8.32308000	-3.15575800
154.19999102	0.00000000	7.94783400	-3.15575800
154.39999100	0.00000000	7.90477300	-3.15575800
154.59999099	0.00000000	7.90477300	-3.15575800
154.79999098	0.00000000	7.94783400	-3.19881900
154.99999097	0.00000000	8.32308000	-3.57406500
155.19999096	0.00000000	9.06742000	-4.31840500
155.39999094	0.00000000	9.44266700	-4.69365100
155.59999093	0.00000000	9.48572700	-4.73671200
155.79999092	0.00000000	9.48572700	-4.73671200
155.99999091	0.00000000	9.48572700	-4.73671200
156.19999090	0.00000000	9.48572700	-4.69365100
156.39999089	0.00000000	9.44266700	-4.31840500
156.59999087	0.00000000	9.06742000	-3.57406500
156.79999086	0.00000000	8.32308000	-3.19881900
156.99999085	0.00000000	7.94783400	-3.15575800
157.19999084	0.00000000	7.90477300	-3.15575800
157.39999083	0.00000000	7.90477300	-3.15575800
157.59999081	0.00000000	7.90477300	-3.15575800
157.79999080	0.00000000	7.94783400	-3.19881900
157.99999079	0.00000000	8.32308000	-3.57406500
158.19999078	0.00000000	9.06742000	-4.31840500
158.39999077	0.00000000	9.44266700	-4.69365100
158.59999075	0.00000000	9.48572700	-4.73671200
158.79999074	0.00000000	9.48572700	-4.73671200
158.99999073	0.00000000	9.48572700	-4.69365100
159.19999072	0.00000000	9.48572700	-4.31840500
159.39999071	0.00000000	9.48572700	-3.57406500
159.59999070	0.00000000	9.44266700	-3.19881900
159.79999068	0.00000000	9.06742000	-3.15575800
159.99999067	0.00000000	8.32308000	-3.15575800
160.19999066	0.00000000	7.94783400	-3.15575800
160.39999065	0.00000000	7.90477300	-3.15575800
160.59999064	0.00000000	7.90477300	-3.19881900
160.79999062	0.00000000	7.94783400	-3.57406500
160.99999061	0.00000000	8.32308000	-4.31840500
161.19999060	0.00000000	9.06742000	-4.69365100
161.39999059	0.00000000	9.44266700	-4.73671200
161.59999058	0.00000000	9.48572700	-4.73671200
161.79999056	0.00000000	9.48572700	-4.69365100
161.99999055	0.00000000	9.52879000	-4.31840500
162.19999054	0.00000000	9.86097400	-3.57406500
162.39999053	0.00000000	10.23007000	-3.19881900
162.59999052	0.00000000	9.86097400	-3.15575800
162.79999051	0.00000000	9.52879000	-3.15575800
162.99999049	0.00000000	9.44266700	-3.15575800
163.19999048	0.00000000	9.06742000	-3.15575800
163.39999047	0.00000000	8.32308000	-3.15575800
163.59999046	0.00000000	7.94783400	-3.19881900
163.79999045	0.00000000	7.90477300	-3.57406500
163.99999043	0.00000000	7.90477300	-4.31840500
164.19999042	0.00000000	7.94783400	-4.69365100
164.39999041	0.00000000	8.32308000	-4.73671200
164.59999040	0.00000000	9.06742000	-4.73671200
164.79999039	0.00000000	9.44266700	-4.73671200
164.99999037	0.00000000	9.48572700	-4.73671200
165.19999036	0.00000000	9.48572700	-4.73671200
165.39999035	0.00000000	9.48572700	-4.73671200
165.59999034	0.00000000	9.48572700	-4.69365100
165.79999033	0.00000000	9.44266700	-4.31840500
165.99999032	0.00000000	9.11048200	-3.57406500
166.19999030	0.00000000	8.69832600	-3.24803100
166.39999029	0.00000000	8.69217500	-3.57406500
166.59999028	0.00000000	8.28001900	-4.26919300
166.79999027	0.00000000	7.94783400	-4.26919300
166.99999026	0.00000000	7.94783400	-3.57406500
167.19999024	0.00000000	8.32308000	-3.19881900
167.39999023	0.00000000	9.06742000	-3.15575800
167.59999022	0.00000000	9.44266700	-3.15575800
167.79999021	0.00000000	9.48572700	-3.15575800
167.99999020	0.00000000	9.48572700	-3.15575800
168.19999018	0.00000000	9.48572700	-3.19881900
168.39999017	0.00000000	9.48572700	-3.57406500
168.59999016	0.00000000	9.48572700	-4.31840500
168.79999015	0.00000000	9.44266700	-4.69365100
168.99999014	0.00000000	9.11048200	-4.73671200
169.19999013	0.00000000	8.69832600	-4.73671200
169.39999011	0.00000000	8.69217500	-4.73671200
169.59999010	0.00000000	8.28001900	-4.73671200
169.79999009	0.00000000	7.94783400	-4.73671200
169.99999008	0.00000000	7.90477300	-4.73671200
170.19999007	0.00000000	7.90477300	-4.73671200
170.39999005	0.00000000	7.94783400	-4.69365100
170.59999004	0.00000000	8.28001900	-4.36146600
170.79999003	0.00000000	8.69217500	-3.94931100
170.99999002	0.00000000	8.69832600	-3.98622000
171.19999001	0.00000000	9.11048200	-3.94931100
171.39998999	0.00000000	9.44266700	-4.36146600
171.59998998	0.00000000	9.48572700	-4.69365100
171.79998997	0.00000000	9.48572700	-4.73671200
171.99998996	0.00000000	9.44266700	-4.73671200
172.19998995	0.00000000	9.11048200	-4.73671200
172.39998994	0.00000000	8.74138700	-4.69365100
172.59998992	0.00000000	9.06742000	-4.36146600
172.79998991	0.00000000	9.01820900	-3.94931100
172.99998990	0.00000000	8.32308000	-3.98622000
173.19998989	0.00000000	7.99704600	-3.94931100
173.39998988	0.00000000	8.32308000	-4.31840500
173.59998986	0.00000000	9.06742000	-4.31840500
173.79998985	0.00000000	9.44266700	-3.99237200
173.99998984	0.00000000	9.48572700	-4.36146600
174.19998983	0.00000000	9.48572700	-4.69365100
174.39998982	0.00000000	9.48572700	-4.73671200
174.59998980	0.00000000	9.48572700	-4.73671200
174.79998979	0.00000000	9.48572700	-4.73671200
174.99998978	0.00000000	9.48572700	-4.73671200
175.19998977	0.00000000	9.44266700	-4.73671200
175.39998976	0.00000000	9.06742000	-4.73671200
175.59998975	0.00000000	8.32308000	-4.69365100
175.79998973	0.00000000	7.99704600	-4.31840500
175.99998972	0.00000000	8.32308000	-3.62327700
176.19998971	0.00000000	9.01820900	-3.57406500
176.39998970	0.00000000	9.06742000	-3.90009800
176.59998969	0.00000000	8.69832600	-3.53100400
176.79998967	0.00000000	8.73523500	-3.24803100
176.99998966	0.00000000	8.69832600	-3.57406500
177.19998965	0.00000000	9.11048200	-4.31840500
177.39998964	0.00000000	9.44266700	-4.69365100
177.59998963	0.00000000	9.44266700	-4.73671200
177.79998961	0.00000000	9.11048200	-4.73671200
177.99998960	0.00000000	8.69832600	-4.73671200
178.19998959	0.00000000	8.69217500	-4.69365100
178.39998958	0.00000000	8.28001900	-4.36146600
178.59998957	0.00000000	7.99704600	-3.94931100
178.79998956	0.00000000	8.32308000	-3.94315900
178.99998954	0.00000000	9.01820900	-3.57406500
179.19998953	0.00000000	9.06742000	-3.57406500
179.39998952	0.00000000	8.74138700	-3.90009800
179.59998951	0.00000000	9.06742000	-3.57406500
179.79998950	0.00000000	9.06742000	-3.62327700
179.99998948	0.00000000	8.74138700	-4.31840500
180.19998947	0.00000000	9.06742000	-4.69365100
180.39998946	0.00000000	9.01820900	-4.73671200
180.59998945	0.00000000	8.32308000	-4.73671200
180.79998944	0.00000000	7.94783400	-4.73671200
180.99998942	0.00000000	7.90477300	-4.73671200
181.19998941	0.00000000	7.94783400	-4.69365100
181.39998940	0.00000000	8.28001900	-4.31840500
181.59998939	0.00000000	8.69217500	-3.57406500
181.79998938	0.00000000	8.69832600	-3.19881900
181.99998937	0.00000000	9.11048200	-3.15575800
182.19998935	0.00000000	9.44266700	-3.19881900
182.39998934	0.00000000	9.48572700	-3.53100400
182.59998933	0.00000000	9.48572700	-3.94315900
182.79998932	0.00000000	9.44266700	-3.94931100
182.99998931	0.00000000	9.11048200	-4.36146600
183.19998929	0.00000000	8.74138700	-4.69365100
183.39998928	0.00000000	9.06742000	-4.73671200
183.59998927	0.00000000	9.01820900	-4.73671200
183.79998926	0.00000000	8.32308000	-4.73671200
183.99998925	0.00000000	7.94783400	-4.73671200
184.19998923	0.00000000	7.90477300	-4.69365100
184.39998922	0.00000000	7.90477300	-4.31840500
184.59998921	0.00000000	7.90477300	-3.57406500
184.79998920	0.00000000	7.90477300	-3.19881900
184.99998919	0.00000000	7.90477300	-3.15575800
185.19998918	0.00000000	7.94783400	-3.15575800
185.39998916	0.00000000	8.32308000	-3.19881900
185.59998915	0.00000000	9.06742000	-3.57406500
185.79998914	0.00000000	9.44266700	-4.31840500
185.99998913	0.00000000	9.48572700	-4.69365100
186.19998912	0.00000000	9.48572700	-4.73671200
186.39998910	0.00000000	9.48572700	-4.73671200
186.59998909	0.00000000	9.44266700	-4.73671200
186.79998908	0.00000000	9.06742000	-4.73671200
186.99998907	0.00000000	8.32308000	-4.73671200
187.19998906	0.00000000	7.94783400	-4.69365100
187.39998904	0.00000000	7.90477300	-4.31840500
187.59998903	0.00000000	7.90477300	-3.57406500
187.79998902	0.00000000	7.90477300	-3.19881900
187.99998901	0.00000000	7.90477300	-3.15575800
188.19998900	0.00000000	7.94783400	-3.15575800
188.39998899	0.00000000	8.32308000	-3.19881900
188.59998897	0.00000000	9.06742000	-3.57406500
188.79998896	0.00000000	9.44266700	-4.31840500
188.99998895	0.00000000	9.48572700	-4.69365100
189.19998894	0.00000000	9.48572700	-4.73671200
189.39998893	0.00000000	9.44266700	-4.73671200
189.59998891	0.00000000	9.06742000	-4.73671200
189.79998890	0.00000000	8.32308000	-4.73671200
189.99998889	0.00000000	7.94783400	-4.73671200
190.19998888	0.00000000	7.90477300	-4.69365100
190.39998887	0.00000000	7.90477300	-4.31840500
190.59998885	0.00000000	7.90477300	-3.57406500
190.79998884	0.00000000	7.90477300	-3.19881900
190.99998883	0.00000000	7.90477300	-3.15575800
191.19998882	0.00000000	7.94783400	-3.19881900
191.39998881	0.00000000	8.32308000	-3.53100400
191.59998880	0.00000000	9.06742000	-3.94315900
191.79998878	0.00000000	9.44266700	-3.94931100
191.99998877	0.00000000	9.48572700	-4.36146600
192.19998876	0.00000000	9.44266700	-4.69365100
192.39998875	0.00000000	9.11048200	-4.73671200
192.59998874	0.00000000	8.69832600	-4.73671200
192.79998872	0.00000000	8.69217500	-4.73671200
192.99998871	0.00000000	8.28001900	-4.73671200
193.19998870	0.00000000	7.94783400	-4.73671200
193.39998869	0.00000000	7.90477300	-4.69365100
193.59998868	0.00000000	7.90477300	-4.31840500
193.79998866	0.00000000	7.94783400	-3.57406500
193.99998865	0.00000000	8.32308000	-3.19881900
194.19998864	0.00000000	9.06742000	-3.15575800
194.39998863	0.00000000	9.44266700	-3.15575800
194.59998862	0.00000000	9.48572700	-3.15575800
194.79998861	0.00000000	9.48572700	-3.15575800
194.99998859	0.00000000	9.48572700	-3.19881900
195.19998858	0.00000000	9.48572700	-3.57406500
195.39998857	0.00000000	9.44266700	-4.31840500
195.59998856	0.00000000	9.06742000	-4.69365100
195.79998855	0.00000000	8.32308000	-4.73671200
195.99998853	0.00000000	7.94783400	-4.73671200
