Time	Channel A	Channel B	Channel C
(us)	(V)	(mV)	(mV)

-4.53333289	0.00000000	26.87623000	1.57480300
-4.33333290	0.00000000	26.87623000	1.57480300
-4.13333291	0.00000000	26.87623000	1.57480300
-3.93333293	0.00000000	26.87623000	1.57480300
-3.73333294	0.00000000	26.87623000	1.57480300
-3.53333295	0.00000000	26.87623000	1.57480300
-3.33333296	0.00000000	26.87623000	1.57480300
-3.13333297	0.00000000	26.87623000	1.57480300
-2.93333299	0.00000000	26.87623000	1.57480300
-2.73333300	0.00000000	26.87623000	1.57480300
-2.53333301	0.00000000	26.87623000	1.57480300
-2.33333302	0.00000000	26.87623000	1.57480300
-2.13333303	0.00000000	26.87623000	1.57480300
-1.93333304	0.00000000	26.87623000	1.57480300
-1.73333306	0.00000000	26.87623000	1.57480300
-1.53333307	0.00000000	26.87623000	1.57480300
-1.33333308	0.00000000	26.87623000	1.57480300
-1.13333309	0.00000000	26.87623000	1.57480300
-0.93333310	0.00000000	26.87623000	1.57480300
-0.73333312	0.00000000	26.87623000	1.57480300
-0.53333313	0.00000000	26.87623000	1.61786400
-0.33333314	0.15871060	26.87623000	1.95004900
-0.13333315	0.47736220	26.87623000	2.31914400
0.06666684	0.95533960	26.87623000	1.95004900
0.26666682	0.95533960	26.83317000	1.61786400
0.46666681	0.95533960	26.50098000	1.57480300
0.66666680	0.47736220	26.13189000	1.57480300
0.86666679	-0.15871060	26.50098000	1.57480300
1.06666678	-1.11466500	26.83317000	1.57480300
1.26666677	-2.07062000	26.87623000	1.57480300
1.46666675	-2.70792300	26.87623000	1.61786400
1.66666674	-2.70792300	26.87623000	1.95004900
1.86666673	-1.75196900	26.87623000	2.36220500
2.06666672	0.00000000	26.87623000	2.32529500
2.26666671	2.07062000	26.87623000	2.40526600
2.46666669	3.98191400	26.87623000	2.32529500
2.66666668	5.25652100	26.87623000	2.36220500
2.86666667	5.09719500	26.87623000	1.95004900
3.06666666	3.66326300	26.87623000	1.61786400
3.26666665	0.95533960	26.87623000	1.57480300
3.46666663	-2.38927200	26.87623000	1.57480300
3.66666662	-5.57517200	26.87623000	1.57480300
3.86666661	-7.64579200	26.87623000	1.61786400
4.06666660	-7.80511800	26.87623000	1.99311000
4.26666659	-6.05315000	26.87623000	2.73745100
4.46666658	-2.38927200	26.87623000	3.06348400
4.66666656	1.91129400	26.87623000	2.73745100
4.86666655	6.05315000	26.87623000	1.95004900
5.06666654	8.76107300	26.87623000	1.24877000
5.26666653	9.39837600	26.87623000	0.83661410
5.46666652	7.64579200	26.87623000	1.19955700
5.66666650	3.98191400	26.87623000	1.53174200
5.86666649	-0.95533960	26.87623000	1.57480300
6.06666648	-5.41584600	26.87623000	1.57480300
6.26666647	-8.60174700	26.87623000	1.61786400
6.46666646	-9.39837600	26.87623000	1.95004900
6.66666644	-8.12377000	26.87623000	2.36220500
6.86666643	-4.77854300	26.87623000	2.36835600
7.06666642	-0.31803640	26.87623000	2.73745100
7.26666641	3.82258900	26.87623000	2.68823800
7.46666640	6.69045300	26.87623000	1.99311000
7.66666639	7.80511800	26.87623000	1.61786400
7.86666637	6.84916400	26.87623000	1.57480300
8.06666636	4.45989200	26.87623000	1.57480300
8.26666635	1.11466500	26.87623000	1.57480300
8.46666634	-1.91129400	26.87623000	1.57480300
8.66666633	-4.14124000	26.87623000	1.57480300
8.86666631	-5.09719500	26.87623000	1.57480300
9.06666630	-4.77854300	26.87623000	1.57480300
9.26666629	-3.34522600	26.87623000	1.57480300
9.46666628	-1.27399100	26.87623000	1.57480300
9.66666627	0.63668800	26.87623000	1.57480300
9.86666625	1.91129400	26.87623000	1.57480300
10.06666624	2.54859700	26.87623000	1.57480300
10.26666623	2.38927200	26.87623000	1.57480300
10.46666622	1.75196900	26.87623000	1.57480300
10.66666621	0.79601380	26.87623000	1.57480300
10.86666620	0.00000000	26.87623000	1.57480300
11.06666618	-0.63668800	26.87623000	1.57480300
11.26666617	-0.95533960	26.87623000	1.57480300
11.46666616	-0.95533960	26.87623000	1.57480300
11.66666615	-0.79601380	26.87623000	1.57480300
11.86666614	-0.47736220	26.87623000	1.57480300
12.06666612	-0.15871060	26.87623000	1.57480300
12.26666611	-0.15871060	26.87623000	1.57480300
12.46666610	-0.15871060	26.87623000	1.57480300
12.66666609	0.00000000	26.87623000	1.57480300
12.86666608	0.00000000	26.87623000	1.57480300
13.06666606	0.00000000	26.87623000	1.57480300
13.26666605	0.15871060	26.87623000	1.57480300
13.46666604	0.00000000	26.87623000	1.57480300
13.66666603	0.00000000	26.87623000	1.57480300
13.86666602	0.00000000	26.87623000	1.57480300
14.06666601	0.00000000	26.87623000	1.57480300
14.26666599	-0.15871060	26.87623000	1.57480300
14.46666598	0.00000000	26.87623000	1.57480300
14.66666597	0.00000000	26.87623000	1.57480300
14.86666596	0.00000000	26.87623000	1.57480300
15.06666595	0.00000000	26.87623000	1.57480300
15.26666593	0.00000000	26.83317000	1.57480300
15.46666592	0.00000000	26.50098000	1.57480300
15.66666591	0.00000000	26.13189000	1.57480300
15.86666590	0.00000000	26.50098000	1.57480300
16.06666589	0.00000000	26.83317000	1.57480300
16.26666587	0.00000000	26.87623000	1.57480300
16.46666586	0.00000000	26.87623000	1.57480300
16.66666585	0.00000000	26.87623000	1.57480300
16.86666584	0.00000000	26.91929000	1.57480300
17.06666583	0.00000000	27.29453000	1.57480300
17.26666582	0.00000000	28.03888000	1.57480300
17.46666580	0.00000000	28.41412000	1.57480300
17.66666579	0.00000000	28.45718000	1.57480300
17.86666578	0.00000000	28.36491000	1.57480300
18.06666577	0.00000000	27.62057000	1.57480300
18.26666576	0.00000000	26.04577000	1.57480300
18.46666574	0.00000000	24.50172000	1.57480300
18.66666573	0.00000000	22.55167000	1.57480300
18.86666572	0.00000000	21.10605000	1.57480300
19.06666571	0.00000000	21.06299000	1.57480300
19.26666570	0.00000000	22.22564000	1.57480300
19.46666568	0.00000000	24.22490000	1.57480300
19.66666567	0.00000000	27.38681000	1.61786400
19.86666566	0.00000000	31.57603000	1.99311000
20.06666565	0.00000000	35.43922000	2.68823800
20.26666564	0.00000000	37.72145000	2.68823800
20.46666563	0.00000000	38.04749000	1.99311000
20.66666561	0.00000000	35.30389000	1.66707700
20.86666560	0.00000000	29.85974000	1.99311000
21.06666559	0.00000000	22.87770000	2.68823800
21.26666558	0.00000000	15.11442000	2.68823800
21.46666557	0.00000000	8.63681000	1.99311000
21.66666555	0.00000000	5.24729300	1.61786400
21.86666554	0.00000000	6.87130900	1.57480300
22.06666553	0.00000000	13.84719000	1.57480300
22.26666552	0.00000000	24.69242000	1.57480300
22.46666551	0.00000000	37.43848000	1.57480300
22.66666549	0.00000000	49.02190000	1.57480300
22.86666548	0.00000000	56.70522000	1.57480300
23.06666547	0.00000000	58.51377000	1.61786400
23.26666546	0.00000000	52.61442000	1.99311000
23.46666545	0.00000000	39.49311000	2.73745100
23.66666544	0.00000000	22.09030000	3.11269700
23.86666542	0.00000000	4.31840500	3.15575800
24.06666541	0.00000000	-9.92249000	3.11269700
24.26666540	0.00000000	-16.76304000	2.73745100
24.46666539	0.00000000	-13.64419000	1.95004900
24.66666538	0.00000000	-0.85506890	1.15649600
24.86666536	0.00000000	18.82997000	-0.04306102
25.06666535	0.00000000	41.25246000	-1.57480300
25.26666534	0.00000000	60.93750000	-3.06348400
25.46666533	0.00000000	73.64050000	-3.80782500
25.66666532	0.00000000	75.91657000	-3.02042300
25.86666530	0.00000000	66.62155000	-1.07037400
26.06666529	0.00000000	48.09301000	2.08538400
26.26666528	0.00000000	24.08957000	6.31151500
26.46666527	0.00000000	0.21530510	10.49459000
26.66666526	0.00000000	-17.96875000	13.18898000
26.86666525	0.00000000	-26.02116000	13.52116000
27.06666523	0.00000000	-22.20103000	11.18971000
27.26666522	0.00000000	-7.12967500	6.13312000
27.46666521	0.00000000	15.20669000	-0.46751960
27.66666520	0.00000000	39.57923000	-7.84940900
27.86666519	0.00000000	60.47613000	-14.72687000
28.06666517	0.00000000	73.59743000	-18.86688000
28.26666516	0.00000000	75.91657000	-18.44857000
28.46666515	0.00000000	66.75688000	-13.05979000
28.66666514	0.00000000	49.39714000	-4.14000900
28.86666513	0.00000000	28.13115000	6.77903500
29.06666511	0.00000000	7.24655500	18.30093000
29.26666510	0.00000000	-8.24926100	27.49754000
29.46666509	0.00000000	-15.68651000	31.31767000
29.66666508	0.00000000	-14.15477000	28.98622000
29.86666507	0.00000000	-4.15231300	20.39862000
30.06666506	0.00000000	11.66339000	6.87746000
30.26666504	0.00000000	29.44143000	-8.91978400
30.46666503	0.00000000	45.34940000	-23.18528000
30.66666502	0.00000000	56.19463000	-32.43110000
30.86666501	0.00000000	60.14394000	-34.75024000
31.06666500	0.00000000	56.70522000	-29.26919000
31.26666498	0.00000000	47.48400000	-16.91068000
31.46666497	0.00000000	34.69488000	0.09227362
31.66666496	0.00000000	21.15526000	17.83957000
31.86666495	0.00000000	9.52263600	32.52337000
32.06666494	0.00000000	2.12844500	41.02485000
32.26666492	0.00000000	0.17224410	41.39394000
32.46666491	0.00000000	3.61712600	33.67987000
32.66666490	0.00000000	11.71260000	19.32825000
32.86666489	0.00000000	22.13336000	1.20570900
33.06666488	0.00000000	32.60334000	-16.91068000
33.26666487	0.00000000	41.11712000	-30.43184000
33.46666485	0.00000000	45.77386000	-36.70644000
33.66666484	0.00000000	45.81693000	-35.16855000
33.86666483	0.00000000	41.58464000	-26.24877000
34.06666482	0.00000000	34.27657000	-11.57111000
34.26666481	0.00000000	25.76279000	5.75787400
34.46666479	0.00000000	18.03642000	21.60433000
34.66666478	0.00000000	12.64149000	32.47416000
34.86666477	0.00000000	11.10359000	36.74950000
35.06666476	0.00000000	13.75492000	33.63681000
35.26666475	0.00000000	19.48204000	23.64665000
35.46666473	0.00000000	26.36565000	9.38730200
35.66666472	0.00000000	32.18504000	-5.67175200
35.86666471	0.00000000	35.72219000	-18.39936000
36.06666470	0.00000000	36.88484000	-25.73819000
36.26666469	0.00000000	35.30389000	-26.16265000
36.46666468	0.00000000	31.10851000	-20.02337000
36.66666466	0.00000000	25.71358000	-8.87672100
36.86666465	0.00000000	20.73080000	4.18307100
37.06666464	0.00000000	17.29208000	15.70497000
37.26666463	0.00000000	16.87377000	22.67470000
37.46666462	0.00000000	19.10679000	23.46826000
37.66666460	0.00000000	22.60088000	18.49163000
37.86666459	0.00000000	26.91929000	8.91978400
38.06666458	0.00000000	31.48376000	-2.14074800
38.26666457	0.00000000	34.92864000	-10.96826000
38.46666456	0.00000000	35.72219000	-15.23745000
38.66666454	0.00000000	34.23351000	-14.12401000
38.86666453	0.00000000	31.10851000	-8.36614100
39.06666452	0.00000000	26.87623000	0.46136810
39.26666451	0.00000000	22.60088000	9.99015700
39.46666450	0.00000000	19.14985000	16.86762000
39.66666449	0.00000000	17.15674000	18.81767000
39.86666447	0.00000000	17.15059000	15.74803000
40.06666446	0.00000000	18.31939000	8.40920300
40.26666445	0.00000000	21.06299000	-1.53174200
40.46666444	0.00000000	24.92003000	-11.06053000
40.66666443	0.00000000	28.83243000	-16.81841000
40.86666441	0.00000000	32.68946000	-17.24286000
41.06666440	0.00000000	35.34695000	-12.64149000
41.26666439	0.00000000	35.76525000	-4.18307100
41.46666438	0.00000000	34.27657000	5.80093500
41.66666437	0.00000000	31.53297000	14.63459000
41.86666435	0.00000000	28.03888000	20.02337000
42.06666434	0.00000000	24.18184000	20.44168000
42.26666433	0.00000000	21.06299000	16.25861000
42.46666432	0.00000000	19.10679000	8.91978400
42.66666431	0.00000000	18.31939000	0.09227362
42.86666430	0.00000000	19.10679000	-7.99089500
43.06666428	0.00000000	20.97072000	-12.96752000
43.26666427	0.00000000	23.33907000	-13.84104000
43.46666426	0.00000000	25.67052000	-10.82677000
43.66666425	0.00000000	27.98966000	-5.80093500
43.86666424	0.00000000	29.52756000	0.41830710
44.06666422	0.00000000	29.99508000	6.87746000
44.26666421	0.00000000	30.03814000	11.10359000
44.46666420	0.00000000	29.99508000	11.98327000
44.66666419	0.00000000	29.61983000	10.49459000
44.86666418	0.00000000	28.87549000	7.42495000
45.06666416	0.00000000	28.50024000	3.57406500
45.26666415	0.00000000	28.36491000	0.09227362
45.46666414	0.00000000	27.57136000	-2.64517700
45.66666413	0.00000000	25.57825000	-4.18307100
45.86666412	0.00000000	22.87770000	-4.22613100
46.06666411	0.00000000	19.38976000	-3.06348400
46.26666409	0.00000000	16.40625000	-1.15649600
46.46666408	0.00000000	15.24975000	1.20570900
46.66666407	0.00000000	16.40625000	3.48179100
46.86666406	0.00000000	19.56816000	5.43184000
47.06666405	0.00000000	24.64321000	6.17618100
47.26666403	0.00000000	31.20078000	5.85014700
47.46666402	0.00000000	37.30315000	4.64443900
47.66666401	0.00000000	41.20940000	2.73745100
47.86666400	0.00000000	41.95989000	0.41830710
48.06666399	0.00000000	39.57923000	-1.48868100
48.26666397	0.00000000	33.72293000	-2.68823800
48.46666396	0.00000000	25.25221000	-3.02042300
48.66666395	0.00000000	16.40625000	-2.27608300
48.86666394	0.00000000	9.47957600	-0.33218500
49.06666393	0.00000000	6.40378900	1.99311000
49.26666392	0.00000000	7.98474400	4.73671200
49.46666390	0.00000000	14.13017000	7.38188900
49.66666389	0.00000000	23.38214000	8.87672100
49.86666388	0.00000000	33.02165000	8.50147600
50.06666387	0.00000000	41.11712000	6.17618100
50.26666386	0.00000000	45.34940000	2.73745100
50.46666384	0.00000000	44.61122000	-1.15649600
50.66666383	0.00000000	39.57923000	-4.60137700
50.86666382	0.00000000	31.10851000	-6.87746000
51.06666381	0.00000000	21.52436000	-6.87746000
51.26666380	0.00000000	13.80413000	-4.60137700
51.46666379	0.00000000	9.52263600	-1.11343500
51.66666377	0.00000000	9.52263600	3.15575800
51.86666376	0.00000000	13.75492000	7.38188900
52.06666375	0.00000000	21.01993000	10.40846000
52.26666374	0.00000000	29.10925000	11.18971000
52.46666373	0.00000000	35.67913000	9.33809000
52.66666371	0.00000000	39.53617000	6.26845500
52.86666370	0.00000000	39.49311000	2.73745100
53.06666369	0.00000000	35.34695000	-1.11343500
53.26666368	0.00000000	28.83243000	-4.18307100
53.46666367	0.00000000	22.26870000	-5.71481200
53.66666365	0.00000000	16.83071000	-5.33956700
53.86666364	0.00000000	13.80413000	-3.06348400
54.06666363	0.00000000	14.22244000	0.00000000
54.26666362	0.00000000	18.41166000	3.06348400
54.46666361	0.00000000	24.82775000	5.33956700
54.66666360	0.00000000	30.64714000	5.75787400
54.86666358	0.00000000	34.51648000	4.68750000
55.06666357	0.00000000	36.09129000	3.15575800
55.26666356	0.00000000	34.51648000	1.57480300
55.46666355	0.00000000	30.69020000	0.09227362
55.66666354	0.00000000	25.33834000	-0.65206690
55.86666352	0.00000000	20.36786000	0.13533460
56.06666351	0.00000000	17.61811000	1.99311000
56.26666350	0.00000000	16.83071000	4.26919300
56.46666349	0.00000000	18.41166000	5.71481200
56.66666348	0.00000000	22.17643000	5.33956700
56.86666346	0.00000000	26.40871000	3.06348400
57.06666345	0.00000000	29.90280000	0.00000000
57.26666344	0.00000000	32.22810000	-3.11269700
57.46666343	0.00000000	32.60334000	-5.75787400
57.66666342	0.00000000	31.10851000	-6.82824800
57.86666341	0.00000000	28.41412000	-5.29650500
58.06666339	0.00000000	25.33834000	-1.43946800
58.26666338	0.00000000	22.64394000	3.53100400
58.46666337	0.00000000	21.10605000	8.54453700
58.66666336	0.00000000	21.06299000	11.98942000
58.86666335	0.00000000	22.17643000	13.14591000
59.06666333	0.00000000	23.75738000	11.56496000
59.26666332	0.00000000	25.67052000	7.29576700
59.46666331	0.00000000	27.57136000	1.15649600
59.66666330	0.00000000	28.36491000	-5.38262700
59.86666329	0.00000000	28.41412000	-10.35925000
60.06666327	0.00000000	27.98966000	-12.68455000
60.26666326	0.00000000	26.83317000	-11.47884000
60.46666325	0.00000000	25.33834000	-6.87746000
60.66666324	0.00000000	24.22490000	0.09227362
60.86666323	0.00000000	24.18184000	7.75713500
61.06666322	0.00000000	24.92003000	14.30241000
61.26666320	0.00000000	25.71358000	17.74729000
61.46666319	0.00000000	26.87623000	17.37205000
61.66666318	0.00000000	27.94660000	13.10285000
61.86666317	0.00000000	27.94660000	5.80708600
62.06666316	0.00000000	26.83317000	-2.64517700
62.26666314	0.00000000	25.29527000	-9.94094400
62.46666313	0.00000000	23.75738000	-14.21629000
62.66666312	0.00000000	22.60088000	-14.63459000
62.86666311	0.00000000	22.22564000	-11.52190000
63.06666310	0.00000000	22.60088000	-5.33956700
63.26666308	0.00000000	23.75738000	2.69439000
63.46666307	0.00000000	25.29527000	10.03322000
63.66666306	0.00000000	26.87623000	15.09596000
63.86666305	0.00000000	28.41412000	17.37205000
64.06666304	0.00000000	29.52756000	15.84030000
64.26666303	0.00000000	29.52756000	10.86983000
64.46666301	0.00000000	28.36491000	4.36146600
64.66666300	0.00000000	26.45792000	-2.27608300
64.86666299	0.00000000	24.13263000	-7.67101300
65.06666298	0.00000000	22.22564000	-11.14665000
65.26666297	0.00000000	21.06299000	-11.52190000
65.46666295	0.00000000	21.06299000	-8.96284400
65.66666294	0.00000000	22.22564000	-5.06274600
65.86666293	0.00000000	24.13263000	-0.78124990
66.06666292	0.00000000	26.40871000	3.90009800
66.26666291	0.00000000	27.94660000	7.71407400
66.46666289	0.00000000	28.36491000	10.11934000
66.66666288	0.00000000	27.98966000	10.91289000
66.86666287	0.00000000	26.78395000	10.53765000
67.06666286	0.00000000	24.92003000	8.96284400
67.26666285	0.00000000	23.06225000	6.26845500
67.46666284	0.00000000	22.68701000	3.15575800
67.66666282	0.00000000	23.75738000	0.00000000
67.86666281	0.00000000	25.33834000	-3.11269700
68.06666280	0.00000000	27.29453000	-5.80093500
68.26666279	0.00000000	29.57062000	-7.33882900
68.46666278	0.00000000	31.06545000	-7.33882900
68.66666276	0.00000000	31.02239000	-5.80093500
68.86666275	0.00000000	29.10925000	-3.06348400
69.06666274	0.00000000	25.67052000	0.41830710
69.26666273	0.00000000	22.17643000	4.31840500
69.46666272	0.00000000	19.06373000	7.80019600
69.66666270	0.00000000	16.83071000	10.53765000
69.86666269	0.00000000	16.87377000	12.03248000
70.06666268	0.00000000	19.52510000	11.56496000
70.26666267	0.00000000	23.75738000	8.50147600
70.46666266	0.00000000	28.41412000	3.53100400
70.66666265	0.00000000	32.68946000	-1.48868100
70.86666263	0.00000000	35.72219000	-5.80093500
71.06666262	0.00000000	36.46653000	-8.82750900
71.26666261	0.00000000	34.18430000	-9.61491000
71.46666260	0.00000000	29.95201000	-7.71407400
71.66666259	0.00000000	24.87697000	-4.22613100
71.86666257	0.00000000	19.48204000	0.41830710
72.06666256	0.00000000	15.24975000	5.38262700
72.26666255	0.00000000	13.33661000	8.82750900
72.46666254	0.00000000	14.08710000	10.03322000
72.66666253	0.00000000	17.56890000	8.91978400
72.86666251	0.00000000	22.55167000	6.26845500
73.06666250	0.00000000	27.98966000	3.19881900
73.26666249	0.00000000	32.60334000	0.46751960
73.46666248	0.00000000	35.34695000	-1.43946800
73.66666247	0.00000000	35.72219000	-2.22687000
73.86666246	0.00000000	33.80905000	-1.48868100
74.06666244	0.00000000	29.95201000	-0.04306102
74.26666243	0.00000000	25.33834000	1.11343500
74.46666242	0.00000000	21.06299000	1.53174200
74.66666241	0.00000000	17.98720000	1.53174200
74.86666240	0.00000000	16.78149000	1.11343500
75.06666238	0.00000000	17.52584000	0.00000000
75.26666237	0.00000000	19.48204000	-1.11343500
75.46666236	0.00000000	22.55167000	-1.48253000
75.66666235	0.00000000	25.99040000	-1.06422200
75.86666234	0.00000000	28.32185000	0.51058070
76.06666232	0.00000000	29.52756000	3.19881900
76.26666231	0.00000000	29.57062000	6.26845500
76.46666230	0.00000000	28.83243000	8.91978400
76.66666229	0.00000000	28.03888000	9.99015700
76.86666228	0.00000000	26.87623000	8.45226300
77.06666227	0.00000000	25.76279000	4.60137700
77.26666225	0.00000000	25.33834000	-0.37524600
77.46666224	0.00000000	25.29527000	-5.38262700
77.66666223	0.00000000	25.29527000	-8.87057000
77.86666222	0.00000000	25.25221000	-10.40846000
78.06666221	0.00000000	24.87697000	-9.56569900
78.26666219	0.00000000	24.08957000	-5.71481200
78.46666218	0.00000000	23.33907000	0.00000000
78.66666217	0.00000000	22.60088000	5.80093500
78.86666216	0.00000000	22.64394000	10.45152000
79.06666215	0.00000000	23.75738000	13.18898000
79.26666213	0.00000000	25.33834000	13.56422000
79.46666212	0.00000000	27.25147000	11.61417000
79.66666211	0.00000000	29.20152000	7.38188900
79.86666210	0.00000000	30.32111000	1.99311000
80.06666209	0.00000000	30.73326000	-3.02042300
80.26666208	0.00000000	29.90280000	-6.92052100
80.46666206	0.00000000	27.98966000	-8.87672100
80.66666205	0.00000000	25.25221000	-8.87672100
80.86666204	0.00000000	22.22564000	-6.96358300
81.06666203	0.00000000	19.94340000	-3.48794300
81.26666202	0.00000000	19.52510000	0.41830710
81.46666200	0.00000000	20.64468000	4.69365100
81.66666199	0.00000000	22.60088000	8.50147600
81.86666198	0.00000000	25.29527000	10.45152000
82.06666197	0.00000000	27.94660000	10.53765000
82.26666196	0.00000000	29.52756000	9.38115100
82.46666194	0.00000000	29.94586000	7.43110200
82.66666193	0.00000000	29.57062000	4.64443900
82.86666192	0.00000000	28.41412000	1.20570900
83.06666191	0.00000000	26.87623000	-2.27608300
83.26666190	0.00000000	25.29527000	-4.64443900
83.46666189	0.00000000	23.75738000	-6.22539300
83.66666187	0.00000000	22.60088000	-6.96358300
83.86666186	0.00000000	22.22564000	-6.13312000
84.06666185	0.00000000	22.60088000	-3.85088600
84.26666184	0.00000000	23.71432000	-0.33218500
84.46666183	0.00000000	24.82775000	3.53100400
84.66666181	0.00000000	25.25221000	7.42495000
84.86666180	0.00000000	25.29527000	10.45152000
85.06666179	0.00000000	25.29527000	11.60802000
85.26666178	0.00000000	25.33834000	10.45152000
85.46666177	0.00000000	25.71358000	7.38188900
85.66666175	0.00000000	26.45792000	3.11269700
85.86666174	0.00000000	26.83317000	-1.53174200
86.06666173	0.00000000	26.87623000	-5.80093500
86.26666172	0.00000000	26.83317000	-8.82750900
86.46666171	0.00000000	26.40871000	-9.61491000
86.66666170	0.00000000	25.25221000	-7.67101300
86.86666168	0.00000000	23.75738000	-3.85703700
87.06666167	0.00000000	22.60088000	1.19955700
87.26666166	0.00000000	22.17643000	6.17618100
87.46666165	0.00000000	22.17643000	10.03322000
87.66666164	0.00000000	22.60088000	11.56496000
87.86666162	0.00000000	23.80659000	10.45152000
88.06666161	0.00000000	25.67052000	7.33882900
88.26666160	0.00000000	27.57136000	2.69439000
88.46666159	0.00000000	28.36491000	-2.64517700
88.66666158	0.00000000	28.41412000	-6.87746000
88.86666156	0.00000000	27.98966000	-8.82750900
89.06666155	0.00000000	26.83317000	-8.40920300
89.26666154	0.00000000	25.29527000	-5.33956700
89.46666153	0.00000000	23.75738000	-0.37524600
89.66666152	0.00000000	22.60088000	4.64443900
89.86666151	0.00000000	22.22564000	8.87672100
90.06666149	0.00000000	22.55167000	11.14665000
90.26666148	0.00000000	23.38214000	10.40846000
90.46666147	0.00000000	24.50787000	7.38188900
90.66666146	0.00000000	26.03961000	3.11269700
90.86666145	0.00000000	26.78395000	-1.48868100
91.06666143	0.00000000	26.83317000	-5.33956700
91.26666142	0.00000000	26.45792000	-7.24655500
91.46666141	0.00000000	25.71358000	-6.87746000
91.66666140	0.00000000	25.33834000	-4.14000900
91.86666139	0.00000000	25.29527000	0.41830710
92.06666137	0.00000000	25.29527000	5.38262700
92.26666136	0.00000000	25.29527000	8.87057000
92.46666135	0.00000000	25.29527000	10.40846000
92.66666134	0.00000000	25.25221000	9.60875900
92.86666133	0.00000000	24.87697000	6.17618100
93.06666132	0.00000000	24.08957000	1.57480300
93.26666130	0.00000000	23.33907000	-3.02042300
93.46666129	0.00000000	22.55167000	-6.45300100
93.66666128	0.00000000	22.22564000	-7.24655500
93.86666127	0.00000000	22.60088000	-5.75787400
94.06666126	0.00000000	23.75738000	-2.64517700
94.26666124	0.00000000	25.29527000	1.57480300
94.46666123	0.00000000	26.87623000	5.75787400
94.66666122	0.00000000	28.41412000	8.45226300
94.86666121	0.00000000	29.57062000	8.82750900
95.06666120	0.00000000	29.90280000	6.96358300
95.26666118	0.00000000	29.10925000	3.48794300
95.46666117	0.00000000	26.78395000	-0.33218500
95.66666116	0.00000000	23.71432000	-3.80782500
95.86666115	0.00000000	20.64468000	-5.67175200
96.06666114	0.00000000	18.31939000	-5.33956700
96.26666113	0.00000000	17.56890000	-3.06348400
96.46666111	0.00000000	18.31939000	0.00000000
96.66666110	0.00000000	20.68774000	3.11269700
96.86666109	0.00000000	24.13263000	5.75787400
97.06666108	0.00000000	28.03888000	6.92052100
97.26666107	0.00000000	31.48376000	6.17618100
97.46666105	0.00000000	33.80905000	4.31840500
97.66666104	0.00000000	34.18430000	1.99311000
97.86666103	0.00000000	32.64640000	0.04306102
98.06666102	0.00000000	29.52756000	-1.48868100
98.26666101	0.00000000	25.29527000	-2.22687000
98.46666099	0.00000000	21.06299000	-1.53174200
98.66666098	0.00000000	17.94414000	-0.41830710
98.86666097	0.00000000	16.36319000	0.37524600
99.06666096	0.00000000	16.40625000	1.19955700
99.26666095	0.00000000	18.31939000	1.95004900
99.46666094	0.00000000	21.80118000	2.68823800
99.66666092	0.00000000	25.62746000	2.68823800
99.86666091	0.00000000	29.15231000	2.04232300
100.06666090	0.00000000	31.48376000	2.04232300
100.26666089	0.00000000	32.68946000	2.73745100
100.46666088	0.00000000	32.60334000	3.11269700
100.66666086	0.00000000	30.69020000	3.15575800
100.86666085	0.00000000	27.25147000	3.11269700
101.06666084	0.00000000	23.75738000	2.68823800
101.26666083	0.00000000	20.64468000	1.53174200
101.46666082	0.00000000	18.36245000	0.00000000
101.66666080	0.00000000	17.94414000	-1.53174200
101.86666079	0.00000000	19.06373000	-2.68823800
102.06666078	0.00000000	20.97072000	-3.02042300
102.26666077	0.00000000	23.33907000	-2.22687000
102.46666076	0.00000000	25.67052000	0.09227362
102.66666075	0.00000000	27.98966000	3.11269700
102.86666073	0.00000000	29.52756000	5.80093500
103.06666072	0.00000000	29.94586000	7.33882900
103.26666071	0.00000000	29.57062000	7.38188900
103.46666070	0.00000000	28.36491000	6.17618100
103.66666069	0.00000000	26.45792000	3.90009800
103.86666067	0.00000000	24.13263000	0.79355310
104.06666066	0.00000000	22.22564000	-1.86392700
104.26666065	0.00000000	21.06299000	-3.85088600
104.46666064	0.00000000	21.01993000	-4.55831700
104.66666063	0.00000000	21.80118000	-3.80782500
104.86666061	0.00000000	22.92692000	-1.48868100
105.06666060	0.00000000	24.50172000	1.53174200
105.26666059	0.00000000	25.62746000	4.22613100
105.46666058	0.00000000	26.45792000	5.80093500
105.66666057	0.00000000	26.83317000	6.17618100
105.86666056	0.00000000	26.83317000	5.43184000
106.06666054	0.00000000	26.40871000	3.48179100
106.26666053	0.00000000	25.25221000	1.20570900
106.46666052	0.00000000	23.75738000	-1.11343500
106.66666051	0.00000000	22.64394000	-2.60211600
106.86666050	0.00000000	22.60088000	-2.64517700
107.06666048	0.00000000	23.33907000	-1.53174200
107.26666047	0.00000000	24.13263000	0.00000000
107.46666046	0.00000000	25.29527000	1.57480300
107.66666045	0.00000000	26.40871000	3.11269700
107.86666044	0.00000000	26.78395000	4.22613100
108.06666042	0.00000000	26.40871000	4.22613100
108.26666041	0.00000000	25.29527000	3.11269700
108.46666040	0.00000000	24.13263000	1.57480300
108.66666039	0.00000000	23.33907000	0.04306102
108.86666038	0.00000000	22.55167000	-1.11343500
109.06666037	0.00000000	22.22564000	-1.48253000
109.26666035	0.00000000	22.60088000	-1.11343500
109.46666034	0.00000000	23.75738000	0.04306102
109.66666033	0.00000000	25.25221000	1.57480300
109.86666032	0.00000000	26.40871000	3.11269700
110.06666031	0.00000000	26.78395000	4.26919300
110.26666029	0.00000000	26.45792000	4.64443900
110.46666028	0.00000000	25.71358000	4.26919300
110.66666027	0.00000000	25.29527000	3.11269700
110.86666026	0.00000000	24.82775000	1.57480300
111.06666025	0.00000000	23.71432000	0.04306102
111.26666023	0.00000000	22.64394000	-1.11343500
111.46666022	0.00000000	22.60088000	-1.53174200
111.66666021	0.00000000	23.29601000	-1.53174200
111.86666020	0.00000000	23.71432000	-1.11343500
112.06666019	0.00000000	24.13263000	0.04306102
112.26666018	0.00000000	24.87697000	1.53174200
112.46666016	0.00000000	25.25221000	2.68823800
112.66666015	0.00000000	25.29527000	3.11269700
112.86666014	0.00000000	25.29527000	3.11269700
113.06666013	0.00000000	25.25221000	2.73745100
113.26666012	0.00000000	24.87697000	1.99311000
113.46666010	0.00000000	24.13263000	1.61786400
113.66666009	0.00000000	23.75738000	1.57480300
113.86666008	0.00000000	23.71432000	1.53174200
114.06666007	0.00000000	23.75738000	1.15649600
114.26666006	0.00000000	24.13263000	0.41830710
114.46666004	0.00000000	24.87697000	0.04306102
114.66666003	0.00000000	25.25221000	0.00000000
114.86666002	0.00000000	25.29527000	0.00000000
115.06666001	0.00000000	25.29527000	0.00000000
115.26666000	0.00000000	25.29527000	0.00000000
115.46665999	0.00000000	25.29527000	0.00000000
115.66665997	0.00000000	25.29527000	0.04306102
115.86665996	0.00000000	25.25221000	0.41830710
116.06665995	0.00000000	24.87697000	1.19955700
116.26665994	0.00000000	24.13263000	1.95004900
116.46665993	0.00000000	23.75738000	2.73745100
116.66665991	0.00000000	23.71432000	3.11269700
116.86665990	0.00000000	23.71432000	3.11269700
117.06665989	0.00000000	23.75738000	2.68823800
117.26665988	0.00000000	24.13263000	1.57480300
117.46665987	0.00000000	24.87697000	0.46136810
117.66665985	0.00000000	25.29527000	0.00000000
117.86665984	0.00000000	25.71358000	-0.41830710
118.06665983	0.00000000	26.40871000	-1.11343500
118.26665982	0.00000000	26.40871000	-1.11343500
118.46665981	0.00000000	25.67052000	-0.37524600
118.66665980	0.00000000	24.92003000	0.37524600
118.86665978	0.00000000	24.08957000	1.19955700
119.06665977	0.00000000	23.33907000	1.95004900
119.26665976	0.00000000	22.55167000	2.73745100
119.46665975	0.00000000	22.17643000	3.11269700
119.66665974	0.00000000	22.17643000	3.11269700
119.86665972	0.00000000	22.60088000	2.73745100
120.06665971	0.00000000	23.75738000	1.99311000
120.26665970	0.00000000	25.29527000	1.61786400
120.46665969	0.00000000	26.83317000	1.53174200
120.66665968	0.00000000	27.94660000	1.15649600
120.86665966	0.00000000	27.98966000	0.41830710
121.06665965	0.00000000	27.25147000	0.04306102
121.26665964	0.00000000	26.45792000	0.00000000
121.46665963	0.00000000	25.25221000	0.00000000
121.66665962	0.00000000	23.71432000	0.00000000
121.86665961	0.00000000	22.17643000	0.04306102
122.06665959	0.00000000	21.06299000	0.41830710
122.26665958	0.00000000	21.01993000	1.15649600
122.46665957	0.00000000	21.75812000	1.57480300
122.66665956	0.00000000	22.55167000	1.99311000
122.86665955	0.00000000	23.71432000	2.73745100
123.06665953	0.00000000	24.87697000	3.06348400
123.26665952	0.00000000	25.67052000	2.73745100
123.46665951	0.00000000	26.45792000	1.99311000
123.66665950	0.00000000	26.83317000	1.57480300
123.86665949	0.00000000	26.83317000	1.15649600
124.06665947	0.00000000	26.45792000	0.41830710
124.26665946	0.00000000	25.67052000	0.04306102
124.46665945	0.00000000	24.92003000	0.00000000
124.66665944	0.00000000	24.08957000	0.00000000
124.86665943	0.00000000	23.33907000	0.00000000
125.06665942	0.00000000	22.55167000	0.04306102
125.26665940	0.00000000	22.17643000	0.41830710
125.46665939	0.00000000	22.17643000	1.19955700
125.66665938	0.00000000	22.55167000	1.90698800
125.86665937	0.00000000	23.33907000	2.31914400
126.06665936	0.00000000	24.13263000	1.95004900
126.26665934	0.00000000	25.29527000	1.61786400
126.46665933	0.00000000	26.40871000	1.57480300
126.66665932	0.00000000	26.83317000	1.53174200
126.86665931	0.00000000	26.83317000	1.15649600
127.06665930	0.00000000	26.40871000	0.41830710
127.26665928	0.00000000	25.25221000	0.04306102
127.46665927	0.00000000	23.75738000	0.00000000
127.66665926	0.00000000	22.60088000	0.04306102
127.86665925	0.00000000	22.17643000	0.41830710
128.06665924	0.00000000	22.17643000	1.15649600
128.26665923	0.00000000	22.55167000	1.53174200
128.46665921	0.00000000	23.33907000	1.57480300
128.66665920	0.00000000	24.13263000	1.57480300
128.86665919	0.00000000	25.29527000	1.57480300
129.06665918	0.00000000	26.40871000	1.57480300
129.26665917	0.00000000	26.78395000	1.57480300
129.46665915	0.00000000	26.45792000	1.53174200
129.66665914	0.00000000	25.67052000	1.15649600
129.86665913	0.00000000	24.87697000	0.46136810
130.06665912	0.00000000	23.71432000	0.41830710
130.26665911	0.00000000	22.60088000	0.78124990
130.46665909	0.00000000	22.17643000	0.79355310
130.66665908	0.00000000	22.17643000	1.19955700
130.86665907	0.00000000	22.60088000	1.53174200
131.06665906	0.00000000	23.71432000	1.57480300
131.26665905	0.00000000	24.87697000	1.57480300
131.46665904	0.00000000	25.62746000	1.53174200
131.66665902	0.00000000	26.03961000	1.15649600
131.86665901	0.00000000	25.67052000	0.41830710
132.06665900	0.00000000	25.29527000	0.00000000
132.26665899	0.00000000	24.87697000	-0.41830710
132.46665898	0.00000000	24.13263000	-1.11343500
132.66665896	0.00000000	23.75738000	-1.11343500
132.86665895	0.00000000	23.71432000	-0.37524600
133.06665894	0.00000000	23.71432000	0.37524600
133.26665893	0.00000000	23.71432000	1.19955700
133.46665892	0.00000000	23.71432000	1.95004900
133.66665890	0.00000000	23.71432000	2.73745100
133.86665889	0.00000000	23.71432000	3.06348400
134.06665888	0.00000000	23.71432000	2.73745100
134.26665887	0.00000000	23.71432000	1.95004900
134.46665886	0.00000000	23.71432000	1.19955700
134.66665885	0.00000000	23.71432000	0.41830710
134.86665883	0.00000000	23.71432000	0.00000000
135.06665882	0.00000000	23.75738000	-0.37524600
135.26665881	0.00000000	24.13263000	-0.73818890
135.46665880	0.00000000	24.87697000	-0.32603340
135.66665879	0.00000000	25.20300000	0.37524600
135.86665877	0.00000000	24.87697000	1.19955700
136.06665876	0.00000000	24.08957000	1.95004900
136.26665875	0.00000000	23.33907000	2.73745100
136.46665874	0.00000000	22.55167000	3.11269700
136.66665873	0.00000000	22.17643000	3.11269700
136.86665871	0.00000000	22.17643000	2.73745100
137.06665870	0.00000000	22.55167000	1.99311000
137.26665869	0.00000000	23.33907000	1.57480300
137.46665868	0.00000000	24.08957000	1.15649600
137.66665867	0.00000000	24.87697000	0.41830710
137.86665866	0.00000000	25.25221000	0.00000000
138.06665864	0.00000000	25.29527000	-0.41830710
138.26665863	0.00000000	25.25221000	-1.11343500
138.46665862	0.00000000	24.87697000	-1.11343500
138.66665861	0.00000000	24.08957000	-0.37524600
138.86665860	0.00000000	23.33907000	0.37524600
139.06665858	0.00000000	22.55167000	1.19955700
139.26665857	0.00000000	22.22564000	1.95004900
139.46665856	0.00000000	22.55167000	2.73745100
139.66665855	0.00000000	23.33907000	3.11269700
139.86665854	0.00000000	24.08957000	3.11269700
140.06665852	0.00000000	24.87697000	2.73745100
140.26665851	0.00000000	25.25221000	1.95004900
140.46665850	0.00000000	25.29527000	1.19955700
140.66665849	0.00000000	25.25221000	0.37524600
140.86665848	0.00000000	24.87697000	-0.37524600
141.06665847	0.00000000	24.13263000	-1.11343500
141.26665845	0.00000000	23.75738000	-1.11343500
141.46665844	0.00000000	23.71432000	-0.37524600
141.66665843	0.00000000	23.71432000	0.37524600
141.86665842	0.00000000	23.71432000	1.19955700
142.06665841	0.00000000	23.71432000	1.95004900
142.26665839	0.00000000	23.71432000	2.73745100
142.46665838	0.00000000	23.75738000	3.06348400
142.66665837	0.00000000	24.08957000	2.73745100
142.86665836	0.00000000	24.45866000	1.95004900
143.06665835	0.00000000	24.08957000	1.19955700
143.26665834	0.00000000	23.75738000	0.41830710
143.46665832	0.00000000	23.71432000	0.00000000
143.66665831	0.00000000	23.71432000	-0.37524600
143.86665830	0.00000000	23.71432000	-0.73818890
144.06665829	0.00000000	23.71432000	-0.37524600
144.26665828	0.00000000	23.75738000	0.00000000
144.46665826	0.00000000	24.13263000	0.41830710
144.66665825	0.00000000	24.87697000	1.19955700
144.86665824	0.00000000	25.25221000	1.95004900
145.06665823	0.00000000	25.29527000	2.73745100
145.26665822	0.00000000	25.25221000	3.06348400
145.46665820	0.00000000	24.87697000	2.73745100
145.66665819	0.00000000	24.13263000	1.95004900
145.86665818	0.00000000	23.75738000	1.19955700
146.06665817	0.00000000	23.71432000	0.41830710
146.26665816	0.00000000	23.71432000	0.04306102
146.46665815	0.00000000	23.71432000	0.00000000
146.66665813	0.00000000	23.71432000	0.00000000
146.86665812	0.00000000	23.75738000	0.04306102
147.06665811	0.00000000	24.13263000	0.41830710
147.26665810	0.00000000	24.87697000	1.15649600
147.46665809	0.00000000	25.20300000	1.53174200
147.66665807	0.00000000	24.87697000	1.57480300
147.86665806	0.00000000	24.13263000	1.57480300
148.06665805	0.00000000	23.75738000	1.57480300
148.26665804	0.00000000	23.71432000	1.57480300
148.46665803	0.00000000	23.71432000	1.57480300
148.66665801	0.00000000	23.71432000	1.53174200
148.86665800	0.00000000	23.71432000	1.15649600
149.06665799	0.00000000	23.71432000	0.41830710
149.26665798	0.00000000	23.75738000	0.04306102
149.46665797	0.00000000	24.08957000	0.00000000
149.66665796	0.00000000	24.50172000	0.00000000
149.86665794	0.00000000	24.50787000	0.04306102
150.06665793	0.00000000	24.92003000	0.41830710
150.26665792	0.00000000	25.20300000	1.15649600
150.46665791	0.00000000	24.87697000	1.53174200
150.66665790	0.00000000	24.13263000	1.57480300
150.86665788	0.00000000	23.71432000	1.57480300
151.06665787	0.00000000	23.33907000	1.57480300
151.26665786	0.00000000	22.96998000	1.57480300
151.46665785	0.00000000	23.33907000	1.53174200
151.66665784	0.00000000	23.67126000	1.15649600
151.86665782	0.00000000	23.71432000	0.41830710
152.06665781	0.00000000	23.71432000	0.04306102
152.26665780	0.00000000	23.71432000	0.00000000
152.46665779	0.00000000	23.75738000	0.00000000
152.66665778	0.00000000	24.13263000	0.04306102
152.86665777	0.00000000	24.87697000	0.41830710
153.06665775	0.00000000	25.25221000	1.15649600
153.26665774	0.00000000	25.25221000	1.53174200
153.46665773	0.00000000	24.87697000	1.57480300
153.66665772	0.00000000	24.13263000	1.57480300
153.86665771	0.00000000	23.71432000	1.57480300
154.06665769	0.00000000	23.29601000	1.57480300
154.26665768	0.00000000	22.55167000	1.57480300
154.46665767	0.00000000	22.17643000	1.57480300
154.66665766	0.00000000	22.13336000	1.53174200
154.86665765	0.00000000	22.17643000	1.15649600
155.06665763	0.00000000	22.55167000	0.41830710
155.26665762	0.00000000	23.33907000	0.04306102
155.46665761	0.00000000	24.08957000	0.00000000
155.66665760	0.00000000	24.87697000	0.00000000
155.86665759	0.00000000	25.20300000	0.00000000
156.06665758	0.00000000	24.87697000	0.04306102
156.26665756	0.00000000	24.13263000	0.41830710
156.46665755	0.00000000	23.75738000	1.15649600
156.66665754	0.00000000	23.67126000	1.53174200
156.86665753	0.00000000	23.29601000	1.57480300
157.06665752	0.00000000	22.55167000	1.57480300
157.26665750	0.00000000	22.22564000	1.57480300
157.46665749	0.00000000	22.55167000	1.57480300
157.66665748	0.00000000	23.29601000	1.53174200
157.86665747	0.00000000	23.67126000	1.15649600
158.06665746	0.00000000	23.75738000	0.41830710
158.26665744	0.00000000	24.08957000	0.04306102
158.46665743	0.00000000	24.45866000	0.00000000
158.66665742	0.00000000	24.13263000	0.00000000
158.86665741	0.00000000	24.13263000	0.00000000
159.06665740	0.00000000	24.45866000	0.04306102
159.26665739	0.00000000	24.08957000	0.41830710
159.46665737	0.00000000	23.75738000	1.15649600
159.66665736	0.00000000	23.71432000	1.53174200
159.86665735	0.00000000	23.71432000	1.57480300
160.06665734	0.00000000	23.71432000	1.57480300
160.26665733	0.00000000	23.71432000	1.57480300
160.46665731	0.00000000	23.71432000	1.57480300
160.66665730	0.00000000	23.71432000	1.53174200
160.86665729	0.00000000	23.71432000	1.15649600
161.06665728	0.00000000	23.71432000	0.41830710
161.26665727	0.00000000	23.71432000	0.04306102
161.46665725	0.00000000	23.71432000	0.00000000
161.66665724	0.00000000	23.71432000	0.04306102
161.86665723	0.00000000	23.71432000	0.37524600
162.06665722	0.00000000	23.71432000	0.78124990
162.26665721	0.00000000	23.71432000	0.79355310
162.46665720	0.00000000	23.71432000	1.19955700
162.66665718	0.00000000	23.71432000	1.53174200
162.86665717	0.00000000	23.71432000	1.57480300
163.06665716	0.00000000	23.71432000	1.57480300
163.26665715	0.00000000	23.67126000	1.53174200
163.46665714	0.00000000	23.29601000	1.19955700
163.66665712	0.00000000	22.60088000	0.79355310
163.86665711	0.00000000	22.60088000	0.78124990
164.06665710	0.00000000	23.29601000	0.37524600
164.26665709	0.00000000	23.67126000	0.04306102
164.46665708	0.00000000	23.71432000	0.00000000
164.66665706	0.00000000	23.71432000	0.00000000
164.86665705	0.00000000	23.71432000	0.04306102
165.06665704	0.00000000	23.71432000	0.41830710
165.26665703	0.00000000	23.71432000	1.11343500
165.46665702	0.00000000	23.75738000	1.15649600
165.66665701	0.00000000	24.08957000	0.83661410
165.86665699	0.00000000	24.45866000	1.19955700
166.06665698	0.00000000	24.08957000	1.53174200
166.26665697	0.00000000	23.71432000	1.57480300
166.46665696	0.00000000	23.29601000	1.57480300
166.66665695	0.00000000	22.55167000	1.57480300
166.86665693	0.00000000	22.22564000	1.57480300
167.06665692	0.00000000	22.55167000	1.53174200
167.26665691	0.00000000	23.29601000	1.15649600
167.46665690	0.00000000	23.67126000	0.41830710
167.66665689	0.00000000	23.71432000	0.04306102
167.86665687	0.00000000	23.71432000	0.00000000
168.06665686	0.00000000	23.75738000	0.04306102
168.26665685	0.00000000	24.08957000	0.37524600
168.46665684	0.00000000	24.45866000	0.73818890
168.66665683	0.00000000	24.08957000	0.37524600
168.86665682	0.00000000	23.75738000	0.04306102
169.06665680	0.00000000	23.71432000	0.00000000
169.26665679	0.00000000	23.71432000	0.00000000
169.46665678	0.00000000	23.71432000	0.00000000
169.66665677	0.00000000	23.71432000	0.04306102
169.86665676	0.00000000	23.71432000	0.41830710
170.06665674	0.00000000	23.71432000	1.11343500
170.26665673	0.00000000	23.71432000	1.15649600
170.46665672	0.00000000	23.71432000	0.79355310
170.66665671	0.00000000	23.71432000	0.78124990
170.86665670	0.00000000	23.71432000	0.41830710
171.06665668	0.00000000	23.71432000	0.41830710
171.26665667	0.00000000	23.71432000	0.73818890
171.46665666	0.00000000	23.71432000	0.37524600
171.66665665	0.00000000	23.71432000	0.04306102
171.86665664	0.00000000	23.71432000	0.00000000
172.06665663	0.00000000	23.71432000	0.00000000
172.26665661	0.00000000	23.71432000	0.00000000
172.46665660	0.00000000	23.71432000	0.04306102
172.66665659	0.00000000	23.71432000	0.37524600
172.86665658	0.00000000	23.71432000	0.78124990
173.06665657	0.00000000	23.71432000	0.79355310
173.26665655	0.00000000	23.71432000	1.19955700
173.46665654	0.00000000	23.71432000	1.53174200
173.66665653	0.00000000	23.71432000	1.57480300
173.86665652	0.00000000	23.71432000	1.57480300
174.06665651	0.00000000	23.71432000	1.53174200
174.26665649	0.00000000	23.71432000	1.19955700
174.46665648	0.00000000	23.71432000	0.79355310
174.66665647	0.00000000	23.71432000	0.78124990
174.86665646	0.00000000	23.71432000	0.37524600
175.06665645	0.00000000	23.71432000	0.04306102
175.26665644	0.00000000	23.71432000	0.00000000
175.46665642	0.00000000	23.71432000	0.04306102
175.66665641	0.00000000	23.71432000	0.41830710
175.86665640	0.00000000	23.71432000	1.11343500
176.06665639	0.00000000	23.71432000	1.15649600
176.26665638	0.00000000	23.71432000	0.83661410
176.46665636	0.00000000	23.71432000	1.19955700
176.66665635	0.00000000	23.71432000	1.53174200
176.86665634	0.00000000	23.71432000	1.53174200
177.06665633	0.00000000	23.71432000	1.15649600
177.26665632	0.00000000	23.71432000	0.41830710
177.46665630	0.00000000	23.71432000	0.04306102
177.66665629	0.00000000	23.71432000	0.00000000
177.86665628	0.00000000	23.71432000	0.00000000
178.06665627	0.00000000	23.67126000	0.00000000
178.26665626	0.00000000	23.33907000	0.04306102
178.46665625	0.00000000	22.96998000	0.41830710
178.66665623	0.00000000	23.33907000	1.15649600
178.86665622	0.00000000	23.67126000	1.53174200
179.06665621	0.00000000	23.71432000	1.57480300
179.26665620	0.00000000	23.71432000	1.53174200
179.46665619	0.00000000	23.71432000	1.15649600
179.66665617	0.00000000	23.71432000	0.41830710
179.86665616	0.00000000	23.71432000	0.04306102
180.06665615	0.00000000	23.71432000	0.00000000
180.26665614	0.00000000	23.71432000	0.00000000
180.46665613	0.00000000	23.71432000	0.00000000
180.66665611	0.00000000	23.71432000	0.00000000
180.86665610	0.00000000	23.71432000	0.04306102
181.06665609	0.00000000	23.71432000	0.41830710
181.26665608	0.00000000	23.71432000	1.15649600
181.46665607	0.00000000	23.71432000	1.53174200
181.66665606	0.00000000	23.71432000	1.57480300
181.86665604	0.00000000	23.71432000	1.57480300
182.06665603	0.00000000	23.71432000	1.57480300
182.26665602	0.00000000	23.71432000	1.53174200
182.46665601	0.00000000	23.71432000	1.15649600
182.66665600	0.00000000	23.67126000	0.41830710
182.86665598	0.00000000	23.33907000	0.04306102
183.06665597	0.00000000	22.96998000	0.00000000
183.26665596	0.00000000	23.33907000	0.00000000
183.46665595	0.00000000	23.67126000	0.00000000
183.66665594	0.00000000	23.71432000	0.00000000
183.86665592	0.00000000	23.71432000	0.00000000
184.06665591	0.00000000	23.71432000	0.00000000
184.26665590	0.00000000	23.71432000	0.04306102
184.46665589	0.00000000	23.71432000	0.41830710
184.66665588	0.00000000	23.71432000	1.15649600
184.86665587	0.00000000	23.67126000	1.53174200
185.06665585	0.00000000	23.33907000	1.57480300
185.26665584	0.00000000	22.96998000	1.57480300
185.46665583	0.00000000	23.33907000	1.57480300
185.66665582	0.00000000	23.67126000	1.53174200
185.86665581	0.00000000	23.71432000	1.15649600
186.06665579	0.00000000	23.71432000	0.41830710
186.26665578	0.00000000	23.71432000	0.04306102
186.46665577	0.00000000	23.71432000	0.00000000
186.66665576	0.00000000	23.71432000	0.00000000
186.86665575	0.00000000	23.71432000	0.04306102
187.06665573	0.00000000	23.67126000	0.41830710
187.26665572	0.00000000	23.33907000	1.15649600
187.46665571	0.00000000	22.92692000	1.53174200
187.66665570	0.00000000	22.92076000	1.57480300
187.86665569	0.00000000	22.55167000	1.57480300
188.06665568	0.00000000	22.60088000	1.57480300
188.26665566	0.00000000	23.29601000	1.57480300
188.46665565	0.00000000	23.62205000	1.53174200
188.66665564	0.00000000	23.33907000	1.15649600
188.86665563	0.00000000	22.96998000	0.41830710
189.06665562	0.00000000	23.33907000	0.04306102
189.26665560	0.00000000	23.67126000	0.00000000
189.46665559	0.00000000	23.71432000	0.00000000
189.66665558	0.00000000	23.67126000	0.00000000
189.86665557	0.00000000	23.33907000	0.00000000
190.06665556	0.00000000	22.92692000	0.04306102
190.26665554	0.00000000	22.92076000	0.41830710
190.46665553	0.00000000	22.55167000	1.11343500
190.66665552	0.00000000	22.55167000	1.15649600
190.86665551	0.00000000	22.92076000	0.79355310
191.06665550	0.00000000	22.88386000	0.78124990
191.26665549	0.00000000	22.96383000	0.41830710
191.46665547	0.00000000	22.92692000	0.41830710
191.66665546	0.00000000	23.33907000	0.73818890
191.86665545	0.00000000	23.67126000	0.37524600
192.06665544	0.00000000	23.71432000	0.04306102
192.26665543	0.00000000	23.71432000	0.00000000
192.46665541	0.00000000	23.71432000	0.04306102
192.66665540	0.00000000	23.71432000	0.41830710
192.86665539	0.00000000	23.71432000	1.11343500
193.06665538	0.00000000	23.71432000	1.15649600
193.26665537	0.00000000	23.67126000	0.83661410
193.46665535	0.00000000	23.33907000	1.19955700
193.66665534	0.00000000	22.92692000	1.48253000
193.86665533	0.00000000	22.92076000	1.19955700
194.06665532	0.00000000	22.55167000	0.79355310
194.26665531	0.00000000	22.60088000	0.78124990
194.46665530	0.00000000	23.29601000	0.41830710
194.66665528	0.00000000	23.67126000	0.46136810
194.86665527	0.00000000	23.71432000	1.11343500
195.06665526	0.00000000	23.71432000	1.11343500
195.26665525	0.00000000	23.67126000	0.41830710
195.46665524	0.00000000	23.33907000	0.04306102
195.66665522	0.00000000	22.96998000	0.00000000
195.86665521	0.00000000	23.29601000	0.00000000
196.06665520	0.00000000	23.24680000	0.00000000
