Time	Channel A	Channel B	Channel C
(us)	(V)	(mV)	(mV)

-4.49999956	0.00000000	20.92766000	0.00000000
-4.29999957	0.00000000	20.59547000	0.00000000
-4.09999958	0.00000000	20.55241000	-0.04306102
-3.89999959	0.00000000	20.55241000	-0.41830710
-3.69999960	0.00000000	20.55241000	-1.11343500
-3.49999962	0.00000000	20.55241000	-1.11343500
-3.29999963	0.00000000	20.55241000	-0.41830710
-3.09999964	0.00000000	20.55241000	-0.04306102
-2.89999965	0.00000000	20.55241000	0.00000000
-2.69999966	0.00000000	20.55241000	0.00000000
-2.49999968	0.00000000	20.55241000	0.00000000
-2.29999969	0.00000000	20.55241000	0.00000000
-2.09999970	0.00000000	20.55241000	0.00000000
-1.89999971	0.00000000	20.55241000	0.00000000
-1.69999972	0.00000000	20.55241000	0.00000000
-1.49999973	0.00000000	20.55241000	0.00000000
-1.29999975	0.00000000	20.55241000	0.00000000
-1.09999976	0.00000000	20.55241000	0.00000000
-0.89999977	0.00000000	20.55241000	0.00000000
-0.69999978	0.00000000	20.55241000	0.00000000
-0.49999979	0.00000000	20.55241000	0.00000000
-0.29999981	0.31803640	20.55241000	0.00000000
-0.09999982	0.63668800	20.55241000	0.00000000
0.10000017	0.95533960	20.55241000	0.00000000
0.30000016	1.11466500	20.55241000	-0.04306102
0.50000015	0.79601380	20.55241000	-0.41830710
0.70000013	0.31803640	20.55241000	-1.15649600
0.90000012	-0.47736220	20.55241000	-1.53174200
1.10000011	-1.43331700	20.55241000	-1.53174200
1.30000010	-2.38927200	20.55241000	-1.15649600
1.50000009	-2.70792300	20.55241000	-0.41830710
1.70000008	-2.54859700	20.55241000	-0.04306102
1.90000006	-1.43331700	20.55241000	0.00000000
2.10000005	0.47736220	20.55241000	0.00000000
2.30000004	2.54859700	20.55241000	0.00000000
2.50000003	4.30056600	20.55241000	0.00000000
2.70000002	5.41584600	20.55241000	-0.04306102
2.90000000	4.93786900	20.55241000	-0.41830710
3.09999999	3.02657500	20.50935000	-1.15649600
3.29999998	0.15871060	20.17716000	-1.53174200
3.49999997	-3.34522600	19.80807000	-1.53174200
3.69999996	-6.21247500	20.17716000	-1.15649600
3.89999994	-7.80511800	20.50935000	-0.41830710
4.09999993	-7.48646600	20.55241000	-0.04306102
4.29999992	-5.25652100	20.55241000	0.00000000
4.49999991	-1.27399100	20.55241000	0.00000000
4.69999990	3.02657500	20.55241000	0.00000000
4.89999989	6.84916400	20.55241000	-0.04306102
5.09999987	9.23905000	20.50935000	-0.41830710
5.29999986	9.07972400	20.13410000	-1.15649600
5.49999985	6.84916400	19.38976000	-1.53174200
5.69999984	2.70792300	19.01451000	-1.57480300
5.89999983	-2.07062000	19.01451000	-1.57480300
6.09999981	-6.37180100	19.38976000	-1.53174200
6.29999980	-8.92039900	20.13410000	-1.15649600
6.49999979	-9.23905000	20.50935000	-0.41830710
6.69999978	-7.32714100	20.55241000	-0.04306102
6.89999977	-3.66326300	20.55241000	0.00000000
7.09999975	0.79601380	20.55241000	0.00000000
7.29999974	4.61921700	20.55241000	0.00000000
7.49999973	7.16781500	20.55241000	0.00000000
7.69999972	7.80511800	20.55241000	-0.04306102
7.89999971	6.37180100	20.55241000	-0.41830710
8.09999970	3.66326300	20.55241000	-1.15649600
8.29999968	0.31803640	20.55241000	-1.48253000
8.49999967	-2.70792300	20.55241000	-1.15649600
8.69999966	-4.61921700	20.50935000	-0.41830710
8.89999965	-5.25652100	20.17716000	-0.04306102
9.09999964	-4.45989200	19.80807000	0.00000000
9.29999962	-2.70792300	20.17716000	0.00000000
9.49999961	-0.79601380	20.50935000	0.00000000
9.69999960	0.95533960	20.55241000	0.00000000
9.89999959	2.22994600	20.55241000	0.00000000
10.09999958	2.54859700	20.55241000	0.00000000
10.29999956	2.22994600	20.50935000	-0.04306102
10.49999955	1.43331700	20.17716000	-0.37524600
10.69999954	0.63668800	19.80807000	-0.73818890
10.89999953	-0.15871060	20.17716000	-0.37524600
11.09999952	-0.63668800	20.50935000	-0.04306102
11.29999951	-0.95533960	20.55241000	0.00000000
11.49999949	-0.95533960	20.55241000	0.00000000
11.69999948	-0.79601380	20.50935000	0.00000000
11.89999947	-0.47736220	20.17716000	0.00000000
12.09999946	-0.15871060	19.80807000	0.00000000
12.29999945	-0.15871060	20.17716000	0.00000000
12.49999943	0.00000000	20.50935000	0.00000000
12.69999942	0.00000000	20.55241000	0.00000000
12.89999941	0.00000000	20.50935000	0.00000000
13.09999940	0.15871060	20.17716000	0.00000000
13.29999939	0.15871060	19.80807000	0.00000000
13.49999937	0.00000000	20.17716000	0.00000000
13.69999936	0.00000000	20.50935000	0.00000000
13.89999935	0.00000000	20.55241000	0.00000000
14.09999934	-0.15871060	20.55241000	0.00000000
14.29999933	-0.15871060	20.55241000	0.00000000
14.49999932	-0.15871060	20.55241000	0.00000000
14.69999930	0.00000000	20.50935000	0.00000000
14.89999929	0.00000000	20.17716000	0.00000000
15.09999928	0.00000000	19.76501000	0.00000000
15.29999927	0.00000000	19.75886000	0.00000000
15.49999926	0.00000000	19.34670000	0.00000000
15.69999924	0.00000000	19.01451000	0.00000000
15.89999923	0.00000000	19.01451000	0.00000000
16.09999922	0.00000000	19.38976000	0.00000000
16.29999921	0.00000000	20.13410000	0.00000000
16.49999920	-0.15871060	20.50935000	0.00000000
16.69999919	0.00000000	20.55241000	0.00000000
16.89999917	0.00000000	20.55241000	0.00000000
17.09999916	0.00000000	20.59547000	0.00000000
17.29999915	0.00000000	20.97072000	0.00000000
17.49999914	0.00000000	21.71506000	0.00000000
17.69999913	0.00000000	22.04109000	0.00000000
17.89999911	0.00000000	21.66585000	0.00000000
18.09999910	0.00000000	20.50935000	0.00000000
18.29999909	0.00000000	18.97145000	-0.04306102
18.49999908	0.00000000	17.39050000	-0.37524600
18.69999907	0.00000000	15.85261000	-0.73818890
18.89999905	0.00000000	14.73917000	-0.37524600
19.09999904	0.00000000	14.73917000	-0.04306102
19.29999903	0.00000000	15.94488000	-0.04306102
19.49999902	0.00000000	18.31939000	-0.37524600
19.69999901	0.00000000	22.17643000	-0.73818890
19.89999900	0.00000000	26.36565000	-0.37524600
20.09999898	0.00000000	29.48450000	-0.04306102
20.29999897	0.00000000	31.02239000	0.00000000
20.49999896	0.00000000	30.55487000	0.00000000
20.69999895	0.00000000	27.39296000	-0.04306102
20.89999894	0.00000000	21.53666000	-0.37524600
21.09999892	0.00000000	13.85334000	-0.78124990
21.29999891	0.00000000	6.13927100	-0.74434050
21.49999890	0.00000000	0.78124990	-0.83046260
21.69999889	0.00000000	-1.12573800	-0.79355310
21.89999888	0.00000000	1.71013800	-1.19955700
22.09999886	0.00000000	9.47957600	-1.53174200
22.29999885	0.00000000	21.06299000	-1.57480300
22.49999884	0.00000000	33.80905000	-1.53174200
22.69999883	0.00000000	44.61122000	-1.15649600
22.89999882	0.00000000	51.11958000	-0.41830710
23.09999881	0.00000000	50.98425000	-0.04306102
23.29999879	0.00000000	43.21481000	0.04306102
23.49999878	0.00000000	28.88779000	0.41830710
23.69999877	0.00000000	11.10974000	1.15649600
23.89999876	0.00000000	-6.24384800	1.53174200
24.09999875	0.00000000	-18.89764000	1.53174200
24.29999873	0.00000000	-23.08686000	1.11343500
24.49999872	0.00000000	-17.26747000	0.00000000
24.69999871	0.00000000	-2.57135800	-1.19955700
24.89999870	0.00000000	17.94414000	-2.41141700
25.09999869	0.00000000	39.95448000	-4.31840500
25.29999867	0.00000000	58.47071000	-5.75787400
25.49999866	0.00000000	68.85458000	-5.80093500
25.69999865	0.00000000	68.38705000	-4.64443900
25.89999864	0.00000000	56.37918000	-2.64517700
26.09999863	0.00000000	35.16855000	0.51058070
26.29999862	0.00000000	10.13164000	4.69365100
26.49999860	0.00000000	-12.70915000	8.50147600
26.69999859	0.00000000	-28.15576000	10.45152000
26.89999858	0.00000000	-33.18159000	10.40846000
27.09999857	0.00000000	-26.20571000	7.99089500
27.29999856	0.00000000	-8.84596300	2.55905500
27.49999854	0.00000000	14.69611000	-4.73671200
27.69999853	0.00000000	39.02559000	-12.11860000
27.89999852	0.00000000	58.38459000	-18.25787000
28.09999851	0.00000000	68.80536000	-21.60433000
28.29999850	0.00000000	68.06102000	-20.02337000
28.49999848	0.00000000	56.19463000	-13.47810000
28.69999847	0.00000000	37.30315000	-3.76476400
28.89999846	0.00000000	15.98794000	7.84940900
29.09999845	0.00000000	-3.72785400	19.00221000
29.29999844	0.00000000	-17.31668000	26.66708000
29.49999843	0.00000000	-22.38558000	28.94316000
29.69999841	0.00000000	-18.56545000	24.62475000
29.89999840	0.00000000	-6.61294300	14.21629000
30.09999839	0.00000000	9.95324800	-0.09227362
30.29999838	0.00000000	27.39296000	-15.18824000
30.49999837	0.00000000	42.09522000	-28.29109000
30.69999835	0.00000000	51.07652000	-36.33120000
30.89999834	0.00000000	53.07578000	-36.70644000
31.09999833	0.00000000	48.46825000	-29.36146000
31.29999832	0.00000000	38.41658000	-15.79724000
31.49999831	0.00000000	25.29527000	1.58095500
31.69999829	0.00000000	12.08784000	18.95300000
31.89999828	0.00000000	1.24261800	32.47416000
32.09999827	0.00000000	-5.35802100	39.40084000
32.29999826	0.00000000	-6.15157400	37.81988000
32.49999825	0.00000000	-1.54404500	27.82972000
32.69999824	0.00000000	7.34498000	11.98942000
32.89999822	0.00000000	18.50394000	-6.18233200
33.09999821	0.00000000	28.93085000	-23.17913000
33.29999820	0.00000000	36.33120000	-35.16855000
33.49999819	0.00000000	39.49311000	-39.81914000
33.69999818	0.00000000	38.33046000	-36.37426000
33.89999816	0.00000000	33.30462000	-25.55364000
34.09999815	0.00000000	25.20915000	-10.11934000
34.29999814	0.00000000	16.40625000	6.92052100
34.49999813	0.00000000	9.43651600	21.93036000
34.69999812	0.00000000	5.89936000	31.63755000
34.89999810	0.00000000	5.85014700	33.96284000
35.09999809	0.00000000	8.92593500	28.98622000
35.29999808	0.00000000	14.36393000	17.79035000
35.49999807	0.00000000	20.83538000	3.15575800
35.69999806	0.00000000	26.64247000	-11.52190000
35.89999805	0.00000000	29.72441000	-23.09301000
36.09999803	0.00000000	30.13656000	-28.90010000
36.29999802	0.00000000	27.43602000	-27.73745000
36.49999801	0.00000000	22.50861000	-20.11565000
36.69999800	0.00000000	17.48277000	-8.17544300
36.89999799	0.00000000	13.20128000	4.46604300
37.09999797	0.00000000	10.54995000	14.91142000
37.29999796	0.00000000	10.54995000	20.30635000
37.49999795	0.00000000	13.20128000	19.97416000
37.69999794	0.00000000	17.43356000	14.16708000
37.89999793	0.00000000	22.09030000	4.26919300
38.09999791	0.00000000	26.32259000	-6.40994000
38.29999790	0.00000000	29.01698000	-14.12401000
38.49999789	0.00000000	29.39222000	-17.23671000
38.69999788	0.00000000	27.48524000	-15.28666000
38.89999787	0.00000000	23.62205000	-8.40920300
39.09999786	0.00000000	19.01451000	1.11343500
39.29999784	0.00000000	14.73917000	9.89788300
39.49999783	0.00000000	11.62032000	15.28666000
39.69999782	0.00000000	10.03937000	15.66191000
39.89999781	0.00000000	10.08243000	11.06053000
40.09999780	0.00000000	11.99557000	2.64517700
40.29999778	0.00000000	15.47736000	-6.96358300
40.49999777	0.00000000	19.34670000	-15.00984000
40.69999776	0.00000000	23.29601000	-19.60507000
40.89999775	0.00000000	26.74089000	-18.81767000
41.09999774	0.00000000	29.06619000	-13.10285000
41.29999772	0.00000000	29.44143000	-4.22613100
41.49999771	0.00000000	27.90354000	5.75787400
41.69999770	0.00000000	24.82775000	14.16708000
41.89999769	0.00000000	20.97072000	18.39936000
42.09999768	0.00000000	17.43356000	17.32899000
42.29999767	0.00000000	14.32087000	11.98942000
42.49999765	0.00000000	12.03863000	4.26919300
42.69999764	0.00000000	11.62032000	-4.22613100
42.89999763	0.00000000	12.73991000	-11.47884000
43.09999762	0.00000000	14.64690000	-15.37278000
43.29999761	0.00000000	17.01525000	-15.05290000
43.49999759	0.00000000	19.34670000	-11.65723000
43.69999758	0.00000000	21.66585000	-6.22539300
43.89999757	0.00000000	23.20374000	-0.09227362
44.09999756	0.00000000	23.67126000	5.33956700
44.29999755	0.00000000	23.67126000	8.78444900
44.49999753	0.00000000	23.29601000	9.61491000
44.69999752	0.00000000	22.55167000	7.71407400
44.89999751	0.00000000	22.17643000	4.31840500
45.09999750	0.00000000	22.09030000	0.41830710
45.29999749	0.00000000	21.66585000	-3.06348400
45.49999748	0.00000000	20.46014000	-5.75787400
45.69999746	0.00000000	18.50394000	-6.92052100
45.89999745	0.00000000	15.76649000	-6.22539300
46.09999744	0.00000000	12.69070000	-4.68750000
46.29999743	0.00000000	10.03937000	-2.73745100
46.49999742	0.00000000	8.92593500	-0.41830710
46.69999740	0.00000000	10.13164000	1.53174200
46.89999739	0.00000000	13.66880000	3.06348400
47.09999738	0.00000000	19.48204000	3.80782500
47.29999737	0.00000000	26.36565000	3.06348400
47.49999736	0.00000000	32.13582000	1.53174200
47.69999734	0.00000000	35.21161000	-0.41830710
47.89999733	0.00000000	34.83636000	-2.73745100
48.09999732	0.00000000	30.93012000	-4.64443900
48.29999731	0.00000000	24.32333000	-5.80093500
48.49999730	0.00000000	15.80955000	-5.80093500
48.69999729	0.00000000	7.38804100	-4.64443900
48.89999727	0.00000000	1.61786400	-2.64517700
49.09999726	0.00000000	0.03690945	0.41830710
49.29999725	0.00000000	2.78051200	3.80782500
49.49999724	0.00000000	9.38730200	5.75787400
49.69999723	0.00000000	19.01451000	6.17618100
49.89999721	0.00000000	28.97392000	5.33956700
50.09999720	0.00000000	36.33120000	2.64517700
50.29999719	0.00000000	39.40084000	-1.15649600
50.49999718	0.00000000	37.48769000	-4.68750000
50.69999717	0.00000000	30.97933000	-7.75713500
50.89999715	0.00000000	22.13336000	-9.61491000
51.09999714	0.00000000	13.20128000	-8.87057000
51.29999713	0.00000000	5.89936000	-6.22539300
51.49999712	0.00000000	2.08538400	-2.69439000
51.69999711	0.00000000	3.19881900	1.57480300
51.89999710	0.00000000	8.55068800	5.75787400
52.09999708	0.00000000	16.22785000	8.40920300
52.29999707	0.00000000	24.32333000	8.45226300
52.49999706	0.00000000	30.46875000	6.17618100
52.69999705	0.00000000	33.21235000	2.73745100
52.89999704	0.00000000	32.04970000	-1.15649600
53.09999702	0.00000000	27.43602000	-4.64443900
53.29999701	0.00000000	20.55241000	-7.33882900
53.49999700	0.00000000	13.66880000	-8.45226300
53.69999699	0.00000000	9.01205700	-7.33882900
53.89999698	0.00000000	7.43110200	-4.68750000
54.09999696	0.00000000	9.01205700	-1.58095500
54.29999695	0.00000000	13.57652000	1.48868100
54.49999694	0.00000000	19.71580000	3.76476400
54.69999693	0.00000000	25.06767000	4.14000900
54.89999692	0.00000000	28.59867000	2.69439000
55.09999691	0.00000000	29.34916000	0.41830710
55.29999689	0.00000000	27.43602000	-1.48868100
55.49999688	0.00000000	23.20374000	-2.64517700
55.69999687	0.00000000	17.85802000	-2.64517700
55.89999686	0.00000000	13.24434000	-1.48868100
56.09999685	0.00000000	10.54995000	0.37524600
56.29999683	0.00000000	10.50689000	2.27608300
56.49999682	0.00000000	12.82603000	3.02042300
56.69999681	0.00000000	16.64616000	2.60211600
56.89999680	0.00000000	21.24754000	0.64591530
57.09999679	0.00000000	24.69857000	-2.78051200
57.29999677	0.00000000	26.32259000	-6.17618100
57.49999676	0.00000000	26.32259000	-8.50147600
57.69999675	0.00000000	24.78469000	-8.82750900
57.89999674	0.00000000	22.09030000	-6.92052100
58.09999673	0.00000000	19.01451000	-2.97736200
58.29999672	0.00000000	16.32013000	2.32529500
58.49999670	0.00000000	14.78223000	7.70792300
58.69999669	0.00000000	14.73917000	10.73450000
58.89999668	0.00000000	15.90182000	11.14665000
59.09999667	0.00000000	17.80881000	8.40920300
59.29999666	0.00000000	20.08489000	3.02042300
59.49999664	0.00000000	21.62278000	-3.48794300
59.69999663	0.00000000	22.04109000	-9.70103300
59.89999662	0.00000000	21.66585000	-13.89641000
60.09999661	0.00000000	20.50935000	-15.42200000
60.29999660	0.00000000	19.01451000	-13.05364000
60.49999658	0.00000000	17.85802000	-7.33882900
60.69999657	0.00000000	17.48277000	0.00000000
60.89999656	0.00000000	17.85802000	7.33882900
61.09999655	0.00000000	18.97145000	13.10285000
61.29999654	0.00000000	20.13410000	15.74803000
61.49999653	0.00000000	20.92766000	14.21629000
61.69999651	0.00000000	21.66585000	8.82750900
61.89999650	0.00000000	21.62278000	1.15649600
62.09999649	0.00000000	20.50935000	-6.96358300
62.29999648	0.00000000	18.97145000	-13.52116000
62.49999647	0.00000000	17.43356000	-17.37205000
62.69999645	0.00000000	16.27707000	-17.32899000
62.89999644	0.00000000	15.90182000	-13.14591000
63.09999643	0.00000000	16.27707000	-6.22539300
63.29999642	0.00000000	17.43356000	1.48868100
63.49999641	0.00000000	19.01451000	8.45226300
63.69999639	0.00000000	20.92766000	13.05364000
63.89999638	0.00000000	22.82849000	14.25935000
64.09999637	0.00000000	23.57899000	11.94021000
64.29999636	0.00000000	23.24680000	6.96358300
64.49999635	0.00000000	22.04109000	0.41830710
64.69999634	0.00000000	20.13410000	-5.80093500
64.89999632	0.00000000	17.80881000	-10.82677000
65.09999631	0.00000000	15.94488000	-13.88410000
65.29999630	0.00000000	15.15748000	-13.52116000
65.49999629	0.00000000	15.90182000	-10.53765000
65.69999628	0.00000000	17.39050000	-6.26845500
65.89999626	0.00000000	18.97145000	-1.62401600
66.09999625	0.00000000	20.50935000	2.69439000
66.29999624	0.00000000	21.62278000	6.17618100
66.49999623	0.00000000	21.66585000	8.50147600
66.69999622	0.00000000	20.88459000	8.91978400
66.89999620	0.00000000	19.71580000	7.80019600
67.09999619	0.00000000	17.80881000	5.85014700
67.29999618	0.00000000	16.36319000	3.11269700
67.49999617	0.00000000	16.32013000	0.00000000
67.69999616	0.00000000	17.48277000	-3.15575800
67.89999615	0.00000000	19.38976000	-6.22539300
68.09999613	0.00000000	21.71506000	-8.58759800
68.29999612	0.00000000	23.57899000	-9.71333600
68.49999611	0.00000000	24.36639000	-9.70103300
68.69999610	0.00000000	23.53592000	-7.75713500
68.89999609	0.00000000	21.24754000	-4.68750000
69.09999607	0.00000000	17.76575000	-1.11343500
69.29999606	0.00000000	14.32087000	3.15575800
69.49999605	0.00000000	11.62032000	7.33882900
69.69999604	0.00000000	10.50689000	10.03322000
69.89999603	0.00000000	11.66339000	10.45152000
70.09999601	0.00000000	14.73917000	8.87057000
70.29999600	0.00000000	19.01451000	5.38262700
70.49999599	0.00000000	23.67126000	0.37524600
70.69999598	0.00000000	27.90354000	-4.64443900
70.89999597	0.00000000	30.51181000	-8.91978400
71.09999596	0.00000000	30.13656000	-11.56496000
71.29999594	0.00000000	26.69783000	-11.56496000
71.49999593	0.00000000	21.71506000	-8.91978400
71.69999592	0.00000000	16.22785000	-4.69365100
71.89999591	0.00000000	11.24508000	-0.04306102
72.09999590	0.00000000	7.76328700	4.18307100
72.29999588	0.00000000	7.01279500	6.87746000
72.49999587	0.00000000	8.87672100	7.29576700
72.69999586	0.00000000	12.78297000	5.85014700
72.89999585	0.00000000	17.80881000	3.48179100
73.09999584	0.00000000	23.20374000	0.83046260
73.29999582	0.00000000	27.43602000	-1.90083600
73.49999581	0.00000000	29.44143000	-3.43873000
73.69999580	0.00000000	29.44143000	-4.26919300
73.89999579	0.00000000	27.48524000	-4.22613100
74.09999578	0.00000000	23.62205000	-3.11269700
74.29999577	0.00000000	19.01451000	-1.62401600
74.49999575	0.00000000	14.73917000	-0.51058070
74.69999574	0.00000000	11.66339000	-0.51058070
74.89999573	0.00000000	10.50689000	-1.62401600
75.09999572	0.00000000	11.62032000	-3.11269700
75.29999571	0.00000000	14.27165000	-4.22613100
75.49999569	0.00000000	17.34744000	-4.18307100
75.69999568	0.00000000	20.08489000	-2.64517700
75.89999567	0.00000000	22.04109000	0.04306102
76.09999566	0.00000000	23.20374000	3.11269700
76.29999565	0.00000000	23.20374000	5.80093500
76.49999563	0.00000000	22.09030000	7.29576700
76.69999562	0.00000000	20.59547000	6.92052100
76.89999561	0.00000000	19.43897000	4.55831700
77.09999560	0.00000000	19.01451000	0.69512790
77.29999559	0.00000000	18.97145000	-4.31840500
77.49999558	0.00000000	18.97145000	-8.91978400
77.69999556	0.00000000	18.92839000	-11.98942000
77.89999555	0.00000000	18.55315000	-12.77067000
78.09999554	0.00000000	17.76575000	-10.82677000
78.29999553	0.00000000	17.01525000	-6.96358300
78.49999552	0.00000000	16.22785000	-1.53174200
78.69999550	0.00000000	15.90182000	4.22613100
78.89999549	0.00000000	16.27707000	8.87672100
79.09999548	0.00000000	17.48277000	11.56496000
79.29999547	0.00000000	19.38976000	11.52190000
79.49999546	0.00000000	21.71506000	8.50147600
79.69999544	0.00000000	23.62205000	3.48794300
79.89999543	0.00000000	24.78469000	-1.90698800
80.09999542	0.00000000	24.74163000	-6.96358300
80.29999541	0.00000000	23.20374000	-10.45152000
80.49999540	0.00000000	20.50935000	-12.03248000
80.69999539	0.00000000	17.43356000	-11.61417000
80.89999537	0.00000000	14.73917000	-8.91978400
81.09999536	0.00000000	13.20128000	-4.73671200
81.29999535	0.00000000	13.15822000	-0.46751960
81.49999534	0.00000000	14.32087000	3.06348400
81.69999533	0.00000000	16.27707000	5.80093500
81.89999531	0.00000000	18.97145000	7.38188900
82.09999530	0.00000000	21.66585000	7.75713500
82.29999529	0.00000000	23.53592000	6.96358300
82.49999528	0.00000000	23.99114000	4.64443900
82.69999527	0.00000000	22.84080000	1.58095500
82.89999525	0.00000000	21.33981000	-1.58095500
83.09999524	0.00000000	19.34670000	-4.68750000
83.29999523	0.00000000	17.48277000	-7.38188900
83.49999522	0.00000000	16.27707000	-8.91978400
83.69999521	0.00000000	15.90182000	-8.96284400
83.89999520	0.00000000	16.22785000	-7.75713500
84.09999518	0.00000000	17.01525000	-5.38262700
84.29999517	0.00000000	17.76575000	-1.53174200
84.49999516	0.00000000	18.55315000	2.69439000
84.69999515	0.00000000	18.92839000	6.17618100
84.89999514	0.00000000	18.97145000	8.50147600
85.09999512	0.00000000	18.97145000	8.87672100
85.29999511	0.00000000	19.01451000	7.33882900
85.49999510	0.00000000	19.38976000	4.22613100
85.69999509	0.00000000	20.13410000	-0.04306102
85.89999508	0.00000000	20.50935000	-4.69365100
86.09999506	0.00000000	20.50935000	-8.91978400
86.29999505	0.00000000	20.13410000	-11.56496000
86.49999504	0.00000000	19.34670000	-11.56496000
86.69999503	0.00000000	18.55315000	-8.91978400
86.89999502	0.00000000	17.34744000	-4.69365100
87.09999501	0.00000000	15.90182000	0.00000000
87.29999499	0.00000000	15.11442000	4.60137700
87.49999498	0.00000000	15.47736000	8.08316900
87.69999497	0.00000000	16.27707000	9.20275500
87.89999496	0.00000000	17.85802000	8.08316900
88.09999495	0.00000000	20.13410000	4.55831700
88.29999493	0.00000000	21.99803000	-0.41830710
88.49999492	0.00000000	22.82849000	-5.75787400
88.69999491	0.00000000	22.46555000	-9.60875900
88.89999490	0.00000000	21.71506000	-10.77756000
89.09999489	0.00000000	20.46014000	-9.65797200
89.29999487	0.00000000	18.55315000	-6.17618100
89.49999486	0.00000000	16.32013000	-1.57480300
89.69999485	0.00000000	15.15748000	3.06963600
89.89999484	0.00000000	15.47736000	6.87746000
90.09999483	0.00000000	16.22785000	8.40920300
90.29999482	0.00000000	17.43356000	7.29576700
90.49999480	0.00000000	18.92839000	4.18307100
90.69999479	0.00000000	20.08489000	-0.41830710
90.89999478	0.00000000	20.50935000	-5.38262700
91.09999477	0.00000000	20.55241000	-8.82750900
91.29999476	0.00000000	20.50935000	-10.03322000
91.49999474	0.00000000	20.13410000	-8.82750900
91.69999473	0.00000000	19.38976000	-5.38262700
91.89999472	0.00000000	19.01451000	-0.41830710
92.09999471	0.00000000	18.97145000	4.18307100
92.29999470	0.00000000	18.97145000	7.25270600
92.49999468	0.00000000	18.97145000	8.03395600
92.69999467	0.00000000	18.92839000	6.13312000
92.89999466	0.00000000	18.55315000	2.64517700
93.09999465	0.00000000	17.76575000	-1.99311000
93.29999464	0.00000000	17.01525000	-6.92052100
93.49999463	0.00000000	16.22785000	-9.94094400
93.69999461	0.00000000	15.90182000	-9.98400600
93.89999460	0.00000000	16.32013000	-7.33882900
94.09999459	0.00000000	17.85802000	-3.15575800
94.29999458	0.00000000	20.13410000	1.11343500
94.49999457	0.00000000	22.04109000	4.55831700
94.69999455	0.00000000	23.24680000	6.50221400
94.89999454	0.00000000	23.62205000	6.09005900
95.09999453	0.00000000	23.24680000	3.80782500
95.29999452	0.00000000	21.99803000	-0.04306102
95.49999451	0.00000000	19.71580000	-4.22613100
95.69999449	0.00000000	16.60310000	-7.29576700
95.89999448	0.00000000	13.94562000	-8.45226300
96.09999447	0.00000000	11.95251000	-7.33882900
96.29999446	0.00000000	11.24508000	-4.68750000
96.49999445	0.00000000	12.03863000	-1.58095500
96.69999444	0.00000000	14.78223000	1.48868100
96.89999442	0.00000000	18.92839000	3.80782500
97.09999441	0.00000000	22.82849000	4.55831700
97.29999440	0.00000000	25.53518000	3.85088600
97.49999439	0.00000000	27.10999000	1.90698800
97.69999438	0.00000000	26.69783000	-0.37524600
97.89999436	0.00000000	24.78469000	-2.69439000
98.09999435	0.00000000	21.66585000	-4.18307100
98.29999434	0.00000000	17.80881000	-4.26919300
98.49999433	0.00000000	14.32087000	-3.53100400
98.69999432	0.00000000	11.57726000	-2.73745100
98.89999430	0.00000000	10.08243000	-1.57480300
99.09999429	0.00000000	10.45768000	-0.46136810
99.29999428	0.00000000	12.78297000	-0.04306102
99.49999427	0.00000000	16.22785000	0.00000000
99.69999426	0.00000000	20.08489000	0.00000000
99.89999425	0.00000000	23.20374000	0.00000000
100.09999423	0.00000000	25.15994000	0.04306102
100.29999422	0.00000000	25.94734000	0.41830710
100.49999421	0.00000000	25.15994000	1.15649600
100.69999420	0.00000000	23.24680000	1.48253000
100.89999419	0.00000000	20.50935000	1.11343500
101.09999417	0.00000000	17.43356000	-0.04306102
101.29999416	0.00000000	14.69611000	-1.57480300
101.49999415	0.00000000	12.78297000	-3.11269700
101.69999414	0.00000000	11.99557000	-4.26919300
101.89999413	0.00000000	12.78297000	-4.64443900
102.09999411	0.00000000	14.64690000	-4.26919300
102.29999410	0.00000000	17.01525000	-3.06348400
102.49999409	0.00000000	19.34670000	-1.15649600
102.69999408	0.00000000	21.66585000	1.15649600
102.89999407	0.00000000	23.20374000	3.11269700
103.09999406	0.00000000	23.62205000	4.60137700
103.29999404	0.00000000	23.20374000	4.92125900
103.49999403	0.00000000	21.66585000	3.02042300
103.69999402	0.00000000	19.38976000	0.00000000
103.89999401	0.00000000	17.43356000	-3.11269700
104.09999400	0.00000000	15.85261000	-5.80093500
104.29999398	0.00000000	14.73917000	-7.33882900
104.49999397	0.00000000	14.69611000	-7.33882900
104.69999396	0.00000000	15.47736000	-5.80093500
104.89999395	0.00000000	16.64616000	-3.11269700
105.09999394	0.00000000	18.55315000	-0.04306102
105.29999392	0.00000000	20.04183000	2.64517700
105.49999391	0.00000000	20.50935000	4.18307100
105.69999390	0.00000000	20.55241000	4.22613100
105.89999389	0.00000000	20.50935000	3.06348400
106.09999388	0.00000000	20.08489000	1.15649600
106.29999387	0.00000000	18.97145000	-1.15649600
106.49999385	0.00000000	17.85802000	-3.06348400
106.69999384	0.00000000	17.43356000	-4.22613100
106.89999383	0.00000000	17.43356000	-4.22613100
107.09999382	0.00000000	17.80881000	-3.11269700
107.29999381	0.00000000	18.59621000	-1.57480300
107.49999379	0.00000000	19.34670000	-0.04306102
107.69999378	0.00000000	20.13410000	1.11343500
107.89999377	0.00000000	20.46014000	1.48253000
108.09999376	0.00000000	20.08489000	1.11343500
108.29999375	0.00000000	18.97145000	-0.04306102
108.49999374	0.00000000	17.80881000	-1.57480300
108.69999372	0.00000000	17.01525000	-3.11269700
108.89999371	0.00000000	16.27707000	-4.22613100
109.09999370	0.00000000	16.32013000	-4.22613100
109.29999369	0.00000000	17.39050000	-3.11269700
109.49999368	0.00000000	18.55315000	-1.57480300
109.69999366	0.00000000	19.34670000	0.00000000
109.89999365	0.00000000	20.13410000	1.53174200
110.09999364	0.00000000	20.50935000	2.64517700
110.29999363	0.00000000	20.50935000	2.64517700
110.49999362	0.00000000	20.08489000	1.53174200
110.69999360	0.00000000	18.97145000	0.00000000
110.89999359	0.00000000	17.80881000	-1.57480300
111.09999358	0.00000000	17.01525000	-3.11269700
111.29999357	0.00000000	16.22785000	-4.26919300
111.49999356	0.00000000	15.90182000	-4.64443900
111.69999355	0.00000000	16.27707000	-4.26919300
111.89999353	0.00000000	17.39050000	-3.15575800
112.09999352	0.00000000	18.50394000	-1.99311000
112.29999351	0.00000000	18.92839000	-1.15649600
112.49999350	0.00000000	18.97145000	-0.04306102
112.69999349	0.00000000	18.97145000	0.69512790
112.89999347	0.00000000	18.97145000	0.37524600
113.09999346	0.00000000	18.92839000	0.04306102
113.29999345	0.00000000	18.55315000	-0.04306102
113.49999344	0.00000000	17.80881000	-0.41830710
113.69999343	0.00000000	17.48277000	-1.15649600
113.89999341	0.00000000	17.76575000	-1.53174200
114.09999340	0.00000000	18.17790000	-1.57480300
114.29999339	0.00000000	18.18405000	-1.57480300
114.49999338	0.00000000	18.59621000	-1.57480300
114.69999337	0.00000000	18.92839000	-1.57480300
114.89999336	0.00000000	18.97145000	-1.57480300
115.09999334	0.00000000	18.97145000	-1.57480300
115.29999333	0.00000000	18.97145000	-1.57480300
115.49999332	0.00000000	18.97145000	-1.57480300
115.69999331	0.00000000	18.97145000	-1.53174200
115.89999330	0.00000000	18.92839000	-1.15649600
116.09999328	0.00000000	18.55315000	-0.41830710
116.29999327	0.00000000	17.80881000	0.00000000
116.49999326	0.00000000	17.43356000	0.41830710
116.69999325	0.00000000	17.39050000	1.11343500
116.89999324	0.00000000	17.43356000	1.11343500
117.09999322	0.00000000	17.76575000	0.37524600
117.29999321	0.00000000	18.17790000	-0.41830710
117.49999320	0.00000000	18.22711000	-1.57480300
117.69999319	0.00000000	19.01451000	-2.68823800
117.89999318	0.00000000	20.08489000	-3.11269700
118.09999317	0.00000000	20.50935000	-3.15575800
118.29999315	0.00000000	20.50935000	-3.11269700
118.49999314	0.00000000	20.08489000	-2.68823800
118.69999313	0.00000000	18.92839000	-1.57480300
118.89999312	0.00000000	17.43356000	-0.46136810
119.09999311	0.00000000	16.27707000	-0.04306102
119.29999309	0.00000000	15.85261000	0.00000000
119.49999308	0.00000000	15.85261000	0.00000000
119.69999307	0.00000000	16.27707000	0.00000000
119.89999306	0.00000000	17.39050000	0.00000000
120.09999305	0.00000000	18.55315000	-0.04306102
120.29999303	0.00000000	19.38976000	-0.41830710
120.49999302	0.00000000	20.55241000	-1.15649600
120.69999301	0.00000000	21.62278000	-1.53174200
120.89999300	0.00000000	21.66585000	-1.61786400
121.09999299	0.00000000	20.92766000	-1.95004900
121.29999298	0.00000000	20.13410000	-2.36220500
121.49999296	0.00000000	18.92839000	-2.32529500
121.69999295	0.00000000	17.43356000	-2.36220500
121.89999294	0.00000000	16.27707000	-1.90698800
122.09999293	0.00000000	15.85261000	-1.19955700
122.29999292	0.00000000	15.85261000	-0.41830710
122.49999290	0.00000000	16.22785000	-0.04306102
122.69999289	0.00000000	17.01525000	0.00000000
122.89999288	0.00000000	17.80881000	0.04306102
123.09999287	0.00000000	18.97145000	0.37524600
123.29999286	0.00000000	20.08489000	0.73818890
123.49999284	0.00000000	20.50935000	0.32603340
123.69999283	0.00000000	20.55241000	-0.37524600
123.89999282	0.00000000	20.50935000	-1.15649600
124.09999281	0.00000000	20.13410000	-1.53174200
124.29999280	0.00000000	19.34670000	-1.61786400
124.49999279	0.00000000	18.55315000	-1.99311000
124.69999277	0.00000000	17.39050000	-2.68823800
124.89999276	0.00000000	16.27707000	-2.68823800
125.09999275	0.00000000	15.85261000	-1.99311000
125.29999274	0.00000000	15.85261000	-1.57480300
125.49999273	0.00000000	16.22785000	-1.15649600
125.69999271	0.00000000	17.01525000	-0.37524600
125.89999270	0.00000000	17.76575000	0.32603340
126.09999269	0.00000000	18.59621000	0.73818890
126.29999268	0.00000000	19.34670000	0.37524600
126.49999267	0.00000000	20.13410000	0.00000000
126.69999265	0.00000000	20.50935000	-0.41830710
126.89999264	0.00000000	20.50935000	-1.15649600
127.09999263	0.00000000	20.08489000	-1.57480300
127.29999262	0.00000000	18.92839000	-1.95004900
127.49999261	0.00000000	17.43356000	-2.31914400
127.69999260	0.00000000	16.27707000	-1.95004900
127.89999258	0.00000000	15.85261000	-1.61786400
128.09999257	0.00000000	15.85261000	-1.57480300
128.29999256	0.00000000	16.27707000	-1.53174200
128.49999255	0.00000000	17.39050000	-1.15649600
128.69999254	0.00000000	18.55315000	-0.41830710
128.89999252	0.00000000	19.34670000	-0.04306102
129.09999251	0.00000000	20.13410000	-0.04306102
129.29999250	0.00000000	20.46014000	-0.41830710
129.49999249	0.00000000	20.08489000	-1.15649600
129.69999248	0.00000000	18.97145000	-1.53174200
129.89999246	0.00000000	17.80881000	-1.57480300
130.09999245	0.00000000	17.01525000	-1.57480300
130.29999244	0.00000000	16.22785000	-1.57480300
130.49999243	0.00000000	15.90182000	-1.53174200
130.69999242	0.00000000	16.22785000	-1.15649600
130.89999241	0.00000000	17.01525000	-0.41830710
131.09999239	0.00000000	17.80881000	-0.04306102
131.29999238	0.00000000	18.97145000	-0.04306102
131.49999237	0.00000000	20.04183000	-0.41830710
131.69999236	0.00000000	20.08489000	-1.15649600
131.89999235	0.00000000	19.38976000	-1.57480300
132.09999233	0.00000000	18.97145000	-1.99311000
132.29999232	0.00000000	18.55315000	-2.73745100
132.49999231	0.00000000	17.80881000	-3.06348400
132.69999230	0.00000000	17.43356000	-2.73745100
132.89999229	0.00000000	17.39050000	-1.95004900
133.09999227	0.00000000	17.39050000	-1.19955700
133.29999226	0.00000000	17.43356000	-0.41830710
133.49999225	0.00000000	17.80881000	-0.04306102
133.69999224	0.00000000	18.55315000	0.00000000
133.89999223	0.00000000	18.87918000	0.00000000
134.09999222	0.00000000	18.55315000	-0.04306102
134.29999220	0.00000000	17.80881000	-0.41830710
134.49999219	0.00000000	17.48277000	-1.19955700
134.69999218	0.00000000	17.80881000	-1.95004900
134.89999217	0.00000000	18.50394000	-2.73745100
135.09999216	0.00000000	18.55315000	-3.11269700
135.29999214	0.00000000	18.22711000	-3.11269700
135.49999213	0.00000000	18.59621000	-2.73745100
135.69999212	0.00000000	18.87918000	-1.95004900
135.89999211	0.00000000	18.55315000	-1.19955700
136.09999210	0.00000000	17.80881000	-0.41830710
136.29999208	0.00000000	17.39050000	-0.04306102
136.49999207	0.00000000	16.97219000	0.00000000
136.69999206	0.00000000	16.27707000	0.00000000
136.89999205	0.00000000	16.27707000	-0.04306102
137.09999204	0.00000000	17.01525000	-0.41830710
137.29999203	0.00000000	17.76575000	-1.15649600
137.49999201	0.00000000	18.55315000	-1.57480300
137.69999200	0.00000000	18.92839000	-1.99311000
137.89999199	0.00000000	18.97145000	-2.73745100
138.09999198	0.00000000	18.97145000	-3.06348400
138.29999197	0.00000000	18.92839000	-2.73745100
138.49999195	0.00000000	18.55315000	-1.99311000
138.69999194	0.00000000	17.80881000	-1.57480300
138.89999193	0.00000000	17.39050000	-1.15649600
139.09999192	0.00000000	17.01525000	-0.41830710
139.29999191	0.00000000	16.64616000	-0.04306102
139.49999189	0.00000000	17.01525000	0.00000000
139.69999188	0.00000000	17.39050000	0.00000000
139.89999187	0.00000000	17.80881000	0.00000000
140.09999186	0.00000000	18.55315000	0.00000000
140.29999185	0.00000000	18.92839000	-0.04306102
140.49999184	0.00000000	18.97145000	-0.46136810
140.69999182	0.00000000	18.92839000	-1.57480300
140.89999181	0.00000000	18.55315000	-2.68823800
141.09999180	0.00000000	17.80881000	-3.11269700
141.29999179	0.00000000	17.43356000	-3.11269700
141.49999178	0.00000000	17.39050000	-2.73745100
141.69999176	0.00000000	17.39050000	-1.95004900
141.89999175	0.00000000	17.39050000	-1.19955700
142.09999174	0.00000000	17.43356000	-0.37524600
142.29999173	0.00000000	17.80881000	0.32603340
142.49999172	0.00000000	18.55315000	0.73818890
142.69999170	0.00000000	18.92839000	0.32603340
142.89999169	0.00000000	18.97145000	-0.37524600
143.09999168	0.00000000	18.92839000	-1.19955700
143.29999167	0.00000000	18.55315000	-1.95004900
143.49999166	0.00000000	17.80881000	-2.73745100
143.69999165	0.00000000	17.43356000	-3.11269700
143.89999163	0.00000000	17.39050000	-3.11269700
144.09999162	0.00000000	17.43356000	-2.73745100
144.29999161	0.00000000	17.80881000	-1.95004900
144.49999160	0.00000000	18.55315000	-1.19955700
144.69999159	0.00000000	18.92839000	-0.41830710
144.89999157	0.00000000	18.97145000	-0.04306102
145.09999156	0.00000000	18.92839000	0.00000000
145.29999155	0.00000000	18.55315000	0.00000000
145.49999154	0.00000000	17.80881000	-0.04306102
145.69999153	0.00000000	17.43356000	-0.41830710
145.89999151	0.00000000	17.39050000	-1.19955700
146.09999150	0.00000000	17.39050000	-1.90698800
146.29999149	0.00000000	17.43356000	-2.31914400
146.49999148	0.00000000	17.76575000	-1.99311000
146.69999147	0.00000000	18.13484000	-1.99311000
146.89999146	0.00000000	17.80881000	-2.31914400
147.09999144	0.00000000	17.85802000	-1.90698800
147.29999143	0.00000000	18.55315000	-1.19955700
147.49999142	0.00000000	18.92839000	-0.41830710
147.69999141	0.00000000	18.92839000	-0.04306102
147.89999140	0.00000000	18.55315000	0.00000000
148.09999138	0.00000000	17.80881000	0.00000000
148.29999137	0.00000000	17.43356000	-0.04306102
148.49999136	0.00000000	17.39050000	-0.41830710
148.69999135	0.00000000	17.39050000	-1.19955700
148.89999134	0.00000000	17.39050000	-1.90698800
149.09999132	0.00000000	17.39050000	-2.31914400
149.29999131	0.00000000	17.39050000	-1.95004900
149.49999130	0.00000000	17.43356000	-1.61786400
149.69999129	0.00000000	17.80881000	-1.57480300
149.89999128	0.00000000	18.55315000	-1.57480300
150.09999127	0.00000000	18.92839000	-1.53174200
150.29999125	0.00000000	18.97145000	-1.15649600
150.49999124	0.00000000	18.92839000	-0.41830710
150.69999123	0.00000000	18.55315000	-0.04306102
150.89999122	0.00000000	17.80881000	0.00000000
151.09999121	0.00000000	17.43356000	-0.04306102
151.29999119	0.00000000	17.39050000	-0.41830710
151.49999118	0.00000000	17.34744000	-1.15649600
151.69999117	0.00000000	17.01525000	-1.53174200
151.89999116	0.00000000	16.64616000	-1.57480300
152.09999115	0.00000000	17.01525000	-1.57480300
152.29999113	0.00000000	17.39050000	-1.57480300
152.49999112	0.00000000	17.80881000	-1.57480300
152.69999111	0.00000000	18.55315000	-1.57480300
152.89999110	0.00000000	18.92839000	-1.57480300
153.09999109	0.00000000	18.97145000	-1.53174200
153.29999108	0.00000000	18.97145000	-1.15649600
153.49999106	0.00000000	18.92839000	-0.41830710
153.69999105	0.00000000	18.55315000	-0.09227362
153.89999104	0.00000000	17.80881000	-0.37524600
154.09999103	0.00000000	17.39050000	-0.78124990
154.29999102	0.00000000	16.97219000	-0.79355310
154.49999100	0.00000000	16.27707000	-1.19955700
154.69999099	0.00000000	16.27707000	-1.53174200
154.89999098	0.00000000	16.97219000	-1.57480300
155.09999097	0.00000000	17.39050000	-1.57480300
155.29999096	0.00000000	17.80881000	-1.57480300
155.49999094	0.00000000	18.55315000	-1.57480300
155.69999093	0.00000000	18.92839000	-1.57480300
155.89999092	0.00000000	18.97145000	-1.57480300
156.09999091	0.00000000	18.92839000	-1.57480300
156.29999090	0.00000000	18.55315000	-1.57480300
156.49999089	0.00000000	17.80881000	-1.53174200
156.69999087	0.00000000	17.43356000	-1.15649600
156.89999086	0.00000000	17.39050000	-0.41830710
157.09999085	0.00000000	17.39050000	-0.04306102
157.29999084	0.00000000	17.39050000	0.00000000
157.49999083	0.00000000	17.39050000	-0.04306102
157.69999081	0.00000000	17.39050000	-0.41830710
157.89999080	0.00000000	17.39050000	-1.15649600
158.09999079	0.00000000	17.39050000	-1.53174200
158.29999078	0.00000000	17.43356000	-1.57480300
158.49999077	0.00000000	17.80881000	-1.57480300
158.69999075	0.00000000	18.55315000	-1.57480300
158.89999074	0.00000000	18.87918000	-1.57480300
159.09999073	0.00000000	18.55315000	-1.57480300
159.29999072	0.00000000	17.80881000	-1.53174200
159.49999071	0.00000000	17.43356000	-1.15649600
159.69999070	0.00000000	17.39050000	-0.41830710
159.89999068	0.00000000	17.39050000	-0.04306102
160.09999067	0.00000000	17.39050000	0.00000000
160.29999066	0.00000000	17.39050000	-0.04306102
160.49999065	0.00000000	17.39050000	-0.41830710
160.69999064	0.00000000	17.39050000	-1.15649600
160.89999062	0.00000000	17.39050000	-1.53174200
161.09999061	0.00000000	17.39050000	-1.57480300
161.29999060	0.00000000	17.39050000	-1.57480300
161.49999059	0.00000000	17.43356000	-1.57480300
161.69999058	0.00000000	17.80881000	-1.57480300
161.89999056	0.00000000	18.55315000	-1.57480300
162.09999055	0.00000000	18.92839000	-1.57480300
162.29999054	0.00000000	18.97145000	-1.53174200
162.49999053	0.00000000	18.92839000	-1.19955700
162.69999052	0.00000000	18.55315000	-0.79355310
162.89999051	0.00000000	17.80881000	-0.83046260
163.09999049	0.00000000	17.43356000	-0.79355310
163.29999048	0.00000000	17.39050000	-1.19955700
163.49999047	0.00000000	17.34744000	-1.53174200
163.69999046	0.00000000	16.97219000	-1.57480300
163.89999045	0.00000000	16.27707000	-1.57480300
164.09999043	0.00000000	16.27707000	-1.57480300
164.29999042	0.00000000	16.97219000	-1.57480300
164.49999041	0.00000000	17.34744000	-1.57480300
164.69999040	0.00000000	17.43356000	-1.57480300
164.89999039	0.00000000	17.76575000	-1.57480300
165.09999037	0.00000000	18.17790000	-1.57480300
165.29999036	0.00000000	18.18405000	-1.57480300
165.49999035	0.00000000	18.55315000	-1.57480300
165.69999034	0.00000000	18.50394000	-1.57480300
165.89999033	0.00000000	17.80881000	-1.57480300
166.09999032	0.00000000	17.43356000	-1.57480300
166.29999030	0.00000000	17.39050000	-1.57480300
166.49999029	0.00000000	17.34744000	-1.57480300
166.69999028	0.00000000	17.01525000	-1.53174200
166.89999027	0.00000000	16.64616000	-1.19955700
167.09999026	0.00000000	17.01525000	-0.83661410
167.29999024	0.00000000	17.34744000	-1.19955700
167.49999023	0.00000000	17.39050000	-1.53174200
167.69999022	0.00000000	17.43356000	-1.57480300
167.89999021	0.00000000	17.80881000	-1.57480300
168.09999020	0.00000000	18.50394000	-1.57480300
168.29999018	0.00000000	18.55315000	-1.57480300
168.49999017	0.00000000	18.18405000	-1.57480300
168.69999016	0.00000000	18.17790000	-1.57480300
168.89999015	0.00000000	17.76575000	-1.57480300
169.09999014	0.00000000	17.43356000	-1.57480300
169.29999013	0.00000000	17.39050000	-1.57480300
169.49999011	0.00000000	17.39050000	-1.57480300
169.69999010	0.00000000	17.39050000	-1.57480300
169.89999009	0.00000000	17.39050000	-1.57480300
170.09999008	0.00000000	17.39050000	-1.57480300
170.29999007	0.00000000	17.39050000	-1.57480300
170.49999005	0.00000000	17.39050000	-1.57480300
170.69999004	0.00000000	17.43356000	-1.53174200
170.89999003	0.00000000	17.76575000	-1.15649600
171.09999002	0.00000000	18.13484000	-0.46136810
171.29999001	0.00000000	17.80881000	-0.46136810
171.49998999	0.00000000	17.85802000	-1.15649600
171.69998998	0.00000000	18.50394000	-1.53174200
171.89998997	0.00000000	18.50394000	-1.57480300
172.09998996	0.00000000	17.80881000	-1.57480300
172.29998995	0.00000000	17.43356000	-1.57480300
172.49998994	0.00000000	17.39050000	-1.57480300
172.69998992	0.00000000	17.39050000	-1.57480300
172.89998991	0.00000000	17.39050000	-1.57480300
173.09998990	0.00000000	17.39050000	-1.57480300
173.29998989	0.00000000	17.39050000	-1.57480300
173.49998988	0.00000000	17.39050000	-1.57480300
173.69998986	0.00000000	17.39050000	-1.57480300
173.89998985	0.00000000	17.39050000	-1.57480300
174.09998984	0.00000000	17.39050000	-1.57480300
174.29998983	0.00000000	17.39050000	-1.57480300
174.49998982	0.00000000	17.39050000	-1.57480300
174.69998980	0.00000000	17.39050000	-1.57480300
174.89998979	0.00000000	17.39050000	-1.57480300
175.09998978	0.00000000	17.39050000	-1.57480300
175.29998977	0.00000000	17.39050000	-1.57480300
175.49998976	0.00000000	17.39050000	-1.57480300
175.69998975	0.00000000	17.39050000	-1.53174200
175.89998973	0.00000000	17.39050000	-1.19955700
176.09998972	0.00000000	17.39050000	-0.83661410
176.29998971	0.00000000	17.39050000	-1.19955700
176.49998970	0.00000000	17.39050000	-1.53174200
176.69998969	0.00000000	17.39050000	-1.57480300
176.89998967	0.00000000	17.39050000	-1.57480300
177.09998966	0.00000000	17.39050000	-1.57480300
177.29998965	0.00000000	17.39050000	-1.57480300
177.49998964	0.00000000	17.39050000	-1.57480300
177.69998963	0.00000000	17.39050000	-1.57480300
177.89998961	0.00000000	17.39050000	-1.57480300
178.09998960	0.00000000	17.39050000	-1.57480300
178.29998959	0.00000000	17.39050000	-1.57480300
178.49998958	0.00000000	17.39050000	-1.53174200
178.69998957	0.00000000	17.39050000	-1.19955700
178.89998956	0.00000000	17.39050000	-0.83661410
179.09998954	0.00000000	17.39050000	-1.19955700
179.29998953	0.00000000	17.39050000	-1.53174200
179.49998952	0.00000000	17.39050000	-1.57480300
179.69998951	0.00000000	17.39050000	-1.57480300
179.89998950	0.00000000	17.39050000	-1.57480300
180.09998948	0.00000000	17.39050000	-1.57480300
180.29998947	0.00000000	17.39050000	-1.57480300
180.49998946	0.00000000	17.39050000	-1.57480300
180.69998945	0.00000000	17.39050000	-1.57480300
180.89998944	0.00000000	17.39050000	-1.57480300
181.09998942	0.00000000	17.39050000	-1.53174200
181.29998941	0.00000000	17.39050000	-1.19955700
181.49998940	0.00000000	17.39050000	-0.83661410
181.69998939	0.00000000	17.39050000	-1.19955700
181.89998938	0.00000000	17.39050000	-1.48253000
182.09998937	0.00000000	17.39050000	-1.19955700
182.29998935	0.00000000	17.39050000	-0.83661410
182.49998934	0.00000000	17.39050000	-1.19955700
182.69998933	0.00000000	17.39050000	-1.53174200
182.89998932	0.00000000	17.39050000	-1.57480300
183.09998931	0.00000000	17.39050000	-1.57480300
183.29998929	0.00000000	17.39050000	-1.57480300
183.49998928	0.00000000	17.39050000	-1.57480300
183.69998927	0.00000000	17.39050000	-1.57480300
183.89998926	0.00000000	17.39050000	-1.57480300
184.09998925	0.00000000	17.39050000	-1.57480300
184.29998923	0.00000000	17.39050000	-1.57480300
184.49998922	0.00000000	17.39050000	-1.53174200
184.69998921	0.00000000	17.39050000	-1.15649600
184.89998920	0.00000000	17.39050000	-0.41830710
185.09998919	0.00000000	17.39050000	-0.09227362
185.29998918	0.00000000	17.39050000	-0.41830710
185.49998916	0.00000000	17.39050000	-1.15649600
185.69998915	0.00000000	17.39050000	-1.53174200
185.89998914	0.00000000	17.39050000	-1.57480300
186.09998913	0.00000000	17.39050000	-1.57480300
186.29998912	0.00000000	17.39050000	-1.57480300
186.49998910	0.00000000	17.39050000	-1.57480300
186.69998909	0.00000000	17.39050000	-1.57480300
186.89998908	0.00000000	17.39050000	-1.57480300
187.09998907	0.00000000	17.39050000	-1.57480300
187.29998906	0.00000000	17.39050000	-1.57480300
187.49998904	0.00000000	17.39050000	-1.53174200
187.69998903	0.00000000	17.39050000	-1.15649600
187.89998902	0.00000000	17.39050000	-0.41830710
188.09998901	0.00000000	17.39050000	-0.09227362
188.29998900	0.00000000	17.39050000	-0.41830710
188.49998899	0.00000000	17.39050000	-1.15649600
188.69998897	0.00000000	17.39050000	-1.53174200
188.89998896	0.00000000	17.39050000	-1.57480300
189.09998895	0.00000000	17.39050000	-1.57480300
189.29998894	0.00000000	17.39050000	-1.57480300
189.49998893	0.00000000	17.39050000	-1.57480300
189.69998891	0.00000000	17.39050000	-1.57480300
189.89998890	0.00000000	17.39050000	-1.57480300
190.09998889	0.00000000	17.39050000	-1.57480300
190.29998888	0.00000000	17.39050000	-1.57480300
190.49998887	0.00000000	17.39050000	-1.57480300
190.69998885	0.00000000	17.39050000	-1.57480300
190.89998884	0.00000000	17.39050000	-1.57480300
191.09998883	0.00000000	17.39050000	-1.57480300
191.29998882	0.00000000	17.39050000	-1.57480300
191.49998881	0.00000000	17.39050000	-1.57480300
191.69998880	0.00000000	17.39050000	-1.57480300
191.89998878	0.00000000	17.39050000	-1.57480300
192.09998877	0.00000000	17.39050000	-1.57480300
192.29998876	0.00000000	17.39050000	-1.57480300
192.49998875	0.00000000	17.39050000	-1.57480300
192.69998874	0.00000000	17.39050000	-1.57480300
192.89998872	0.00000000	17.39050000	-1.57480300
193.09998871	0.00000000	17.39050000	-1.57480300
193.29998870	0.00000000	17.39050000	-1.57480300
193.49998869	0.00000000	17.39050000	-1.57480300
193.69998868	0.00000000	17.39050000	-1.57480300
193.89998866	0.00000000	17.39050000	-1.57480300
194.09998865	0.00000000	17.39050000	-1.57480300
194.29998864	0.00000000	17.39050000	-1.57480300
194.49998863	0.00000000	17.39050000	-1.57480300
194.69998862	0.00000000	17.39050000	-1.57480300
194.89998861	0.00000000	17.39050000	-1.57480300
195.09998859	0.00000000	17.39050000	-1.57480300
195.29998858	0.00000000	17.39050000	-1.57480300
195.49998857	0.00000000	17.39050000	-1.57480300
195.69998856	0.00000000	17.39050000	-1.57480300
195.89998855	0.00000000	17.39050000	-1.57480300
196.09998853	0.00000000	17.39050000	-1.57480300
