Time	Channel A	Channel B	Channel C
(us)	(V)	(mV)	(mV)

-4.59999956	0.00000000	16.59695000	-1.57480300
-4.39999957	0.00000000	16.22785000	-1.57480300
-4.19999958	0.00000000	16.22785000	-1.57480300
-3.99999959	0.00000000	16.55389000	-1.57480300
-3.79999960	0.00000000	16.18479000	-1.57480300
-3.59999962	0.00000000	15.85261000	-1.57480300
-3.39999963	0.00000000	15.85261000	-1.57480300
-3.19999964	0.00000000	16.18479000	-1.57480300
-2.99999965	0.00000000	16.59695000	-1.57480300
-2.79999966	0.00000000	16.56004000	-1.57480300
-2.59999968	0.00000000	16.64001000	-1.57480300
-2.39999969	0.00000000	16.60310000	-1.57480300
-2.19999970	0.00000000	17.01525000	-1.57480300
-1.99999971	0.00000000	17.34744000	-1.57480300
-1.79999972	0.00000000	17.39050000	-1.57480300
-1.59999973	0.00000000	17.39050000	-1.57480300
-1.39999975	0.00000000	17.39050000	-1.57480300
-1.19999976	0.00000000	17.34744000	-1.57480300
-0.99999977	0.00000000	17.01525000	-1.57480300
-0.79999978	0.00000000	16.60310000	-1.57480300
-0.59999979	0.00000000	16.64001000	-1.57480300
-0.39999981	0.15871060	16.60310000	-1.57480300
-0.19999982	0.47736220	16.97219000	-1.57480300
0.00000017	0.79601380	16.92298000	-1.57480300
0.20000016	0.95533960	16.27707000	-1.57480300
0.40000015	0.95533960	16.27707000	-1.57480300
0.60000013	0.63668800	16.92298000	-1.57480300
0.80000012	0.00000000	16.92298000	-1.57480300
1.00000011	-0.95533960	16.27707000	-1.57480300
1.20000010	-1.91129400	16.27707000	-1.57480300
1.40000009	-2.70792300	16.97219000	-1.57480300
1.60000008	-2.70792300	17.34744000	-1.57480300
1.80000006	-2.07062000	17.39050000	-1.57480300
2.00000005	-0.47736220	17.34744000	-1.57480300
2.20000004	1.59264300	17.01525000	-1.57480300
2.40000003	3.66326300	16.60310000	-1.57480300
2.60000002	5.09719500	16.59695000	-1.57480300
2.80000000	5.25652100	16.22785000	-1.57480300
2.99999999	3.98191400	16.22785000	-1.61786400
3.19999998	1.59264300	16.55389000	-1.95004900
3.39999997	-1.75196900	16.18479000	-2.31914400
3.59999996	-4.93786900	15.85261000	-1.95004900
3.79999994	-7.32714100	15.85261000	-1.61786400
3.99999993	-7.96444400	16.22785000	-1.53174200
4.19999992	-6.53112700	16.97219000	-1.19955700
4.39999991	-3.18590100	17.34744000	-0.79355310
4.59999990	0.95533960	17.34744000	-0.83046260
4.79999989	5.41584600	16.97219000	-0.79355310
4.99999987	8.44242100	16.22785000	-1.19955700
5.19999986	9.55770200	15.85261000	-1.57480300
5.39999985	8.12377000	15.80955000	-1.99311000
5.59999984	4.77854300	15.80955000	-2.68823800
5.79999983	0.00000000	15.80955000	-2.68823800
5.99999981	-4.61921700	15.80955000	-1.99311000
6.19999980	-8.12377000	15.80955000	-1.61786400
6.39999979	-9.39837600	15.85261000	-1.57480300
6.59999978	-8.60174700	16.22785000	-1.57480300
6.79999977	-5.41584600	16.92298000	-1.53174200
6.99999975	-1.27399100	16.97219000	-1.19955700
7.19999974	3.02657500	16.60310000	-0.83661410
7.39999973	6.21247500	16.59695000	-1.19955700
7.59999972	7.64579200	16.18479000	-1.53174200
7.79999971	7.16781500	15.85261000	-1.57480300
7.99999970	4.93786900	15.80955000	-1.57480300
8.19999968	1.75196900	15.80955000	-1.57480300
8.39999967	-1.43331700	15.80955000	-1.57480300
8.59999966	-3.82258900	15.85261000	-1.57480300
8.79999965	-5.09719500	16.22785000	-1.57480300
8.99999964	-4.93786900	16.92298000	-1.57480300
9.19999962	-3.66326300	16.97219000	-1.57480300
9.39999961	-1.75196900	16.64616000	-1.57480300
9.59999960	0.31803640	16.97219000	-1.57480300
9.79999959	1.75196900	16.92298000	-1.57480300
9.99999958	2.54859700	16.22785000	-1.57480300
10.19999956	2.38927200	15.85261000	-1.57480300
10.39999955	1.91129400	15.80955000	-1.57480300
10.59999954	0.95533960	15.80955000	-1.57480300
10.79999953	0.15871060	15.80955000	-1.57480300
10.99999952	-0.47736220	15.80955000	-1.57480300
11.19999951	-0.79601380	15.80955000	-1.57480300
11.39999949	-0.95533960	15.85261000	-1.57480300
11.59999948	-0.79601380	16.18479000	-1.57480300
11.79999947	-0.63668800	16.59695000	-1.57480300
11.99999946	-0.31803640	16.56004000	-1.57480300
12.19999945	-0.15871060	16.64001000	-1.57480300
12.39999943	-0.15871060	16.56004000	-1.57480300
12.59999942	0.00000000	16.59695000	-1.57480300
12.79999941	0.00000000	16.18479000	-1.57480300
12.99999940	0.00000000	15.85261000	-1.57480300
13.19999939	0.15871060	15.80955000	-1.57480300
13.39999937	0.00000000	15.80955000	-1.57480300
13.59999936	0.00000000	15.80955000	-1.57480300
13.79999935	0.00000000	15.80955000	-1.57480300
13.99999934	0.00000000	15.80955000	-1.57480300
14.19999933	-0.15871060	15.80955000	-1.57480300
14.39999932	-0.15871060	15.85261000	-1.57480300
14.59999930	-0.15871060	16.18479000	-1.57480300
14.79999929	0.00000000	16.55389000	-1.57480300
14.99999928	0.00000000	16.18479000	-1.57480300
15.19999927	0.00000000	15.85261000	-1.57480300
15.39999926	0.00000000	15.80955000	-1.57480300
15.59999924	0.00000000	15.80955000	-1.57480300
15.79999923	0.00000000	15.80955000	-1.57480300
15.99999922	0.00000000	15.80955000	-1.57480300
16.19999921	0.00000000	15.80955000	-1.57480300
16.39999920	0.00000000	15.80955000	-1.57480300
16.59999919	-0.15871060	15.80955000	-1.57480300
16.79999917	0.00000000	15.85261000	-1.57480300
16.99999916	0.00000000	16.22785000	-1.57480300
17.19999915	0.00000000	17.01525000	-1.57480300
17.39999914	0.00000000	17.76575000	-1.57480300
17.59999913	0.00000000	18.50394000	-1.57480300
17.79999911	0.00000000	18.46087000	-1.57480300
17.99999910	0.00000000	17.34744000	-1.57480300
18.19999909	0.00000000	15.80955000	-1.57480300
18.39999908	0.00000000	14.22859000	-1.57480300
18.59999907	0.00000000	12.69070000	-1.57480300
18.79999905	0.00000000	11.53420000	-1.57480300
18.99999904	0.00000000	11.15896000	-1.57480300
19.19999903	0.00000000	11.57726000	-1.57480300
19.39999902	0.00000000	13.20128000	-1.57480300
19.59999901	0.00000000	16.32013000	-1.57480300
19.79999900	0.00000000	20.55241000	-1.57480300
19.99999898	0.00000000	24.74163000	-1.57480300
20.19999897	0.00000000	27.43602000	-1.57480300
20.39999896	0.00000000	27.76821000	-1.57480300
20.59999895	0.00000000	25.43676000	-1.57480300
20.79999894	0.00000000	20.37401000	-1.57480300
20.99999892	0.00000000	13.76107000	-1.57480300
21.19999891	0.00000000	6.36687900	-1.57480300
21.39999890	0.00000000	-0.47367120	-1.57480300
21.59999889	0.00000000	-4.28764700	-1.57480300
21.79999888	0.00000000	-3.45103300	-1.61786400
21.99999886	0.00000000	1.99311000	-1.95004900
22.19999885	0.00000000	11.75566000	-2.31914400
22.39999884	0.00000000	24.08957000	-1.95004900
22.59999883	0.00000000	36.41732000	-1.61786400
22.79999882	0.00000000	45.21407000	-1.57480300
22.99999881	0.00000000	47.91462000	-1.53174200
23.19999879	0.00000000	43.54699000	-1.15649600
23.39999878	0.00000000	32.28346000	-0.41830710
23.59999877	0.00000000	15.63115000	-0.04306102
23.79999876	0.00000000	-2.47293300	0.00000000
23.99999875	0.00000000	-17.87033000	0.00000000
24.19999873	0.00000000	-26.29183000	-0.04306102
24.39999872	0.00000000	-25.08612000	-0.46136810
24.59999871	0.00000000	-14.24089000	-1.62401600
24.79999870	0.00000000	4.36146600	-3.15575800
24.99999869	0.00000000	26.74089000	-4.73671200
25.19999867	0.00000000	47.95768000	-6.26845500
25.39999866	0.00000000	62.61687000	-7.33882900
25.59999865	0.00000000	67.18134000	-6.92052100
25.79999864	0.00000000	60.19315000	-4.64443900
25.99999863	0.00000000	42.42741000	-1.53174200
26.19999862	0.00000000	18.51009000	1.99311000
26.39999860	0.00000000	-6.24384800	5.85014700
26.59999859	0.00000000	-26.24877000	8.87057000
26.79999858	0.00000000	-36.30044000	9.99015700
26.99999857	0.00000000	-34.06742000	8.40920300
27.19999856	0.00000000	-20.94611000	4.14000900
27.39999854	0.00000000	-0.04921259	-2.08538400
27.59999853	0.00000000	24.28026000	-9.42421200
27.79999852	0.00000000	46.28445000	-16.35089000
27.99999851	0.00000000	61.03592000	-20.90305000
28.19999850	0.00000000	65.64345000	-21.64739000
28.39999848	0.00000000	59.12278000	-17.70423000
28.59999847	0.00000000	42.93799000	-9.57185000
28.79999846	0.00000000	21.75812000	1.66707700
28.99999845	0.00000000	0.45521650	13.56422000
29.19999844	0.00000000	-16.19710000	23.22835000
29.39999843	0.00000000	-25.17224000	28.16191000
29.59999841	0.00000000	-25.22145000	26.95005000
29.79999840	0.00000000	-16.75074000	18.81767000
29.99999839	0.00000000	-2.09768700	5.67175200
30.19999838	0.00000000	15.34203000	-9.80561000
30.39999837	0.00000000	31.95743000	-24.80315000
30.59999835	0.00000000	44.37746000	-35.21776000
30.79999834	0.00000000	49.82160000	-38.70571000
30.99999833	0.00000000	48.00074000	-34.79946000
31.19999832	0.00000000	39.86835000	-23.51132000
31.39999831	0.00000000	27.52830000	-6.96358300
31.59999829	0.00000000	13.57652000	11.19587000
31.79999828	0.00000000	1.19955700	26.62401000
31.99999827	0.00000000	-7.35728300	36.33120000
32.19999826	0.00000000	-10.47613000	38.23819000
32.39999825	0.00000000	-7.82480200	32.05585000
32.59999824	0.00000000	-0.51673230	18.86688000
32.79999822	0.00000000	9.57800100	1.11343500
32.99999821	0.00000000	20.37401000	-17.37820000
33.19999820	0.00000000	29.67520000	-32.05585000
33.39999819	0.00000000	35.07628000	-39.86220000
33.59999818	0.00000000	35.95595000	-39.90526000
33.79999816	0.00000000	32.46801000	-32.52337000
33.99999815	0.00000000	25.90428000	-18.95300000
34.19999814	0.00000000	17.39050000	-1.62401600
34.39999813	0.00000000	8.96899500	15.32972000
34.59999812	0.00000000	3.15575800	27.69439000
34.79999810	0.00000000	1.19955700	33.16929000
34.99999809	0.00000000	3.06348400	30.89936000
35.19999808	0.00000000	8.04010800	22.02264000
35.39999807	0.00000000	14.22859000	8.50147600
35.59999806	0.00000000	20.41708000	-6.92052100
35.79999805	0.00000000	25.39370000	-20.39862000
35.99999803	0.00000000	27.30069000	-28.90010000
36.19999802	0.00000000	25.81201000	-30.47490000
36.39999801	0.00000000	21.62278000	-25.13533000
36.59999800	0.00000000	16.22785000	-14.76993000
36.79999799	0.00000000	11.24508000	-2.04232300
36.99999797	0.00000000	7.76328700	9.85482200
37.19999796	0.00000000	6.96973400	17.93799000
37.39999795	0.00000000	8.45841400	19.88804000
37.59999794	0.00000000	11.57726000	15.74803000
37.79999793	0.00000000	15.85261000	7.29576700
37.99999791	0.00000000	20.46014000	-3.06963600
38.19999790	0.00000000	24.27411000	-12.64149000
38.39999789	0.00000000	25.81201000	-18.35630000
38.59999788	0.00000000	24.69857000	-18.39936000
38.79999787	0.00000000	21.62278000	-13.05979000
38.99999786	0.00000000	17.39050000	-4.27534400
39.19999784	0.00000000	13.11516000	5.29650500
39.39999783	0.00000000	9.62106200	12.59227000
39.59999782	0.00000000	7.29576700	15.66191000
39.79999781	0.00000000	6.87746000	13.70571000
39.99999780	0.00000000	8.04010800	6.78518600
40.19999778	0.00000000	10.41462000	-3.11269700
40.39999777	0.00000000	14.27165000	-12.72761000
40.59999776	0.00000000	18.50394000	-19.24212000
40.79999775	0.00000000	22.04109000	-21.18602000
40.99999774	0.00000000	24.74163000	-17.66117000
41.19999772	0.00000000	25.85507000	-9.65797200
41.39999771	0.00000000	24.74163000	0.69512790
41.59999770	0.00000000	22.04109000	9.94094400
41.79999769	0.00000000	18.55315000	16.12328000
41.99999768	0.00000000	14.69611000	18.02411000
42.19999767	0.00000000	11.57726000	14.59153000
42.39999765	0.00000000	9.57800100	7.33882900
42.59999764	0.00000000	8.41535400	-1.53174200
42.79999763	0.00000000	8.45841400	-9.98400600
42.99999762	0.00000000	9.99630800	-15.74803000
43.19999761	0.00000000	12.64764000	-17.37205000
43.39999759	0.00000000	15.34203000	-15.09596000
43.59999758	0.00000000	17.34744000	-10.11934000
43.79999757	0.00000000	18.92839000	-3.57406500
43.99999756	0.00000000	20.04183000	2.55905500
44.19999755	0.00000000	20.08489000	6.87746000
44.39999753	0.00000000	19.38976000	8.78444900
44.59999752	0.00000000	19.01451000	8.08316900
44.79999751	0.00000000	18.97145000	5.01968500
44.99999750	0.00000000	18.92839000	1.20570900
45.19999749	0.00000000	18.50394000	-2.69439000
45.39999748	0.00000000	17.34744000	-5.75787400
45.59999746	0.00000000	15.71727000	-7.33882900
45.79999745	0.00000000	13.34276000	-7.38188900
45.99999744	0.00000000	9.90403500	-6.22539300
46.19999743	0.00000000	6.87746000	-4.31840500
46.39999742	0.00000000	5.33956700	-1.95004900
46.59999740	0.00000000	5.76402500	0.33218500
46.79999739	0.00000000	8.55068800	2.27608300
46.99999738	0.00000000	13.57652000	3.02042300
47.19999737	0.00000000	20.13410000	2.68823800
47.39999736	0.00000000	26.27953000	1.48868100
47.59999734	0.00000000	30.55487000	-0.41830710
47.79999733	0.00000000	32.04355000	-2.73745100
47.99999732	0.00000000	30.08735000	-4.68750000
48.19999731	0.00000000	24.64936000	-6.22539300
48.39999730	0.00000000	16.92298000	-6.96358300
48.59999729	0.00000000	8.41535400	-6.17618100
48.79999727	0.00000000	1.10728300	-4.26919300
48.99999726	0.00000000	-3.08193900	-1.53174200
49.19999725	0.00000000	-2.65748000	1.48868100
49.39999724	0.00000000	2.73745100	3.80782500
49.59999723	0.00000000	11.57726000	4.60137700
49.79999721	0.00000000	21.57972000	4.22613100
49.99999720	0.00000000	30.04429000	2.60211600
50.19999719	0.00000000	34.70103000	-0.46751960
50.39999718	0.00000000	34.75024000	-4.31840500
50.59999717	0.00000000	30.46875000	-7.75713500
50.79999715	0.00000000	22.74237000	-10.07628000
50.99999714	0.00000000	13.15822000	-10.40846000
51.19999713	0.00000000	4.69365100	-8.50147600
51.39999712	0.00000000	-0.33833660	-4.64443900
51.59999711	0.00000000	-1.16879900	-0.04306102
51.79999710	0.00000000	2.31299200	4.22613100
51.99999708	0.00000000	8.83366100	7.29576700
52.19999707	0.00000000	16.92298000	8.45226300
52.39999706	0.00000000	24.18799000	7.29576700
52.59999705	0.00000000	28.46333000	4.22613100
52.79999704	0.00000000	28.88164000	0.00000000
52.99999702	0.00000000	25.81201000	-4.22613100
53.19999701	0.00000000	20.04183000	-7.33882900
53.39999700	0.00000000	13.15822000	-8.91978400
53.59999699	0.00000000	7.38804100	-8.87672100
53.79999698	0.00000000	4.26919300	-6.96358300
53.99999696	0.00000000	4.26919300	-3.57406500
54.19999695	0.00000000	7.38804100	-0.51058070
54.39999694	0.00000000	13.11516000	1.43946800
54.59999693	0.00000000	19.58046000	2.26993100
54.79999692	0.00000000	24.18799000	1.85777500
54.99999691	0.00000000	25.81201000	0.73818890
55.19999689	0.00000000	24.69857000	-1.20570900
55.39999688	0.00000000	21.57972000	-3.02042300
55.59999687	0.00000000	16.97219000	-3.80782500
55.79999686	0.00000000	11.99557000	-3.06348400
55.99999685	0.00000000	8.55068800	-1.57480300
56.19999683	0.00000000	7.34498000	-0.04306102
56.39999682	0.00000000	8.50147600	1.11343500
56.59999681	0.00000000	11.53420000	1.39640700
56.79999680	0.00000000	15.39124000	0.22760820
56.99999679	0.00000000	18.87918000	-2.82972400
57.19999677	0.00000000	21.57972000	-6.22539300
57.39999676	0.00000000	22.69316000	-8.91978400
57.59999675	0.00000000	21.62278000	-10.03322000
57.79999674	0.00000000	19.30364000	-8.87057000
57.99999673	0.00000000	16.59695000	-5.80093500
58.19999672	0.00000000	13.53346000	-1.48868100
58.39999670	0.00000000	11.62032000	3.48794300
58.59999669	0.00000000	11.20202000	8.07701800
58.79999668	0.00000000	11.95251000	10.31619000
58.99999667	0.00000000	13.85334000	9.56569900
59.19999666	0.00000000	15.76649000	5.67175200
59.39999664	0.00000000	17.34744000	-0.46751960
59.59999663	0.00000000	18.46087000	-7.38188900
59.79999662	0.00000000	18.46087000	-13.14591000
59.99999661	0.00000000	17.39050000	-16.21555000
60.19999660	0.00000000	16.22785000	-15.79724000
60.39999658	0.00000000	15.43430000	-11.56496000
60.59999657	0.00000000	14.64690000	-4.64443900
60.79999656	0.00000000	14.32087000	3.06348400
60.99999655	0.00000000	14.64690000	9.98400600
61.19999654	0.00000000	15.43430000	14.16708000
61.39999653	0.00000000	16.22785000	14.16708000
61.59999651	0.00000000	17.34744000	9.98400600
61.79999650	0.00000000	18.04257000	3.06348400
61.99999649	0.00000000	17.29823000	-4.69365100
62.19999648	0.00000000	15.80955000	-12.03248000
62.39999647	0.00000000	14.22859000	-17.37205000
62.59999645	0.00000000	12.69070000	-18.90994000
62.79999644	0.00000000	11.57726000	-16.25861000
62.99999643	0.00000000	11.57726000	-10.45152000
63.19999642	0.00000000	12.73991000	-2.73745100
63.39999641	0.00000000	14.64690000	5.33956700
63.59999639	0.00000000	16.97219000	11.47884000
63.79999638	0.00000000	18.87918000	14.21629000
63.99999637	0.00000000	20.04183000	13.10285000
64.19999636	0.00000000	20.04183000	8.87672100
64.39999635	0.00000000	18.87918000	2.69439000
64.59999634	0.00000000	16.97219000	-4.22613100
64.79999632	0.00000000	14.64690000	-10.03322000
64.99999631	0.00000000	12.73991000	-13.56422000
65.19999630	0.00000000	11.57726000	-14.72687000
65.39999629	0.00000000	11.57726000	-13.18898000
65.59999628	0.00000000	12.69070000	-9.38115100
65.79999626	0.00000000	14.27165000	-4.73671200
65.99999625	0.00000000	16.18479000	-0.09227362
66.19999624	0.00000000	18.08563000	3.80782500
66.39999623	0.00000000	18.79306000	6.17618100
66.59999622	0.00000000	18.08563000	7.38188900
66.79999620	0.00000000	16.18479000	7.33882900
66.99999619	0.00000000	14.32087000	5.80093500
67.19999618	0.00000000	13.11516000	3.11269700
67.39999617	0.00000000	12.73991000	0.00000000
67.59999616	0.00000000	13.15822000	-3.15575800
67.79999615	0.00000000	14.69611000	-6.26845500
67.99999613	0.00000000	16.97219000	-8.96284400
68.19999612	0.00000000	18.87918000	-10.49459000
68.39999611	0.00000000	20.04183000	-10.53765000
68.59999610	0.00000000	19.99877000	-9.38115100
68.79999609	0.00000000	18.46087000	-7.38188900
68.99999607	0.00000000	15.71727000	-4.22613100
69.19999606	0.00000000	12.27239000	0.00000000
69.39999605	0.00000000	8.83366100	4.22613100
69.59999604	0.00000000	6.92052100	7.33882900
69.79999603	0.00000000	6.92052100	8.87672100
69.99999601	0.00000000	8.87672100	8.45226300
70.19999600	0.00000000	12.78297000	5.75787400
70.39999599	0.00000000	17.76575000	1.48868100
70.59999598	0.00000000	22.74237000	-3.53100400
70.79999597	0.00000000	25.81201000	-8.54453700
70.99999596	0.00000000	26.27953000	-11.98942000
71.19999594	0.00000000	24.69857000	-13.18898000
71.39999593	0.00000000	21.16142000	-11.98942000
71.59999592	0.00000000	15.76649000	-8.54453700
71.79999591	0.00000000	10.03937000	-3.57406500
71.99999590	0.00000000	5.76402500	1.07037400
72.19999588	0.00000000	3.80782500	4.55831700
72.39999587	0.00000000	4.18307100	6.50221400
72.59999586	0.00000000	6.92052100	6.13312000
72.79999585	0.00000000	11.53420000	4.26919300
72.99999584	0.00000000	16.97219000	1.53174200
73.19999582	0.00000000	21.95497000	-1.53174200
73.39999581	0.00000000	25.43676000	-4.18307100
73.59999580	0.00000000	26.23031000	-5.38262700
73.79999579	0.00000000	24.74163000	-5.01968500
73.99999578	0.00000000	21.62278000	-3.94315900
74.19999577	0.00000000	17.34744000	-2.36835600
74.39999575	0.00000000	12.73991000	-1.29183100
74.59999574	0.00000000	8.87672100	-0.87967510
74.79999573	0.00000000	6.96973400	-1.66707700
74.99999572	0.00000000	7.29576700	-3.15575800
75.19999571	0.00000000	9.57800100	-4.64443900
75.39999569	0.00000000	12.64764000	-5.38262700
75.59999568	0.00000000	15.76649000	-4.60137700
75.79999567	0.00000000	18.46087000	-2.69439000
75.99999566	0.00000000	19.99877000	0.04306102
76.19999565	0.00000000	20.04183000	3.06348400
76.39999563	0.00000000	18.97145000	5.38262700
76.59999562	0.00000000	17.80881000	6.13312000
76.79999561	0.00000000	17.01525000	5.33956700
76.99999560	0.00000000	16.22785000	2.55905500
77.19999559	0.00000000	15.85261000	-2.04232300
77.39999558	0.00000000	15.80955000	-7.38188900
77.59999556	0.00000000	15.76649000	-11.61417000
77.79999555	0.00000000	15.39124000	-13.56422000
77.99999554	0.00000000	14.60384000	-13.14591000
78.19999553	0.00000000	13.85334000	-10.03322000
78.39999552	0.00000000	13.02288000	-4.69365100
78.59999550	0.00000000	12.31545000	1.11343500
78.79999549	0.00000000	11.95251000	6.13312000
78.99999548	0.00000000	12.78297000	9.60875900
79.19999547	0.00000000	14.64690000	10.35925000
79.39999546	0.00000000	16.97219000	8.50147600
79.59999544	0.00000000	18.92839000	4.60137700
79.79999543	0.00000000	20.46014000	-0.41830710
79.99999542	0.00000000	21.20448000	-5.85014700
80.19999541	0.00000000	20.41708000	-10.45152000
80.39999540	0.00000000	18.50394000	-13.14591000
80.59999539	0.00000000	15.80955000	-13.18898000
80.79999537	0.00000000	13.06594000	-10.91289000
80.99999536	0.00000000	10.78371000	-7.47416300
81.19999535	0.00000000	9.25196800	-3.53100400
81.39999534	0.00000000	9.66412400	0.37524600
81.59999533	0.00000000	11.53420000	4.22613100
81.79999531	0.00000000	14.22859000	6.87746000
81.99999530	0.00000000	16.92298000	7.33882900
82.19999529	0.00000000	18.87918000	6.22539300
82.39999528	0.00000000	20.04183000	4.26919300
82.59999527	0.00000000	20.04183000	1.53174200
82.79999525	0.00000000	18.87918000	-1.58095500
82.99999524	0.00000000	16.97219000	-4.73671200
83.19999523	0.00000000	14.69611000	-7.80019600
83.39999522	0.00000000	13.15822000	-10.11934000
83.59999521	0.00000000	12.69070000	-10.86983000
83.79999520	0.00000000	12.69070000	-10.11934000
83.99999518	0.00000000	13.06594000	-7.75713500
84.19999517	0.00000000	13.81028000	-4.31840500
84.39999516	0.00000000	14.22859000	-0.41830710
84.59999515	0.00000000	14.64690000	3.11269700
84.79999514	0.00000000	15.39124000	6.22539300
84.99999512	0.00000000	15.76649000	8.40920300
85.19999511	0.00000000	15.85261000	8.03395600
85.39999510	0.00000000	16.22785000	4.97662400
85.59999509	0.00000000	16.97219000	0.73818890
85.79999508	0.00000000	17.34744000	-4.31840500
85.99999506	0.00000000	17.39050000	-8.91978400
86.19999505	0.00000000	17.34744000	-12.03248000
86.39999504	0.00000000	16.92298000	-13.14591000
86.59999503	0.00000000	15.76649000	-11.61417000
86.79999502	0.00000000	14.22859000	-7.75713500
86.99999501	0.00000000	12.69070000	-2.78051200
87.19999499	0.00000000	11.57726000	2.27608300
87.39999498	0.00000000	11.57726000	6.13312000
87.59999497	0.00000000	12.69070000	8.45226300
87.79999496	0.00000000	14.22859000	8.40920300
87.99999495	0.00000000	15.80955000	5.71481200
88.19999493	0.00000000	17.34744000	1.11343500
88.39999492	0.00000000	18.50394000	-4.27534400
88.59999491	0.00000000	18.87918000	-8.87672100
88.79999490	0.00000000	18.50394000	-11.56496000
88.99999489	0.00000000	17.34744000	-11.56496000
89.19999487	0.00000000	15.80955000	-8.91978400
89.39999486	0.00000000	14.22859000	-4.69365100
89.59999485	0.00000000	12.73991000	-0.04306102
89.79999484	0.00000000	11.95251000	4.18307100
89.99999483	0.00000000	12.27239000	6.82824800
90.19999482	0.00000000	12.69070000	6.87746000
90.39999480	0.00000000	13.53346000	4.55831700
90.59999479	0.00000000	15.39124000	0.69512790
90.79999478	0.00000000	16.87992000	-4.31840500
90.99999477	0.00000000	17.34744000	-8.87672100
91.19999476	0.00000000	17.34744000	-11.56496000
91.39999474	0.00000000	16.97219000	-11.56496000
91.59999473	0.00000000	16.22785000	-8.87672100
91.79999472	0.00000000	15.85261000	-4.27534400
91.99999471	0.00000000	15.80955000	1.06422200
92.19999470	0.00000000	15.80955000	5.29650500
92.39999468	0.00000000	15.80955000	7.24655500
92.59999467	0.00000000	15.76649000	6.82824800
92.79999466	0.00000000	15.39124000	3.76476400
92.99999465	0.00000000	14.60384000	-1.15649600
93.19999464	0.00000000	13.85334000	-5.75787400
93.39999463	0.00000000	13.06594000	-8.87057000
93.59999461	0.00000000	12.69070000	-10.03322000
93.79999460	0.00000000	12.73991000	-8.87057000
93.99999459	0.00000000	13.53346000	-5.80093500
94.19999458	0.00000000	15.43430000	-1.57480300
94.39999457	0.00000000	17.34744000	2.60211600
94.59999455	0.00000000	18.92839000	5.29650500
94.79999454	0.00000000	20.08489000	5.71481200
94.99999453	0.00000000	20.41708000	4.18307100
95.19999452	0.00000000	19.62352000	1.11343500
95.39999451	0.00000000	17.29823000	-2.73745100
95.59999449	0.00000000	14.22859000	-6.17618100
95.79999448	0.00000000	11.15896000	-8.50147600
95.99999447	0.00000000	8.83366100	-8.87672100
96.19999446	0.00000000	8.04010800	-7.33882900
96.39999445	0.00000000	8.45841400	-4.26919300
96.59999444	0.00000000	10.41462000	-0.46751960
96.79999442	0.00000000	13.85334000	2.60211600
96.99999441	0.00000000	17.34744000	4.18307100
97.19999440	0.00000000	20.50935000	4.18307100
97.39999439	0.00000000	23.16068000	2.64517700
97.59999438	0.00000000	24.27411000	0.00000000
97.79999436	0.00000000	23.11762000	-2.69439000
97.99999435	0.00000000	20.04183000	-4.64443900
98.19999434	0.00000000	15.80955000	-5.80093500
98.39999433	0.00000000	11.57726000	-5.80093500
98.59999432	0.00000000	8.41535400	-4.73671200
98.79999430	0.00000000	6.50221400	-3.57406500
98.99999429	0.00000000	6.13927100	-2.78051200
99.19999428	0.00000000	8.04010800	-1.99311000
99.39999427	0.00000000	11.10974000	-1.61786400
99.59999426	0.00000000	14.64690000	-1.57480300
99.79999425	0.00000000	18.50394000	-1.57480300
99.99999423	0.00000000	21.57972000	-1.53174200
100.19999422	0.00000000	23.11762000	-1.15649600
100.39999421	0.00000000	22.78543000	-0.41830710
100.59999420	0.00000000	20.83538000	-0.04306102
100.79999419	0.00000000	18.17790000	-0.04306102
100.99999417	0.00000000	15.02214000	-0.46136810
101.19999416	0.00000000	12.31545000	-1.62401600
101.39999415	0.00000000	9.99630800	-3.15575800
101.59999414	0.00000000	8.83366100	-4.68750000
101.79999413	0.00000000	9.20275500	-5.85014700
101.99999411	0.00000000	10.32234000	-6.17618100
102.19999410	0.00000000	12.31545000	-5.38262700
102.39999409	0.00000000	14.60384000	-3.11269700
102.59999408	0.00000000	16.97219000	-0.41830710
102.79999407	0.00000000	18.87918000	1.90698800
102.99999406	0.00000000	20.04183000	3.80782500
103.19999404	0.00000000	20.04183000	4.18307100
103.39999403	0.00000000	18.87918000	3.06348400
103.59999402	0.00000000	16.97219000	1.11343500
103.79999401	0.00000000	14.64690000	-1.62401600
103.99999400	0.00000000	12.73991000	-4.68750000
104.19999398	0.00000000	11.53420000	-7.33882900
104.39999397	0.00000000	11.15896000	-8.45226300
104.59999396	0.00000000	11.53420000	-7.38188900
104.79999395	0.00000000	12.69070000	-5.11195900
104.99999394	0.00000000	14.22859000	-2.73745100
105.19999392	0.00000000	15.76649000	-0.04306102
105.39999391	0.00000000	16.92298000	2.22687000
105.59999390	0.00000000	17.29823000	3.02042300
105.79999389	0.00000000	16.97219000	2.64517700
105.99999388	0.00000000	16.18479000	1.07037400
106.19999387	0.00000000	15.39124000	-1.58095500
106.39999385	0.00000000	14.22859000	-4.22613100
106.59999384	0.00000000	13.11516000	-5.75787400
106.79999383	0.00000000	12.73991000	-5.80093500
106.99999382	0.00000000	13.11516000	-4.68750000
107.19999381	0.00000000	14.22859000	-3.15575800
107.39999379	0.00000000	15.39124000	-1.57480300
107.59999378	0.00000000	16.18479000	-0.04306102
107.79999377	0.00000000	16.92298000	1.06422200
107.99999376	0.00000000	16.87992000	1.06422200
108.19999375	0.00000000	15.80955000	-0.04306102
108.39999374	0.00000000	14.64690000	-1.57480300
108.59999372	0.00000000	13.85334000	-3.11269700
108.79999371	0.00000000	13.06594000	-4.26919300
108.99999370	0.00000000	12.73991000	-4.64443900
109.19999369	0.00000000	13.11516000	-4.26919300
109.39999368	0.00000000	14.22859000	-3.11269700
109.59999366	0.00000000	15.39124000	-1.57480300
109.79999365	0.00000000	16.18479000	-0.04306102
109.99999364	0.00000000	16.97219000	1.11343500
110.19999363	0.00000000	17.34744000	1.48253000
110.39999362	0.00000000	17.29823000	1.11343500
110.59999360	0.00000000	16.55389000	-0.04306102
110.79999359	0.00000000	15.02214000	-1.57480300
110.99999358	0.00000000	13.89641000	-3.15575800
111.19999357	0.00000000	13.06594000	-4.64443900
111.39999356	0.00000000	12.73991000	-5.43184000
111.59999355	0.00000000	13.06594000	-5.06274600
111.79999353	0.00000000	13.85334000	-4.31840500
111.99999352	0.00000000	14.60384000	-3.15575800
112.19999351	0.00000000	15.39124000	-1.99311000
112.39999350	0.00000000	15.76649000	-1.19955700
112.59999349	0.00000000	15.80955000	-0.41830710
112.79999347	0.00000000	15.80955000	-0.04306102
112.99999346	0.00000000	15.76649000	-0.04306102
113.19999345	0.00000000	15.39124000	-0.41830710
113.39999344	0.00000000	14.64690000	-1.15649600
113.59999343	0.00000000	14.27165000	-1.53174200
113.79999341	0.00000000	14.22859000	-1.61786400
113.99999340	0.00000000	14.22859000	-1.99311000
114.19999339	0.00000000	14.22859000	-2.73745100
114.39999338	0.00000000	14.22859000	-3.11269700
114.59999337	0.00000000	14.27165000	-3.15575800
114.79999336	0.00000000	14.64690000	-3.15575800
114.99999334	0.00000000	15.34203000	-3.15575800
115.19999333	0.00000000	15.39124000	-3.15575800
115.39999332	0.00000000	15.02214000	-3.15575800
115.59999331	0.00000000	15.01599000	-3.11269700
115.79999330	0.00000000	14.60384000	-2.73745100
115.99999328	0.00000000	14.27165000	-1.95004900
116.19999327	0.00000000	14.22859000	-1.19955700
116.39999326	0.00000000	14.22859000	-0.41830710
116.59999325	0.00000000	14.22859000	-0.04306102
116.79999324	0.00000000	14.22859000	-0.04306102
116.99999322	0.00000000	14.22859000	-0.41830710
117.19999321	0.00000000	14.27165000	-1.19955700
117.39999320	0.00000000	14.69611000	-1.95004900
117.59999319	0.00000000	15.80955000	-2.73745100
117.79999318	0.00000000	16.92298000	-3.15575800
117.99999317	0.00000000	17.29823000	-3.57406500
118.19999315	0.00000000	16.97219000	-4.26919300
118.39999314	0.00000000	16.18479000	-4.26919300
118.59999313	0.00000000	15.43430000	-3.53100400
118.79999312	0.00000000	14.60384000	-2.73745100
118.99999311	0.00000000	13.85334000	-1.57480300
119.19999309	0.00000000	13.06594000	-0.46136810
119.39999308	0.00000000	12.69070000	-0.04306102
119.59999307	0.00000000	12.69070000	0.00000000
119.79999306	0.00000000	13.11516000	-0.04306102
119.99999305	0.00000000	14.27165000	-0.41830710
120.19999303	0.00000000	15.76649000	-1.19955700
120.39999302	0.00000000	16.97219000	-1.95004900
120.59999301	0.00000000	17.76575000	-2.73745100
120.79999300	0.00000000	18.50394000	-3.11269700
120.99999299	0.00000000	18.46087000	-3.15575800
121.19999298	0.00000000	17.34744000	-3.15575800
121.39999296	0.00000000	15.80955000	-3.15575800
121.59999295	0.00000000	14.27165000	-3.11269700
121.79999294	0.00000000	13.06594000	-2.73745100
121.99999293	0.00000000	12.27239000	-1.99311000
122.19999292	0.00000000	11.53420000	-1.61786400
122.39999290	0.00000000	11.57726000	-1.53174200
122.59999289	0.00000000	12.64764000	-1.15649600
122.79999288	0.00000000	13.81028000	-0.41830710
122.99999287	0.00000000	14.64690000	-0.09227362
123.19999286	0.00000000	15.80955000	-0.41830710
123.39999284	0.00000000	16.92298000	-1.19955700
123.59999283	0.00000000	17.34744000	-1.95004900
123.79999282	0.00000000	17.34744000	-2.73745100
123.99999281	0.00000000	16.97219000	-3.11269700
124.19999280	0.00000000	16.18479000	-3.15575800
124.39999279	0.00000000	15.43430000	-3.15575800
124.59999277	0.00000000	14.60384000	-3.15575800
124.79999276	0.00000000	13.85334000	-3.11269700
124.99999275	0.00000000	13.06594000	-2.73745100
125.19999274	0.00000000	12.69070000	-1.99311000
125.39999273	0.00000000	12.69070000	-1.61786400
125.59999271	0.00000000	13.06594000	-1.57480300
125.79999270	0.00000000	13.85334000	-1.53174200
125.99999269	0.00000000	14.64690000	-1.19955700
126.19999268	0.00000000	15.80955000	-0.83661410
126.39999267	0.00000000	16.92298000	-1.19955700
126.59999265	0.00000000	17.29823000	-1.57480300
126.79999264	0.00000000	16.97219000	-1.99311000
126.99999263	0.00000000	16.18479000	-2.73745100
127.19999262	0.00000000	15.39124000	-3.11269700
127.39999261	0.00000000	14.22859000	-3.15575800
127.59999260	0.00000000	13.11516000	-3.15575800
127.79999258	0.00000000	12.69070000	-3.11269700
127.99999257	0.00000000	12.64764000	-2.73745100
128.19999256	0.00000000	12.69070000	-1.99311000
128.39999255	0.00000000	13.11516000	-1.61786400
128.59999254	0.00000000	14.27165000	-1.57480300
128.79999252	0.00000000	15.76649000	-1.57480300
128.99999251	0.00000000	16.92298000	-1.57480300
129.19999250	0.00000000	17.29823000	-1.57480300
129.39999249	0.00000000	16.97219000	-1.61786400
129.59999248	0.00000000	16.18479000	-1.99311000
129.79999246	0.00000000	15.39124000	-2.73745100
129.99999245	0.00000000	14.22859000	-3.11269700
130.19999244	0.00000000	13.11516000	-3.11269700
130.39999243	0.00000000	12.73991000	-2.73745100
130.59999242	0.00000000	13.06594000	-1.99311000
130.79999241	0.00000000	13.85334000	-1.61786400
130.99999239	0.00000000	14.60384000	-1.57480300
131.19999238	0.00000000	15.39124000	-1.57480300
131.39999237	0.00000000	15.80955000	-1.57480300
131.59999236	0.00000000	16.18479000	-1.61786400
131.79999235	0.00000000	16.55389000	-1.99311000
131.99999233	0.00000000	16.14173000	-2.73745100
132.19999232	0.00000000	15.43430000	-3.11269700
132.39999231	0.00000000	14.64690000	-3.15575800
132.59999230	0.00000000	14.27165000	-3.15575800
132.79999229	0.00000000	14.22859000	-3.11269700
132.99999227	0.00000000	14.22859000	-2.73745100
133.19999226	0.00000000	14.22859000	-1.95004900
133.39999225	0.00000000	14.22859000	-1.19955700
133.59999224	0.00000000	14.22859000	-0.41830710
133.79999223	0.00000000	14.22859000	-0.09227362
133.99999222	0.00000000	14.22859000	-0.41830710
134.19999220	0.00000000	14.22859000	-1.19955700
134.39999219	0.00000000	14.22859000	-1.95004900
134.59999218	0.00000000	14.27165000	-2.78051200
134.79999217	0.00000000	14.60384000	-3.53100400
134.99999216	0.00000000	15.01599000	-4.26919300
135.19999214	0.00000000	15.02214000	-4.26919300
135.39999213	0.00000000	15.43430000	-3.57406500
135.59999212	0.00000000	15.71727000	-3.15575800
135.79999211	0.00000000	15.39124000	-2.73745100
135.99999210	0.00000000	14.64690000	-1.95004900
136.19999208	0.00000000	14.22859000	-1.19955700
136.39999207	0.00000000	13.81028000	-0.46136810
136.59999206	0.00000000	13.06594000	-0.46136810
136.79999205	0.00000000	12.73991000	-1.15649600
136.99999204	0.00000000	13.06594000	-1.53174200
137.19999203	0.00000000	13.85334000	-1.61786400
137.39999201	0.00000000	14.60384000	-1.99311000
137.59999200	0.00000000	15.39124000	-2.78051200
137.79999199	0.00000000	15.76649000	-3.48794300
137.99999198	0.00000000	15.80955000	-3.90009800
138.19999197	0.00000000	15.76649000	-3.53100400
138.39999195	0.00000000	15.39124000	-3.19881900
138.59999194	0.00000000	14.64690000	-3.11269700
138.79999193	0.00000000	14.22859000	-2.73745100
138.99999192	0.00000000	13.81028000	-1.99311000
139.19999191	0.00000000	13.11516000	-1.57480300
139.39999189	0.00000000	13.11516000	-1.15649600
139.59999188	0.00000000	13.81028000	-0.46136810
139.79999187	0.00000000	14.22859000	-0.46136810
139.99999186	0.00000000	14.64690000	-1.15649600
140.19999185	0.00000000	15.39124000	-1.57480300
140.39999184	0.00000000	15.76649000	-1.99311000
140.59999182	0.00000000	15.76649000	-2.78051200
140.79999181	0.00000000	15.39124000	-3.53100400
140.99999180	0.00000000	14.64690000	-4.26919300
141.19999179	0.00000000	14.27165000	-4.26919300
141.39999178	0.00000000	14.22859000	-3.53100400
141.59999176	0.00000000	14.22859000	-2.78051200
141.79999175	0.00000000	14.22859000	-1.95004900
141.99999174	0.00000000	14.27165000	-1.19955700
142.19999173	0.00000000	14.64690000	-0.41830710
142.39999172	0.00000000	15.34203000	-0.04306102
142.59999170	0.00000000	15.39124000	-0.04306102
142.79999169	0.00000000	15.02214000	-0.41830710
142.99999168	0.00000000	15.01599000	-1.19955700
143.19999167	0.00000000	14.60384000	-1.99311000
143.39999166	0.00000000	14.27165000	-3.15575800
143.59999165	0.00000000	14.22859000	-4.26919300
143.79999163	0.00000000	14.22859000	-4.64443900
143.99999162	0.00000000	14.22859000	-4.31840500
144.19999161	0.00000000	14.27165000	-3.53100400
144.39999160	0.00000000	14.64690000	-2.78051200
144.59999159	0.00000000	15.39124000	-1.99311000
144.79999157	0.00000000	15.76649000	-1.57480300
144.99999156	0.00000000	15.80955000	-1.15649600
145.19999155	0.00000000	15.76649000	-0.46136810
145.39999154	0.00000000	15.39124000	-0.46136810
145.59999153	0.00000000	14.64690000	-1.15649600
145.79999151	0.00000000	14.27165000	-1.57480300
145.99999150	0.00000000	14.22859000	-1.99311000
146.19999149	0.00000000	14.22859000	-2.73745100
146.39999148	0.00000000	14.22859000	-3.11269700
146.59999147	0.00000000	14.22859000	-3.15575800
146.79999146	0.00000000	14.27165000	-3.15575800
146.99999144	0.00000000	14.64690000	-3.11269700
147.19999143	0.00000000	15.39124000	-2.73745100
147.39999142	0.00000000	15.76649000	-1.99311000
147.59999141	0.00000000	15.76649000	-1.61786400
147.79999140	0.00000000	15.39124000	-1.57480300
147.99999138	0.00000000	14.64690000	-1.57480300
148.19999137	0.00000000	14.27165000	-1.57480300
148.39999136	0.00000000	14.22859000	-1.61786400
148.59999135	0.00000000	14.22859000	-1.99311000
148.79999134	0.00000000	14.22859000	-2.73745100
148.99999132	0.00000000	14.22859000	-3.11269700
149.19999131	0.00000000	14.22859000	-3.15575800
149.39999130	0.00000000	14.22859000	-3.15575800
149.59999129	0.00000000	14.27165000	-3.15575800
149.79999128	0.00000000	14.64690000	-3.11269700
149.99999127	0.00000000	15.34203000	-2.73745100
150.19999125	0.00000000	15.34203000	-1.99311000
150.39999124	0.00000000	14.64690000	-1.61786400
150.59999123	0.00000000	14.27165000	-1.57480300
150.79999122	0.00000000	14.22859000	-1.57480300
150.99999121	0.00000000	14.22859000	-1.57480300
151.19999119	0.00000000	14.22859000	-1.57480300
151.39999118	0.00000000	14.22859000	-1.61786400
151.59999117	0.00000000	14.22859000	-1.99311000
151.79999116	0.00000000	14.22859000	-2.73745100
151.99999115	0.00000000	14.22859000	-3.11269700
152.19999113	0.00000000	14.27165000	-3.15575800
152.39999112	0.00000000	14.64690000	-3.15575800
152.59999111	0.00000000	15.39124000	-3.11269700
152.79999110	0.00000000	15.76649000	-2.73745100
152.99999109	0.00000000	15.76649000	-1.99311000
153.19999108	0.00000000	15.39124000	-1.61786400
153.39999106	0.00000000	14.64690000	-1.57480300
153.59999105	0.00000000	14.27165000	-1.57480300
153.79999104	0.00000000	14.22859000	-1.57480300
153.99999103	0.00000000	14.18553000	-1.57480300
154.19999102	0.00000000	13.81028000	-1.57480300
154.39999100	0.00000000	13.06594000	-1.57480300
154.59999099	0.00000000	12.73991000	-1.57480300
154.79999098	0.00000000	13.06594000	-1.61786400
154.99999097	0.00000000	13.81028000	-1.99311000
155.19999096	0.00000000	14.22859000	-2.73745100
155.39999094	0.00000000	14.64690000	-3.11269700
155.59999093	0.00000000	15.39124000	-3.15575800
155.79999092	0.00000000	15.76649000	-3.15575800
155.99999091	0.00000000	15.76649000	-3.11269700
156.19999090	0.00000000	15.39124000	-2.73745100
156.39999089	0.00000000	14.64690000	-1.99311000
156.59999087	0.00000000	14.27165000	-1.61786400
156.79999086	0.00000000	14.18553000	-1.57480300
156.99999085	0.00000000	13.81028000	-1.57480300
157.19999084	0.00000000	13.11516000	-1.57480300
157.39999083	0.00000000	13.11516000	-1.57480300
157.59999081	0.00000000	13.81028000	-1.57480300
157.79999080	0.00000000	14.18553000	-1.61786400
157.99999079	0.00000000	14.22859000	-1.99311000
158.19999078	0.00000000	14.27165000	-2.73745100
158.39999077	0.00000000	14.64690000	-3.11269700
158.59999075	0.00000000	15.39124000	-3.15575800
158.79999074	0.00000000	15.71727000	-3.15575800
158.99999073	0.00000000	15.39124000	-3.11269700
159.19999072	0.00000000	14.64690000	-2.73745100
159.39999071	0.00000000	14.27165000	-1.99311000
159.59999070	0.00000000	14.22859000	-1.61786400
159.79999068	0.00000000	14.22859000	-1.57480300
159.99999067	0.00000000	14.22859000	-1.57480300
160.19999066	0.00000000	14.22859000	-1.57480300
160.39999065	0.00000000	14.22859000	-1.61786400
160.59999064	0.00000000	14.22859000	-1.99311000
160.79999062	0.00000000	14.22859000	-2.73745100
160.99999061	0.00000000	14.22859000	-3.11269700
161.19999060	0.00000000	14.22859000	-3.15575800
161.39999059	0.00000000	14.22859000	-3.15575800
161.59999058	0.00000000	14.22859000	-3.15575800
161.79999056	0.00000000	14.27165000	-3.15575800
161.99999055	0.00000000	14.60384000	-3.11269700
162.19999054	0.00000000	14.97293000	-2.73745100
162.39999053	0.00000000	14.60384000	-1.99311000
162.59999052	0.00000000	14.27165000	-1.61786400
162.79999051	0.00000000	14.22859000	-1.57480300
162.99999049	0.00000000	14.22859000	-1.57480300
163.19999048	0.00000000	14.22859000	-1.57480300
163.39999047	0.00000000	14.18553000	-1.57480300
163.59999046	0.00000000	13.85334000	-1.61786400
163.79999045	0.00000000	13.48425000	-1.99311000
163.99999043	0.00000000	13.85334000	-2.73745100
164.19999042	0.00000000	14.18553000	-3.11269700
164.39999041	0.00000000	14.22859000	-3.15575800
164.59999040	0.00000000	14.22859000	-3.15575800
164.79999039	0.00000000	14.27165000	-3.15575800
164.99999037	0.00000000	14.64690000	-3.11269700
165.19999036	0.00000000	15.39124000	-2.78051200
165.39999035	0.00000000	15.71727000	-2.36835600
165.59999034	0.00000000	15.39124000	-2.36220500
165.79999033	0.00000000	14.64690000	-1.99311000
165.99999032	0.00000000	14.22859000	-1.99311000
166.19999030	0.00000000	13.81028000	-2.31914400
166.39999029	0.00000000	13.11516000	-1.95004900
166.59999028	0.00000000	13.11516000	-1.61786400
166.79999027	0.00000000	13.81028000	-1.57480300
166.99999026	0.00000000	14.18553000	-1.57480300
167.19999024	0.00000000	14.22859000	-1.57480300
167.39999023	0.00000000	14.22859000	-1.57480300
167.59999022	0.00000000	14.22859000	-1.57480300
167.79999021	0.00000000	14.27165000	-1.61786400
167.99999020	0.00000000	14.64690000	-1.95004900
168.19999018	0.00000000	15.34203000	-2.36220500
168.39999017	0.00000000	15.34203000	-2.32529500
168.59999016	0.00000000	14.64690000	-2.40526600
168.79999015	0.00000000	14.27165000	-2.32529500
168.99999014	0.00000000	14.22859000	-2.40526600
169.19999013	0.00000000	14.22859000	-2.36835600
169.39999011	0.00000000	14.22859000	-2.78051200
169.59999010	0.00000000	14.22859000	-3.06348400
169.79999009	0.00000000	14.22859000	-2.78051200
169.99999008	0.00000000	14.22859000	-2.41141700
170.19999007	0.00000000	14.22859000	-2.78051200
170.39999005	0.00000000	14.22859000	-3.11269700
170.59999004	0.00000000	14.22859000	-3.11269700
170.79999003	0.00000000	14.22859000	-2.78051200
170.99999002	0.00000000	14.22859000	-2.41141700
171.19999001	0.00000000	14.22859000	-2.78051200
171.39998999	0.00000000	14.22859000	-3.11269700
171.59998998	0.00000000	14.22859000	-3.15575800
171.79998997	0.00000000	14.22859000	-3.15575800
171.99998996	0.00000000	14.22859000	-3.15575800
172.19998995	0.00000000	14.18553000	-3.15575800
172.39998994	0.00000000	13.85334000	-3.11269700
172.59998992	0.00000000	13.48425000	-2.78051200
172.79998991	0.00000000	13.85334000	-2.41141700
172.99998990	0.00000000	14.18553000	-2.73745100
173.19998989	0.00000000	14.22859000	-2.73745100
173.39998988	0.00000000	14.22859000	-2.41141700
173.59998986	0.00000000	14.22859000	-2.73745100
173.79998985	0.00000000	14.22859000	-2.68823800
173.99998984	0.00000000	14.22859000	-2.04232300
174.19998983	0.00000000	14.22859000	-1.99311000
174.39998982	0.00000000	14.22859000	-2.31914400
174.59998980	0.00000000	14.22859000	-1.99311000
174.79998979	0.00000000	14.22859000	-2.04232300
174.99998978	0.00000000	14.22859000	-2.68823800
175.19998977	0.00000000	14.22859000	-2.68823800
175.39998976	0.00000000	14.18553000	-2.04232300
175.59998975	0.00000000	13.85334000	-2.04232300
175.79998973	0.00000000	13.48425000	-2.73745100
175.99998972	0.00000000	13.85334000	-3.06348400
176.19998971	0.00000000	14.18553000	-2.78051200
176.39998970	0.00000000	14.22859000	-2.36835600
176.59998969	0.00000000	14.22859000	-2.40526600
176.79998967	0.00000000	14.22859000	-2.32529500
176.99998966	0.00000000	14.22859000	-2.40526600
177.19998965	0.00000000	14.22859000	-2.36835600
177.39998964	0.00000000	14.22859000	-2.78051200
177.59998963	0.00000000	14.22859000	-3.11269700
177.79998961	0.00000000	14.22859000	-3.15575800
177.99998960	0.00000000	14.22859000	-3.15575800
178.19998959	0.00000000	14.22859000	-3.15575800
178.39998958	0.00000000	14.22859000	-3.11269700
178.59998957	0.00000000	14.22859000	-2.73745100
178.79998956	0.00000000	14.22859000	-1.99311000
178.99998954	0.00000000	14.22859000	-1.66707700
179.19998953	0.00000000	14.22859000	-1.95004900
179.39998952	0.00000000	14.22859000	-2.36220500
179.59998951	0.00000000	14.22859000	-2.32529500
179.79998950	0.00000000	14.22859000	-2.40526600
179.99998948	0.00000000	14.22859000	-2.36835600
180.19998947	0.00000000	14.22859000	-2.78051200
180.39998946	0.00000000	14.22859000	-3.11269700
180.59998945	0.00000000	14.22859000	-3.11269700
180.79998944	0.00000000	14.18553000	-2.78051200
180.99998942	0.00000000	13.85334000	-2.36835600
181.19998941	0.00000000	13.48425000	-2.36220500
181.39998940	0.00000000	13.85334000	-1.95004900
181.59998939	0.00000000	14.18553000	-1.61786400
181.79998938	0.00000000	14.22859000	-1.57480300
181.99998937	0.00000000	14.22859000	-1.57480300
182.19998935	0.00000000	14.22859000	-1.57480300
182.39998934	0.00000000	14.22859000	-1.61786400
182.59998933	0.00000000	14.22859000	-1.99311000
182.79998932	0.00000000	14.22859000	-2.73745100
182.99998931	0.00000000	14.22859000	-3.11269700
183.19998929	0.00000000	14.22859000	-3.15575800
183.39998928	0.00000000	14.22859000	-3.15575800
183.59998927	0.00000000	14.22859000	-3.15575800
183.79998926	0.00000000	14.22859000	-3.11269700
183.99998925	0.00000000	14.22859000	-2.78051200
184.19998923	0.00000000	14.22859000	-2.36835600
184.39998922	0.00000000	14.22859000	-2.36220500
184.59998921	0.00000000	14.22859000	-1.95004900
184.79998920	0.00000000	14.22859000	-1.61786400
184.99998919	0.00000000	14.22859000	-1.57480300
185.19998918	0.00000000	14.22859000	-1.57480300
185.39998916	0.00000000	14.22859000	-1.61786400
185.59998915	0.00000000	14.22859000	-1.99311000
185.79998914	0.00000000	14.18553000	-2.73745100
185.99998913	0.00000000	13.85334000	-3.11269700
186.19998912	0.00000000	13.48425000	-3.15575800
186.39998910	0.00000000	13.85334000	-3.15575800
186.59998909	0.00000000	14.18553000	-3.15575800
186.79998908	0.00000000	14.22859000	-3.15575800
186.99998907	0.00000000	14.22859000	-3.11269700
187.19998906	0.00000000	14.22859000	-2.73745100
187.39998904	0.00000000	14.18553000	-1.99311000
187.59998903	0.00000000	13.85334000	-1.61786400
187.79998902	0.00000000	13.48425000	-1.57480300
187.99998901	0.00000000	13.85334000	-1.57480300
188.19998900	0.00000000	14.18553000	-1.57480300
188.39998899	0.00000000	14.22859000	-1.57480300
188.59998897	0.00000000	14.22859000	-1.61786400
188.79998896	0.00000000	14.22859000	-1.99311000
188.99998895	0.00000000	14.22859000	-2.73745100
189.19998894	0.00000000	14.22859000	-3.11269700
189.39998893	0.00000000	14.22859000	-3.15575800
189.59998891	0.00000000	14.22859000	-3.15575800
189.79998890	0.00000000	14.22859000	-3.11269700
189.99998889	0.00000000	14.22859000	-2.73745100
190.19998888	0.00000000	14.22859000	-1.99311000
190.39998887	0.00000000	14.18553000	-1.61786400
190.59998885	0.00000000	13.85334000	-1.57480300
190.79998884	0.00000000	13.48425000	-1.57480300
190.99998883	0.00000000	13.85334000	-1.57480300
191.19998882	0.00000000	14.18553000	-1.57480300
191.39998881	0.00000000	14.22859000	-1.57480300
191.59998880	0.00000000	14.22859000	-1.61786400
191.79998878	0.00000000	14.22859000	-1.99311000
191.99998877	0.00000000	14.22859000	-2.73745100
192.19998876	0.00000000	14.22859000	-3.11269700
192.39998875	0.00000000	14.22859000	-3.15575800
192.59998874	0.00000000	14.22859000	-3.15575800
192.79998872	0.00000000	14.18553000	-3.15575800
192.99998871	0.00000000	13.85334000	-3.11269700
193.19998870	0.00000000	13.44119000	-2.78051200
193.39998869	0.00000000	13.43504000	-2.36835600
193.59998868	0.00000000	13.06594000	-2.36220500
193.79998866	0.00000000	13.11516000	-1.95004900
193.99998865	0.00000000	13.81028000	-1.61786400
194.19998864	0.00000000	14.18553000	-1.57480300
194.39998863	0.00000000	14.22859000	-1.57480300
194.59998862	0.00000000	14.22859000	-1.57480300
194.79998861	0.00000000	14.22859000	-1.61786400
194.99998859	0.00000000	14.22859000	-1.99311000
195.19998858	0.00000000	14.22859000	-2.73745100
195.39998857	0.00000000	14.22859000	-3.11269700
195.59998856	0.00000000	14.22859000	-3.15575800
195.79998855	0.00000000	14.18553000	-3.15575800
195.99998853	0.00000000	13.81028000	-3.15575800
