Time	Channel A	Channel B	Channel C
(us)	(V)	(mV)	(mV)

-4.49999956	0.00000000	13.02288000	-3.15575800
-4.29999957	0.00000000	13.39198000	-3.15575800
-4.09999958	0.00000000	13.02288000	-3.15575800
-3.89999959	0.00000000	12.69070000	-3.15575800
-3.69999960	0.00000000	12.69070000	-3.15575800
-3.49999962	0.00000000	13.02288000	-3.15575800
-3.29999963	0.00000000	13.39198000	-3.15575800
-3.09999964	0.00000000	13.02288000	-3.15575800
-2.89999965	0.00000000	12.69070000	-3.15575800
-2.69999966	0.00000000	12.64764000	-3.15575800
-2.49999968	0.00000000	12.64764000	-3.15575800
-2.29999969	0.00000000	12.64764000	-3.15575800
-2.09999970	0.00000000	12.64764000	-3.15575800
-1.89999971	0.00000000	12.69070000	-3.11269700
-1.69999972	0.00000000	13.02288000	-2.78051200
-1.49999973	0.00000000	13.39198000	-2.41141700
-1.29999975	0.00000000	13.02288000	-2.78051200
-1.09999976	0.00000000	12.69070000	-3.11269700
-0.89999977	0.00000000	12.64764000	-3.15575800
-0.69999978	0.00000000	12.64764000	-3.15575800
-0.49999979	0.00000000	12.64764000	-3.15575800
-0.29999981	0.31803640	12.69070000	-3.11269700
-0.09999982	0.63668800	13.06594000	-2.78051200
0.10000017	0.95533960	13.76107000	-2.41141700
0.30000016	0.95533960	13.76107000	-2.78051200
0.50000015	0.79601380	13.06594000	-3.11269700
0.70000013	0.15871060	12.69070000	-3.15575800
0.90000012	-0.63668800	12.64764000	-3.15575800
1.10000011	-1.59264300	12.64764000	-3.15575800
1.30000010	-2.38927200	12.64764000	-3.11269700
1.50000009	-2.70792300	12.64764000	-2.73745100
1.70000008	-2.38927200	12.64764000	-1.99311000
1.90000006	-1.11466500	12.64764000	-1.61786400
2.10000005	0.79601380	12.64764000	-1.61786400
2.30000004	2.86724900	12.64764000	-1.99311000
2.50000003	4.61921700	12.64764000	-2.73745100
2.70000002	5.41584600	12.64764000	-3.11269700
2.90000000	4.77854300	12.64764000	-3.15575800
3.09999999	2.70792300	12.64764000	-3.15575800
3.29999998	-0.31803640	12.64764000	-3.15575800
3.49999997	-3.82258900	12.64764000	-3.15575800
3.69999996	-6.53112700	12.64764000	-3.15575800
3.89999994	-7.96444400	12.64764000	-3.11269700
4.09999993	-7.32714100	12.64764000	-2.73745100
4.29999992	-4.77854300	12.69070000	-1.99311000
4.49999991	-0.63668800	13.02288000	-1.66707700
4.69999990	3.82258900	13.39198000	-1.99311000
4.89999989	7.48646600	13.02288000	-2.73745100
5.09999987	9.39837600	12.69070000	-3.11269700
5.29999986	8.92039900	12.64764000	-3.15575800
5.49999985	6.21247500	12.60458000	-3.15575800
5.69999984	1.91129400	12.27239000	-3.15575800
5.89999983	-2.86724900	11.90330000	-3.15575800
6.09999981	-6.84916400	12.27239000	-3.15575800
6.29999980	-9.23905000	12.60458000	-3.11269700
6.49999979	-9.07972400	12.64764000	-2.73745100
6.69999978	-6.84916400	12.69070000	-1.99311000
6.89999977	-2.86724900	13.02288000	-1.66707700
7.09999975	1.43331700	13.39198000	-1.95004900
7.29999974	5.09719500	13.02288000	-2.36220500
7.49999973	7.32714100	12.69070000	-2.36835600
7.69999972	7.64579200	12.64764000	-2.78051200
7.89999971	6.05315000	12.64764000	-3.11269700
8.09999970	3.18590100	12.64764000	-3.15575800
8.29999968	-0.15871060	12.64764000	-3.15575800
8.49999967	-3.02657500	12.64764000	-3.15575800
8.69999966	-4.77854300	12.64764000	-3.15575800
8.89999965	-5.09719500	12.64764000	-3.15575800
9.09999964	-4.30056600	12.64764000	-3.11269700
9.29999962	-2.54859700	12.64764000	-2.78051200
9.49999961	-0.47736220	12.64764000	-2.41141700
9.69999960	1.27399100	12.64764000	-2.78051200
9.89999959	2.22994600	12.64764000	-3.11269700
10.09999958	2.54859700	12.64764000	-3.15575800
10.29999956	2.22994600	12.64764000	-3.15575800
10.49999955	1.43331700	12.64764000	-3.15575800
10.69999954	0.47736220	12.64764000	-3.15575800
10.89999953	-0.31803640	12.64764000	-3.15575800
11.09999952	-0.79601380	12.64764000	-3.15575800
11.29999951	-0.95533960	12.64764000	-3.15575800
11.49999949	-0.95533960	12.64764000	-3.15575800
11.69999948	-0.63668800	12.64764000	-3.15575800
11.89999947	-0.31803640	12.64764000	-3.15575800
12.09999946	-0.15871060	12.64764000	-3.15575800
12.29999945	-0.15871060	12.64764000	-3.15575800
12.49999943	0.00000000	12.64764000	-3.15575800
12.69999942	0.00000000	12.64764000	-3.15575800
12.89999941	0.00000000	12.64764000	-3.15575800
13.09999940	0.15871060	12.64764000	-3.15575800
13.29999939	0.00000000	12.64764000	-3.15575800
13.49999937	0.00000000	12.64764000	-3.15575800
13.69999936	0.00000000	12.64764000	-3.15575800
13.89999935	0.00000000	12.64764000	-3.15575800
14.09999934	-0.15871060	12.64764000	-3.15575800
14.29999933	-0.15871060	12.64764000	-3.15575800
14.49999932	-0.15871060	12.64764000	-3.15575800
14.69999930	0.00000000	12.64764000	-3.15575800
14.89999929	0.00000000	12.64764000	-3.15575800
15.09999928	0.00000000	12.64764000	-3.15575800
15.29999927	0.00000000	12.64764000	-3.15575800
15.49999926	0.00000000	12.64764000	-3.15575800
15.69999924	0.00000000	12.64764000	-3.15575800
15.89999923	0.00000000	12.64764000	-3.15575800
16.09999922	0.00000000	12.64764000	-3.15575800
16.29999921	0.00000000	12.64764000	-3.15575800
16.49999920	0.00000000	12.69070000	-3.15575800
16.69999919	-0.15871060	13.06594000	-3.15575800
16.89999917	0.00000000	13.81028000	-3.15575800
17.09999916	0.00000000	14.18553000	-3.15575800
17.29999915	0.00000000	14.22859000	-3.15575800
17.49999914	0.00000000	14.22859000	-3.15575800
17.69999913	0.00000000	14.18553000	-3.15575800
17.89999911	0.00000000	13.81028000	-3.15575800
18.09999910	0.00000000	12.97982000	-3.15575800
18.29999909	0.00000000	11.81102000	-3.15575800
18.49999908	0.00000000	9.90403500	-3.15575800
18.69999907	0.00000000	8.41535400	-3.15575800
18.89999905	0.00000000	7.99704600	-3.15575800
19.09999904	0.00000000	8.41535400	-3.15575800
19.29999903	0.00000000	9.99630800	-3.15575800
19.49999902	0.00000000	12.73991000	-3.15575800
19.69999901	0.00000000	16.22785000	-3.15575800
19.89999900	0.00000000	20.08489000	-3.15575800
20.09999898	0.00000000	23.11762000	-3.15575800
20.29999897	0.00000000	24.27411000	-3.15575800
20.49999896	0.00000000	23.06841000	-3.15575800
20.69999895	0.00000000	19.48819000	-3.15575800
20.89999894	0.00000000	13.29970000	-3.15575800
21.09999892	0.00000000	5.57947800	-3.15575800
21.29999891	0.00000000	-1.35334600	-3.15575800
21.49999890	0.00000000	-6.37303100	-3.15575800
21.69999889	0.00000000	-7.77559000	-3.15575800
21.89999888	0.00000000	-4.23843500	-3.15575800
22.09999886	0.00000000	4.26919300	-3.15575800
22.29999885	0.00000000	15.90182000	-3.15575800
22.49999884	0.00000000	28.27879000	-3.15575800
22.69999883	0.00000000	39.02559000	-3.15575800
22.89999882	0.00000000	44.70964000	-3.11269700
23.09999881	0.00000000	43.12869000	-2.73745100
23.29999879	0.00000000	34.19045000	-1.99311000
23.49999878	0.00000000	19.44513000	-1.61786400
23.69999877	0.00000000	1.67322800	-1.53174200
23.89999876	0.00000000	-15.26206000	-1.19955700
24.09999875	0.00000000	-26.75320000	-0.87967510
24.29999873	0.00000000	-29.45374000	-1.62401600
24.49999872	0.00000000	-22.43479000	-2.78051200
24.69999871	0.00000000	-6.93897600	-3.99237200
24.89999870	0.00000000	14.32087000	-5.89320800
25.09999869	0.00000000	36.33120000	-7.38188900
25.29999867	0.00000000	54.06004000	-7.84940900
25.49999866	0.00000000	63.22588000	-7.80019600
25.69999865	0.00000000	60.48228000	-6.96358300
25.89999864	0.00000000	46.24139000	-4.60137700
26.09999863	0.00000000	24.23105000	-1.11343500
26.29999862	0.00000000	-0.51673230	3.11269700
26.49999860	0.00000000	-22.52707000	6.92052100
26.69999859	0.00000000	-36.80487000	8.82750900
26.89999858	0.00000000	-39.88066000	8.40920300
27.09999857	0.00000000	-30.99163000	5.25344500
27.29999856	0.00000000	-12.10015000	-0.55364170
27.49999854	0.00000000	12.18627000	-7.89247000
27.69999853	0.00000000	35.77140000	-15.23130000
27.89999852	0.00000000	53.59251000	-20.99532000
28.09999851	0.00000000	62.10630000	-23.60359000
28.29999850	0.00000000	59.45497000	-21.60433000
28.49999848	0.00000000	46.75196000	-14.63459000
28.69999847	0.00000000	27.44217000	-4.22613100
28.89999846	0.00000000	5.80708600	7.38188900
29.09999845	0.00000000	-13.17052000	17.79035000
29.29999844	0.00000000	-25.59670000	24.71703000
29.49999843	0.00000000	-29.49680000	26.15649000
29.69999841	0.00000000	-24.10187000	21.09375000
29.89999840	0.00000000	-11.07283000	9.85482200
30.09999839	0.00000000	5.94857300	-5.15501900
30.29999838	0.00000000	22.98228000	-20.62008000
30.49999837	0.00000000	36.98326000	-32.94168000
30.69999835	0.00000000	45.07874000	-39.48696000
30.89999834	0.00000000	45.95841000	-38.28125000
31.09999833	0.00000000	39.81914000	-29.40452000
31.29999832	0.00000000	29.02313000	-14.72687000
31.49999831	0.00000000	15.85261000	2.69439000
31.69999829	0.00000000	3.06348400	19.32825000
31.89999828	0.00000000	-6.66215500	32.01279000
32.09999827	0.00000000	-12.10015000	37.40157000
32.29999826	0.00000000	-12.10015000	33.96284000
32.49999825	0.00000000	-6.74827700	23.13607000
32.69999824	0.00000000	2.13459600	6.87746000
32.89999822	0.00000000	12.60458000	-11.61417000
33.09999821	0.00000000	22.65010000	-27.82972000
33.29999820	0.00000000	29.95817000	-38.33046000
33.49999819	0.00000000	32.74483000	-41.44316000
33.69999818	0.00000000	30.84399000	-36.79257000
33.89999816	0.00000000	25.43676000	-25.22145000
34.09999815	0.00000000	17.34744000	-9.38115100
34.29999814	0.00000000	8.87672100	7.25270600
34.49999813	0.00000000	2.26993100	21.55512000
34.69999812	0.00000000	-1.58710600	30.38878000
34.89999810	0.00000000	-1.58710600	31.59449000
35.09999809	0.00000000	2.22687000	25.09227000
35.29999808	0.00000000	8.32308000	13.14591000
35.49999807	0.00000000	14.88066000	-1.57480300
35.69999806	0.00000000	19.90650000	-16.21555000
35.89999805	0.00000000	22.65010000	-27.36835000
36.09999803	0.00000000	22.65010000	-32.01279000
36.29999802	0.00000000	19.95571000	-29.40452000
36.49999801	0.00000000	15.34203000	-20.95226000
36.69999800	0.00000000	9.95324800	-9.00590400
36.89999799	0.00000000	5.38877900	3.67249000
37.09999797	0.00000000	3.06348400	13.66265000
37.29999796	0.00000000	3.80782500	18.31324000
37.49999795	0.00000000	6.83439900	16.81841000
37.69999794	0.00000000	11.10974000	9.94094400
37.89999793	0.00000000	15.71727000	0.00000000
38.09999791	0.00000000	19.58046000	-9.99015700
38.29999790	0.00000000	21.53666000	-17.28592000
38.49999789	0.00000000	21.57972000	-19.98031000
38.69999788	0.00000000	19.99877000	-17.28592000
38.89999787	0.00000000	16.87992000	-10.03322000
39.09999786	0.00000000	12.64764000	-0.46136810
39.29999784	0.00000000	8.41535400	8.31692900
39.49999783	0.00000000	5.29650500	13.66265000
39.69999782	0.00000000	3.75861200	13.66265000
39.89999781	0.00000000	4.13385800	8.31692900
40.09999780	0.00000000	6.41609200	-0.51058070
40.29999778	0.00000000	9.52879000	-10.49459000
40.49999777	0.00000000	13.06594000	-18.86688000
40.69999776	0.00000000	16.92298000	-22.71777000
40.89999775	0.00000000	19.99877000	-20.81693000
41.09999774	0.00000000	21.57972000	-14.30241000
41.29999772	0.00000000	21.57972000	-4.69365100
41.49999771	0.00000000	19.99877000	5.25344500
41.69999770	0.00000000	16.92298000	12.63533000
41.89999769	0.00000000	13.06594000	16.08022000
42.09999768	0.00000000	9.57800100	14.91142000
42.29999767	0.00000000	6.83439900	8.78444900
42.49999765	0.00000000	5.29650500	0.04306102
42.69999764	0.00000000	5.25344500	-8.50147600
42.89999763	0.00000000	6.41609200	-15.05290000
43.09999762	0.00000000	8.32308000	-18.53469000
43.29999761	0.00000000	10.69144000	-17.79650000
43.49999759	0.00000000	13.02288000	-13.61343000
43.69999758	0.00000000	15.34203000	-7.47416300
43.89999757	0.00000000	16.83686000	-0.92888770
44.09999756	0.00000000	16.92298000	4.09079700
44.29999755	0.00000000	16.22785000	6.87746000
44.49999753	0.00000000	15.85261000	7.24655500
44.69999752	0.00000000	15.80955000	5.33956700
44.89999751	0.00000000	15.80955000	1.53174200
45.09999750	0.00000000	15.76649000	-2.69439000
45.29999749	0.00000000	15.29897000	-6.17618100
45.49999748	0.00000000	13.71801000	-8.54453700
45.69999746	0.00000000	11.02362000	-9.33809000
45.89999745	0.00000000	7.90477300	-8.96284400
46.09999744	0.00000000	4.83513700	-7.38188900
46.29999743	0.00000000	2.55290300	-4.73671200
46.49999742	0.00000000	2.22687000	-2.04232300
46.69999740	0.00000000	4.18307100	-0.09227362
46.89999739	0.00000000	8.45841400	1.11343500
47.09999738	0.00000000	14.27165000	1.48253000
47.29999737	0.00000000	20.46014000	1.06422200
47.49999736	0.00000000	25.81201000	-0.46751960
47.69999734	0.00000000	28.50640000	-2.78051200
47.89999733	0.00000000	27.72515000	-5.06274600
48.09999732	0.00000000	23.81275000	-7.01279500
48.29999731	0.00000000	16.79380000	-7.75713500
48.49999730	0.00000000	7.94783400	-7.38188900
48.69999729	0.00000000	-0.47367120	-5.85014700
48.89999727	0.00000000	-5.86860200	-3.48179100
49.09999726	0.00000000	-6.66215500	-0.78124990
49.29999725	0.00000000	-3.16806100	2.27608300
49.49999724	0.00000000	4.18307100	4.14000900
49.69999723	0.00000000	13.81028000	4.18307100
49.89999721	0.00000000	23.02534000	2.60211600
50.09999720	0.00000000	29.62598000	-0.46751960
50.29999719	0.00000000	31.90822000	-4.31840500
50.49999718	0.00000000	29.62598000	-7.80019600
50.69999717	0.00000000	23.06841000	-10.49459000
50.89999715	0.00000000	14.22859000	-11.65723000
51.09999714	0.00000000	5.33956700	-10.82677000
51.29999713	0.00000000	-1.58710600	-8.16929100
51.49999712	0.00000000	-4.66289300	-3.90625000
51.69999711	0.00000000	-3.12500000	0.28297240
51.89999710	0.00000000	2.60211600	3.80782500
52.09999708	0.00000000	10.64838000	5.71481200
52.29999707	0.00000000	18.37475000	5.71481200
52.49999706	0.00000000	24.18799000	3.76476400
52.69999705	0.00000000	26.83932000	-0.04306102
52.89999704	0.00000000	25.30143000	-4.26919300
53.09999702	0.00000000	19.95571000	-7.75713500
53.29999701	0.00000000	12.69070000	-10.07628000
53.49999700	0.00000000	5.76402500	-10.45152000
53.69999699	0.00000000	1.19955700	-8.96284400
53.89999698	0.00000000	0.31988190	-6.26845500
54.09999696	0.00000000	3.01427100	-3.19881900
54.29999695	0.00000000	7.62795300	-0.51058070
54.49999694	0.00000000	13.81028000	1.02116100
54.69999693	0.00000000	19.48819000	1.06422200
54.89999692	0.00000000	22.60704000	-0.09227362
55.09999691	0.00000000	22.65010000	-1.95004900
55.29999689	0.00000000	19.95571000	-3.85088600
55.49999688	0.00000000	15.34203000	-4.60137700
55.69999687	0.00000000	9.99630800	-4.26919300
55.89999686	0.00000000	5.76402500	-3.11269700
56.09999685	0.00000000	3.80782500	-1.57480300
56.29999683	0.00000000	4.18307100	-0.09227362
56.49999682	0.00000000	6.83439900	0.65206690
56.69999681	0.00000000	10.69144000	-0.13533460
56.89999680	0.00000000	14.56078000	-2.08538400
57.09999679	0.00000000	18.04257000	-5.15501900
57.29999677	0.00000000	19.90650000	-8.58759800
57.49999676	0.00000000	19.58046000	-10.82677000
57.69999675	0.00000000	17.29823000	-11.18971000
57.89999674	0.00000000	14.22859000	-8.82750900
58.09999673	0.00000000	11.15896000	-4.27534400
58.29999672	0.00000000	8.83366100	1.11343500
58.49999670	0.00000000	8.04010800	5.71481200
58.69999669	0.00000000	8.37229300	8.40920300
58.89999668	0.00000000	9.52879000	8.40920300
59.09999667	0.00000000	11.10974000	5.67175200
59.29999666	0.00000000	13.02288000	0.60285430
59.49999664	0.00000000	14.88066000	-6.26845500
59.69999663	0.00000000	15.29897000	-12.77067000
59.89999662	0.00000000	14.60384000	-16.63386000
60.09999661	0.00000000	13.81028000	-17.42126000
60.29999660	0.00000000	12.64764000	-14.67766000
60.49999658	0.00000000	11.53420000	-8.87057000
60.69999657	0.00000000	11.15896000	-1.20570900
60.89999656	0.00000000	11.48499000	6.45915300
61.09999655	0.00000000	12.27239000	11.47884000
61.29999654	0.00000000	13.06594000	13.05364000
61.49999653	0.00000000	14.18553000	11.06053000
61.69999651	0.00000000	14.92372000	5.29650500
61.89999650	0.00000000	14.51156000	-2.73745100
62.09999649	0.00000000	13.39198000	-10.45152000
62.29999648	0.00000000	11.48499000	-16.30167000
62.49999647	0.00000000	9.95324800	-19.32825000
62.69999645	0.00000000	9.11048200	-18.53469000
62.89999644	0.00000000	8.41535400	-13.56422000
63.09999643	0.00000000	8.83366100	-6.26845500
63.29999642	0.00000000	10.73450000	1.44562000
63.49999641	0.00000000	13.02288000	8.03395600
63.69999639	0.00000000	15.34203000	11.89715000
63.89999638	0.00000000	16.87992000	12.68455000
64.09999637	0.00000000	17.29823000	9.99015700
64.29999636	0.00000000	16.87992000	4.60137700
64.49999635	0.00000000	15.34203000	-1.95004900
64.69999634	0.00000000	13.02288000	-8.54453700
64.89999632	0.00000000	10.73450000	-13.52116000
65.09999631	0.00000000	8.79060000	-15.88336000
65.29999630	0.00000000	8.04010800	-15.14518000
65.49999629	0.00000000	8.41535400	-12.11860000
65.69999628	0.00000000	9.95324800	-7.84940900
65.89999626	0.00000000	12.22933000	-3.20497000
66.09999625	0.00000000	14.13632000	1.07037400
66.29999624	0.00000000	15.29897000	4.18307100
66.49999623	0.00000000	15.29897000	5.75787400
66.69999622	0.00000000	14.18553000	5.80093500
66.89999620	0.00000000	12.64764000	4.64443900
67.09999619	0.00000000	11.10974000	2.69439000
67.29999618	0.00000000	9.99630800	-0.04306102
67.49999617	0.00000000	9.99630800	-3.15575800
67.69999616	0.00000000	11.10974000	-6.26845500
67.89999615	0.00000000	12.69070000	-9.00590400
68.09999613	0.00000000	14.64690000	-10.96211000
68.29999612	0.00000000	16.87992000	-12.11860000
68.49999611	0.00000000	17.95029000	-12.03248000
68.69999610	0.00000000	16.83686000	-10.11934000
68.89999609	0.00000000	14.18553000	-6.64370100
69.09999607	0.00000000	11.02362000	-2.73745100
69.29999606	0.00000000	7.57258800	1.57480300
69.49999605	0.00000000	4.55831700	5.75787400
69.69999604	0.00000000	3.80782500	8.40920300
69.89999603	0.00000000	5.29650500	8.40920300
70.09999601	0.00000000	8.41535400	5.75787400
70.29999600	0.00000000	12.69070000	1.53174200
70.49999599	0.00000000	17.29823000	-3.15575800
70.69999598	0.00000000	21.16142000	-7.80019600
70.89999597	0.00000000	23.06841000	-11.65723000
71.09999596	0.00000000	22.65010000	-13.56422000
71.29999594	0.00000000	19.53125000	-13.18898000
71.49999593	0.00000000	14.18553000	-10.49459000
71.69999592	0.00000000	8.41535400	-6.26845500
71.89999591	0.00000000	3.71555100	-1.66707700
72.09999590	0.00000000	0.64591530	2.22687000
72.29999588	0.00000000	-0.09842519	4.55831700
72.49999587	0.00000000	2.17765700	5.33956700
72.69999586	0.00000000	6.41609200	4.18307100
72.89999585	0.00000000	11.48499000	1.53174200
73.09999584	0.00000000	16.87992000	-1.53174200
73.29999582	0.00000000	21.11220000	-4.26919300
73.49999581	0.00000000	23.06841000	-6.17618100
73.69999580	0.00000000	22.69316000	-6.96358300
73.89999579	0.00000000	19.99877000	-6.17618100
74.09999578	0.00000000	15.76649000	-4.36146600
74.29999577	0.00000000	11.10974000	-2.50369100
74.49999575	0.00000000	6.87746000	-2.08538400
74.69999574	0.00000000	4.18307100	-2.78051200
74.89999573	0.00000000	3.75861200	-3.57406500
75.09999572	0.00000000	5.25344500	-4.73671200
75.29999571	0.00000000	7.94783400	-5.80093500
75.49999569	0.00000000	11.02362000	-5.80093500
75.69999568	0.00000000	13.76107000	-4.64443900
75.89999567	0.00000000	15.67421000	-2.69439000
76.09999566	0.00000000	16.50467000	0.04306102
76.29999565	0.00000000	16.14173000	3.02042300
76.49999563	0.00000000	15.39124000	4.92125900
76.69999562	0.00000000	14.22859000	4.55831700
76.89999561	0.00000000	13.11516000	2.60211600
77.09999560	0.00000000	12.69070000	-0.92888770
77.29999559	0.00000000	12.64764000	-5.89320800
77.49999558	0.00000000	12.64764000	-10.45152000
77.69999556	0.00000000	12.60458000	-13.18898000
77.89999555	0.00000000	12.22933000	-13.56422000
78.09999554	0.00000000	11.44193000	-11.65723000
78.29999553	0.00000000	10.64838000	-7.75713500
78.49999552	0.00000000	9.52879000	-2.73745100
78.69999550	0.00000000	8.79060000	2.64517700
78.89999549	0.00000000	9.20275500	6.87746000
79.09999548	0.00000000	10.32234000	8.82750900
79.29999547	0.00000000	12.31545000	8.40920300
79.49999546	0.00000000	14.60384000	5.33956700
79.69999544	0.00000000	16.87992000	0.32603340
79.89999543	0.00000000	17.99951000	-5.06274600
80.09999542	0.00000000	17.25517000	-10.07628000
80.29999541	0.00000000	15.34203000	-13.18898000
80.49999540	0.00000000	12.64764000	-14.03174000
80.69999539	0.00000000	9.95324800	-13.23819000
80.89999537	0.00000000	7.99704600	-10.49459000
81.09999536	0.00000000	6.83439900	-6.31151500
81.29999535	0.00000000	6.83439900	-2.04232300
81.49999534	0.00000000	7.99704600	1.48868100
81.69999533	0.00000000	9.95324800	4.22613100
81.89999531	0.00000000	12.64764000	5.75787400
82.09999530	0.00000000	15.29897000	5.75787400
82.29999529	0.00000000	16.87992000	4.22613100
82.49999528	0.00000000	17.25517000	1.53174200
82.69999527	0.00000000	16.50467000	-1.58095500
82.89999525	0.00000000	14.60384000	-4.73671200
83.09999524	0.00000000	12.69070000	-7.84940900
83.29999523	0.00000000	11.06668000	-10.53765000
83.49999522	0.00000000	9.57800100	-12.07554000
83.69999521	0.00000000	8.83366100	-12.07554000
83.89999520	0.00000000	9.52879000	-10.49459000
84.09999518	0.00000000	10.59916000	-7.42495000
84.29999517	0.00000000	11.06668000	-3.53100400
84.49999516	0.00000000	11.48499000	0.33218500
84.69999515	0.00000000	12.22933000	3.85088600
84.89999514	0.00000000	12.60458000	6.13312000
85.09999512	0.00000000	12.64764000	6.87130900
85.29999511	0.00000000	12.64764000	5.29650500
85.49999510	0.00000000	12.69070000	1.48868100
85.69999509	0.00000000	13.06594000	-3.15575800
85.89999508	0.00000000	13.81028000	-7.80019600
86.09999506	0.00000000	14.13632000	-11.65723000
86.29999505	0.00000000	13.76107000	-13.56422000
86.49999504	0.00000000	12.60458000	-13.18898000
86.69999503	0.00000000	11.06668000	-10.49459000
86.89999502	0.00000000	9.52879000	-6.21924200
87.09999501	0.00000000	8.37229300	-1.19955700
87.29999499	0.00000000	7.99704600	3.76476400
87.49999498	0.00000000	8.37229300	6.82824800
87.69999497	0.00000000	9.57800100	7.24655500
87.89999496	0.00000000	11.44193000	5.33956700
88.09999495	0.00000000	13.39198000	1.43946800
88.29999493	0.00000000	14.56078000	-3.53100400
88.49999492	0.00000000	15.34203000	-8.54453700
88.69999491	0.00000000	15.29897000	-11.98942000
88.89999490	0.00000000	14.18553000	-13.14591000
89.09999489	0.00000000	12.64764000	-11.61417000
89.29999487	0.00000000	11.10974000	-7.75713500
89.49999486	0.00000000	9.90403500	-2.78051200
89.69999485	0.00000000	9.15354300	2.22687000
89.89999484	0.00000000	8.79060000	5.67175200
90.09999483	0.00000000	9.57800100	6.82824800
90.29999482	0.00000000	11.02362000	5.29650500
90.49999480	0.00000000	12.22933000	1.43946800
90.69999479	0.00000000	13.02288000	-3.53100400
90.89999478	0.00000000	13.81028000	-8.54453700
91.09999477	0.00000000	14.13632000	-11.94021000
91.29999476	0.00000000	13.81028000	-12.77067000
91.49999474	0.00000000	13.06594000	-10.82677000
91.69999473	0.00000000	12.69070000	-7.00664300
91.89999472	0.00000000	12.64764000	-1.99311000
92.09999471	0.00000000	12.64764000	2.55905500
92.29999470	0.00000000	12.64764000	5.29650500
92.49999468	0.00000000	12.60458000	5.67175200
92.69999467	0.00000000	12.22933000	3.76476400
92.89999466	0.00000000	11.44193000	-0.09227362
93.09999465	0.00000000	10.69144000	-4.69365100
93.29999464	0.00000000	9.90403500	-8.91978400
93.49999463	0.00000000	9.52879000	-11.56496000
93.69999461	0.00000000	9.52879000	-11.61417000
93.89999460	0.00000000	9.95324800	-9.29502900
94.09999459	0.00000000	11.15896000	-5.47490100
94.29999458	0.00000000	13.06594000	-0.87967510
94.49999457	0.00000000	15.34203000	2.55905500
94.69999455	0.00000000	16.87992000	4.14000900
94.89999454	0.00000000	17.29823000	3.71555100
95.09999453	0.00000000	16.87992000	1.07037400
95.29999452	0.00000000	15.29897000	-2.73745100
95.49999451	0.00000000	12.60458000	-6.22539300
95.69999449	0.00000000	9.52879000	-8.91978400
95.89999448	0.00000000	6.83439900	-10.03322000
96.09999447	0.00000000	5.29650500	-8.91978400
96.29999446	0.00000000	5.25344500	-6.26845500
96.49999445	0.00000000	6.45915300	-3.19881900
96.69999444	0.00000000	8.83366100	-0.46751960
96.89999442	0.00000000	12.64764000	1.43946800
97.09999441	0.00000000	16.50467000	2.18380900
97.29999440	0.00000000	19.21137000	1.07037400
97.49999439	0.00000000	20.78617000	-1.20570900
97.69999438	0.00000000	20.32480000	-3.48179100
97.89999436	0.00000000	18.08563000	-5.43184000
98.09999435	0.00000000	14.56078000	-6.21924200
98.29999434	0.00000000	10.69144000	-6.26845500
98.49999433	0.00000000	6.83439900	-5.85014700
98.69999432	0.00000000	4.13385800	-4.68750000
98.89999430	0.00000000	3.34030500	-3.19881900
99.09999429	0.00000000	4.13385800	-2.04232300
99.29999428	0.00000000	6.83439900	-1.61786400
99.49999427	0.00000000	10.64838000	-1.57480300
99.69999426	0.00000000	14.18553000	-1.57480300
99.89999425	0.00000000	17.29823000	-1.57480300
100.09999423	0.00000000	19.58046000	-1.57480300
100.29999422	0.00000000	19.95571000	-1.53174200
100.49999421	0.00000000	18.46087000	-1.15649600
100.69999420	0.00000000	15.76649000	-0.46136810
100.89999419	0.00000000	12.64764000	-0.51058070
101.09999417	0.00000000	9.57800100	-1.66707700
101.29999416	0.00000000	7.20964500	-3.53100400
101.49999415	0.00000000	6.04084600	-5.47490100
101.69999414	0.00000000	5.62869100	-6.64370100
101.89999413	0.00000000	6.45915300	-7.42495000
102.09999411	0.00000000	8.32308000	-7.33882900
102.29999410	0.00000000	10.69144000	-5.80093500
102.49999409	0.00000000	13.02288000	-3.15575800
102.69999408	0.00000000	15.34203000	-0.46751960
102.89999407	0.00000000	16.83686000	1.48868100
103.09999406	0.00000000	16.87992000	2.64517700
103.29999404	0.00000000	15.76649000	2.60211600
103.49999403	0.00000000	14.22859000	1.07037400
103.69999402	0.00000000	12.60458000	-1.62401600
103.89999401	0.00000000	10.69144000	-4.68750000
104.09999400	0.00000000	8.79060000	-7.38188900
104.29999398	0.00000000	7.99704600	-8.91978400
104.49999397	0.00000000	7.99704600	-8.91978400
104.69999396	0.00000000	8.79060000	-7.38188900
104.89999395	0.00000000	10.69144000	-4.73671200
105.09999394	0.00000000	12.55536000	-2.04232300
105.29999392	0.00000000	13.76107000	-0.04306102
105.49999391	0.00000000	14.18553000	1.48868100
105.69999390	0.00000000	14.18553000	2.18380900
105.89999389	0.00000000	13.76107000	1.07037400
106.09999388	0.00000000	12.64764000	-1.20570900
106.29999387	0.00000000	11.48499000	-3.53100400
106.49999385	0.00000000	10.69144000	-5.80093500
106.69999384	0.00000000	9.95324800	-6.96358300
106.89999383	0.00000000	9.99630800	-6.59448800
107.09999382	0.00000000	11.06668000	-5.47490100
107.29999381	0.00000000	12.18012000	-3.53100400
107.49999379	0.00000000	12.64764000	-1.66707700
107.69999378	0.00000000	13.02288000	-0.46136810
107.89999377	0.00000000	13.34276000	-0.09227362
108.09999376	0.00000000	12.60458000	-0.46136810
108.29999375	0.00000000	11.48499000	-1.66707700
108.49999374	0.00000000	10.69144000	-3.53100400
108.69999372	0.00000000	9.90403500	-5.43184000
108.89999371	0.00000000	9.52879000	-6.17618100
109.09999370	0.00000000	9.52879000	-5.85014700
109.29999369	0.00000000	9.95324800	-4.68750000
109.49999368	0.00000000	11.10974000	-3.15575800
109.69999366	0.00000000	12.60458000	-1.57480300
109.89999365	0.00000000	13.76107000	-0.09227362
110.09999364	0.00000000	14.18553000	0.69512790
110.29999363	0.00000000	14.18553000	0.32603340
110.49999362	0.00000000	13.76107000	-0.46136810
110.69999360	0.00000000	12.60458000	-2.04232300
110.89999359	0.00000000	11.10974000	-4.26919300
111.09999358	0.00000000	9.95324800	-5.80093500
111.29999357	0.00000000	9.52879000	-6.26845500
111.49999356	0.00000000	9.52879000	-6.26845500
111.69999355	0.00000000	9.90403500	-5.85014700
111.89999353	0.00000000	10.69144000	-4.73671200
112.09999352	0.00000000	11.44193000	-3.57406500
112.29999351	0.00000000	12.22933000	-2.78051200
112.49999350	0.00000000	12.60458000	-1.99311000
112.69999349	0.00000000	12.60458000	-1.61786400
112.89999347	0.00000000	12.22933000	-1.61786400
113.09999346	0.00000000	11.48499000	-1.99311000
113.29999345	0.00000000	11.10974000	-2.73745100
113.49999344	0.00000000	11.06668000	-3.11269700
113.69999343	0.00000000	11.06668000	-3.15575800
113.89999341	0.00000000	11.06668000	-3.19881900
114.09999340	0.00000000	11.06668000	-3.57406500
114.29999339	0.00000000	11.06668000	-4.31840500
114.49999338	0.00000000	11.06668000	-4.69365100
114.69999337	0.00000000	11.10974000	-4.73671200
114.89999336	0.00000000	11.48499000	-4.73671200
115.09999334	0.00000000	12.22933000	-4.73671200
115.29999333	0.00000000	12.60458000	-4.69365100
115.49999332	0.00000000	12.60458000	-4.31840500
115.69999331	0.00000000	12.22933000	-3.57406500
115.89999330	0.00000000	11.48499000	-3.15575800
116.09999328	0.00000000	11.10974000	-2.73745100
116.29999327	0.00000000	11.06668000	-1.99311000
116.49999326	0.00000000	11.06668000	-1.61786400
116.69999325	0.00000000	11.06668000	-1.57480300
116.89999324	0.00000000	11.06668000	-1.61786400
117.09999322	0.00000000	11.10974000	-1.99311000
117.29999321	0.00000000	11.48499000	-2.78051200
117.49999320	0.00000000	12.27239000	-3.53100400
117.69999319	0.00000000	13.02288000	-4.31840500
117.89999318	0.00000000	13.76107000	-4.69365100
118.09999317	0.00000000	13.76107000	-4.73671200
118.29999315	0.00000000	13.02288000	-4.69365100
118.49999314	0.00000000	12.27239000	-4.31840500
118.69999313	0.00000000	11.44193000	-3.53100400
118.89999312	0.00000000	10.69144000	-2.78051200
119.09999311	0.00000000	9.90403500	-1.99311000
119.29999309	0.00000000	9.52879000	-1.61786400
119.49999308	0.00000000	9.48572700	-1.57480300
119.69999307	0.00000000	9.52879000	-1.57480300
119.89999306	0.00000000	9.95324800	-1.61786400
120.09999305	0.00000000	11.10974000	-1.99311000
120.29999303	0.00000000	12.64764000	-2.73745100
120.49999302	0.00000000	14.13632000	-3.11269700
120.69999301	0.00000000	14.92372000	-3.19881900
120.89999300	0.00000000	14.56078000	-3.57406500
121.09999299	0.00000000	13.85334000	-4.31840500
121.29999298	0.00000000	13.02288000	-4.69365100
121.49999296	0.00000000	12.22933000	-4.73671200
121.69999295	0.00000000	11.06668000	-4.69365100
121.89999294	0.00000000	9.90403500	-4.31840500
122.09999293	0.00000000	9.15354300	-3.53100400
122.29999292	0.00000000	8.74138700	-2.82357300
122.49999290	0.00000000	9.15354300	-2.36835600
122.69999289	0.00000000	9.90403500	-2.36220500
122.89999288	0.00000000	11.06668000	-1.95004900
123.09999287	0.00000000	12.22933000	-1.61786400
123.29999286	0.00000000	13.02288000	-1.61786400
123.49999284	0.00000000	13.81028000	-1.99311000
123.69999283	0.00000000	14.13632000	-2.78051200
123.89999282	0.00000000	13.81028000	-3.53100400
124.09999281	0.00000000	13.02288000	-4.31840500
124.29999280	0.00000000	12.27239000	-4.69365100
124.49999279	0.00000000	11.44193000	-4.73671200
124.69999277	0.00000000	10.69144000	-4.69365100
124.89999276	0.00000000	9.90403500	-4.31840500
125.09999275	0.00000000	9.52879000	-3.57406500
125.29999274	0.00000000	9.52879000	-3.15575800
125.49999273	0.00000000	9.90403500	-2.73745100
125.69999271	0.00000000	10.69144000	-1.99311000
125.89999270	0.00000000	11.44193000	-1.61786400
126.09999269	0.00000000	12.27239000	-1.57480300
126.29999268	0.00000000	13.02288000	-1.61786400
126.49999267	0.00000000	13.81028000	-1.99311000
126.69999265	0.00000000	14.13632000	-2.73745100
126.89999264	0.00000000	13.76107000	-3.11269700
127.09999263	0.00000000	12.64764000	-3.15575800
127.29999262	0.00000000	11.48499000	-3.19881900
127.49999261	0.00000000	10.64838000	-3.57406500
127.69999260	0.00000000	9.52879000	-4.26919300
127.89999258	0.00000000	8.79060000	-4.26919300
128.09999257	0.00000000	9.15354300	-3.57406500
128.29999256	0.00000000	9.90403500	-3.15575800
128.49999255	0.00000000	11.06668000	-2.73745100
128.69999254	0.00000000	12.22933000	-2.04232300
128.89999252	0.00000000	13.02288000	-2.04232300
129.09999251	0.00000000	13.81028000	-2.73745100
129.29999250	0.00000000	14.13632000	-3.11269700
129.49999249	0.00000000	13.76107000	-3.19881900
129.69999248	0.00000000	12.64764000	-3.57406500
129.89999246	0.00000000	11.48499000	-4.26919300
130.09999245	0.00000000	10.69144000	-4.26919300
130.29999244	0.00000000	9.90403500	-3.57406500
130.49999243	0.00000000	9.57800100	-3.19881900
130.69999242	0.00000000	9.90403500	-3.15575800
130.89999241	0.00000000	10.69144000	-3.11269700
131.09999239	0.00000000	11.44193000	-2.78051200
131.29999238	0.00000000	12.22933000	-2.41141700
131.49999237	0.00000000	12.60458000	-2.78051200
131.69999236	0.00000000	12.64764000	-3.15575800
131.89999235	0.00000000	12.60458000	-3.57406500
132.09999233	0.00000000	12.22933000	-4.31840500
132.29999232	0.00000000	11.44193000	-4.69365100
132.49999231	0.00000000	10.69144000	-4.73671200
132.69999230	0.00000000	9.95324800	-4.69365100
132.89999229	0.00000000	9.95324800	-4.31840500
133.09999227	0.00000000	10.64838000	-3.53100400
133.29999226	0.00000000	11.02362000	-2.78051200
133.49999225	0.00000000	11.06668000	-1.99311000
133.69999224	0.00000000	11.06668000	-1.61786400
133.89999223	0.00000000	11.06668000	-1.61786400
134.09999222	0.00000000	11.06668000	-1.99311000
134.29999220	0.00000000	11.06668000	-2.78051200
134.49999219	0.00000000	11.06668000	-3.53100400
134.69999218	0.00000000	11.10974000	-4.31840500
134.89999217	0.00000000	11.48499000	-4.69365100
135.09999216	0.00000000	12.22933000	-4.73671200
135.29999214	0.00000000	12.60458000	-4.73671200
135.49999213	0.00000000	12.64764000	-4.69365100
135.69999212	0.00000000	12.60458000	-4.31840500
135.89999211	0.00000000	12.22933000	-3.53100400
136.09999210	0.00000000	11.44193000	-2.73745100
136.29999208	0.00000000	10.73450000	-1.62401600
136.49999207	0.00000000	10.27928000	-0.87967510
136.69999206	0.00000000	10.31619000	-1.19955700
136.89999205	0.00000000	10.27928000	-1.57480300
137.09999204	0.00000000	10.73450000	-1.99311000
137.29999203	0.00000000	11.44193000	-2.78051200
137.49999201	0.00000000	12.22933000	-3.53100400
137.69999200	0.00000000	12.60458000	-4.31840500
137.89999199	0.00000000	12.64764000	-4.69365100
138.09999198	0.00000000	12.64764000	-4.73671200
138.29999197	0.00000000	12.60458000	-4.73671200
138.49999195	0.00000000	12.22933000	-4.69365100
138.69999194	0.00000000	11.44193000	-4.31840500
138.89999193	0.00000000	10.69144000	-3.53100400
139.09999192	0.00000000	9.90403500	-2.78051200
139.29999191	0.00000000	9.57800100	-1.99311000
139.49999189	0.00000000	9.90403500	-1.61786400
139.69999188	0.00000000	10.64838000	-1.57480300
139.89999187	0.00000000	11.06668000	-1.61786400
140.09999186	0.00000000	11.48499000	-1.99311000
140.29999185	0.00000000	12.22933000	-2.78051200
140.49999184	0.00000000	12.55536000	-3.53100400
140.69999182	0.00000000	12.22933000	-4.31840500
140.89999181	0.00000000	11.48499000	-4.69365100
141.09999180	0.00000000	11.10974000	-4.73671200
141.29999179	0.00000000	11.06668000	-4.69365100
141.49999178	0.00000000	11.06668000	-4.26919300
141.69999176	0.00000000	11.06668000	-3.15575800
141.89999175	0.00000000	11.06668000	-2.04232300
142.09999174	0.00000000	11.06668000	-1.61786400
142.29999173	0.00000000	11.10974000	-1.57480300
142.49999172	0.00000000	11.48499000	-1.57480300
142.69999170	0.00000000	12.18012000	-1.61786400
142.89999169	0.00000000	12.18012000	-2.04232300
143.09999168	0.00000000	11.48499000	-3.15575800
143.29999167	0.00000000	11.10974000	-4.26919300
143.49999166	0.00000000	11.06668000	-4.69365100
143.69999165	0.00000000	11.06668000	-4.73671200
143.89999163	0.00000000	11.06668000	-4.73671200
144.09999162	0.00000000	11.06668000	-4.69365100
144.29999161	0.00000000	11.06668000	-4.31840500
144.49999160	0.00000000	11.10974000	-3.53100400
144.69999159	0.00000000	11.48499000	-2.78051200
144.89999157	0.00000000	12.22933000	-1.99311000
145.09999156	0.00000000	12.55536000	-1.61786400
145.29999155	0.00000000	12.22933000	-1.61786400
145.49999154	0.00000000	11.48499000	-1.99311000
145.69999153	0.00000000	11.10974000	-2.73745100
145.89999151	0.00000000	11.06668000	-3.15575800
146.09999150	0.00000000	11.06668000	-3.57406500
146.29999149	0.00000000	11.06668000	-4.31840500
146.49999148	0.00000000	11.06668000	-4.69365100
146.69999147	0.00000000	11.10974000	-4.69365100
146.89999146	0.00000000	11.48499000	-4.31840500
147.09999144	0.00000000	12.22933000	-3.57406500
147.29999143	0.00000000	12.55536000	-3.19881900
147.49999142	0.00000000	12.22933000	-3.15575800
147.69999141	0.00000000	11.48499000	-3.15575800
147.89999140	0.00000000	11.10974000	-3.15575800
148.09999138	0.00000000	11.06668000	-3.15575800
148.29999137	0.00000000	11.06668000	-3.15575800
148.49999136	0.00000000	11.06668000	-3.19881900
148.69999135	0.00000000	11.06668000	-3.53100400
148.89999134	0.00000000	11.06668000	-3.90009800
149.09999132	0.00000000	11.06668000	-3.57406500
149.29999131	0.00000000	11.06668000	-3.57406500
149.49999130	0.00000000	11.10974000	-3.90009800
149.69999129	0.00000000	11.44193000	-3.53100400
149.89999128	0.00000000	11.81102000	-3.19881900
150.09999127	0.00000000	11.44193000	-3.15575800
150.29999125	0.00000000	11.10974000	-3.15575800
150.49999124	0.00000000	11.06668000	-3.15575800
150.69999123	0.00000000	11.06668000	-3.15575800
150.89999122	0.00000000	11.02362000	-3.15575800
151.09999121	0.00000000	10.69144000	-3.15575800
151.29999119	0.00000000	10.32234000	-3.15575800
151.49999118	0.00000000	10.69144000	-3.15575800
151.69999117	0.00000000	11.02362000	-3.15575800
151.89999116	0.00000000	11.06668000	-3.15575800
152.09999115	0.00000000	11.06668000	-3.19881900
152.29999113	0.00000000	11.10974000	-3.53100400
152.49999112	0.00000000	11.48499000	-3.90009800
152.69999111	0.00000000	12.22933000	-3.53100400
152.89999110	0.00000000	12.60458000	-3.19881900
153.09999109	0.00000000	12.64764000	-3.15575800
153.29999108	0.00000000	12.60458000	-3.15575800
153.49999106	0.00000000	12.22933000	-3.11269700
153.69999105	0.00000000	11.48499000	-2.78051200
153.89999104	0.00000000	11.06668000	-2.41141700
154.09999103	0.00000000	10.64838000	-2.78051200
154.29999102	0.00000000	9.90403500	-3.11269700
154.49999100	0.00000000	9.52879000	-3.15575800
154.69999099	0.00000000	9.52879000	-3.15575800
154.89999098	0.00000000	9.90403500	-3.15575800
155.09999097	0.00000000	10.69144000	-3.15575800
155.29999096	0.00000000	11.44193000	-3.15575800
155.49999094	0.00000000	12.22933000	-3.19881900
155.69999093	0.00000000	12.60458000	-3.53100400
155.89999092	0.00000000	12.60458000	-3.90009800
156.09999091	0.00000000	12.22933000	-3.53100400
156.29999090	0.00000000	11.48499000	-3.19881900
156.49999089	0.00000000	11.10974000	-3.15575800
156.69999087	0.00000000	11.02362000	-3.15575800
156.89999086	0.00000000	10.64838000	-3.11269700
157.09999085	0.00000000	9.90403500	-2.78051200
157.29999084	0.00000000	9.57800100	-2.41141700
157.49999083	0.00000000	9.90403500	-2.78051200
157.69999081	0.00000000	10.64838000	-3.11269700
157.89999080	0.00000000	11.02362000	-3.15575800
158.09999079	0.00000000	11.06668000	-3.19881900
158.29999078	0.00000000	11.06668000	-3.57406500
158.49999077	0.00000000	11.10974000	-4.26919300
158.69999075	0.00000000	11.44193000	-4.31840500
158.89999074	0.00000000	11.85408000	-3.94931100
159.09999073	0.00000000	11.81717000	-3.94315900
159.29999072	0.00000000	11.85408000	-3.53100400
159.49999071	0.00000000	11.44193000	-3.19881900
159.69999070	0.00000000	11.10974000	-3.11269700
159.89999068	0.00000000	11.06668000	-2.73745100
160.09999067	0.00000000	11.06668000	-2.04232300
160.29999066	0.00000000	11.06668000	-2.04232300
160.49999065	0.00000000	11.06668000	-2.73745100
160.69999064	0.00000000	11.06668000	-3.15575800
160.89999062	0.00000000	11.06668000	-3.57406500
161.09999061	0.00000000	11.06668000	-4.31840500
161.29999060	0.00000000	11.06668000	-4.69365100
161.49999059	0.00000000	11.06668000	-4.69365100
161.69999058	0.00000000	11.10974000	-4.31840500
161.89999056	0.00000000	11.48499000	-3.57406500
162.09999055	0.00000000	12.18012000	-3.19881900
162.29999054	0.00000000	12.18012000	-3.15575800
162.49999053	0.00000000	11.48499000	-3.15575800
162.69999052	0.00000000	11.10974000	-3.15575800
162.89999051	0.00000000	11.06668000	-3.15575800
163.09999049	0.00000000	11.02362000	-3.15575800
163.29999048	0.00000000	10.69144000	-3.15575800
163.49999047	0.00000000	10.27928000	-3.15575800
163.69999046	0.00000000	10.27313000	-3.15575800
163.89999045	0.00000000	9.90403500	-3.15575800
164.09999043	0.00000000	9.95324800	-3.19881900
164.29999042	0.00000000	10.64838000	-3.53100400
164.49999041	0.00000000	11.02362000	-3.94315900
164.69999040	0.00000000	11.06668000	-3.90625000
164.89999039	0.00000000	11.10974000	-3.94315900
165.09999037	0.00000000	11.48499000	-3.53100400
165.29999036	0.00000000	12.18012000	-3.19881900
165.49999035	0.00000000	12.18012000	-3.15575800
165.69999034	0.00000000	11.48499000	-3.15575800
165.89999033	0.00000000	11.10974000	-3.15575800
166.09999032	0.00000000	11.02362000	-3.15575800
166.29999030	0.00000000	10.64838000	-3.15575800
166.49999029	0.00000000	9.95324800	-3.15575800
166.69999028	0.00000000	9.95324800	-3.15575800
166.89999027	0.00000000	10.64838000	-3.15575800
167.09999026	0.00000000	11.02362000	-3.15575800
167.29999024	0.00000000	11.06668000	-3.15575800
167.49999023	0.00000000	11.06668000	-3.15575800
167.69999022	0.00000000	11.06668000	-3.15575800
167.89999021	0.00000000	11.06668000	-3.15575800
168.09999020	0.00000000	11.10974000	-3.15575800
168.29999018	0.00000000	11.44193000	-3.15575800
168.49999017	0.00000000	11.81102000	-3.15575800
168.69999016	0.00000000	11.44193000	-3.15575800
168.89999015	0.00000000	11.10974000	-3.19881900
169.09999014	0.00000000	11.06668000	-3.53100400
169.29999013	0.00000000	11.06668000	-3.90009800
169.49999011	0.00000000	11.06668000	-3.53100400
169.69999010	0.00000000	11.06668000	-3.19881900
169.89999009	0.00000000	11.06668000	-3.15575800
170.09999008	0.00000000	11.06668000	-3.15575800
170.29999007	0.00000000	11.06668000	-3.15575800
170.49999005	0.00000000	11.06668000	-3.15575800
170.69999004	0.00000000	11.06668000	-3.15575800
170.89999003	0.00000000	11.06668000	-3.15575800
171.09999002	0.00000000	11.06668000	-3.15575800
171.29999001	0.00000000	11.06668000	-3.15575800
171.49998999	0.00000000	11.06668000	-3.15575800
171.69998998	0.00000000	11.06668000	-3.15575800
171.89998997	0.00000000	11.06668000	-3.15575800
172.09998996	0.00000000	11.06668000	-3.15575800
172.29998995	0.00000000	11.06668000	-3.15575800
172.49998994	0.00000000	11.06668000	-3.19881900
172.69998992	0.00000000	11.06668000	-3.53100400
172.89998991	0.00000000	11.06668000	-3.90009800
173.09998990	0.00000000	11.06668000	-3.53100400
173.29998989	0.00000000	11.06668000	-3.19881900
173.49998988	0.00000000	11.06668000	-3.15575800
173.69998986	0.00000000	11.06668000	-3.15575800
173.89998985	0.00000000	11.06668000	-3.15575800
174.09998984	0.00000000	11.06668000	-3.15575800
174.29998983	0.00000000	11.06668000	-3.15575800
174.49998982	0.00000000	11.06668000	-3.15575800
174.69998980	0.00000000	11.06668000	-3.15575800
174.89998979	0.00000000	11.06668000	-3.15575800
175.09998978	0.00000000	11.06668000	-3.15575800
175.29998977	0.00000000	11.06668000	-3.15575800
175.49998976	0.00000000	11.06668000	-3.15575800
175.69998975	0.00000000	11.06668000	-3.15575800
175.89998973	0.00000000	11.06668000	-3.15575800
176.09998972	0.00000000	11.06668000	-3.15575800
176.29998971	0.00000000	11.06668000	-3.15575800
176.49998970	0.00000000	11.06668000	-3.15575800
176.69998969	0.00000000	11.06668000	-3.15575800
176.89998967	0.00000000	11.06668000	-3.15575800
177.09998966	0.00000000	11.06668000	-3.15575800
177.29998965	0.00000000	11.06668000	-3.15575800
177.49998964	0.00000000	11.06668000	-3.15575800
177.69998963	0.00000000	11.06668000	-3.15575800
177.89998961	0.00000000	11.06668000	-3.15575800
178.09998960	0.00000000	11.06668000	-3.15575800
178.29998959	0.00000000	11.06668000	-3.15575800
178.49998958	0.00000000	11.06668000	-3.15575800
178.69998957	0.00000000	11.06668000	-3.15575800
178.89998956	0.00000000	11.06668000	-3.15575800
179.09998954	0.00000000	11.06668000	-3.15575800
179.29998953	0.00000000	11.06668000	-3.15575800
179.49998952	0.00000000	11.06668000	-3.15575800
179.69998951	0.00000000	11.06668000	-3.15575800
179.89998950	0.00000000	11.06668000	-3.19881900
180.09998948	0.00000000	11.06668000	-3.53100400
180.29998947	0.00000000	11.06668000	-3.90009800
180.49998946	0.00000000	11.02362000	-3.53100400
180.69998945	0.00000000	10.69144000	-3.19881900
180.89998944	0.00000000	10.32234000	-3.15575800
181.09998942	0.00000000	10.69144000	-3.15575800
181.29998941	0.00000000	11.02362000	-3.15575800
181.49998940	0.00000000	11.06668000	-3.11269700
181.69998939	0.00000000	11.06668000	-2.78051200
181.89998938	0.00000000	11.06668000	-2.41141700
182.09998937	0.00000000	11.06668000	-2.78051200
182.29998935	0.00000000	11.06668000	-3.11269700
182.49998934	0.00000000	11.06668000	-3.15575800
182.69998933	0.00000000	11.06668000	-3.15575800
182.89998932	0.00000000	11.06668000	-3.15575800
183.09998931	0.00000000	11.06668000	-3.19881900
183.29998929	0.00000000	11.06668000	-3.57406500
183.49998928	0.00000000	11.06668000	-4.31840500
183.69998927	0.00000000	11.06668000	-4.64443900
183.89998926	0.00000000	11.06668000	-4.31840500
184.09998925	0.00000000	11.06668000	-3.57406500
184.29998923	0.00000000	11.06668000	-3.19881900
184.49998922	0.00000000	11.06668000	-3.15575800
184.69998921	0.00000000	11.06668000	-3.11269700
184.89998920	0.00000000	11.06668000	-2.78051200
185.09998919	0.00000000	11.06668000	-2.41141700
185.29998918	0.00000000	11.06668000	-2.78051200
185.49998916	0.00000000	11.06668000	-3.11269700
185.69998915	0.00000000	11.06668000	-3.19881900
185.89998914	0.00000000	11.06668000	-3.57406500
186.09998913	0.00000000	11.06668000	-4.31840500
186.29998912	0.00000000	11.06668000	-4.69365100
186.49998910	0.00000000	11.06668000	-4.73671200
186.69998909	0.00000000	11.06668000	-4.69365100
186.89998908	0.00000000	11.06668000	-4.31840500
187.09998907	0.00000000	11.06668000	-3.57406500
187.29998906	0.00000000	11.06668000	-3.19881900
187.49998904	0.00000000	11.06668000	-3.15575800
187.69998903	0.00000000	11.06668000	-3.11269700
187.89998902	0.00000000	11.06668000	-2.78051200
188.09998901	0.00000000	11.06668000	-2.41141700
188.29998900	0.00000000	11.06668000	-2.78051200
188.49998899	0.00000000	11.06668000	-3.11269700
188.69998897	0.00000000	11.06668000	-3.19881900
188.89998896	0.00000000	11.06668000	-3.53100400
189.09998895	0.00000000	11.06668000	-3.94315900
189.29998894	0.00000000	11.06668000	-3.94931100
189.49998893	0.00000000	11.06668000	-4.31840500
189.69998891	0.00000000	11.06668000	-4.26919300
189.89998890	0.00000000	11.06668000	-3.57406500
190.09998889	0.00000000	11.06668000	-3.19881900
190.29998888	0.00000000	11.02362000	-3.15575800
190.49998887	0.00000000	10.64838000	-3.15575800
190.69998885	0.00000000	9.95324800	-3.15575800
190.89998884	0.00000000	9.95324800	-3.15575800
191.09998883	0.00000000	10.64838000	-3.15575800
191.29998882	0.00000000	11.02362000	-3.15575800
191.49998881	0.00000000	11.06668000	-3.15575800
191.69998880	0.00000000	11.06668000	-3.15575800
191.89998878	0.00000000	11.06668000	-3.15575800
192.09998877	0.00000000	11.06668000	-3.19881900
192.29998876	0.00000000	11.06668000	-3.57406500
192.49998875	0.00000000	11.06668000	-4.31840500
192.69998874	0.00000000	11.06668000	-4.69365100
192.89998872	0.00000000	11.06668000	-4.69365100
193.09998871	0.00000000	11.06668000	-4.31840500
193.29998870	0.00000000	11.06668000	-3.57406500
193.49998869	0.00000000	11.06668000	-3.19881900
193.69998868	0.00000000	11.06668000	-3.15575800
193.89998866	0.00000000	11.06668000	-3.15575800
194.09998865	0.00000000	11.06668000	-3.15575800
194.29998864	0.00000000	11.06668000	-3.15575800
194.49998863	0.00000000	11.06668000	-3.15575800
194.69998862	0.00000000	11.06668000	-3.15575800
194.89998861	0.00000000	11.06668000	-3.15575800
195.09998859	0.00000000	11.06668000	-3.15575800
195.29998858	0.00000000	11.06668000	-3.15575800
195.49998857	0.00000000	11.06668000	-3.15575800
195.69998856	0.00000000	11.02362000	-3.15575800
195.89998855	0.00000000	10.64838000	-3.15575800
196.09998853	0.00000000	9.95324800	-3.15575800
