Time	Channel A	Channel B	Channel C
(us)	(V)	(mV)	(mV)

-4.49999956	0.00000000	-26.87623000	-7.89247000
-4.29999957	0.00000000	-26.87623000	-7.89247000
-4.09999958	0.00000000	-26.87623000	-7.84940900
-3.89999959	0.00000000	-26.87623000	-7.47416300
-3.69999960	0.00000000	-26.87623000	-6.77903500
-3.49999962	0.00000000	-26.87623000	-6.77903500
-3.29999963	0.00000000	-26.87623000	-7.42495000
-3.09999964	0.00000000	-26.87623000	-7.47416300
-2.89999965	0.00000000	-26.87623000	-7.10506800
-2.69999966	0.00000000	-26.87623000	-7.09891700
-2.49999968	0.00000000	-26.87623000	-6.72982200
-2.29999969	0.00000000	-26.87623000	-6.72982200
-2.09999970	0.00000000	-26.87623000	-7.05585600
-1.89999971	0.00000000	-26.87623000	-6.68676100
-1.69999972	0.00000000	-26.87623000	-6.35457700
-1.49999973	0.00000000	-26.87623000	-6.35457700
-1.29999975	0.00000000	-26.87623000	-6.68676100
-1.09999976	0.00000000	-26.87623000	-7.05585600
-0.89999977	0.00000000	-26.87623000	-6.72982200
-0.69999978	0.00000000	-26.87623000	-6.77903500
-0.49999979	0.00000000	-26.87623000	-7.47416300
-0.29999981	0.15871060	-26.87623000	-7.84940900
-0.09999982	0.63668800	-26.87623000	-7.89247000
0.10000017	0.95533960	-26.87623000	-7.84940900
0.30000016	0.95533960	-26.87623000	-7.51722400
0.50000015	0.79601380	-26.87623000	-7.14812900
0.70000013	0.31803640	-26.87623000	-7.47416300
0.90000012	-0.31803640	-26.87623000	-7.42495000
1.10000011	-1.43331700	-26.87623000	-6.72982200
1.30000010	-2.22994600	-26.87623000	-6.35457700
1.50000009	-2.70792300	-26.87623000	-6.31151500
1.70000008	-2.54859700	-26.87623000	-6.31151500
1.90000006	-1.43331700	-26.83317000	-6.31151500
2.10000005	0.31803640	-26.50098000	-6.31151500
2.30000004	2.38927200	-26.13189000	-6.35457700
2.50000003	4.30056600	-26.50098000	-6.72982200
2.70000002	5.25652100	-26.83317000	-7.47416300
2.90000000	4.93786900	-26.87623000	-7.84940900
3.09999999	3.18590100	-26.83317000	-7.84940900
3.29999998	0.31803640	-26.45792000	-7.51722400
3.49999997	-3.02657500	-25.76279000	-7.10506800
3.69999996	-6.05315000	-25.71358000	-7.09891700
3.89999994	-7.80511800	-26.08268000	-6.68676100
4.09999993	-7.64579200	-26.04577000	-6.35457700
4.29999992	-5.41584600	-26.12574000	-6.31151500
4.49999991	-1.75196900	-26.08883000	-6.31151500
4.69999990	2.70792300	-26.50098000	-6.31151500
4.89999989	6.69045300	-26.83317000	-6.31151500
5.09999987	9.07972400	-26.87623000	-6.35457700
5.29999986	9.23905000	-26.87623000	-6.72982200
5.49999985	7.00848900	-26.87623000	-7.47416300
5.69999984	3.02657500	-26.87623000	-7.84940900
5.89999983	-1.75196900	-26.87623000	-7.89247000
6.09999981	-6.05315000	-26.87623000	-7.84940900
6.29999980	-8.92039900	-26.87623000	-7.47416300
6.49999979	-9.39837600	-26.87623000	-6.72982200
6.69999978	-7.64579200	-26.83317000	-6.35457700
6.89999977	-3.98191400	-26.45792000	-6.31151500
7.09999975	0.47736220	-25.76279000	-6.31151500
7.29999974	4.45989200	-25.76279000	-6.31151500
7.49999973	7.00848900	-26.45792000	-6.31151500
7.69999972	7.80511800	-26.83317000	-6.31151500
7.89999971	6.53112700	-26.87623000	-6.35457700
8.09999970	3.82258900	-26.83317000	-6.68676100
8.29999968	0.47736220	-26.45792000	-7.05585600
8.49999967	-2.54859700	-25.71358000	-6.68676100
8.69999966	-4.45989200	-25.33834000	-6.35457700
8.89999965	-5.25652100	-25.29527000	-6.31151500
9.09999964	-4.45989200	-25.33834000	-6.35457700
9.29999962	-2.86724900	-25.71358000	-6.72982200
9.49999961	-0.95533960	-26.45792000	-7.42495000
9.69999960	0.79601380	-26.83317000	-7.47416300
9.89999959	2.07062000	-26.87623000	-7.14812900
10.09999958	2.54859700	-26.87623000	-7.51722400
10.29999956	2.22994600	-26.87623000	-7.84940900
10.49999955	1.59264300	-26.87623000	-7.89247000
10.69999954	0.63668800	-26.83317000	-7.89247000
10.89999953	-0.15871060	-26.50098000	-7.89247000
11.09999952	-0.63668800	-26.13189000	-7.89247000
11.29999951	-0.95533960	-26.50098000	-7.89247000
11.49999949	-0.95533960	-26.83317000	-7.84940900
11.69999948	-0.79601380	-26.83317000	-7.47416300
11.89999947	-0.47736220	-26.50098000	-6.77903500
12.09999946	-0.15871060	-26.13189000	-6.77903500
12.29999945	-0.15871060	-26.50098000	-7.42495000
12.49999943	-0.15871060	-26.78395000	-7.47416300
12.69999942	0.00000000	-26.50098000	-7.14812900
12.89999941	0.00000000	-26.08883000	-7.47416300
13.09999940	0.00000000	-26.12574000	-7.47416300
13.29999939	0.00000000	-26.08883000	-7.14812900
13.49999937	0.00000000	-26.45792000	-7.47416300
13.69999936	0.00000000	-26.45792000	-7.42495000
13.89999935	0.00000000	-26.13189000	-6.77903500
14.09999934	-0.15871060	-26.50098000	-6.72982200
14.29999933	-0.15871060	-26.78395000	-7.05585600
14.49999932	-0.15871060	-26.45792000	-6.68676100
14.69999930	0.00000000	-25.71358000	-6.40378900
14.89999929	0.00000000	-25.38755000	-6.72982200
15.09999928	0.00000000	-25.71358000	-7.42495000
15.29999927	0.00000000	-26.45792000	-7.42495000
15.49999926	0.00000000	-26.83317000	-6.72982200
15.69999924	0.00000000	-26.87623000	-6.35457700
15.89999923	0.00000000	-26.87623000	-6.31151500
16.09999922	0.00000000	-26.83317000	-6.31151500
16.29999921	0.00000000	-26.45792000	-6.31151500
16.49999920	-0.15871060	-25.76279000	-6.31151500
16.69999919	-0.15871060	-25.71358000	-6.35457700
16.89999917	-0.15871060	-26.03961000	-6.72982200
17.09999916	0.00000000	-25.62746000	-7.42495000
17.29999915	0.00000000	-24.92003000	-7.47416300
17.49999914	0.00000000	-24.18184000	-7.10506800
17.69999913	0.00000000	-24.18184000	-7.09891700
17.89999911	0.00000000	-24.92003000	-6.68676100
18.09999910	0.00000000	-25.71358000	-6.35457700
18.29999909	0.00000000	-26.91929000	-6.31151500
18.49999908	0.00000000	-28.45718000	-6.31151500
18.69999907	0.00000000	-29.99508000	-6.31151500
18.89999905	0.00000000	-31.10851000	-6.31151500
19.09999904	0.00000000	-31.10851000	-6.31151500
19.29999903	0.00000000	-29.94586000	-6.35457700
19.49999902	0.00000000	-27.94660000	-6.68676100
19.69999901	0.00000000	-24.78469000	-7.05585600
19.89999900	0.00000000	-20.59547000	-6.68676100
20.09999898	0.00000000	-16.78149000	-6.40378900
20.29999897	0.00000000	-14.87451000	-6.68676100
20.49999896	0.00000000	-15.24975000	-7.05585600
20.69999895	0.00000000	-18.07948000	-6.68676100
20.89999894	0.00000000	-23.52977000	-6.35457700
21.09999892	0.00000000	-31.24384000	-6.31151500
21.29999891	0.00000000	-38.92716000	-6.31151500
21.49999890	0.00000000	-44.69734000	-6.35457700
21.69999889	0.00000000	-46.93036000	-6.72982200
21.89999888	0.00000000	-44.19291000	-7.47416300
22.09999886	0.00000000	-36.79257000	-7.80019600
22.29999885	0.00000000	-25.90428000	-7.51722400
22.49999884	0.00000000	-13.15822000	-7.10506800
22.69999883	0.00000000	-1.66092500	-7.09891700
22.89999882	0.00000000	5.22268700	-6.68676100
23.09999881	0.00000000	5.17962600	-6.35457700
23.29999879	0.00000000	-2.22071800	-6.26845500
23.49999878	0.00000000	-15.80339000	-5.89320800
23.69999877	0.00000000	-33.20005000	-5.15501900
23.89999876	0.00000000	-50.55979000	-4.77977300
24.09999875	0.00000000	-63.63803000	-4.77977300
24.29999873	0.00000000	-68.94070000	-5.19808000
24.49999872	0.00000000	-64.24705000	-6.36072800
24.69999871	0.00000000	-49.95694000	-7.89247000
24.89999870	0.00000000	-29.48450000	-9.47342500
25.09999869	0.00000000	-7.43110200	-11.00517000
25.29999867	0.00000000	11.45423000	-12.11860000
25.49999866	0.00000000	22.61934000	-12.11860000
25.69999865	0.00000000	22.95152000	-10.96211000
25.89999864	0.00000000	12.10630000	-8.96284400
26.09999863	0.00000000	-7.98474400	-5.80093500
26.29999862	0.00000000	-32.68946000	-1.62401600
26.49999860	0.00000000	-56.23769000	2.18380900
26.69999859	0.00000000	-73.22219000	4.14000900
26.89999858	0.00000000	-79.36761000	4.09079700
27.09999857	0.00000000	-73.22219000	1.67322800
27.29999856	0.00000000	-56.23769000	-3.75246000
27.49999854	0.00000000	-32.73868000	-11.04823000
27.69999853	0.00000000	-8.35998900	-18.39321000
27.89999852	0.00000000	11.36811000	-24.20029000
28.09999851	0.00000000	22.61934000	-27.22072000
28.29999850	0.00000000	23.03765000	-26.34104000
28.49999848	0.00000000	12.99213000	-20.48474000
28.69999847	0.00000000	-5.15501900	-10.45152000
28.89999846	0.00000000	-27.52830000	1.48868100
29.09999845	0.00000000	-48.37598000	12.68455000
29.29999844	0.00000000	-63.17052000	20.39862000
29.49999843	0.00000000	-69.40821000	23.04995000
29.69999841	0.00000000	-66.33243000	19.46973000
29.89999840	0.00000000	-54.79207000	9.38730200
30.09999839	0.00000000	-37.81373000	-5.24729300
30.29999838	0.00000000	-19.61737000	-21.08760000
30.49999837	0.00000000	-3.70939900	-34.56570000
30.69999835	0.00000000	6.76058000	-42.64886000
30.89999834	0.00000000	9.87327700	-42.97490000
31.09999833	0.00000000	5.30880900	-35.30389000
31.29999832	0.00000000	-5.47490100	-21.37057000
31.49999831	0.00000000	-19.38976000	-4.36146600
31.69999829	0.00000000	-33.76599000	12.68455000
31.89999828	0.00000000	-45.72466000	26.16265000
32.09999827	0.00000000	-52.74360000	33.08317000
32.29999826	0.00000000	-53.54330000	31.50221000
32.49999825	0.00000000	-48.56053000	21.51206000
32.69999824	0.00000000	-38.92716000	5.71481200
32.89999822	0.00000000	-27.34375000	-12.12475000
33.09999821	0.00000000	-16.45546000	-28.75861000
33.29999820	0.00000000	-7.94168200	-41.11097000
33.49999819	0.00000000	-3.70939900	-46.08759000
33.69999818	0.00000000	-4.82283400	-42.64886000
33.89999816	0.00000000	-10.59301000	-31.49606000
34.09999815	0.00000000	-19.43897000	-15.69882000
34.29999814	0.00000000	-29.06619000	0.97810030
34.49999813	0.00000000	-36.79257000	15.66191000
34.69999812	0.00000000	-41.07406000	25.31988000
34.89999810	0.00000000	-41.07406000	27.65133000
35.09999809	0.00000000	-36.88484000	22.67470000
35.29999808	0.00000000	-30.03814000	11.43578000
35.49999807	0.00000000	-23.06225000	-3.53100400
35.69999806	0.00000000	-17.61811000	-18.57775000
35.89999805	0.00000000	-14.17938000	-29.77977000
36.09999803	0.00000000	-14.17938000	-35.26082000
36.29999802	0.00000000	-17.56890000	-34.05511000
36.49999801	0.00000000	-22.55167000	-26.42716000
36.69999800	0.00000000	-27.98966000	-14.49311000
36.89999799	0.00000000	-32.60334000	-1.84547200
37.09999797	0.00000000	-35.30389000	8.59375000
37.29999796	0.00000000	-35.25467000	13.98868000
37.49999795	0.00000000	-32.22810000	13.66265000
37.69999794	0.00000000	-27.25147000	7.89862200
37.89999793	0.00000000	-22.22564000	-1.66707700
38.09999791	0.00000000	-17.94414000	-11.98327000
38.29999790	0.00000000	-15.29281000	-20.06643000
38.49999789	0.00000000	-15.29281000	-23.51132000
38.69999788	0.00000000	-17.94414000	-21.60433000
38.89999787	0.00000000	-22.17643000	-14.72687000
39.09999786	0.00000000	-26.83317000	-5.19808000
39.29999784	0.00000000	-31.06545000	3.62942900
39.49999783	0.00000000	-33.80905000	9.38730200
39.69999782	0.00000000	-34.60876000	10.50074000
39.89999781	0.00000000	-33.85827000	6.23154500
40.09999780	0.00000000	-31.53297000	-2.50369100
40.29999778	0.00000000	-28.41412000	-12.81373000
40.49999777	0.00000000	-24.87697000	-20.90305000
40.69999776	0.00000000	-21.01993000	-25.17839000
40.89999775	0.00000000	-17.94414000	-24.71703000
41.09999774	0.00000000	-16.36319000	-18.95300000
41.29999772	0.00000000	-16.36319000	-9.38730200
41.49999771	0.00000000	-17.94414000	0.93503930
41.69999770	0.00000000	-21.01993000	9.06126900
41.89999769	0.00000000	-24.87697000	12.87525000
42.09999768	0.00000000	-28.36491000	11.79872000
42.29999767	0.00000000	-31.10851000	5.99778500
42.49999765	0.00000000	-32.64640000	-2.41756900
42.69999764	0.00000000	-32.68946000	-11.65723000
42.89999763	0.00000000	-31.52682000	-18.95300000
43.09999762	0.00000000	-29.61983000	-22.48400000
43.29999761	0.00000000	-27.25147000	-22.15797000
43.49999759	0.00000000	-24.96309000	-18.30093000
43.69999758	0.00000000	-23.01919000	-12.16781000
43.89999757	0.00000000	-22.22564000	-5.24729300
44.09999756	0.00000000	-22.13336000	0.55979330
44.29999755	0.00000000	-22.13336000	4.04773600
44.49999753	0.00000000	-22.17643000	4.82898600
44.69999752	0.00000000	-22.50861000	2.55905500
44.89999751	0.00000000	-22.92076000	-1.57480300
45.09999750	0.00000000	-22.92692000	-5.85014700
45.29999749	0.00000000	-23.43135000	-9.38115100
45.49999748	0.00000000	-24.60015000	-12.11860000
45.69999746	0.00000000	-26.91929000	-13.61343000
45.89999745	0.00000000	-29.61983000	-13.28125000
46.09999744	0.00000000	-31.99434000	-11.38041000
46.29999743	0.00000000	-34.27657000	-9.05511800
46.49999742	0.00000000	-35.30389000	-6.31151500
46.69999740	0.00000000	-33.76599000	-3.66633800
46.89999739	0.00000000	-29.90280000	-2.08538400
47.09999738	0.00000000	-24.82775000	-1.71013800
47.29999737	0.00000000	-19.01451000	-2.46063000
47.49999736	0.00000000	-13.66880000	-4.40452700
47.69999734	0.00000000	-10.59301000	-6.68676100
47.89999733	0.00000000	-10.59301000	-9.05511800
48.09999732	0.00000000	-13.75492000	-10.96211000
48.29999731	0.00000000	-19.99262000	-12.11860000
48.49999730	0.00000000	-28.45718000	-12.07554000
48.69999729	0.00000000	-36.88484000	-10.53765000
48.89999727	0.00000000	-42.65502000	-7.84940900
49.09999726	0.00000000	-44.23597000	-4.73671200
49.29999725	0.00000000	-41.49237000	-1.66707700
49.49999724	0.00000000	-34.92864000	0.60285430
49.69999723	0.00000000	-25.67052000	0.97810030
49.89999721	0.00000000	-16.45546000	-0.55364170
50.09999720	0.00000000	-9.47957600	-3.62327700
50.29999719	0.00000000	-6.40378900	-7.47416300
50.49999718	0.00000000	-7.94168200	-10.96211000
50.69999717	0.00000000	-13.71186000	-13.69956000
50.89999715	0.00000000	-22.17643000	-15.18824000
51.09999714	0.00000000	-31.02239000	-14.76993000
51.29999713	0.00000000	-37.99828000	-12.07554000
51.49999712	0.00000000	-41.44931000	-7.89247000
51.69999711	0.00000000	-40.69882000	-3.62327700
51.89999710	0.00000000	-35.67913000	-0.13533460
52.09999708	0.00000000	-28.03888000	2.14074800
52.29999707	0.00000000	-19.94340000	2.14074800
52.49999706	0.00000000	-13.80413000	-0.13533460
52.69999705	0.00000000	-11.10359000	-3.62327700
52.89999704	0.00000000	-12.64149000	-7.84940900
53.09999702	0.00000000	-17.94414000	-11.65723000
53.29999701	0.00000000	-24.87697000	-13.61343000
53.49999700	0.00000000	-31.39763000	-13.65650000
53.69999699	0.00000000	-36.04207000	-12.11860000
53.89999698	0.00000000	-37.16781000	-9.42421200
54.09999696	0.00000000	-34.92864000	-6.36072800
54.29999695	0.00000000	-29.90280000	-3.70939900
54.49999694	0.00000000	-23.80659000	-2.54675200
54.69999693	0.00000000	-18.36245000	-3.29109200
54.89999692	0.00000000	-14.91757000	-5.15501900
55.09999691	0.00000000	-14.17938000	-7.43110200
55.29999689	0.00000000	-16.87377000	-8.96284400
55.49999688	0.00000000	-22.17643000	-9.38115100
55.69999687	0.00000000	-27.94660000	-8.96284400
55.89999686	0.00000000	-32.60334000	-7.38188900
56.09999685	0.00000000	-35.25467000	-4.73671200
56.29999683	0.00000000	-34.87943000	-2.12844500
56.49999682	0.00000000	-31.48376000	-0.97194880
56.69999681	0.00000000	-26.87623000	-1.75319900
56.89999680	0.00000000	-22.22564000	-4.08464600
57.09999679	0.00000000	-18.36245000	-7.93553100
57.29999677	0.00000000	-16.45546000	-12.11860000
57.49999676	0.00000000	-16.78149000	-15.14518000
57.69999675	0.00000000	-19.10679000	-15.92642000
57.89999674	0.00000000	-22.55167000	-13.98253000
58.09999673	0.00000000	-26.40871000	-10.11934000
58.29999672	0.00000000	-29.48450000	-4.69365100
58.49999670	0.00000000	-31.06545000	1.02116100
58.69999669	0.00000000	-31.06545000	5.20423200
58.89999668	0.00000000	-29.52756000	6.36687900
59.09999667	0.00000000	-26.87623000	4.04773600
59.29999666	0.00000000	-24.22490000	-0.97194880
59.49999664	0.00000000	-22.64394000	-7.93553100
59.69999663	0.00000000	-22.17643000	-15.18824000
59.89999662	0.00000000	-22.17643000	-20.53395000
60.09999661	0.00000000	-22.60088000	-22.06570000
60.29999660	0.00000000	-23.75738000	-19.42052000
60.49999658	0.00000000	-25.20300000	-13.65650000
60.69999657	0.00000000	-25.99040000	-6.31766700
60.89999656	0.00000000	-25.67052000	1.02116100
61.09999655	0.00000000	-25.29527000	6.78518600
61.29999654	0.00000000	-24.82775000	9.47957600
61.49999653	0.00000000	-23.75738000	8.27386800
61.69999651	0.00000000	-23.01919000	3.29724400
61.89999650	0.00000000	-23.38214000	-4.40452700
62.09999649	0.00000000	-24.13263000	-12.49385000
62.29999648	0.00000000	-25.33834000	-19.46358000
62.49999647	0.00000000	-26.83317000	-23.60359000
62.69999645	0.00000000	-27.98966000	-23.27141000
62.89999644	0.00000000	-28.36491000	-18.67618000
63.09999643	0.00000000	-27.94660000	-11.79257000
63.29999642	0.00000000	-26.40871000	-3.99237200
63.49999641	0.00000000	-24.13263000	2.88508800
63.69999639	0.00000000	-22.22564000	7.57258800
63.89999638	0.00000000	-21.01993000	8.69217500
64.09999637	0.00000000	-20.64468000	6.45300100
64.29999636	0.00000000	-21.06299000	1.39640700
64.49999635	0.00000000	-22.60088000	-5.11195900
64.69999634	0.00000000	-24.87697000	-11.70029000
64.89999632	0.00000000	-26.83317000	-16.72613000
65.09999631	0.00000000	-28.36491000	-19.46358000
65.29999630	0.00000000	-29.10925000	-19.46358000
65.49999629	0.00000000	-28.36491000	-16.81225000
65.69999628	0.00000000	-26.87623000	-12.58612000
65.89999626	0.00000000	-25.29527000	-7.89247000
66.09999625	0.00000000	-23.75738000	-3.24803100
66.29999624	0.00000000	-22.64394000	0.60285430
66.49999623	0.00000000	-22.64394000	2.55905500
66.69999622	0.00000000	-23.75738000	2.64517700
66.89999620	0.00000000	-25.29527000	1.53174200
67.09999619	0.00000000	-26.83317000	-0.09227362
67.29999618	0.00000000	-27.94660000	-2.46063000
67.49999617	0.00000000	-27.86048000	-5.93626900
67.69999616	0.00000000	-26.03961000	-9.38115100
67.89999615	0.00000000	-23.34522000	-12.16781000
68.09999613	0.00000000	-21.38287000	-14.11786000
68.29999612	0.00000000	-19.43897000	-15.27436000
68.49999611	0.00000000	-18.41166000	-15.23130000
68.69999610	0.00000000	-19.56816000	-13.65650000
68.89999609	0.00000000	-22.64394000	-10.53765000
69.09999607	0.00000000	-26.87623000	-6.31151500
69.29999606	0.00000000	-31.10851000	-2.04232300
69.49999605	0.00000000	-34.14124000	1.44562000
69.69999604	0.00000000	-34.92864000	3.76476400
69.89999603	0.00000000	-33.02165000	4.14000900
70.09999601	0.00000000	-29.52756000	2.55905500
70.29999600	0.00000000	-24.78469000	-0.92888770
70.49999599	0.00000000	-19.06373000	-5.93626900
70.69999598	0.00000000	-14.13017000	-10.95595000
70.89999597	0.00000000	-12.17397000	-15.18824000
71.09999596	0.00000000	-13.29355000	-17.46432000
71.29999594	0.00000000	-16.78149000	-16.76919000
71.49999593	0.00000000	-22.22564000	-14.07480000
71.69999592	0.00000000	-28.37106000	-10.16855000
71.89999591	0.00000000	-33.80905000	-5.19808000
72.09999590	0.00000000	-37.26009000	-0.97194880
72.29999588	0.00000000	-38.04749000	1.35334600
72.49999587	0.00000000	-35.72219000	1.80856300
72.69999586	0.00000000	-31.10851000	0.28297240
72.89999585	0.00000000	-25.29527000	-1.99311000
73.09999584	0.00000000	-19.48204000	-4.73671200
73.29999582	0.00000000	-14.87451000	-7.38188900
73.49999581	0.00000000	-12.54921000	-8.96284400
73.69999580	0.00000000	-13.29355000	-9.33809000
73.89999579	0.00000000	-16.36319000	-8.63681000
74.09999578	0.00000000	-21.01993000	-7.10506800
74.29999577	0.00000000	-26.45792000	-6.02854300
74.49999575	0.00000000	-31.39763000	-5.61638700
74.69999574	0.00000000	-34.51033000	-6.40378900
74.89999573	0.00000000	-34.55955000	-7.89247000
75.09999572	0.00000000	-32.68946000	-9.42421200
75.29999571	0.00000000	-29.57062000	-10.53765000
75.49999569	0.00000000	-25.71358000	-10.49459000
75.69999568	0.00000000	-22.26870000	-8.96284400
75.89999567	0.00000000	-19.90034000	-6.26845500
76.09999566	0.00000000	-19.10679000	-3.15575800
76.29999565	0.00000000	-19.48204000	-0.13533460
76.49999563	0.00000000	-21.01993000	1.76550200
76.69999562	0.00000000	-23.24680000	1.35334600
76.89999561	0.00000000	-24.78469000	-0.97194880
77.09999560	0.00000000	-25.25221000	-5.24729300
77.29999559	0.00000000	-25.29527000	-10.58686000
77.49999558	0.00000000	-25.29527000	-15.18824000
77.69999556	0.00000000	-25.29527000	-17.88263000
77.89999555	0.00000000	-25.29527000	-17.88263000
78.09999554	0.00000000	-25.33834000	-15.18824000
78.29999553	0.00000000	-25.71358000	-10.58686000
78.49999552	0.00000000	-26.50098000	-5.15501900
78.69999550	0.00000000	-27.20841000	-0.13533460
78.89999549	0.00000000	-27.52830000	3.71555100
79.09999548	0.00000000	-26.36565000	5.25344500
79.29999547	0.00000000	-24.13263000	4.13385800
79.49999546	0.00000000	-22.17643000	1.02116100
79.69999544	0.00000000	-20.59547000	-3.62327700
79.89999543	0.00000000	-19.48204000	-9.00590400
80.09999542	0.00000000	-19.52510000	-13.61343000
80.29999541	0.00000000	-21.06299000	-16.35089000
80.49999540	0.00000000	-23.75738000	-16.76919000
80.69999539	0.00000000	-26.78395000	-15.27436000
80.89999537	0.00000000	-29.10925000	-12.53691000
81.09999536	0.00000000	-29.90280000	-9.00590400
81.29999535	0.00000000	-29.57062000	-4.77977300
81.49999534	0.00000000	-28.36491000	-0.97194880
81.69999533	0.00000000	-26.40871000	1.02116100
81.89999531	0.00000000	-23.71432000	1.48253000
82.09999530	0.00000000	-21.06299000	1.11343500
82.29999529	0.00000000	-19.52510000	-0.09227362
82.49999528	0.00000000	-19.48204000	-2.04232300
82.69999527	0.00000000	-20.64468000	-4.77977300
82.89999525	0.00000000	-22.55167000	-7.84940900
83.09999524	0.00000000	-24.87697000	-10.58686000
83.29999523	0.00000000	-26.78395000	-12.53691000
83.49999522	0.00000000	-27.94660000	-13.69956000
83.69999521	0.00000000	-27.94660000	-13.69956000
83.89999520	0.00000000	-26.83317000	-12.49385000
84.09999518	0.00000000	-25.33834000	-10.16855000
84.29999517	0.00000000	-24.18184000	-6.68676100
84.49999516	0.00000000	-23.75738000	-3.19881900
84.69999515	0.00000000	-23.71432000	-0.09227362
84.89999514	0.00000000	-23.71432000	2.18380900
85.09999512	0.00000000	-23.71432000	2.55905500
85.29999511	0.00000000	-23.71432000	1.02116100
85.49999510	0.00000000	-23.71432000	-2.08538400
85.69999509	0.00000000	-23.71432000	-6.31151500
85.89999508	0.00000000	-23.67126000	-10.58686000
86.09999506	0.00000000	-23.33907000	-14.03174000
86.29999505	0.00000000	-22.96998000	-15.97564000
86.49999504	0.00000000	-23.38214000	-15.56348000
86.69999503	0.00000000	-24.13263000	-13.28125000
86.89999502	0.00000000	-25.29527000	-9.38115100
87.09999501	0.00000000	-26.40871000	-4.77977300
87.29999499	0.00000000	-26.83317000	-0.51058070
87.49999498	0.00000000	-26.83317000	2.51599400
87.69999497	0.00000000	-26.40871000	3.29724400
87.89999496	0.00000000	-25.25221000	1.39640700
88.09999495	0.00000000	-23.71432000	-2.04232300
88.29999493	0.00000000	-22.17643000	-6.35457700
88.49999492	0.00000000	-21.06299000	-10.91289000
88.69999491	0.00000000	-21.06299000	-14.34547000
88.89999490	0.00000000	-22.17643000	-15.14518000
89.09999489	0.00000000	-23.67126000	-13.65650000
89.29999487	0.00000000	-24.87697000	-10.53765000
89.49999486	0.00000000	-25.67052000	-6.31151500
89.69999485	0.00000000	-26.45792000	-2.08538400
89.89999484	0.00000000	-26.78395000	0.97810030
90.09999483	0.00000000	-26.45792000	2.13459600
90.29999482	0.00000000	-25.67052000	0.97810030
90.49999480	0.00000000	-24.87697000	-2.12844500
90.69999479	0.00000000	-23.71432000	-6.72982200
90.89999478	0.00000000	-22.60088000	-11.65723000
91.09999477	0.00000000	-22.22564000	-14.67766000
91.29999476	0.00000000	-22.55167000	-14.76993000
91.49999474	0.00000000	-23.29601000	-12.49385000
91.69999473	0.00000000	-23.67126000	-9.00590400
91.89999472	0.00000000	-23.71432000	-4.73671200
92.09999471	0.00000000	-23.71432000	-0.55364170
92.29999470	0.00000000	-23.71432000	2.09153500
92.49999468	0.00000000	-23.71432000	2.14074800
92.69999467	0.00000000	-23.75738000	-0.17839570
92.89999466	0.00000000	-24.18184000	-3.99237200
93.09999465	0.00000000	-25.29527000	-8.63681000
93.29999464	0.00000000	-26.40871000	-12.45079000
93.49999463	0.00000000	-26.83317000	-14.76993000
93.69999461	0.00000000	-26.83317000	-14.72072000
93.89999460	0.00000000	-26.40871000	-12.07554000
94.09999459	0.00000000	-25.20300000	-7.84940900
94.29999458	0.00000000	-23.29601000	-3.29109200
94.49999457	0.00000000	-21.01993000	0.18454720
94.69999455	0.00000000	-19.48204000	1.35334600
94.89999454	0.00000000	-19.06373000	0.60285430
95.09999453	0.00000000	-19.48204000	-2.12844500
95.29999452	0.00000000	-21.06299000	-6.26845500
95.49999451	0.00000000	-23.75738000	-10.11934000
95.69999449	0.00000000	-26.83317000	-12.45079000
95.89999448	0.00000000	-29.52756000	-13.23819000
96.09999447	0.00000000	-31.10851000	-12.07554000
96.29999446	0.00000000	-31.48376000	-9.42421200
96.49999445	0.00000000	-30.64714000	-6.31151500
96.69999444	0.00000000	-27.94660000	-3.24803100
96.89999442	0.00000000	-24.08957000	-0.97194880
97.09999441	0.00000000	-20.22022000	-0.59670270
97.29999440	0.00000000	-16.73843000	-2.04232300
97.49999439	0.00000000	-14.87451000	-4.36146600
97.69999438	0.00000000	-15.20054000	-6.68676100
97.89999436	0.00000000	-17.52584000	-8.96284400
98.09999435	0.00000000	-21.01993000	-10.11934000
98.29999434	0.00000000	-25.25221000	-9.79945900
98.49999433	0.00000000	-29.10925000	-9.05511800
98.69999432	0.00000000	-31.44069000	-7.84940900
98.89999430	0.00000000	-32.27116000	-6.36072800
99.09999429	0.00000000	-31.44069000	-5.19808000
99.29999428	0.00000000	-29.15231000	-4.77977300
99.49999427	0.00000000	-25.67052000	-4.73671200
99.69999426	0.00000000	-22.17643000	-4.73671200
99.89999425	0.00000000	-19.06373000	-4.73671200
100.09999423	0.00000000	-16.78149000	-4.69365100
100.29999422	0.00000000	-16.36319000	-4.31840500
100.49999421	0.00000000	-17.48277000	-3.62327700
100.69999420	0.00000000	-19.43897000	-3.62327700
100.89999419	0.00000000	-22.17643000	-4.36146600
101.09999417	0.00000000	-25.25221000	-5.15501900
101.29999416	0.00000000	-27.94660000	-6.36072800
101.49999415	0.00000000	-29.52756000	-7.89247000
101.69999414	0.00000000	-29.94586000	-9.42421200
101.89999413	0.00000000	-29.57062000	-10.53765000
102.09999411	0.00000000	-28.36491000	-10.49459000
102.29999410	0.00000000	-26.40871000	-8.96284400
102.49999409	0.00000000	-23.71432000	-6.26845500
102.69999408	0.00000000	-21.06299000	-3.19881900
102.89999407	0.00000000	-19.48204000	-0.55364170
103.09999406	0.00000000	-19.06373000	0.60285430
103.29999404	0.00000000	-19.43897000	-0.13533460
103.49999403	0.00000000	-20.64468000	-2.04232300
103.69999402	0.00000000	-22.55167000	-4.77977300
103.89999401	0.00000000	-24.87697000	-7.84940900
104.09999400	0.00000000	-26.78395000	-10.53765000
104.29999398	0.00000000	-27.98966000	-12.07554000
104.49999397	0.00000000	-28.36491000	-12.11860000
104.69999396	0.00000000	-27.94660000	-10.91289000
104.89999395	0.00000000	-26.45792000	-8.58759800
105.09999394	0.00000000	-24.55093000	-5.15501900
105.29999392	0.00000000	-23.33907000	-2.12844500
105.49999391	0.00000000	-22.17643000	-0.55364170
105.69999390	0.00000000	-21.43824000	-0.55364170
105.89999389	0.00000000	-21.80118000	-2.04232300
106.09999388	0.00000000	-22.55167000	-4.36146600
106.29999387	0.00000000	-23.71432000	-6.68676100
106.49999385	0.00000000	-24.82775000	-9.00590400
106.69999384	0.00000000	-25.25221000	-10.49459000
106.89999383	0.00000000	-25.25221000	-10.53765000
107.09999382	0.00000000	-24.87697000	-9.38115100
107.29999381	0.00000000	-24.08957000	-7.47416300
107.49999379	0.00000000	-23.33907000	-5.19808000
107.69999378	0.00000000	-22.55167000	-3.66633800
107.89999377	0.00000000	-22.22564000	-3.24803100
108.09999376	0.00000000	-22.55167000	-3.62327700
108.29999375	0.00000000	-23.38214000	-4.77977300
108.49999374	0.00000000	-24.50787000	-6.31151500
108.69999372	0.00000000	-25.99040000	-7.84940900
108.89999371	0.00000000	-26.40871000	-8.96284400
109.09999370	0.00000000	-26.04577000	-8.96284400
109.29999369	0.00000000	-25.66437000	-7.84940900
109.49999368	0.00000000	-24.46481000	-6.31151500
109.69999366	0.00000000	-23.33907000	-4.77977300
109.89999365	0.00000000	-22.13336000	-3.62327700
110.09999364	0.00000000	-21.06299000	-3.19881900
110.29999363	0.00000000	-21.10605000	-3.19881900
110.49999362	0.00000000	-22.50861000	-3.66633800
110.69999360	0.00000000	-24.03420000	-5.15501900
110.89999359	0.00000000	-24.50787000	-7.05585600
111.09999358	0.00000000	-25.33834000	-8.22465500
111.29999357	0.00000000	-26.36565000	-9.05511800
111.49999356	0.00000000	-26.40871000	-9.38115100
111.69999355	0.00000000	-25.67052000	-9.00590400
111.89999353	0.00000000	-24.92003000	-7.89247000
112.09999352	0.00000000	-24.08957000	-6.72982200
112.29999351	0.00000000	-23.33907000	-5.93626900
112.49999350	0.00000000	-22.55167000	-5.15501900
112.69999349	0.00000000	-22.22564000	-4.77977300
112.89999347	0.00000000	-22.55167000	-4.73671200
113.09999346	0.00000000	-23.29601000	-4.77977300
113.29999345	0.00000000	-23.71432000	-5.15501900
113.49999344	0.00000000	-24.13263000	-5.89320800
113.69999343	0.00000000	-24.82775000	-6.26845500
113.89999341	0.00000000	-24.82775000	-6.31151500
114.09999340	0.00000000	-24.13263000	-6.31151500
114.29999339	0.00000000	-23.75738000	-6.31151500
114.49999338	0.00000000	-23.71432000	-6.35457700
114.69999337	0.00000000	-23.67126000	-6.72982200
114.89999336	0.00000000	-23.33907000	-7.47416300
115.09999334	0.00000000	-22.92692000	-7.84940900
115.29999333	0.00000000	-22.96383000	-7.84940900
115.49999332	0.00000000	-22.92692000	-7.47416300
115.69999331	0.00000000	-23.33907000	-6.68676100
115.89999330	0.00000000	-23.67126000	-5.93626900
116.09999328	0.00000000	-23.75738000	-5.11195900
116.29999327	0.00000000	-24.13263000	-4.40452700
116.49999326	0.00000000	-24.87697000	-3.99237200
116.69999325	0.00000000	-25.25221000	-4.36146600
116.89999324	0.00000000	-25.25221000	-4.73671200
117.09999322	0.00000000	-24.87697000	-5.15501900
117.29999321	0.00000000	-24.08957000	-5.93626900
117.49999320	0.00000000	-23.33907000	-6.68676100
117.69999319	0.00000000	-22.55167000	-7.47416300
117.89999318	0.00000000	-22.17643000	-7.84940900
118.09999317	0.00000000	-22.13336000	-7.84940900
118.29999315	0.00000000	-22.17643000	-7.47416300
118.49999314	0.00000000	-22.55167000	-6.72982200
118.69999313	0.00000000	-23.33907000	-6.31151500
118.89999312	0.00000000	-24.13263000	-5.89320800
119.09999311	0.00000000	-25.29527000	-5.15501900
119.29999309	0.00000000	-26.40871000	-4.77977300
119.49999308	0.00000000	-26.78395000	-4.73671200
119.69999307	0.00000000	-26.40871000	-4.73671200
119.89999306	0.00000000	-25.25221000	-4.73671200
120.09999305	0.00000000	-23.71432000	-4.77977300
120.29999303	0.00000000	-22.17643000	-5.15501900
120.49999302	0.00000000	-21.01993000	-5.89320800
120.69999301	0.00000000	-20.64468000	-6.26845500
120.89999300	0.00000000	-20.97072000	-6.35457700
121.09999299	0.00000000	-21.75812000	-6.72982200
121.29999298	0.00000000	-22.55167000	-7.47416300
121.49999296	0.00000000	-23.75738000	-7.80019600
121.69999295	0.00000000	-25.25221000	-7.47416300
121.89999294	0.00000000	-26.40871000	-6.72982200
122.09999293	0.00000000	-26.78395000	-6.31151500
122.29999292	0.00000000	-26.45792000	-5.89320800
122.49999290	0.00000000	-25.67052000	-5.11195900
122.69999289	0.00000000	-24.87697000	-4.36146600
122.89999288	0.00000000	-23.71432000	-3.57406500
123.09999287	0.00000000	-22.55167000	-3.24803100
123.29999286	0.00000000	-21.75812000	-3.57406500
123.49999284	0.00000000	-21.01993000	-4.36146600
123.69999283	0.00000000	-21.01993000	-5.11195900
123.89999282	0.00000000	-21.71506000	-5.89320800
124.09999281	0.00000000	-22.13336000	-6.31151500
124.29999280	0.00000000	-22.55167000	-6.72982200
124.49999279	0.00000000	-23.33907000	-7.42495000
124.69999277	0.00000000	-24.08957000	-7.42495000
124.89999276	0.00000000	-24.87697000	-6.72982200
125.09999275	0.00000000	-25.25221000	-6.31151500
125.29999274	0.00000000	-25.29527000	-5.89320800
125.49999273	0.00000000	-25.25221000	-5.15501900
125.69999271	0.00000000	-24.87697000	-4.77977300
125.89999270	0.00000000	-24.08957000	-4.73671200
126.09999269	0.00000000	-23.33907000	-4.77977300
126.29999268	0.00000000	-22.55167000	-5.15501900
126.49999267	0.00000000	-22.17643000	-5.89320800
126.69999265	0.00000000	-22.13336000	-6.31151500
126.89999264	0.00000000	-22.17643000	-6.68676100
127.09999263	0.00000000	-22.55167000	-7.05585600
127.29999262	0.00000000	-23.33907000	-6.68676100
127.49999261	0.00000000	-24.08957000	-6.35457700
127.69999260	0.00000000	-24.92003000	-6.31151500
127.89999258	0.00000000	-25.62746000	-6.31151500
128.09999257	0.00000000	-25.99040000	-6.31151500
128.29999256	0.00000000	-25.25221000	-6.26845500
128.49999255	0.00000000	-24.13263000	-5.89320800
128.69999254	0.00000000	-23.33907000	-5.15501900
128.89999252	0.00000000	-22.55167000	-4.82898600
129.09999251	0.00000000	-22.17643000	-5.15501900
129.29999250	0.00000000	-22.17643000	-5.89320800
129.49999249	0.00000000	-22.55167000	-6.26845500
129.69999248	0.00000000	-23.33907000	-6.31151500
129.89999246	0.00000000	-24.08957000	-6.31151500
130.09999245	0.00000000	-24.87697000	-6.31151500
130.29999244	0.00000000	-25.25221000	-6.31151500
130.49999243	0.00000000	-25.25221000	-6.26845500
130.69999242	0.00000000	-24.82775000	-5.89320800
130.89999241	0.00000000	-23.71432000	-5.15501900
131.09999239	0.00000000	-22.60088000	-4.77977300
131.29999238	0.00000000	-22.17643000	-4.77977300
131.49999237	0.00000000	-22.13336000	-5.15501900
131.69999236	0.00000000	-22.13336000	-5.89320800
131.89999235	0.00000000	-22.17643000	-6.31151500
132.09999233	0.00000000	-22.55167000	-6.72982200
132.29999232	0.00000000	-23.33907000	-7.47416300
132.49999231	0.00000000	-24.04650000	-7.80019600
132.69999230	0.00000000	-24.45866000	-7.47416300
132.89999229	0.00000000	-24.08957000	-6.68676100
133.09999227	0.00000000	-23.75738000	-5.93626900
133.29999226	0.00000000	-23.71432000	-5.15501900
133.49999225	0.00000000	-23.71432000	-4.77977300
133.69999224	0.00000000	-23.67126000	-4.73671200
133.89999223	0.00000000	-23.33907000	-4.73671200
134.09999222	0.00000000	-22.96998000	-4.77977300
134.29999220	0.00000000	-23.33907000	-5.19808000
134.49999219	0.00000000	-23.67126000	-6.31151500
134.69999218	0.00000000	-23.71432000	-7.42495000
134.89999217	0.00000000	-23.67126000	-7.84940900
135.09999216	0.00000000	-23.29601000	-7.84940900
135.29999214	0.00000000	-22.55167000	-7.47416300
135.49999213	0.00000000	-22.22564000	-6.68676100
135.69999212	0.00000000	-22.50861000	-5.93626900
135.89999211	0.00000000	-22.92076000	-5.15501900
136.09999210	0.00000000	-22.92692000	-4.77977300
136.29999208	0.00000000	-23.38214000	-4.73671200
136.49999207	0.00000000	-24.08957000	-4.73671200
136.69999206	0.00000000	-24.87697000	-4.73671200
136.89999205	0.00000000	-25.20300000	-4.77977300
137.09999204	0.00000000	-24.87697000	-5.15501900
137.29999203	0.00000000	-24.08957000	-5.89320800
137.49999201	0.00000000	-23.33907000	-6.26845500
137.69999200	0.00000000	-22.50861000	-6.35457700
137.89999199	0.00000000	-21.75812000	-6.68676100
138.09999198	0.00000000	-21.01993000	-7.09891700
138.29999197	0.00000000	-21.06299000	-7.06200700
138.49999195	0.00000000	-22.13336000	-7.09891700
138.69999194	0.00000000	-23.29601000	-6.64370100
138.89999193	0.00000000	-24.08957000	-5.93626900
139.09999192	0.00000000	-24.82775000	-5.15501900
139.29999191	0.00000000	-24.82775000	-4.77977300
139.49999189	0.00000000	-24.13263000	-4.73671200
139.69999188	0.00000000	-23.71432000	-4.73671200
139.89999187	0.00000000	-23.29601000	-4.73671200
140.09999186	0.00000000	-22.55167000	-4.77977300
140.29999185	0.00000000	-22.17643000	-5.15501900
140.49999184	0.00000000	-22.13336000	-5.93626900
140.69999182	0.00000000	-22.13336000	-6.68676100
140.89999181	0.00000000	-22.22564000	-7.47416300
141.09999180	0.00000000	-22.92692000	-7.84940900
141.29999179	0.00000000	-24.03420000	-7.84940900
141.49999178	0.00000000	-24.04650000	-7.42495000
141.69999176	0.00000000	-23.75738000	-6.31151500
141.89999175	0.00000000	-23.71432000	-5.15501900
142.09999174	0.00000000	-23.67126000	-4.36146600
142.29999173	0.00000000	-23.29601000	-3.57406500
142.49999172	0.00000000	-22.55167000	-3.24803100
142.69999170	0.00000000	-22.17643000	-3.57406500
142.89999169	0.00000000	-22.17643000	-4.36146600
143.09999168	0.00000000	-22.55167000	-5.15501900
143.29999167	0.00000000	-23.29601000	-6.31151500
143.49999166	0.00000000	-23.67126000	-7.42495000
143.69999165	0.00000000	-23.71432000	-7.84940900
143.89999163	0.00000000	-23.71432000	-7.84940900
144.09999162	0.00000000	-23.67126000	-7.42495000
144.29999161	0.00000000	-23.29601000	-6.31151500
144.49999160	0.00000000	-22.55167000	-5.19808000
144.69999159	0.00000000	-22.17643000	-4.77977300
144.89999157	0.00000000	-22.17643000	-4.73671200
145.09999156	0.00000000	-22.55167000	-4.73671200
145.29999155	0.00000000	-23.29601000	-4.73671200
145.49999154	0.00000000	-23.67126000	-4.77977300
145.69999153	0.00000000	-23.71432000	-5.15501900
145.89999151	0.00000000	-23.71432000	-5.89320800
146.09999150	0.00000000	-23.71432000	-6.26845500
146.29999149	0.00000000	-23.71432000	-6.31151500
146.49999148	0.00000000	-23.67126000	-6.31151500
146.69999147	0.00000000	-23.29601000	-6.31151500
146.89999146	0.00000000	-22.55167000	-6.31151500
147.09999144	0.00000000	-22.17643000	-6.26845500
147.29999143	0.00000000	-22.13336000	-5.89320800
147.49999142	0.00000000	-22.13336000	-5.15501900
147.69999141	0.00000000	-22.17643000	-4.77977300
147.89999140	0.00000000	-22.55167000	-4.73671200
148.09999138	0.00000000	-23.29601000	-4.73671200
148.29999137	0.00000000	-23.67126000	-4.73671200
148.49999136	0.00000000	-23.71432000	-4.77977300
148.69999135	0.00000000	-23.71432000	-5.15501900
148.89999134	0.00000000	-23.67126000	-5.89320800
149.09999132	0.00000000	-23.29601000	-6.26845500
149.29999131	0.00000000	-22.55167000	-6.31151500
149.49999130	0.00000000	-22.17643000	-6.31151500
149.69999129	0.00000000	-22.13336000	-6.31151500
149.89999128	0.00000000	-22.13336000	-6.31151500
150.09999127	0.00000000	-22.13336000	-6.26845500
150.29999125	0.00000000	-22.17643000	-5.89320800
150.49999124	0.00000000	-22.55167000	-5.15501900
150.69999123	0.00000000	-23.29601000	-4.77977300
150.89999122	0.00000000	-23.67126000	-4.73671200
151.09999121	0.00000000	-23.71432000	-4.77977300
151.29999119	0.00000000	-23.71432000	-5.11195900
151.49999118	0.00000000	-23.71432000	-5.51796200
151.69999117	0.00000000	-23.71432000	-5.53026500
151.89999116	0.00000000	-23.67126000	-5.93626900
152.09999115	0.00000000	-23.29601000	-6.26845500
152.29999113	0.00000000	-22.55167000	-6.31151500
152.49999112	0.00000000	-22.17643000	-6.31151500
152.69999111	0.00000000	-22.13336000	-6.31151500
152.89999110	0.00000000	-22.13336000	-6.31151500
153.09999109	0.00000000	-22.13336000	-6.26845500
153.29999108	0.00000000	-22.17643000	-5.89320800
153.49999106	0.00000000	-22.55167000	-5.15501900
153.69999105	0.00000000	-23.29601000	-4.77977300
153.89999104	0.00000000	-23.67126000	-4.73671200
154.09999103	0.00000000	-23.71432000	-4.73671200
154.29999102	0.00000000	-23.71432000	-4.73671200
154.49999100	0.00000000	-23.71432000	-4.73671200
154.69999099	0.00000000	-23.71432000	-4.77977300
154.89999098	0.00000000	-23.67126000	-5.15501900
155.09999097	0.00000000	-23.29601000	-5.89320800
155.29999096	0.00000000	-22.55167000	-6.26845500
155.49999094	0.00000000	-22.17643000	-6.31151500
155.69999093	0.00000000	-22.13336000	-6.31151500
155.89999092	0.00000000	-22.13336000	-6.31151500
156.09999091	0.00000000	-22.13336000	-6.26845500
156.29999090	0.00000000	-22.17643000	-5.89320800
156.49999089	0.00000000	-22.55167000	-5.15501900
156.69999087	0.00000000	-23.29601000	-4.77977300
156.89999086	0.00000000	-23.67126000	-4.73671200
157.09999085	0.00000000	-23.71432000	-4.73671200
157.29999084	0.00000000	-23.71432000	-4.73671200
157.49999083	0.00000000	-23.71432000	-4.73671200
157.69999081	0.00000000	-23.67126000	-4.77977300
157.89999080	0.00000000	-23.29601000	-5.15501900
158.09999079	0.00000000	-22.55167000	-5.89320800
158.29999078	0.00000000	-22.17643000	-6.26845500
158.49999077	0.00000000	-22.13336000	-6.31151500
158.69999075	0.00000000	-22.13336000	-6.31151500
158.89999074	0.00000000	-22.13336000	-6.31151500
159.09999073	0.00000000	-22.13336000	-6.26845500
159.29999072	0.00000000	-22.09030000	-5.89320800
159.49999071	0.00000000	-21.80118000	-5.15501900
159.69999070	0.00000000	-21.81348000	-4.77977300
159.89999068	0.00000000	-22.92076000	-4.73671200
160.09999067	0.00000000	-23.62205000	-4.73671200
160.29999066	0.00000000	-23.71432000	-4.73671200
160.49999065	0.00000000	-23.71432000	-4.77977300
160.69999064	0.00000000	-23.67126000	-5.15501900
160.89999062	0.00000000	-23.33907000	-5.89320800
161.09999061	0.00000000	-22.92692000	-6.26845500
161.29999060	0.00000000	-22.92076000	-6.31151500
161.49999059	0.00000000	-22.50861000	-6.31151500
161.69999058	0.00000000	-22.17643000	-6.31151500
161.89999056	0.00000000	-22.13336000	-6.31151500
162.09999055	0.00000000	-22.13336000	-6.26845500
162.29999054	0.00000000	-22.13336000	-5.89320800
162.49999053	0.00000000	-22.17643000	-5.15501900
162.69999052	0.00000000	-22.55167000	-4.77977300
162.89999051	0.00000000	-23.29601000	-4.73671200
163.09999049	0.00000000	-23.67126000	-4.73671200
163.29999048	0.00000000	-23.71432000	-4.73671200
163.49999047	0.00000000	-23.67126000	-4.73671200
163.69999046	0.00000000	-23.38214000	-4.77977300
163.89999045	0.00000000	-23.34522000	-5.15501900
164.09999043	0.00000000	-24.03420000	-5.89320800
164.29999042	0.00000000	-23.62205000	-6.26845500
164.49999041	0.00000000	-22.60088000	-6.31151500
164.69999040	0.00000000	-22.17643000	-6.31151500
164.89999039	0.00000000	-22.13336000	-6.31151500
165.09999037	0.00000000	-22.13336000	-6.31151500
165.29999036	0.00000000	-22.13336000	-6.31151500
165.49999035	0.00000000	-22.13336000	-6.26845500
165.69999034	0.00000000	-22.13336000	-5.89320800
165.89999033	0.00000000	-22.17643000	-5.15501900
166.09999032	0.00000000	-22.55167000	-4.77977300
166.29999030	0.00000000	-23.29601000	-4.73671200
166.49999029	0.00000000	-23.67126000	-4.77977300
166.69999028	0.00000000	-23.71432000	-5.15501900
166.89999027	0.00000000	-23.71432000	-5.85014700
167.09999026	0.00000000	-23.67126000	-5.89320800
167.29999024	0.00000000	-23.29601000	-5.57332700
167.49999023	0.00000000	-22.55167000	-5.93626900
167.69999022	0.00000000	-22.17643000	-6.26845500
167.89999021	0.00000000	-22.13336000	-6.31151500
168.09999020	0.00000000	-22.13336000	-6.31151500
168.29999018	0.00000000	-22.13336000	-6.31151500
168.49999017	0.00000000	-22.13336000	-6.26845500
168.69999016	0.00000000	-22.13336000	-5.93626900
168.89999015	0.00000000	-22.17643000	-5.57332700
169.09999014	0.00000000	-22.55167000	-5.93626900
169.29999013	0.00000000	-23.24680000	-6.26845500
169.49999011	0.00000000	-23.24680000	-6.26845500
169.69999010	0.00000000	-22.55167000	-5.89320800
169.89999009	0.00000000	-22.17643000	-5.19808000
170.09999008	0.00000000	-22.13336000	-5.15501900
170.29999007	0.00000000	-22.13336000	-5.47490100
170.49999005	0.00000000	-22.13336000	-5.11195900
170.69999004	0.00000000	-22.13336000	-4.77977300
170.89999003	0.00000000	-22.13336000	-4.73671200
171.09999002	0.00000000	-22.13336000	-4.77977300
171.29999001	0.00000000	-22.13336000	-5.11195900
171.49998999	0.00000000	-22.13336000	-5.51796200
171.69998998	0.00000000	-22.13336000	-5.48105300
171.89998997	0.00000000	-22.13336000	-5.56717500
172.09998996	0.00000000	-22.13336000	-5.53026500
172.29998995	0.00000000	-22.13336000	-5.93626900
172.49998994	0.00000000	-22.13336000	-6.21924200
172.69998992	0.00000000	-22.17643000	-5.93626900
172.89998991	0.00000000	-22.50861000	-5.57332700
173.09998990	0.00000000	-22.87770000	-5.89320800
173.29998989	0.00000000	-22.50861000	-5.85014700
173.49998988	0.00000000	-22.17643000	-5.19808000
173.69998986	0.00000000	-22.13336000	-5.15501900
173.89998985	0.00000000	-22.13336000	-5.51796200
174.09998984	0.00000000	-22.13336000	-5.53026500
174.29998983	0.00000000	-22.13336000	-5.93626900
174.49998982	0.00000000	-22.13336000	-6.26845500
174.69998980	0.00000000	-22.13336000	-6.31151500
174.89998979	0.00000000	-22.13336000	-6.31151500
175.09998978	0.00000000	-22.13336000	-6.31151500
175.29998977	0.00000000	-22.13336000	-6.31151500
175.49998976	0.00000000	-22.17643000	-6.31151500
175.69998975	0.00000000	-22.50861000	-6.31151500
175.89998973	0.00000000	-22.87770000	-6.26845500
176.09998972	0.00000000	-22.50861000	-5.89320800
176.29998971	0.00000000	-22.17643000	-5.15501900
176.49998970	0.00000000	-22.13336000	-4.77977300
176.69998969	0.00000000	-22.13336000	-4.77977300
176.89998967	0.00000000	-22.13336000	-5.15501900
177.09998966	0.00000000	-22.13336000	-5.89320800
177.29998965	0.00000000	-22.13336000	-6.26845500
177.49998964	0.00000000	-22.13336000	-6.31151500
177.69998963	0.00000000	-22.13336000	-6.26845500
177.89998961	0.00000000	-22.13336000	-5.93626900
178.09998960	0.00000000	-22.13336000	-5.53026500
178.29998959	0.00000000	-22.13336000	-5.51796200
178.49998958	0.00000000	-22.13336000	-5.11195900
178.69998957	0.00000000	-22.13336000	-4.77977300
178.89998956	0.00000000	-22.13336000	-4.73671200
179.09998954	0.00000000	-22.13336000	-4.73671200
179.29998953	0.00000000	-22.13336000	-4.73671200
179.49998952	0.00000000	-22.13336000	-4.77977300
179.69998951	0.00000000	-22.13336000	-5.15501900
179.89998950	0.00000000	-22.13336000	-5.89320800
180.09998948	0.00000000	-22.13336000	-6.26845500
180.29998947	0.00000000	-22.13336000	-6.31151500
180.49998946	0.00000000	-22.13336000	-6.26845500
180.69998945	0.00000000	-22.13336000	-5.93626900
180.89998944	0.00000000	-22.13336000	-5.53026500
181.09998942	0.00000000	-22.13336000	-5.51796200
181.29998941	0.00000000	-22.13336000	-5.06274600
181.49998940	0.00000000	-22.13336000	-4.40452700
181.69998939	0.00000000	-22.13336000	-3.99237200
181.89998938	0.00000000	-22.13336000	-4.36146600
182.09998937	0.00000000	-22.13336000	-4.69365100
182.29998935	0.00000000	-22.13336000	-4.73671200
182.49998934	0.00000000	-22.13336000	-4.77977300
182.69998933	0.00000000	-22.13336000	-5.15501900
182.89998932	0.00000000	-22.13336000	-5.89320800
183.09998931	0.00000000	-22.13336000	-6.26845500
183.29998929	0.00000000	-22.13336000	-6.31151500
183.49998928	0.00000000	-22.13336000	-6.31151500
183.69998927	0.00000000	-22.13336000	-6.26845500
183.89998926	0.00000000	-22.13336000	-5.93626900
184.09998925	0.00000000	-22.13336000	-5.53026500
184.29998923	0.00000000	-22.13336000	-5.51796200
184.49998922	0.00000000	-22.13336000	-5.11195900
184.69998921	0.00000000	-22.13336000	-4.77977300
184.89998920	0.00000000	-22.13336000	-4.73671200
185.09998919	0.00000000	-22.13336000	-4.73671200
185.29998918	0.00000000	-22.13336000	-4.73671200
185.49998916	0.00000000	-22.13336000	-4.77977300
185.69998915	0.00000000	-22.13336000	-5.11195900
185.89998914	0.00000000	-22.13336000	-5.51796200
186.09998913	0.00000000	-22.13336000	-5.53026500
186.29998912	0.00000000	-22.13336000	-5.93626900
186.49998910	0.00000000	-22.13336000	-6.26845500
186.69998909	0.00000000	-22.13336000	-6.31151500
186.89998908	0.00000000	-22.13336000	-6.26845500
187.09998907	0.00000000	-22.13336000	-5.89320800
187.29998906	0.00000000	-22.13336000	-5.15501900
187.49998904	0.00000000	-22.13336000	-4.77977300
187.69998903	0.00000000	-22.13336000	-4.73671200
187.89998902	0.00000000	-22.13336000	-4.73671200
188.09998901	0.00000000	-22.13336000	-4.73671200
188.29998900	0.00000000	-22.13336000	-4.73671200
188.49998899	0.00000000	-22.09030000	-4.73671200
188.69998897	0.00000000	-21.75812000	-4.77977300
188.89998896	0.00000000	-21.38902000	-5.15501900
189.09998895	0.00000000	-21.75812000	-5.89320800
189.29998894	0.00000000	-22.09030000	-6.26845500
189.49998893	0.00000000	-22.13336000	-6.31151500
189.69998891	0.00000000	-22.13336000	-6.26845500
189.89998890	0.00000000	-22.13336000	-5.89320800
190.09998889	0.00000000	-22.13336000	-5.15501900
190.29998888	0.00000000	-22.13336000	-4.77977300
190.49998887	0.00000000	-22.13336000	-4.73671200
190.69998885	0.00000000	-22.13336000	-4.73671200
190.89998884	0.00000000	-22.13336000	-4.73671200
191.09998883	0.00000000	-22.13336000	-4.73671200
191.29998882	0.00000000	-22.13336000	-4.73671200
191.49998881	0.00000000	-22.13336000	-4.73671200
191.69998880	0.00000000	-22.13336000	-4.77977300
191.89998878	0.00000000	-22.13336000	-5.15501900
192.09998877	0.00000000	-22.13336000	-5.85014700
192.29998876	0.00000000	-22.13336000	-5.85014700
192.49998875	0.00000000	-22.13336000	-5.19808000
192.69998874	0.00000000	-22.13336000	-5.19808000
192.89998872	0.00000000	-22.13336000	-5.89320800
193.09998871	0.00000000	-22.13336000	-6.21924200
193.29998870	0.00000000	-22.13336000	-5.89320800
193.49998869	0.00000000	-22.13336000	-5.15501900
193.69998868	0.00000000	-22.13336000	-4.77977300
193.89998866	0.00000000	-22.13336000	-4.73671200
194.09998865	0.00000000	-22.13336000	-4.73671200
194.29998864	0.00000000	-22.09030000	-4.73671200
194.49998863	0.00000000	-21.75812000	-4.73671200
194.69998862	0.00000000	-21.38902000	-4.73671200
194.89998861	0.00000000	-21.75812000	-4.73671200
195.09998859	0.00000000	-22.09030000	-4.77977300
195.29998858	0.00000000	-22.13336000	-5.15501900
195.49998857	0.00000000	-22.13336000	-5.85014700
195.69998856	0.00000000	-22.13336000	-5.85014700
195.89998855	0.00000000	-22.17643000	-5.19808000
196.09998853	0.00000000	-22.50861000	-5.19808000
