Time	Channel A	Channel B	Channel C
(us)	(V)	(mV)	(mV)

-4.59999956	0.00000000	28.45718000	17.36589000
-4.39999957	0.00000000	28.45718000	17.36589000
-4.19999958	0.00000000	28.45718000	17.36589000
-3.99999959	0.00000000	28.41412000	17.36589000
-3.79999960	0.00000000	28.08194000	17.36589000
-3.59999962	0.00000000	27.71284000	17.36589000
-3.39999963	0.00000000	28.08194000	17.36589000
-3.19999964	0.00000000	28.41412000	17.36589000
-2.99999965	0.00000000	28.45718000	17.36589000
-2.79999966	0.00000000	28.45718000	17.36589000
-2.59999968	0.00000000	28.45718000	17.36589000
-2.39999969	0.00000000	28.45718000	17.36589000
-2.19999970	0.00000000	28.45718000	17.36589000
-1.99999971	0.00000000	28.45718000	17.36589000
-1.79999972	0.00000000	28.45718000	17.32283000
-1.59999973	0.00000000	28.45718000	16.94759000
-1.39999975	0.00000000	28.45718000	16.20325000
-1.19999976	0.00000000	28.45718000	15.82800000
-0.99999977	0.00000000	28.45718000	15.82800000
-0.79999978	0.00000000	28.45718000	16.20325000
-0.59999979	0.00000000	28.45718000	16.89837000
-0.39999981	0.15871060	28.45718000	16.94759000
-0.19999982	0.47736220	28.41412000	16.57849000
0.00000017	0.79601380	28.08194000	16.57234000
0.20000016	0.95533960	27.71284000	16.16018000
0.40000015	0.95533960	28.08194000	15.82800000
0.60000013	0.63668800	28.41412000	15.78494000
0.80000012	-0.15871060	28.45718000	15.78494000
1.00000011	-1.11466500	28.45718000	15.78494000
1.20000010	-2.07062000	28.45718000	15.82800000
1.40000009	-2.70792300	28.45718000	16.20325000
1.60000008	-2.70792300	28.45718000	16.94759000
1.80000006	-1.91129400	28.45718000	17.32283000
2.00000005	-0.31803640	28.45718000	17.32283000
2.20000004	1.75196900	28.45718000	16.94759000
2.40000003	3.82258900	28.45718000	16.20325000
2.60000002	5.09719500	28.45718000	15.82800000
2.80000000	5.25652100	28.45718000	15.78494000
2.99999999	3.98191400	28.45718000	15.78494000
3.19999998	1.43331700	28.45718000	15.78494000
3.39999997	-1.91129400	28.45718000	15.82800000
3.59999996	-5.25652100	28.45718000	16.20325000
3.79999994	-7.48646600	28.45718000	16.94759000
3.99999993	-7.96444400	28.45718000	17.32283000
4.19999992	-6.37180100	28.45718000	17.36589000
4.39999991	-3.02657500	28.45718000	17.36589000
4.59999990	1.43331700	28.45718000	17.36589000
4.79999989	5.57517200	28.45718000	17.36589000
4.99999987	8.60174700	28.45718000	17.32283000
5.19999986	9.39837600	28.45718000	16.94759000
5.39999985	7.96444400	28.45718000	16.20325000
5.59999984	4.45989200	28.45718000	15.82800000
5.79999983	-0.31803640	28.45718000	15.82800000
5.99999981	-4.93786900	28.45718000	16.20325000
6.19999980	-8.28309500	28.45718000	16.94759000
6.39999979	-9.55770200	28.45718000	17.32283000
6.59999978	-8.44242100	28.45718000	17.40895000
6.79999977	-5.25652100	28.45718000	17.74114000
6.99999975	-0.95533960	28.45718000	18.11024000
7.19999974	3.18590100	28.45718000	17.74114000
7.39999973	6.37180100	28.45718000	17.40895000
7.59999972	7.64579200	28.45718000	17.36589000
7.79999971	7.16781500	28.45718000	17.36589000
7.99999970	4.77854300	28.45718000	17.36589000
8.19999968	1.59264300	28.45718000	17.36589000
8.39999967	-1.59264300	28.45718000	17.36589000
8.59999966	-3.98191400	28.45718000	17.36589000
8.79999965	-5.09719500	28.50024000	17.36589000
8.99999964	-4.93786900	28.83243000	17.36589000
9.19999962	-3.50393700	29.20152000	17.36589000
9.39999961	-1.59264300	28.83243000	17.36589000
9.59999960	0.31803640	28.50024000	17.36589000
9.79999959	1.75196900	28.45718000	17.36589000
9.99999958	2.54859700	28.45718000	17.36589000
10.19999956	2.38927200	28.45718000	17.36589000
10.39999955	1.91129400	28.45718000	17.36589000
10.59999954	0.95533960	28.45718000	17.36589000
10.79999953	0.00000000	28.45718000	17.36589000
10.99999952	-0.47736220	28.45718000	17.36589000
11.19999951	-0.95533960	28.45718000	17.36589000
11.39999949	-0.95533960	28.45718000	17.36589000
11.59999948	-0.79601380	28.45718000	17.36589000
11.79999947	-0.63668800	28.45718000	17.36589000
11.99999946	-0.31803640	28.45718000	17.36589000
12.19999945	-0.15871060	28.45718000	17.36589000
12.39999943	-0.15871060	28.45718000	17.36589000
12.59999942	0.00000000	28.45718000	17.36589000
12.79999941	0.00000000	28.45718000	17.36589000
12.99999940	0.00000000	28.45718000	17.36589000
13.19999939	0.00000000	28.50024000	17.36589000
13.39999937	0.00000000	28.83243000	17.36589000
13.59999936	0.00000000	29.20152000	17.36589000
13.79999935	0.00000000	28.83243000	17.32283000
13.99999934	0.00000000	28.50024000	16.99065000
14.19999933	-0.15871060	28.45718000	16.62155000
14.39999932	-0.15871060	28.45718000	16.99065000
14.59999930	0.00000000	28.41412000	17.27362000
14.79999929	0.00000000	28.08194000	16.99065000
14.99999928	0.00000000	27.71284000	16.62155000
15.19999927	0.00000000	28.08194000	16.99065000
15.39999926	0.00000000	28.41412000	17.32283000
15.59999924	0.00000000	28.45718000	17.36589000
15.79999923	0.00000000	28.45718000	17.36589000
15.99999922	0.00000000	28.45718000	17.36589000
16.19999921	0.00000000	28.45718000	17.36589000
16.39999920	-0.15871060	28.50024000	17.36589000
16.59999919	-0.15871060	28.87549000	17.36589000
16.79999917	-0.15871060	29.61983000	17.36589000
16.99999916	0.00000000	30.03814000	17.36589000
17.19999915	0.00000000	30.41338000	17.36589000
17.39999914	0.00000000	30.78248000	17.36589000
17.59999913	0.00000000	30.41338000	17.36589000
17.79999911	0.00000000	30.03814000	17.36589000
17.99999910	0.00000000	29.57062000	17.36589000
18.19999909	0.00000000	28.41412000	17.36589000
18.39999908	0.00000000	26.87623000	17.36589000
18.59999907	0.00000000	25.33834000	17.36589000
18.79999905	0.00000000	24.18184000	17.36589000
18.99999904	0.00000000	23.80659000	17.36589000
19.19999903	0.00000000	24.26796000	17.36589000
19.39999902	0.00000000	26.22416000	17.36589000
19.59999901	0.00000000	29.70595000	17.36589000
19.79999900	0.00000000	33.57529000	17.36589000
19.99999898	0.00000000	37.48154000	17.36589000
20.19999897	0.00000000	40.46506000	17.36589000
20.39999896	0.00000000	41.20940000	17.36589000
20.59999895	0.00000000	38.84104000	17.36589000
20.79999894	0.00000000	33.80905000	17.36589000
20.99999892	0.00000000	26.79011000	17.36589000
21.19999891	0.00000000	19.10679000	17.36589000
21.39999890	0.00000000	12.54921000	17.36589000
21.59999889	0.00000000	9.14739100	17.36589000
21.79999888	0.00000000	9.94094400	17.36589000
21.99999886	0.00000000	15.47121000	17.36589000
22.19999885	0.00000000	25.15379000	17.36589000
22.39999884	0.00000000	37.57381000	17.36589000
22.59999883	0.00000000	49.86466000	17.36589000
22.79999882	0.00000000	59.02436000	17.36589000
22.99999881	0.00000000	61.63263000	17.40895000
23.19999879	0.00000000	56.23769000	17.78420000
23.39999878	0.00000000	44.23597000	18.52854000
23.59999877	0.00000000	27.94660000	18.90379000
23.79999876	0.00000000	10.54995000	18.98991000
23.99999875	0.00000000	-4.06003900	19.32210000
24.19999873	0.00000000	-12.10630000	19.64198000
24.39999872	0.00000000	-10.85753000	18.85458000
24.59999871	0.00000000	-0.01230315	17.36589000
24.79999870	0.00000000	18.59006000	15.78494000
24.99999869	0.00000000	40.97564000	14.25320000
25.19999867	0.00000000	62.14320000	13.09670000
25.39999866	0.00000000	76.38410000	12.72146000
25.59999865	0.00000000	79.87819000	13.13976000
25.79999864	0.00000000	72.10260000	14.76378000
25.99999863	0.00000000	54.32455000	17.83341000
26.19999862	0.00000000	30.37032000	21.72736000
26.39999860	0.00000000	6.07775500	25.54749000
26.59999859	0.00000000	-13.26895000	28.61097000
26.79999858	0.00000000	-22.85925000	29.31225000
26.99999857	0.00000000	-20.57702000	27.35605000
27.19999856	0.00000000	-6.71136800	22.66240000
27.39999854	0.00000000	14.91757000	15.69882000
27.59999853	0.00000000	39.25935000	8.02780400
27.79999852	0.00000000	61.30659000	1.43946800
27.99999851	0.00000000	75.63976000	-2.38065900
28.19999850	0.00000000	79.92126000	-2.70054100
28.39999848	0.00000000	73.30831000	1.66092500
28.59999847	0.00000000	56.79134000	10.53765000
28.79999846	0.00000000	35.20546000	22.10261000
28.99999845	0.00000000	13.89025000	33.71678000
29.19999844	0.00000000	-3.17421200	42.92569000
29.39999843	0.00000000	-12.48154000	47.47170000
29.59999841	0.00000000	-12.52461000	45.10950000
29.79999840	0.00000000	-3.64173200	36.23277000
29.99999839	0.00000000	12.13091000	22.71161000
30.19999838	0.00000000	30.64714000	7.24040300
30.39999837	0.00000000	47.34867000	-6.64985200
30.59999835	0.00000000	59.39960000	-16.31397000
30.79999834	0.00000000	64.84375000	-19.33440000
30.99999833	0.00000000	62.56151000	-14.64075000
31.19999832	0.00000000	53.72170000	-2.65748000
31.39999831	0.00000000	40.55733000	14.30241000
31.59999829	0.00000000	25.84892000	32.04970000
31.79999828	0.00000000	12.72761000	46.77657000
31.99999827	0.00000000	4.12770700	55.65329000
32.19999826	0.00000000	1.37795300	56.76673000
32.39999825	0.00000000	4.08464600	49.42790000
32.59999824	0.00000000	12.22318000	35.16240000
32.79999822	0.00000000	23.76353000	17.41511000
32.99999821	0.00000000	35.72219000	-0.00615157
33.19999820	0.00000000	45.39862000	-13.57037000
33.39999819	0.00000000	50.46752000	-20.91535000
33.59999818	0.00000000	50.55979000	-20.49705000
33.79999816	0.00000000	46.27829000	-11.99557000
33.99999815	0.00000000	38.60113000	2.63902500
34.19999814	0.00000000	29.34301000	20.01722000
34.39999813	0.00000000	21.24139000	36.23277000
34.59999812	0.00000000	15.80339000	47.84694000
34.79999810	0.00000000	14.26550000	52.49754000
34.99999809	0.00000000	16.91683000	49.42790000
35.19999808	0.00000000	22.68701000	39.43774000
35.39999807	0.00000000	29.95201000	25.17224000
35.59999806	0.00000000	36.50959000	10.16240000
35.79999805	0.00000000	40.37893000	-2.23302100
35.99999803	0.00000000	41.20940000	-9.20890700
36.19999802	0.00000000	38.88410000	-10.03937000
36.39999801	0.00000000	34.31963000	-4.60752900
36.59999800	0.00000000	28.92470000	5.75787400
36.79999799	0.00000000	24.26796000	18.43627000
36.99999797	0.00000000	21.19833000	29.95817000
37.19999796	0.00000000	20.45399000	37.30315000
37.39999795	0.00000000	22.73007000	38.88410000
37.59999794	0.00000000	26.96850000	34.69488000
37.79999793	0.00000000	31.95128000	26.24262000
37.99999791	0.00000000	36.59571000	15.92027000
38.19999790	0.00000000	39.30241000	6.72367100
38.39999789	0.00000000	40.08981000	1.75319900
38.59999788	0.00000000	38.50886000	2.07923200
38.79999787	0.00000000	34.73794000	7.46801100
38.99999786	0.00000000	30.45644000	16.25246000
39.19999784	0.00000000	26.54404000	25.82431000
39.39999783	0.00000000	23.06225000	33.07701000
39.59999782	0.00000000	21.14911000	35.72219000
39.79999781	0.00000000	21.10605000	32.65871000
39.99999780	0.00000000	22.68701000	24.66781000
40.19999778	0.00000000	25.80585000	14.72072000
40.39999777	0.00000000	30.03814000	5.84399600
40.59999776	0.00000000	34.27657000	0.08612204
40.79999775	0.00000000	37.39542000	-1.03346500
40.99999774	0.00000000	39.01944000	3.19266700
41.19999772	0.00000000	39.39468000	11.60187000
41.39999771	0.00000000	38.60113000	21.59203000
41.59999770	0.00000000	36.23277000	30.46875000
41.79999769	0.00000000	32.78174000	36.23277000
41.99999768	0.00000000	28.87549000	37.34621000
42.19999767	0.00000000	25.43061000	33.16314000
42.39999765	0.00000000	23.06225000	25.12918000
42.59999764	0.00000000	22.31176000	15.92027000
42.79999763	0.00000000	23.06225000	7.79404500
42.99999762	0.00000000	25.38755000	2.77436000
43.19999761	0.00000000	28.41412000	1.56865100
43.39999759	0.00000000	31.10851000	4.26304100
43.59999758	0.00000000	32.73252000	9.98400600
43.79999757	0.00000000	33.57529000	16.90453000
43.99999756	0.00000000	34.31963000	23.08686000
44.19999755	0.00000000	34.31963000	27.35605000
44.39999753	0.00000000	33.61835000	28.93701000
44.59999752	0.00000000	33.24311000	27.82357000
44.79999751	0.00000000	33.20005000	24.75394000
44.99999750	0.00000000	33.15699000	20.47859000
45.19999749	0.00000000	32.73252000	15.87721000
45.39999748	0.00000000	31.57603000	12.06939000
45.59999746	0.00000000	29.99508000	10.48843000
45.79999745	0.00000000	27.98966000	11.18356000
45.99999744	0.00000000	25.29527000	13.04749000
46.19999743	0.00000000	22.64394000	15.36663000
46.39999742	0.00000000	21.14911000	17.36589000
46.59999740	0.00000000	21.57357000	19.36516000
46.79999739	0.00000000	24.31102000	21.59203000
46.99999738	0.00000000	28.96776000	22.71161000
47.19999737	0.00000000	34.78716000	22.01649000
47.39999736	0.00000000	40.55733000	20.47859000
47.59999734	0.00000000	44.78961000	18.47933000
47.79999733	0.00000000	46.27829000	15.83415000
47.99999732	0.00000000	44.27903000	13.50886000
48.19999731	0.00000000	38.46580000	12.34621000
48.39999730	0.00000000	30.03814000	11.93405000
48.59999729	0.00000000	21.57357000	12.76452000
48.79999727	0.00000000	15.33587000	14.72072000
48.99999726	0.00000000	12.26624000	17.83341000
49.19999725	0.00000000	13.10285000	21.59203000
49.39999724	0.00000000	18.54700000	24.29257000
49.59999723	0.00000000	27.34375000	25.08612000
49.79999721	0.00000000	36.97096000	24.33563000
49.99999720	0.00000000	44.69734000	21.96727000
50.19999719	0.00000000	48.97884000	18.52854000
50.39999718	0.00000000	48.97884000	14.67150000
50.59999717	0.00000000	44.69734000	11.60187000
50.79999715	0.00000000	36.97096000	10.02707000
50.99999714	0.00000000	27.38681000	10.07013000
51.19999713	0.00000000	18.96531000	12.02018000
51.39999712	0.00000000	14.30856000	15.83415000
51.59999711	0.00000000	14.26550000	20.06029000
51.79999710	0.00000000	18.49778000	23.59129000
51.99999708	0.00000000	25.80585000	26.24262000
52.19999707	0.00000000	34.23351000	26.98080000
52.39999706	0.00000000	41.16019000	25.12918000
52.59999705	0.00000000	44.65428000	22.05955000
52.79999704	0.00000000	44.32209000	18.52854000
52.99999702	0.00000000	40.46506000	14.72072000
53.19999701	0.00000000	34.31963000	12.06939000
53.39999700	0.00000000	27.38681000	11.60187000
53.59999699	0.00000000	21.65969000	12.76452000
53.79999698	0.00000000	18.96531000	15.04675000
53.99999696	0.00000000	20.12795000	18.15330000
54.19999695	0.00000000	24.68627000	20.76772000
54.39999694	0.00000000	31.15772000	22.33637000
54.59999693	0.00000000	36.92790000	21.96727000
54.79999692	0.00000000	40.46506000	20.47859000
54.99999691	0.00000000	41.62770000	18.52854000
55.19999689	0.00000000	40.04675000	16.29552000
55.39999688	0.00000000	35.85752000	15.18209000
55.59999687	0.00000000	30.45644000	15.92027000
55.79999686	0.00000000	25.47367000	17.78420000
55.99999685	0.00000000	21.99188000	20.10950000
56.19999683	0.00000000	21.24139000	22.01649000
56.39999682	0.00000000	23.10531000	23.17298000
56.59999681	0.00000000	26.96850000	23.08686000
56.79999680	0.00000000	31.57603000	21.13066000
56.99999679	0.00000000	35.81446000	17.32283000
57.19999677	0.00000000	38.50886000	13.13976000
57.39999676	0.00000000	38.93332000	10.07013000
57.59999675	0.00000000	37.39542000	8.91363100
57.79999674	0.00000000	34.31963000	10.11319000
57.99999673	0.00000000	30.50566000	13.60113000
58.19999672	0.00000000	27.42987000	18.98991000
58.39999670	0.00000000	25.84892000	24.71087000
58.59999669	0.00000000	25.80585000	28.98007000
58.79999668	0.00000000	26.96850000	30.88705000
58.99999667	0.00000000	28.87549000	30.05044000
59.19999666	0.00000000	31.20078000	25.77510000
59.39999664	0.00000000	33.11393000	18.89764000
59.59999663	0.00000000	34.31963000	11.60187000
59.79999662	0.00000000	34.65182000	5.84399600
59.99999661	0.00000000	33.94439000	3.14960600
60.19999660	0.00000000	32.36959000	4.26304100
60.39999658	0.00000000	30.91781000	8.53838500
60.59999657	0.00000000	29.76132000	15.13902000
60.79999656	0.00000000	30.08120000	23.17298000
60.99999655	0.00000000	30.82554000	30.05044000
61.19999654	0.00000000	31.25000000	33.53838000
61.39999653	0.00000000	32.40649000	33.21235000
61.59999651	0.00000000	33.06471000	29.31225000
61.79999650	0.00000000	32.73252000	22.75467000
61.99999649	0.00000000	31.57603000	14.67150000
62.19999648	0.00000000	30.08120000	7.37573800
62.39999647	0.00000000	28.87549000	2.73129900
62.59999645	0.00000000	28.12500000	1.56865100
62.79999644	0.00000000	27.76206000	4.31225400
62.99999643	0.00000000	28.54946000	10.44537000
63.19999642	0.00000000	30.03814000	18.47933000
63.39999641	0.00000000	31.61909000	25.82431000
63.59999639	0.00000000	33.20005000	30.88705000
63.79999638	0.00000000	34.69488000	33.21235000
63.99999637	0.00000000	35.48228000	32.04970000
64.19999636	0.00000000	35.07013000	27.82357000
64.39999635	0.00000000	33.94439000	21.68430000
64.59999634	0.00000000	31.99434000	15.08981000
64.79999632	0.00000000	30.08120000	9.65182000
64.99999631	0.00000000	28.54946000	5.80093500
65.19999630	0.00000000	27.76206000	4.68134800
65.39999629	0.00000000	28.17421000	6.90821800
65.59999628	0.00000000	29.29380000	11.09129000
65.79999626	0.00000000	31.24384000	15.78494000
65.99999625	0.00000000	33.11393000	20.43553000
66.19999624	0.00000000	34.27657000	24.33563000
66.39999623	0.00000000	34.27657000	26.70398000
66.59999622	0.00000000	33.15699000	27.90969000
66.79999620	0.00000000	31.61909000	27.86663000
66.99999619	0.00000000	30.08120000	26.32874000
67.19999618	0.00000000	28.96776000	23.64050000
67.39999617	0.00000000	28.96776000	20.52780000
67.59999616	0.00000000	30.13041000	17.36589000
67.79999615	0.00000000	32.08661000	14.21014000
67.99999613	0.00000000	34.73794000	11.18356000
68.19999612	0.00000000	37.02018000	9.23966500
68.39999611	0.00000000	37.77067000	9.23351300
68.59999610	0.00000000	37.02018000	10.40231000
68.79999609	0.00000000	34.65182000	13.18282000
68.99999607	0.00000000	31.15772000	17.40895000
69.19999606	0.00000000	26.96850000	22.05955000
69.39999605	0.00000000	23.52977000	26.32874000
69.59999604	0.00000000	22.36097000	29.39837000
69.79999603	0.00000000	23.10531000	30.56102000
69.99999601	0.00000000	25.89198000	29.35531000
70.19999600	0.00000000	30.50566000	25.91043000
70.39999599	0.00000000	35.94980000	20.89690000
70.59999598	0.00000000	40.93258000	15.83415000
70.79999597	0.00000000	44.37131000	11.22662000
70.99999596	0.00000000	44.69734000	8.16929100
71.19999594	0.00000000	41.67076000	8.11392700
71.39999593	0.00000000	36.27584000	10.02707000
71.59999592	0.00000000	30.08735000	13.55807000
71.79999591	0.00000000	24.26796000	18.52854000
71.99999590	0.00000000	20.03568000	23.08686000
72.19999588	0.00000000	18.49778000	25.86737000
72.39999587	0.00000000	20.03568000	26.66092000
72.59999586	0.00000000	24.26796000	25.91043000
72.79999585	0.00000000	30.08735000	23.59129000
72.99999584	0.00000000	36.23277000	20.57087000
73.19999582	0.00000000	41.25246000	17.83341000
73.39999581	0.00000000	43.62696000	15.92027000
73.59999580	0.00000000	43.62696000	15.13902000
73.79999579	0.00000000	41.29552000	15.87721000
73.99999578	0.00000000	36.69414000	17.32283000
74.19999577	0.00000000	31.66830000	18.47933000
74.39999575	0.00000000	27.01156000	18.85458000
74.59999574	0.00000000	23.57283000	18.47933000
74.79999573	0.00000000	22.77928000	17.32283000
74.99999572	0.00000000	24.22490000	15.83415000
75.19999571	0.00000000	26.91929000	14.67150000
75.39999569	0.00000000	30.08120000	14.34547000
75.59999568	0.00000000	33.53223000	15.18209000
75.79999567	0.00000000	36.59571000	17.87647000
75.99999566	0.00000000	37.77067000	21.64124000
76.19999565	0.00000000	37.48154000	24.71087000
76.39999563	0.00000000	36.32505000	26.32874000
76.59999562	0.00000000	34.73794000	26.61786000
76.79999561	0.00000000	32.82480000	25.03076000
76.99999560	0.00000000	30.92396000	20.81078000
77.19999559	0.00000000	30.17347000	15.83415000
77.39999558	0.00000000	30.45644000	11.14050000
77.59999556	0.00000000	31.20078000	7.33267600
77.79999555	0.00000000	31.52682000	5.84399600
77.99999554	0.00000000	31.20078000	7.37573800
78.19999553	0.00000000	30.45644000	11.60187000
78.39999552	0.00000000	30.03814000	17.36589000
78.59999550	0.00000000	29.66289000	23.17298000
78.79999549	0.00000000	29.34301000	27.77436000
78.99999548	0.00000000	30.13041000	30.14272000
79.19999547	0.00000000	31.66215000	29.77362000
79.39999546	0.00000000	33.61835000	27.44832000
79.59999544	0.00000000	35.90059000	23.17298000
79.79999543	0.00000000	37.39542000	17.78420000
79.99999542	0.00000000	37.43848000	12.76452000
80.19999541	0.00000000	36.27584000	8.90747900
80.39999540	0.00000000	34.31963000	7.37573800
80.59999539	0.00000000	31.61909000	8.44611200
80.79999537	0.00000000	28.92470000	11.14050000
80.99999536	0.00000000	27.01156000	14.62844000
81.19999535	0.00000000	26.26722000	18.57160000
81.39999534	0.00000000	27.42987000	22.38558000
81.59999533	0.00000000	30.08120000	25.49212000
81.79999531	0.00000000	33.15699000	26.70398000
81.99999530	0.00000000	35.85752000	26.74705000
82.19999529	0.00000000	37.43848000	25.91043000
82.39999528	0.00000000	37.81373000	23.64050000
82.59999527	0.00000000	37.06324000	20.94611000
82.79999525	0.00000000	35.16240000	18.52854000
82.99999524	0.00000000	33.20005000	15.78494000
83.19999523	0.00000000	31.24384000	13.13976000
83.39999522	0.00000000	29.34301000	11.55881000
83.59999521	0.00000000	28.63558000	11.18356000
83.79999520	0.00000000	29.29380000	11.97711000
83.99999518	0.00000000	30.82554000	14.34547000
84.19999517	0.00000000	31.95128000	17.78420000
84.39999516	0.00000000	32.78174000	21.64124000
84.59999515	0.00000000	33.20005000	24.79700000
84.79999514	0.00000000	33.57529000	27.12844000
84.99999512	0.00000000	33.94439000	28.60482000
85.19999511	0.00000000	33.57529000	27.78051000
85.39999510	0.00000000	33.24311000	24.75394000
85.59999509	0.00000000	33.24311000	20.47859000
85.79999508	0.00000000	33.61835000	15.87721000
85.99999506	0.00000000	34.36884000	11.97711000
86.19999505	0.00000000	34.69488000	9.69488100
86.39999504	0.00000000	34.36884000	9.28272600
86.59999503	0.00000000	33.53223000	11.22662000
86.79999502	0.00000000	32.40649000	14.67150000
86.99999501	0.00000000	30.83169000	18.98991000
87.19999499	0.00000000	29.75517000	23.59129000
87.39999498	0.00000000	29.34301000	27.40526000
87.59999497	0.00000000	30.13041000	28.93701000
87.79999496	0.00000000	31.61909000	27.82357000
87.99999495	0.00000000	33.20005000	24.71087000
88.19999493	0.00000000	34.73794000	20.10950000
88.39999492	0.00000000	35.90059000	15.13902000
88.59999491	0.00000000	36.27584000	11.65108000
88.79999490	0.00000000	35.90059000	10.07013000
88.99999489	0.00000000	34.73794000	10.48843000
89.19999487	0.00000000	33.20005000	13.18282000
89.39999486	0.00000000	31.66215000	17.40895000
89.59999485	0.00000000	30.50566000	22.01033000
89.79999484	0.00000000	30.08120000	25.82431000
89.99999483	0.00000000	30.08120000	27.35605000
90.19999482	0.00000000	30.50566000	26.24262000
90.39999480	0.00000000	31.66215000	23.17298000
90.59999479	0.00000000	33.11393000	18.90379000
90.79999478	0.00000000	33.94439000	14.34547000
90.99999477	0.00000000	33.99975000	10.86368000
91.19999476	0.00000000	34.36884000	9.74409400
91.39999474	0.00000000	34.31963000	10.86368000
91.59999473	0.00000000	33.61835000	14.34547000
91.79999472	0.00000000	33.24311000	18.90379000
91.99999471	0.00000000	33.20005000	23.17298000
92.19999470	0.00000000	33.24311000	26.24262000
92.39999468	0.00000000	33.53223000	27.35605000
92.59999467	0.00000000	33.52608000	25.86737000
92.79999466	0.00000000	32.41265000	22.38558000
92.99999465	0.00000000	31.66215000	18.15330000
93.19999464	0.00000000	31.20078000	13.55807000
93.39999463	0.00000000	30.45644000	10.53765000
93.59999461	0.00000000	30.13041000	10.11319000
93.79999460	0.00000000	30.50566000	12.02018000
93.99999459	0.00000000	31.66215000	15.87721000
94.19999458	0.00000000	33.24926000	20.43553000
94.39999457	0.00000000	35.16240000	24.29257000
94.59999455	0.00000000	37.06324000	26.19955000
94.79999454	0.00000000	37.85679000	25.86737000
94.99999453	0.00000000	37.85679000	23.54823000
95.19999452	0.00000000	37.02018000	20.10950000
95.39999451	0.00000000	34.69488000	16.25246000
95.59999449	0.00000000	31.66830000	13.18282000
95.79999448	0.00000000	28.92470000	11.64493000
95.99999447	0.00000000	26.96850000	12.02018000
96.19999446	0.00000000	25.84892000	14.34547000
96.39999445	0.00000000	26.26722000	17.74114000
96.59999444	0.00000000	28.59252000	21.22293000
96.79999442	0.00000000	32.03740000	23.54823000
96.99999441	0.00000000	35.94980000	24.71087000
97.19999440	0.00000000	39.39468000	24.33563000
97.39999439	0.00000000	41.71998000	22.43479000
97.59999438	0.00000000	42.04601000	20.10950000
97.79999436	0.00000000	40.18209000	17.41511000
97.99999435	0.00000000	36.69414000	15.18209000
98.19999434	0.00000000	32.82480000	14.76378000
98.39999433	0.00000000	28.92470000	15.83415000
98.59999432	0.00000000	25.84892000	17.36589000
98.79999430	0.00000000	24.31102000	18.90379000
98.99999429	0.00000000	24.68627000	20.06029000
99.19999428	0.00000000	27.01156000	20.48474000
99.39999427	0.00000000	30.45644000	20.52780000
99.59999426	0.00000000	34.36884000	20.52780000
99.79999425	0.00000000	37.85679000	20.52780000
99.99999423	0.00000000	40.55733000	20.57087000
100.19999422	0.00000000	41.71998000	20.94611000
100.39999421	0.00000000	40.97564000	21.68430000
100.59999420	0.00000000	39.06250000	22.01033000
100.79999419	0.00000000	36.31890000	21.64124000
100.99999417	0.00000000	33.24926000	20.47859000
101.19999416	0.00000000	30.50566000	18.94685000
101.39999415	0.00000000	28.54946000	17.36589000
101.59999414	0.00000000	27.38681000	15.83415000
101.79999413	0.00000000	27.38681000	14.72072000
101.99999411	0.00000000	28.54946000	14.76378000
102.19999410	0.00000000	30.50566000	16.29552000
102.39999409	0.00000000	33.20005000	18.94685000
102.59999408	0.00000000	35.85752000	21.68430000
102.79999407	0.00000000	37.43848000	24.00960000
102.99999406	0.00000000	37.90600000	25.91043000
103.19999404	0.00000000	37.90600000	26.24262000
103.39999403	0.00000000	37.43848000	24.75394000
103.59999402	0.00000000	35.90059000	22.01649000
103.79999401	0.00000000	33.61835000	18.57160000
103.99999400	0.00000000	31.66215000	15.13902000
104.19999398	0.00000000	30.13041000	13.18282000
104.39999397	0.00000000	29.34301000	12.76452000
104.59999396	0.00000000	29.70595000	13.55807000
104.79999395	0.00000000	30.50566000	15.87721000
104.99999394	0.00000000	32.03740000	18.89764000
105.19999392	0.00000000	33.94439000	21.64124000
105.39999391	0.00000000	35.11934000	23.54823000
105.59999390	0.00000000	35.90059000	24.33563000
105.79999389	0.00000000	35.85752000	23.54823000
105.99999388	0.00000000	34.78716000	21.68430000
106.19999387	0.00000000	33.61835000	19.36516000
106.39999385	0.00000000	32.82480000	17.40895000
106.59999384	0.00000000	32.03740000	15.87721000
106.79999383	0.00000000	31.66215000	15.13902000
106.99999382	0.00000000	31.66215000	15.87721000
107.19999381	0.00000000	32.08661000	17.36589000
107.39999379	0.00000000	33.20005000	18.94685000
107.59999378	0.00000000	34.31963000	20.47859000
107.79999377	0.00000000	34.74409000	21.59203000
107.99999376	0.00000000	34.74409000	21.59203000
108.19999375	0.00000000	34.31963000	20.47859000
108.39999374	0.00000000	33.20005000	18.94685000
108.59999372	0.00000000	32.03740000	17.40895000
108.79999371	0.00000000	31.28691000	16.25246000
108.99999370	0.00000000	30.92396000	15.87721000
109.19999369	0.00000000	31.66215000	16.25246000
109.39999368	0.00000000	32.78174000	17.40895000
109.59999366	0.00000000	33.61835000	18.94685000
109.79999365	0.00000000	34.78716000	20.47859000
109.99999364	0.00000000	35.90059000	21.64124000
110.19999363	0.00000000	36.27584000	22.01033000
110.39999362	0.00000000	35.90059000	21.64124000
110.59999360	0.00000000	34.73794000	20.47859000
110.79999359	0.00000000	33.24926000	18.94685000
110.99999358	0.00000000	32.08661000	17.40895000
111.19999357	0.00000000	31.66215000	16.29552000
111.39999356	0.00000000	31.61909000	16.25246000
111.59999355	0.00000000	31.66215000	16.94759000
111.79999353	0.00000000	32.08661000	17.36589000
111.99999352	0.00000000	33.20005000	17.83341000
112.19999351	0.00000000	34.31963000	18.94685000
112.39999350	0.00000000	34.74409000	20.06029000
112.59999349	0.00000000	34.78716000	20.48474000
112.79999347	0.00000000	34.78716000	20.52780000
112.99999346	0.00000000	34.74409000	20.52780000
113.19999345	0.00000000	34.36884000	20.48474000
113.39999344	0.00000000	33.61835000	20.10950000
113.59999343	0.00000000	33.24311000	19.36516000
113.79999341	0.00000000	33.20005000	18.98991000
113.99999340	0.00000000	33.24311000	18.94685000
114.19999339	0.00000000	33.57529000	18.94685000
114.39999338	0.00000000	33.98745000	18.94685000
114.59999337	0.00000000	33.99975000	18.90379000
114.79999336	0.00000000	34.41191000	18.52854000
114.99999334	0.00000000	34.74409000	17.78420000
115.19999333	0.00000000	34.78716000	17.45817000
115.39999332	0.00000000	34.78716000	17.78420000
115.59999331	0.00000000	34.78716000	18.57160000
115.79999330	0.00000000	34.74409000	19.32210000
115.99999328	0.00000000	34.36884000	20.15256000
116.19999327	0.00000000	33.61835000	20.90305000
116.39999326	0.00000000	33.24311000	21.68430000
116.59999325	0.00000000	33.20005000	22.05955000
116.79999324	0.00000000	33.20005000	22.05955000
116.99999322	0.00000000	33.24311000	21.64124000
117.19999321	0.00000000	33.61835000	20.52780000
117.39999320	0.00000000	34.41191000	19.36516000
117.59999319	0.00000000	35.16240000	18.57160000
117.79999318	0.00000000	35.94980000	17.78420000
117.99999317	0.00000000	36.32505000	17.45817000
118.19999315	0.00000000	36.32505000	17.78420000
118.39999314	0.00000000	35.94980000	18.57160000
118.59999313	0.00000000	35.16240000	19.32210000
118.79999312	0.00000000	34.36884000	20.10950000
118.99999311	0.00000000	33.20005000	20.52780000
119.19999309	0.00000000	32.08661000	20.90305000
119.39999308	0.00000000	31.71137000	21.26599000
119.59999307	0.00000000	32.08661000	20.90305000
119.79999306	0.00000000	33.20005000	20.57087000
119.99999305	0.00000000	34.36884000	20.48474000
120.19999303	0.00000000	35.20546000	20.10950000
120.39999302	0.00000000	36.36811000	19.36516000
120.59999301	0.00000000	37.48154000	18.94685000
120.79999300	0.00000000	37.85679000	18.52854000
120.99999299	0.00000000	37.48154000	17.78420000
121.19999298	0.00000000	36.32505000	17.40895000
121.39999296	0.00000000	34.78716000	17.40895000
121.59999295	0.00000000	33.24926000	17.78420000
121.79999294	0.00000000	32.08661000	18.52854000
121.99999293	0.00000000	31.66215000	18.90379000
122.19999292	0.00000000	31.66215000	18.98991000
122.39999290	0.00000000	32.03740000	19.36516000
122.59999289	0.00000000	32.82480000	20.10950000
122.79999288	0.00000000	33.61835000	20.48474000
122.99999287	0.00000000	34.78716000	20.52780000
123.19999286	0.00000000	35.90059000	20.52780000
123.39999284	0.00000000	36.32505000	20.48474000
123.59999283	0.00000000	36.36811000	20.10950000
123.79999282	0.00000000	36.32505000	19.32210000
123.99999281	0.00000000	35.94980000	18.57160000
124.19999280	0.00000000	35.16240000	17.83341000
124.39999279	0.00000000	34.36884000	17.78420000
124.59999277	0.00000000	33.24926000	18.15330000
124.79999276	0.00000000	32.50492000	18.15945000
124.99999275	0.00000000	32.78174000	18.57160000
125.19999274	0.00000000	32.78174000	18.94685000
125.39999273	0.00000000	32.45571000	19.36516000
125.59999271	0.00000000	32.86786000	20.10950000
125.79999270	0.00000000	33.57529000	20.48474000
125.99999269	0.00000000	34.41191000	20.52780000
126.19999268	0.00000000	35.16240000	20.48474000
126.39999267	0.00000000	35.94980000	20.15256000
126.59999265	0.00000000	36.32505000	19.74040000
126.79999264	0.00000000	36.32505000	19.73425000
126.99999263	0.00000000	35.94980000	19.32210000
127.19999262	0.00000000	35.16240000	18.98991000
127.39999261	0.00000000	34.36884000	18.94685000
127.59999260	0.00000000	33.20005000	18.94685000
127.79999258	0.00000000	32.12967000	18.94685000
127.99999257	0.00000000	32.08661000	18.98991000
128.19999256	0.00000000	32.82480000	19.36516000
128.39999255	0.00000000	33.61835000	20.10950000
128.59999254	0.00000000	34.78716000	20.48474000
128.79999252	0.00000000	35.94980000	20.52780000
128.99999251	0.00000000	36.70029000	20.52780000
129.19999250	0.00000000	37.11245000	20.48474000
129.39999249	0.00000000	36.70029000	20.10950000
129.59999248	0.00000000	35.94980000	19.41437000
129.79999246	0.00000000	34.78716000	19.36516000
129.99999245	0.00000000	33.61835000	19.73425000
130.19999244	0.00000000	32.86786000	19.74040000
130.39999243	0.00000000	32.50492000	20.15256000
130.59999242	0.00000000	33.24926000	20.48474000
130.79999241	0.00000000	34.36884000	20.52780000
130.99999239	0.00000000	35.16240000	20.52780000
131.19999238	0.00000000	35.94980000	20.52780000
131.39999237	0.00000000	36.32505000	20.52780000
131.59999236	0.00000000	36.36811000	20.48474000
131.79999235	0.00000000	36.32505000	20.10950000
131.99999233	0.00000000	35.94980000	19.36516000
132.19999232	0.00000000	35.16240000	18.98991000
132.39999231	0.00000000	34.45497000	18.94685000
132.59999230	0.00000000	34.04282000	18.98991000
132.79999229	0.00000000	34.41191000	19.36516000
132.99999227	0.00000000	34.74409000	20.15256000
133.19999226	0.00000000	34.78716000	20.90305000
133.39999225	0.00000000	34.83022000	21.68430000
133.59999224	0.00000000	35.16240000	22.01033000
133.79999223	0.00000000	35.53149000	21.68430000
133.99999222	0.00000000	35.16240000	20.90305000
134.19999220	0.00000000	34.83022000	20.15256000
134.39999219	0.00000000	34.78716000	19.32210000
134.59999218	0.00000000	34.78716000	18.57160000
134.79999217	0.00000000	34.83022000	17.83341000
134.99999216	0.00000000	35.20546000	17.78420000
135.19999214	0.00000000	35.94980000	18.15330000
135.39999213	0.00000000	36.32505000	18.15945000
135.59999212	0.00000000	36.32505000	18.61466000
135.79999211	0.00000000	35.94980000	19.32210000
135.99999210	0.00000000	35.16240000	20.10950000
136.19999208	0.00000000	34.41191000	20.52780000
136.39999207	0.00000000	33.61835000	20.90305000
136.59999206	0.00000000	33.24311000	21.26599000
136.79999205	0.00000000	33.24311000	20.85384000
136.99999204	0.00000000	33.61835000	20.15256000
137.19999203	0.00000000	34.41191000	19.36516000
137.39999201	0.00000000	35.16240000	18.98991000
137.59999200	0.00000000	35.94980000	18.94685000
137.79999199	0.00000000	36.32505000	18.94685000
137.99999198	0.00000000	36.36811000	18.94685000
138.19999197	0.00000000	36.32505000	18.94685000
138.39999195	0.00000000	35.94980000	18.94685000
138.59999194	0.00000000	35.16240000	18.94685000
138.79999193	0.00000000	34.41191000	18.94685000
138.99999192	0.00000000	33.61835000	18.98991000
139.19999191	0.00000000	33.24311000	19.36516000
139.39999189	0.00000000	33.24311000	20.10950000
139.59999188	0.00000000	33.61835000	20.48474000
139.79999187	0.00000000	34.41191000	20.52780000
139.99999186	0.00000000	35.16240000	20.48474000
140.19999185	0.00000000	35.94980000	20.10950000
140.39999184	0.00000000	36.32505000	19.32210000
140.59999182	0.00000000	36.32505000	18.57160000
140.79999181	0.00000000	35.94980000	17.78420000
140.99999180	0.00000000	35.20546000	17.40895000
141.19999179	0.00000000	34.83022000	17.40895000
141.39999178	0.00000000	34.78716000	17.78420000
141.59999176	0.00000000	34.78716000	18.57160000
141.79999175	0.00000000	34.78716000	19.36516000
141.99999174	0.00000000	34.83022000	20.52780000
142.19999173	0.00000000	35.20546000	21.64124000
142.39999172	0.00000000	35.94980000	22.05955000
142.59999170	0.00000000	36.32505000	22.05955000
142.79999169	0.00000000	36.32505000	21.68430000
142.99999168	0.00000000	35.94980000	20.90305000
143.19999167	0.00000000	35.25467000	20.15256000
143.39999166	0.00000000	35.20546000	19.36516000
143.59999165	0.00000000	35.53149000	18.98991000
143.79999163	0.00000000	35.16240000	18.94685000
143.99999162	0.00000000	34.87943000	18.98991000
144.19999161	0.00000000	35.20546000	19.36516000
144.39999160	0.00000000	35.94980000	20.15256000
144.59999159	0.00000000	36.32505000	20.90305000
144.79999157	0.00000000	36.36811000	21.68430000
144.99999156	0.00000000	36.36811000	22.05955000
145.19999155	0.00000000	36.36811000	22.05955000
145.39999154	0.00000000	36.32505000	21.68430000
145.59999153	0.00000000	35.94980000	20.94611000
145.79999151	0.00000000	35.20546000	20.57087000
145.99999150	0.00000000	34.83022000	20.48474000
146.19999149	0.00000000	34.78716000	20.10950000
146.39999148	0.00000000	34.83022000	19.36516000
146.59999147	0.00000000	35.20546000	18.98991000
146.79999146	0.00000000	35.94980000	18.98991000
146.99999144	0.00000000	36.32505000	19.36516000
147.19999143	0.00000000	36.36811000	20.10950000
147.39999142	0.00000000	36.32505000	20.48474000
147.59999141	0.00000000	35.99286000	20.52780000
147.79999140	0.00000000	35.58071000	20.57087000
147.99999138	0.00000000	35.57455000	20.90305000
148.19999137	0.00000000	35.16240000	21.26599000
148.39999136	0.00000000	34.83022000	20.90305000
148.59999135	0.00000000	34.78716000	20.57087000
148.79999134	0.00000000	34.83022000	20.48474000
148.99999132	0.00000000	35.20546000	20.15256000
149.19999131	0.00000000	35.94980000	19.74040000
149.39999130	0.00000000	36.32505000	19.73425000
149.59999129	0.00000000	36.36811000	19.36516000
149.79999128	0.00000000	36.36811000	19.41437000
149.99999127	0.00000000	36.36811000	20.10950000
150.19999125	0.00000000	36.36811000	20.48474000
150.39999124	0.00000000	36.36811000	20.52780000
150.59999123	0.00000000	36.32505000	20.52780000
150.79999122	0.00000000	35.94980000	20.52780000
150.99999121	0.00000000	35.20546000	20.52780000
151.19999119	0.00000000	34.83022000	20.52780000
151.39999118	0.00000000	34.78716000	20.48474000
151.59999117	0.00000000	34.83022000	20.10950000
151.79999116	0.00000000	35.20546000	19.36516000
151.99999115	0.00000000	35.94980000	18.98991000
152.19999113	0.00000000	36.32505000	18.94685000
152.39999112	0.00000000	36.36811000	18.98991000
152.59999111	0.00000000	36.36811000	19.36516000
152.79999110	0.00000000	36.36811000	20.10950000
152.99999109	0.00000000	36.36811000	20.48474000
153.19999108	0.00000000	36.36811000	20.52780000
153.39999106	0.00000000	36.32505000	20.52780000
153.59999105	0.00000000	35.94980000	20.52780000
153.79999104	0.00000000	35.20546000	20.52780000
153.99999103	0.00000000	34.83022000	20.52780000
154.19999102	0.00000000	34.78716000	20.52780000
154.39999100	0.00000000	34.78716000	20.52780000
154.59999099	0.00000000	34.78716000	20.48474000
154.79999098	0.00000000	34.83022000	20.15256000
154.99999097	0.00000000	35.20546000	19.74040000
155.19999096	0.00000000	35.94980000	19.73425000
155.39999094	0.00000000	36.32505000	19.32210000
155.59999093	0.00000000	36.36811000	18.98991000
155.79999092	0.00000000	36.36811000	18.98991000
155.99999091	0.00000000	36.36811000	19.36516000
156.19999090	0.00000000	36.36811000	20.10950000
156.39999089	0.00000000	36.32505000	20.48474000
156.59999087	0.00000000	35.99286000	20.52780000
156.79999086	0.00000000	35.58071000	20.52780000
156.99999085	0.00000000	35.57455000	20.57087000
157.19999084	0.00000000	35.16240000	20.90305000
157.39999083	0.00000000	34.83022000	21.26599000
157.59999081	0.00000000	34.83022000	20.90305000
157.79999080	0.00000000	35.20546000	20.57087000
157.99999079	0.00000000	35.94980000	20.48474000
158.19999078	0.00000000	36.32505000	20.15256000
158.39999077	0.00000000	36.41117000	19.74040000
158.59999075	0.00000000	36.74335000	19.77731000
158.79999074	0.00000000	37.15551000	19.74040000
158.99999073	0.00000000	37.11860000	20.15256000
159.19999072	0.00000000	37.15551000	20.48474000
159.39999071	0.00000000	36.74335000	20.57087000
159.59999070	0.00000000	36.41117000	20.94611000
159.79999068	0.00000000	36.32505000	21.68430000
159.99999067	0.00000000	35.94980000	22.01033000
160.19999066	0.00000000	35.25467000	21.68430000
160.39999065	0.00000000	35.20546000	20.94611000
160.59999064	0.00000000	35.57455000	20.57087000
160.79999062	0.00000000	35.58071000	20.52780000
160.99999061	0.00000000	35.99286000	20.48474000
161.19999060	0.00000000	36.32505000	20.10950000
161.39999059	0.00000000	36.36811000	19.41437000
161.59999058	0.00000000	36.36811000	19.41437000
161.79999056	0.00000000	36.36811000	20.10950000
161.99999055	0.00000000	36.36811000	20.48474000
162.19999054	0.00000000	36.36811000	20.52780000
162.39999053	0.00000000	36.36811000	20.52780000
162.59999052	0.00000000	36.36811000	20.52780000
162.79999051	0.00000000	36.36811000	20.52780000
162.99999049	0.00000000	36.36811000	20.52780000
163.19999048	0.00000000	36.36811000	20.52780000
163.39999047	0.00000000	36.36811000	20.52780000
163.59999046	0.00000000	36.36811000	20.52780000
163.79999045	0.00000000	36.36811000	20.52780000
163.99999043	0.00000000	36.36811000	20.52780000
164.19999042	0.00000000	36.36811000	20.52780000
164.39999041	0.00000000	36.36811000	20.52780000
164.59999040	0.00000000	36.41117000	20.52780000
164.79999039	0.00000000	36.74335000	20.52780000
164.99999037	0.00000000	37.15551000	20.52780000
165.19999036	0.00000000	37.11860000	20.52780000
165.39999035	0.00000000	37.15551000	20.52780000
165.59999034	0.00000000	36.74335000	20.52780000
165.79999033	0.00000000	36.41117000	20.52780000
165.99999032	0.00000000	36.36811000	20.52780000
166.19999030	0.00000000	36.36811000	20.52780000
166.39999029	0.00000000	36.32505000	20.52780000
166.59999028	0.00000000	35.94980000	20.52780000
166.79999027	0.00000000	35.25467000	20.52780000
166.99999026	0.00000000	35.25467000	20.52780000
167.19999024	0.00000000	35.94980000	20.52780000
167.39999023	0.00000000	36.32505000	20.52780000
167.59999022	0.00000000	36.36811000	20.48474000
167.79999021	0.00000000	36.36811000	20.15256000
167.99999020	0.00000000	36.36811000	19.78346000
168.19999018	0.00000000	36.36811000	20.15256000
168.39999017	0.00000000	36.36811000	20.48474000
168.59999016	0.00000000	36.36811000	20.52780000
168.79999015	0.00000000	36.36811000	20.52780000
168.99999014	0.00000000	36.36811000	20.52780000
169.19999013	0.00000000	36.36811000	20.52780000
169.39999011	0.00000000	36.36811000	20.52780000
169.59999010	0.00000000	36.36811000	20.52780000
169.79999009	0.00000000	36.36811000	20.52780000
169.99999008	0.00000000	36.36811000	20.52780000
170.19999007	0.00000000	36.36811000	20.52780000
170.39999005	0.00000000	36.36811000	20.52780000
170.59999004	0.00000000	36.36811000	20.52780000
170.79999003	0.00000000	36.36811000	20.52780000
170.99999002	0.00000000	36.36811000	20.52780000
171.19999001	0.00000000	36.36811000	20.48474000
171.39998999	0.00000000	36.36811000	20.10950000
171.59998998	0.00000000	36.36811000	19.36516000
171.79998997	0.00000000	36.36811000	19.03912000
171.99998996	0.00000000	36.36811000	19.36516000
172.19998995	0.00000000	36.41117000	20.10950000
172.39998994	0.00000000	36.74335000	20.48474000
172.59998992	0.00000000	37.11245000	20.52780000
172.79998991	0.00000000	36.74335000	20.52780000
172.99998990	0.00000000	36.41117000	20.52780000
173.19998989	0.00000000	36.36811000	20.52780000
173.39998988	0.00000000	36.36811000	20.52780000
173.59998986	0.00000000	36.41117000	20.52780000
173.79998985	0.00000000	36.74335000	20.52780000
173.99998984	0.00000000	37.11245000	20.52780000
174.19998983	0.00000000	36.74335000	20.52780000
174.39998982	0.00000000	36.41117000	20.52780000
174.59998980	0.00000000	36.36811000	20.52780000
174.79998979	0.00000000	36.36811000	20.52780000
174.99998978	0.00000000	36.36811000	20.52780000
175.19998977	0.00000000	36.36811000	20.52780000
175.39998976	0.00000000	36.36811000	20.52780000
175.59998975	0.00000000	36.36811000	20.52780000
175.79998973	0.00000000	36.36811000	20.52780000
175.99998972	0.00000000	36.36811000	20.52780000
176.19998971	0.00000000	36.36811000	20.52780000
176.39998970	0.00000000	36.41117000	20.52780000
176.59998969	0.00000000	36.74335000	20.52780000
176.79998967	0.00000000	37.15551000	20.52780000
176.99998966	0.00000000	37.11860000	20.52780000
177.19998965	0.00000000	37.15551000	20.52780000
177.39998964	0.00000000	36.74335000	20.52780000
177.59998963	0.00000000	36.41117000	20.52780000
177.79998961	0.00000000	36.36811000	20.52780000
177.99998960	0.00000000	36.36811000	20.52780000
178.19998959	0.00000000	36.36811000	20.52780000
178.39998958	0.00000000	36.36811000	20.52780000
178.59998957	0.00000000	36.41117000	20.57087000
178.79998956	0.00000000	36.78642000	20.90305000
178.99998954	0.00000000	37.53075000	21.26599000
179.19998953	0.00000000	37.90600000	20.90305000
179.39998952	0.00000000	37.90600000	20.57087000
179.59998951	0.00000000	37.57381000	20.52780000
179.79998950	0.00000000	37.20472000	20.52780000
179.99998948	0.00000000	37.53075000	20.52780000
180.19998947	0.00000000	37.53075000	20.52780000
180.39998946	0.00000000	37.16166000	20.52780000
180.59998945	0.00000000	37.15551000	20.52780000
180.79998944	0.00000000	36.78642000	20.52780000
180.99998942	0.00000000	36.78642000	20.52780000
181.19998941	0.00000000	37.11245000	20.52780000
181.39998940	0.00000000	36.74335000	20.57087000
181.59998939	0.00000000	36.46038000	20.90305000
181.79998938	0.00000000	36.78642000	21.26599000
181.99998937	0.00000000	37.48154000	20.90305000
182.19998935	0.00000000	37.53075000	20.57087000
182.39998934	0.00000000	37.20472000	20.52780000
182.59998933	0.00000000	37.57381000	20.52780000
182.79998932	0.00000000	37.90600000	20.48474000
182.99998931	0.00000000	37.90600000	20.10950000
183.19998929	0.00000000	37.57381000	19.36516000
183.39998928	0.00000000	37.20472000	18.98991000
183.59998927	0.00000000	37.53075000	18.98991000
183.79998926	0.00000000	37.53075000	19.36516000
183.99998925	0.00000000	37.16166000	20.10950000
184.19998923	0.00000000	37.15551000	20.48474000
184.39998922	0.00000000	36.74335000	20.52780000
184.59998921	0.00000000	36.41117000	20.57087000
184.79998920	0.00000000	36.41117000	20.94611000
184.99998919	0.00000000	36.78642000	21.64124000
185.19998918	0.00000000	37.53075000	21.64124000
185.39998916	0.00000000	37.90600000	20.94611000
185.59998915	0.00000000	37.94907000	20.57087000
185.79998914	0.00000000	37.94907000	20.52780000
185.99998913	0.00000000	37.94907000	20.48474000
186.19998912	0.00000000	37.94907000	20.10950000
186.39998910	0.00000000	37.94907000	19.36516000
186.59998909	0.00000000	37.94907000	19.03912000
186.79998908	0.00000000	37.90600000	19.36516000
186.99998907	0.00000000	37.53075000	20.10950000
187.19998906	0.00000000	36.78642000	20.52780000
187.39998904	0.00000000	36.46038000	20.94611000
187.59998903	0.00000000	36.78642000	21.68430000
187.79998902	0.00000000	37.53075000	22.05955000
187.99998901	0.00000000	37.90600000	22.10261000
188.19998900	0.00000000	37.94907000	22.05955000
188.39998899	0.00000000	37.90600000	21.68430000
188.59998897	0.00000000	37.61687000	20.94611000
188.79998896	0.00000000	37.53691000	20.52780000
188.99998895	0.00000000	37.94291000	20.10950000
189.19998894	0.00000000	37.53691000	19.36516000
189.39998893	0.00000000	37.61687000	18.98991000
189.59998891	0.00000000	37.90600000	18.98991000
189.79998890	0.00000000	37.90600000	19.36516000
189.99998889	0.00000000	37.53075000	20.10950000
190.19998888	0.00000000	36.83563000	20.48474000
190.39998887	0.00000000	36.78642000	20.57087000
190.59998885	0.00000000	37.15551000	20.94611000
190.79998884	0.00000000	37.16166000	21.68430000
190.99998883	0.00000000	37.57381000	22.01033000
191.19998882	0.00000000	37.90600000	21.72736000
191.39998881	0.00000000	37.94907000	21.32136000
191.59998880	0.00000000	37.94907000	21.30905000
191.79998878	0.00000000	37.94907000	20.90305000
191.99998877	0.00000000	37.94907000	20.57087000
192.19998876	0.00000000	37.94907000	20.52780000
192.39998875	0.00000000	37.94907000	20.52780000
192.59998874	0.00000000	37.94907000	20.52780000
192.79998872	0.00000000	37.94907000	20.52780000
192.99998871	0.00000000	37.94907000	20.52780000
193.19998870	0.00000000	37.94907000	20.57087000
193.39998869	0.00000000	37.94907000	20.94611000
193.59998868	0.00000000	37.94907000	21.68430000
193.79998866	0.00000000	37.99213000	22.05955000
193.99998865	0.00000000	38.32431000	22.10261000
194.19998864	0.00000000	38.69341000	22.10261000
194.39998863	0.00000000	38.32431000	22.10261000
194.59998862	0.00000000	38.04134000	22.10261000
194.79998861	0.00000000	38.32431000	22.05955000
194.99998859	0.00000000	38.69341000	21.68430000
195.19998858	0.00000000	38.32431000	20.94611000
195.39998857	0.00000000	37.99213000	20.57087000
195.59998856	0.00000000	37.94907000	20.52780000
195.79998855	0.00000000	37.94907000	20.52780000
195.99998853	0.00000000	37.94907000	20.52780000
