Time	Channel A	Channel B	Channel C
(us)	(V)	(mV)	(mV)

-4.59999956	0.00000000	-33.15699000	-9.47342500
-4.39999957	0.00000000	-33.20005000	-9.47342500
-4.19999958	0.00000000	-33.20005000	-9.47342500
-3.99999959	0.00000000	-33.20005000	-9.47342500
-3.79999960	0.00000000	-33.15699000	-9.47342500
-3.59999962	0.00000000	-32.78174000	-9.47342500
-3.39999963	0.00000000	-32.08661000	-9.51648500
-3.19999964	0.00000000	-32.08661000	-9.84867000
-2.99999965	0.00000000	-32.78174000	-10.25467000
-2.79999966	0.00000000	-33.15699000	-10.26698000
-2.59999968	0.00000000	-33.20005000	-10.62992000
-2.39999969	0.00000000	-33.20005000	-10.58686000
-2.19999970	0.00000000	-33.20005000	-9.89173200
-1.99999971	0.00000000	-33.15699000	-9.51648500
-1.79999972	0.00000000	-32.82480000	-9.47342500
-1.59999973	0.00000000	-32.45571000	-9.47342500
-1.39999975	0.00000000	-32.78174000	-9.47342500
-1.19999976	0.00000000	-32.78174000	-9.47342500
-0.99999977	0.00000000	-32.41265000	-9.51648500
-0.79999978	0.00000000	-32.44956000	-9.84867000
-0.59999979	0.00000000	-32.41265000	-10.21161000
-0.39999981	0.00000000	-32.78174000	-9.84867000
-0.19999982	0.31803640	-32.78174000	-9.56569900
0.00000017	0.79601380	-32.45571000	-9.84867000
0.20000016	0.95533960	-32.82480000	-10.21161000
0.40000015	0.95533960	-33.15699000	-9.84867000
0.60000013	0.79601380	-33.20005000	-9.51648500
0.80000012	0.15871060	-33.20005000	-9.47342500
1.00000011	-0.63668800	-33.20005000	-9.47342500
1.20000010	-1.75196900	-33.20005000	-9.47342500
1.40000009	-2.54859700	-33.20005000	-9.47342500
1.60000008	-2.70792300	-33.15699000	-9.47342500
1.80000006	-2.22994600	-32.78174000	-9.47342500
2.00000005	-0.95533960	-32.03740000	-9.47342500
2.20000004	1.11466500	-31.66215000	-9.47342500
2.40000003	3.18590100	-31.61909000	-9.47342500
2.60000002	4.77854300	-31.66215000	-9.51648500
2.80000000	5.41584600	-32.03740000	-9.89173200
2.99999999	4.45989200	-32.78174000	-10.62992000
3.19999998	2.22994600	-33.15699000	-11.00517000
3.39999997	-0.95533960	-33.20005000	-11.04823000
3.59999996	-4.30056600	-33.15699000	-11.00517000
3.79999994	-7.00848900	-32.78174000	-10.62992000
3.99999993	-7.96444400	-32.03740000	-9.89173200
4.19999992	-7.00848900	-31.71137000	-9.51648500
4.39999991	-4.14124000	-31.99434000	-9.47342500
4.59999990	0.00000000	-32.36343000	-9.47342500
4.79999989	4.45989200	-32.03740000	-9.47342500
4.99999987	7.80511800	-32.08661000	-9.47342500
5.19999986	9.39837600	-32.73252000	-9.51648500
5.39999985	8.60174700	-32.78174000	-9.89173200
5.59999984	5.57517200	-32.45571000	-10.62992000
5.79999983	1.27399100	-32.82480000	-11.00517000
5.99999981	-3.50393700	-33.15699000	-11.00517000
6.19999980	-7.32714100	-33.15699000	-10.62992000
6.39999979	-9.39837600	-32.78174000	-9.89173200
6.59999978	-8.92039900	-32.03740000	-9.51648500
6.79999977	-6.37180100	-31.66215000	-9.47342500
6.99999975	-2.38927200	-31.61909000	-9.47342500
7.19999974	1.91129400	-31.61909000	-9.47342500
7.39999973	5.57517200	-31.66215000	-9.47342500
7.59999972	7.48646600	-32.03740000	-9.47342500
7.79999971	7.48646600	-32.78174000	-9.51648500
7.99999970	5.57517200	-33.15699000	-9.89173200
8.19999968	2.70792300	-33.20005000	-10.62992000
8.39999967	-0.63668800	-33.15699000	-10.95595000
8.59999966	-3.34522600	-32.78174000	-10.62992000
8.79999965	-4.93786900	-32.03740000	-9.89173200
8.99999964	-5.09719500	-31.66215000	-9.51648500
9.19999962	-4.14124000	-31.61909000	-9.47342500
9.39999961	-2.22994600	-31.61909000	-9.47342500
9.59999960	-0.15871060	-31.61909000	-9.47342500
9.79999959	1.43331700	-31.61909000	-9.47342500
9.99999958	2.38927200	-31.61909000	-9.47342500
10.19999956	2.54859700	-31.61909000	-9.47342500
10.39999955	2.07062000	-31.66215000	-9.47342500
10.59999954	1.27399100	-31.99434000	-9.47342500
10.79999953	0.31803640	-32.36343000	-9.47342500
10.99999952	-0.31803640	-31.99434000	-9.47342500
11.19999951	-0.79601380	-31.66215000	-9.47342500
11.39999949	-0.95533960	-31.61909000	-9.47342500
11.59999948	-0.95533960	-31.61909000	-9.47342500
11.79999947	-0.63668800	-31.61909000	-9.47342500
11.99999946	-0.31803640	-31.61909000	-9.47342500
12.19999945	-0.15871060	-31.61909000	-9.47342500
12.39999943	-0.15871060	-31.61909000	-9.47342500
12.59999942	0.00000000	-31.61909000	-9.47342500
12.79999941	0.00000000	-31.61909000	-9.47342500
12.99999940	0.00000000	-31.61909000	-9.47342500
13.19999939	0.00000000	-31.61909000	-9.47342500
13.39999937	0.00000000	-31.66215000	-9.47342500
13.59999936	0.00000000	-31.99434000	-9.47342500
13.79999935	0.00000000	-32.36343000	-9.47342500
13.99999934	0.00000000	-31.99434000	-9.47342500
14.19999933	-0.15871060	-31.66215000	-9.47342500
14.39999932	-0.15871060	-31.61909000	-9.47342500
14.59999930	0.00000000	-31.61909000	-9.47342500
14.79999929	0.00000000	-31.66215000	-9.47342500
14.99999928	0.00000000	-31.99434000	-9.47342500
15.19999927	0.00000000	-32.36343000	-9.47342500
15.39999926	0.00000000	-31.99434000	-9.47342500
15.59999924	0.00000000	-31.66215000	-9.47342500
15.79999923	0.00000000	-31.61909000	-9.47342500
15.99999922	0.00000000	-31.66215000	-9.47342500
16.19999921	0.00000000	-31.99434000	-9.47342500
16.39999920	-0.15871060	-32.36343000	-9.47342500
16.59999919	-0.15871060	-31.99434000	-9.47342500
16.79999917	-0.15871060	-31.66215000	-9.47342500
16.99999916	0.00000000	-31.57603000	-9.47342500
17.19999915	0.00000000	-31.20078000	-9.47342500
17.39999914	0.00000000	-30.45644000	-9.47342500
17.59999913	0.00000000	-30.08120000	-9.47342500
17.79999911	0.00000000	-30.08120000	-9.47342500
17.99999910	0.00000000	-30.50566000	-9.47342500
18.19999909	0.00000000	-31.66215000	-9.47342500
18.39999908	0.00000000	-33.20005000	-9.47342500
18.59999907	0.00000000	-34.78716000	-9.47342500
18.79999905	0.00000000	-36.32505000	-9.47342500
18.99999904	0.00000000	-37.43848000	-9.47342500
19.19999903	0.00000000	-37.39542000	-9.47342500
19.39999902	0.00000000	-35.81446000	-9.47342500
19.59999901	0.00000000	-32.73868000	-9.47342500
19.79999900	0.00000000	-28.83243000	-9.47342500
19.99999898	0.00000000	-24.96309000	-9.47342500
20.19999897	0.00000000	-21.52436000	-9.47342500
20.39999896	0.00000000	-20.07874000	-9.47342500
20.59999895	0.00000000	-21.61663000	-9.47342500
20.79999894	0.00000000	-25.89198000	-9.47342500
20.99999892	0.00000000	-32.12967000	-9.47342500
21.19999891	0.00000000	-39.53002000	-9.47342500
21.39999890	0.00000000	-46.78888000	-9.47342500
21.59999889	0.00000000	-51.72244000	-9.47342500
21.79999888	0.00000000	-52.04847000	-9.47342500
21.99999886	0.00000000	-47.39788000	-9.47342500
22.19999885	0.00000000	-38.46580000	-9.47342500
22.39999884	0.00000000	-26.83317000	-9.47342500
22.59999883	0.00000000	-14.82529000	-9.47342500
22.79999882	0.00000000	-4.87204700	-9.47342500
22.99999881	0.00000000	0.01230315	-9.47342500
23.19999879	0.00000000	-2.72514700	-9.43036400
23.39999878	0.00000000	-12.77682000	-9.05511800
23.59999877	0.00000000	-27.89739000	-8.31077700
23.79999876	0.00000000	-45.34325000	-7.93553100
23.99999875	0.00000000	-61.49114000	-7.89247000
24.19999873	0.00000000	-72.19488000	-7.93553100
24.39999872	0.00000000	-73.68971000	-8.35998900
24.59999871	0.00000000	-65.17593000	-9.51648500
24.79999870	0.00000000	-48.51131000	-11.04823000
24.99999869	0.00000000	-26.87623000	-12.62918000
25.19999867	0.00000000	-5.24729300	-14.11786000
25.39999866	0.00000000	11.31890000	-14.90526000
25.59999865	0.00000000	18.94685000	-14.49311000
25.79999864	0.00000000	14.67150000	-13.28125000
25.99999863	0.00000000	-0.72588580	-10.49459000
26.19999862	0.00000000	-23.15453000	-6.31151500
26.39999860	0.00000000	-47.90846000	-2.08538400
26.59999859	0.00000000	-69.49433000	0.97810030
26.79999858	0.00000000	-82.61565000	2.13459600
26.99999857	0.00000000	-84.15353000	0.93503930
27.19999856	0.00000000	-73.73277000	-2.59596400
27.39999854	0.00000000	-53.67864000	-8.44611200
27.59999853	0.00000000	-28.96776000	-15.78494000
27.79999852	0.00000000	-5.42568800	-23.08686000
27.99999851	0.00000000	11.64493000	-28.42643000
28.19999850	0.00000000	18.62697000	-29.91511000
28.39999848	0.00000000	14.80684000	-26.80241000
28.59999847	0.00000000	0.89812980	-19.42052000
28.79999846	0.00000000	-19.52510000	-8.96284400
28.99999845	0.00000000	-41.57849000	2.64517700
29.19999844	0.00000000	-60.56225000	13.01058000
29.39999843	0.00000000	-72.57013000	19.46973000
29.59999841	0.00000000	-75.31373000	19.42667000
29.79999840	0.00000000	-68.42396000	12.50000000
29.99999839	0.00000000	-54.18922000	0.46751960
30.19999838	0.00000000	-36.41117000	-14.62844000
30.39999837	0.00000000	-18.92224000	-30.00738000
30.59999835	0.00000000	-4.95816900	-41.57849000
30.79999834	0.00000000	3.17421200	-46.59818000
30.99999833	0.00000000	3.54945900	-44.22367000
31.19999832	0.00000000	-3.70939900	-34.14124000
31.39999831	0.00000000	-16.40625000	-18.35015000
31.59999829	0.00000000	-31.10851000	-0.55364170
31.79999828	0.00000000	-44.69734000	15.70497000
31.99999827	0.00000000	-54.79207000	27.23302000
32.19999826	0.00000000	-59.44266000	31.08391000
32.39999825	0.00000000	-57.95398000	26.07037000
32.59999824	0.00000000	-51.02116000	13.75492000
32.79999822	0.00000000	-40.60039000	-3.29109200
32.99999821	0.00000000	-28.96776000	-21.41363000
33.19999820	0.00000000	-18.54700000	-36.88484000
33.39999819	0.00000000	-11.57111000	-46.17987000
33.59999818	0.00000000	-9.65797200	-47.76082000
33.79999816	0.00000000	-13.05979000	-41.57849000
33.99999815	0.00000000	-20.73080000	-28.80167000
34.19999814	0.00000000	-29.95201000	-12.21087000
34.39999813	0.00000000	-38.50886000	4.74286400
34.59999812	0.00000000	-44.69734000	17.88878000
34.79999810	0.00000000	-47.39788000	24.53248000
34.99999809	0.00000000	-45.85999000	24.16338000
35.19999808	0.00000000	-40.55733000	16.77534000
35.39999807	0.00000000	-33.61835000	3.72170300
35.59999806	0.00000000	-27.05462000	-11.70029000
35.79999805	0.00000000	-22.03494000	-25.59670000
35.99999803	0.00000000	-20.12795000	-35.26082000
36.19999802	0.00000000	-21.57357000	-38.33046000
36.39999801	0.00000000	-25.47367000	-34.19045000
36.59999800	0.00000000	-30.83169000	-24.57554000
36.79999799	0.00000000	-36.59571000	-12.30315000
36.99999797	0.00000000	-40.37893000	-0.32603340
37.19999796	0.00000000	-41.25246000	8.13853400
37.39999795	0.00000000	-39.35162000	11.62032000
37.59999794	0.00000000	-35.85752000	8.92593500
37.79999793	0.00000000	-31.20078000	0.97810030
37.99999791	0.00000000	-26.22416000	-9.01205700
38.19999790	0.00000000	-22.77928000	-18.25787000
38.39999789	0.00000000	-21.57357000	-24.76009000
38.59999788	0.00000000	-22.73007000	-26.24877000
38.79999787	0.00000000	-25.80585000	-22.06570000
38.99999786	0.00000000	-30.03814000	-13.69956000
39.19999784	0.00000000	-34.31963000	-4.12770700
39.39999783	0.00000000	-37.81373000	3.53715500
39.59999782	0.00000000	-40.13902000	7.39419200
39.79999781	0.00000000	-40.55733000	6.18848400
39.99999780	0.00000000	-39.39468000	0.04921259
40.19999778	0.00000000	-37.02018000	-9.52263600
40.39999777	0.00000000	-33.15699000	-19.42052000
40.59999776	0.00000000	-28.96776000	-26.38410000
40.79999775	0.00000000	-25.80585000	-28.66634000
40.99999774	0.00000000	-23.80659000	-26.00886000
41.19999772	0.00000000	-22.68701000	-18.67618000
41.39999771	0.00000000	-23.10531000	-9.09817800
41.59999770	0.00000000	-25.38755000	0.55979330
41.79999769	0.00000000	-28.50024000	7.81250000
41.99999768	0.00000000	-31.99434000	10.50689000
42.19999767	0.00000000	-35.48228000	7.85556000
42.39999765	0.00000000	-37.81373000	0.97810030
42.59999764	0.00000000	-39.01944000	-7.89247000
42.79999763	0.00000000	-38.97638000	-16.72613000
42.99999762	0.00000000	-37.43848000	-23.27141000
43.19999761	0.00000000	-34.78716000	-25.59670000
43.39999759	0.00000000	-32.03740000	-23.78199000
43.59999758	0.00000000	-29.70595000	-18.76845000
43.79999757	0.00000000	-27.76206000	-12.25394000
43.99999756	0.00000000	-26.96850000	-5.66560000
44.19999755	0.00000000	-26.91929000	-0.68897630
44.39999753	0.00000000	-27.29453000	1.67322800
44.59999752	0.00000000	-28.03888000	0.97810030
44.79999751	0.00000000	-28.41412000	-1.71013800
44.99999750	0.00000000	-28.50024000	-5.57332700
45.19999749	0.00000000	-28.87549000	-10.16855000
45.39999748	0.00000000	-29.70595000	-13.65650000
45.59999746	0.00000000	-30.92396000	-15.64960000
45.79999745	0.00000000	-33.29232000	-16.39395000
45.99999744	0.00000000	-36.31890000	-15.27436000
46.19999743	0.00000000	-39.01944000	-13.00443000
46.39999742	0.00000000	-40.55733000	-10.62992000
46.59999740	0.00000000	-40.51427000	-7.93553100
46.79999739	0.00000000	-38.50886000	-5.61638700
46.99999738	0.00000000	-34.23351000	-4.45374000
47.19999737	0.00000000	-28.45718000	-4.08464600
47.39999736	0.00000000	-22.64394000	-5.24729300
47.59999734	0.00000000	-18.03642000	-7.51722400
47.79999733	0.00000000	-15.80339000	-9.84867000
47.99999732	0.00000000	-17.34129000	-12.21087000
48.19999731	0.00000000	-22.36097000	-14.07480000
48.39999730	0.00000000	-29.34301000	-14.85605000
48.59999729	0.00000000	-37.48154000	-14.07480000
48.79999727	0.00000000	-44.74655000	-12.16781000
48.99999726	0.00000000	-48.97884000	-9.42421200
49.19999725	0.00000000	-48.97884000	-6.36072800
49.39999724	0.00000000	-44.74655000	-3.66633800
49.59999723	0.00000000	-37.34621000	-2.12844500
49.79999721	0.00000000	-28.08194000	-2.12844500
49.99999720	0.00000000	-18.87303000	-3.70939900
50.19999719	0.00000000	-12.77682000	-6.82209600
50.39999718	0.00000000	-11.57111000	-11.00517000
50.59999717	0.00000000	-15.38509000	-14.85605000
50.79999715	0.00000000	-22.68701000	-17.18750000
50.99999714	0.00000000	-31.57603000	-17.92569000
51.19999713	0.00000000	-40.04675000	-16.39395000
51.39999712	0.00000000	-45.81693000	-12.96137000
51.59999711	0.00000000	-47.39788000	-9.09817800
51.79999710	0.00000000	-44.69734000	-5.19808000
51.99999708	0.00000000	-38.55192000	-2.12844500
52.19999707	0.00000000	-30.45644000	-0.59670270
52.39999706	0.00000000	-22.77928000	-1.01501000
52.59999705	0.00000000	-17.42741000	-3.66633800
52.79999704	0.00000000	-16.26476000	-7.51722400
52.99999702	0.00000000	-19.66043000	-11.38041000
53.19999701	0.00000000	-25.76279000	-14.81299000
53.39999700	0.00000000	-32.73868000	-16.34473000
53.59999699	0.00000000	-38.88410000	-15.64960000
53.79999698	0.00000000	-42.69808000	-13.69956000
53.99999696	0.00000000	-42.74114000	-10.62992000
54.19999695	0.00000000	-39.30241000	-7.24040300
54.39999694	0.00000000	-33.94439000	-5.33341500
54.59999693	0.00000000	-27.76206000	-5.24729300
54.79999692	0.00000000	-22.77928000	-6.40378900
54.99999691	0.00000000	-20.07874000	-8.31077700
55.19999689	0.00000000	-20.50320000	-10.58686000
55.39999688	0.00000000	-24.31102000	-12.07554000
55.59999687	0.00000000	-29.99508000	-12.07554000
55.79999686	0.00000000	-35.43922000	-10.58686000
55.99999685	0.00000000	-39.30241000	-8.26771600
56.19999683	0.00000000	-41.20940000	-5.98548200
56.39999682	0.00000000	-40.04675000	-4.08464600
56.59999681	0.00000000	-36.27584000	-3.75246000
56.79999680	0.00000000	-31.61909000	-5.29035400
56.99999679	0.00000000	-27.01156000	-8.35998900
57.19999677	0.00000000	-23.52977000	-12.21087000
57.39999676	0.00000000	-22.36097000	-15.64960000
57.59999675	0.00000000	-23.10531000	-17.92569000
57.79999674	0.00000000	-25.80585000	-17.88263000
57.99999673	0.00000000	-29.61983000	-15.18824000
58.19999672	0.00000000	-33.11393000	-10.53765000
58.39999670	0.00000000	-35.81446000	-4.77977300
58.59999669	0.00000000	-36.97712000	0.55979330
58.79999668	0.00000000	-36.23277000	3.58021600
58.99999667	0.00000000	-34.36884000	3.21112200
59.19999666	0.00000000	-32.03740000	-0.63976370
59.39999664	0.00000000	-30.13041000	-6.77903500
59.59999663	0.00000000	-28.92470000	-13.74262000
59.79999662	0.00000000	-28.54946000	-19.88189000
59.99999661	0.00000000	-28.87549000	-23.68971000
60.19999660	0.00000000	-29.66289000	-23.68971000
60.39999658	0.00000000	-30.41338000	-19.88189000
60.59999657	0.00000000	-31.20078000	-13.69956000
60.79999656	0.00000000	-31.57603000	-6.31766700
60.99999655	0.00000000	-31.57603000	0.97810030
61.19999654	0.00000000	-31.15157000	6.27460600
61.39999653	0.00000000	-30.03814000	7.43725300
61.59999651	0.00000000	-28.96776000	4.04773600
61.79999650	0.00000000	-28.92470000	-2.12844500
61.99999649	0.00000000	-29.66289000	-9.89173200
62.19999648	0.00000000	-30.45644000	-17.93184000
62.39999647	0.00000000	-31.66215000	-23.68971000
62.59999645	0.00000000	-33.15699000	-25.64591000
62.79999644	0.00000000	-34.27657000	-23.73892000
62.99999643	0.00000000	-34.27657000	-18.35015000
63.19999642	0.00000000	-33.15699000	-11.04823000
63.39999641	0.00000000	-31.57603000	-3.66633800
63.59999639	0.00000000	-29.66289000	2.46678100
63.79999638	0.00000000	-27.71284000	5.94857300
63.99999637	0.00000000	-26.59326000	5.57947800
64.19999636	0.00000000	-26.22416000	2.18380900
64.39999635	0.00000000	-27.38681000	-3.24803100
64.59999634	0.00000000	-29.61983000	-9.42421200
64.79999632	0.00000000	-31.57603000	-15.28051000
64.99999631	0.00000000	-33.15699000	-19.88189000
65.19999630	0.00000000	-34.27657000	-22.20103000
65.39999629	0.00000000	-34.27657000	-21.41363000
65.59999628	0.00000000	-33.15699000	-18.01796000
65.79999626	0.00000000	-31.61909000	-13.00443000
65.99999625	0.00000000	-30.03814000	-8.02780400
66.19999624	0.00000000	-28.54946000	-4.04158400
66.39999623	0.00000000	-27.80512000	-1.33489200
66.59999622	0.00000000	-28.54946000	0.27682080
66.79999620	0.00000000	-30.08120000	0.23991140
66.99999619	0.00000000	-31.99434000	-0.87967510
67.19999618	0.00000000	-33.85827000	-3.24803100
67.39999617	0.00000000	-34.23351000	-6.31151500
67.59999616	0.00000000	-33.11393000	-9.47342500
67.79999615	0.00000000	-31.15157000	-12.58612000
67.99999613	0.00000000	-28.45718000	-15.32357000
68.19999612	0.00000000	-25.80585000	-17.23056000
68.39999611	0.00000000	-24.26796000	-18.01796000
68.59999610	0.00000000	-24.31102000	-17.23056000
68.79999609	0.00000000	-26.26722000	-15.27436000
68.99999607	0.00000000	-30.08735000	-12.11860000
69.19999606	0.00000000	-34.31963000	-7.84940900
69.39999605	0.00000000	-37.81373000	-3.24803100
69.59999604	0.00000000	-40.08981000	0.60285430
69.79999603	0.00000000	-40.08981000	2.50984200
69.99999601	0.00000000	-37.72145000	2.14074800
70.19999600	0.00000000	-33.48302000	-0.59670270
70.39999599	0.00000000	-27.66978000	-5.19808000
70.59999598	0.00000000	-22.36097000	-10.58686000
70.79999597	0.00000000	-18.82997000	-15.23130000
70.99999596	0.00000000	-18.07948000	-18.35015000
71.19999594	0.00000000	-19.99262000	-19.50664000
71.39999593	0.00000000	-24.26796000	-18.35015000
71.59999592	0.00000000	-30.08735000	-15.27436000
71.79999591	0.00000000	-36.27584000	-11.00517000
71.99999590	0.00000000	-41.62770000	-6.40378900
72.19999588	0.00000000	-44.32209000	-2.54675200
72.39999587	0.00000000	-43.58390000	-0.63976370
72.59999586	0.00000000	-40.13902000	-0.97194880
72.79999585	0.00000000	-34.69488000	-3.24803100
72.99999584	0.00000000	-28.54946000	-6.31151500
73.19999582	0.00000000	-23.10531000	-9.38115100
73.39999581	0.00000000	-19.61737000	-11.70029000
73.59999580	0.00000000	-18.45472000	-12.49385000
73.79999579	0.00000000	-19.99262000	-12.16166000
73.99999578	0.00000000	-23.84965000	-11.00517000
74.19999577	0.00000000	-28.83243000	-9.51648500
74.39999575	0.00000000	-33.90133000	-8.40305000
74.59999574	0.00000000	-37.72145000	-8.40305000
74.79999573	0.00000000	-39.71457000	-9.51648500
74.99999572	0.00000000	-39.30241000	-11.00517000
75.19999571	0.00000000	-37.02018000	-12.16166000
75.39999569	0.00000000	-33.20005000	-12.53691000
75.59999568	0.00000000	-29.38607000	-12.07554000
75.79999567	0.00000000	-26.96850000	-10.11934000
75.99999566	0.00000000	-25.38755000	-6.68676100
76.19999565	0.00000000	-24.64321000	-3.29109200
76.39999563	0.00000000	-25.43061000	-0.97194880
76.59999562	0.00000000	-27.29453000	-0.59670270
76.79999561	0.00000000	-29.57062000	-2.12844500
76.99999560	0.00000000	-31.10851000	-5.29035400
77.19999559	0.00000000	-31.57603000	-9.89173200
77.39999558	0.00000000	-31.57603000	-14.90526000
77.59999556	0.00000000	-31.24384000	-18.71924000
77.79999555	0.00000000	-30.87475000	-20.66929000
77.99999554	0.00000000	-31.24384000	-19.88189000
78.19999553	0.00000000	-31.61909000	-16.81225000
78.39999552	0.00000000	-32.03740000	-12.11860000
78.59999550	0.00000000	-32.78174000	-6.36072800
78.79999549	0.00000000	-33.10777000	-0.97194880
78.99999548	0.00000000	-32.73252000	2.46678100
79.19999547	0.00000000	-31.52682000	3.29724400
79.39999546	0.00000000	-29.61983000	1.35334600
79.59999544	0.00000000	-27.29453000	-2.50369100
79.79999543	0.00000000	-25.43061000	-7.89247000
79.99999542	0.00000000	-24.64321000	-13.23819000
80.19999541	0.00000000	-25.43061000	-16.81225000
80.39999540	0.00000000	-27.34375000	-18.76845000
80.59999539	0.00000000	-30.08120000	-19.13140000
80.79999537	0.00000000	-33.11393000	-17.18750000
80.99999536	0.00000000	-35.43922000	-13.79183000
81.19999535	0.00000000	-36.18971000	-9.84867000
81.39999534	0.00000000	-35.43922000	-5.98548200
81.59999533	0.00000000	-33.15699000	-2.50369100
81.79999531	0.00000000	-30.45644000	-0.59670270
81.99999530	0.00000000	-28.08194000	-0.51058070
82.19999529	0.00000000	-25.80585000	-1.62401600
82.39999528	0.00000000	-24.68627000	-3.24803100
82.59999527	0.00000000	-25.38755000	-5.57332700
82.79999525	0.00000000	-26.87623000	-8.67987200
82.99999524	0.00000000	-28.50024000	-11.38041000
83.19999523	0.00000000	-30.41338000	-13.79183000
83.39999522	0.00000000	-32.31422000	-15.69882000
83.59999521	0.00000000	-33.06471000	-16.85531000
83.79999520	0.00000000	-32.78174000	-16.81225000
83.99999518	0.00000000	-31.99434000	-15.23130000
84.19999517	0.00000000	-31.24384000	-12.11860000
84.39999516	0.00000000	-30.41338000	-7.93553100
84.59999515	0.00000000	-29.66289000	-4.04158400
84.79999514	0.00000000	-28.92470000	-1.33489200
84.99999512	0.00000000	-28.92470000	0.23375980
85.19999511	0.00000000	-29.61983000	-0.22145670
85.39999510	0.00000000	-29.94586000	-2.50369100
85.59999509	0.00000000	-29.66289000	-6.40378900
85.79999508	0.00000000	-29.25074000	-11.00517000
85.99999506	0.00000000	-29.24459000	-15.27436000
86.19999505	0.00000000	-28.83243000	-18.35015000
86.39999504	0.00000000	-28.54946000	-19.46358000
86.59999503	0.00000000	-28.92470000	-17.97490000
86.79999502	0.00000000	-30.03814000	-14.49311000
86.99999501	0.00000000	-31.20078000	-10.21161000
87.19999499	0.00000000	-31.99434000	-5.19808000
87.39999498	0.00000000	-32.73252000	-1.02116100
87.59999497	0.00000000	-32.68946000	0.93503930
87.79999496	0.00000000	-31.57603000	0.55979330
87.99999495	0.00000000	-30.03814000	-2.12844500
88.19999493	0.00000000	-28.45718000	-6.35457700
88.39999492	0.00000000	-26.96850000	-11.00517000
88.59999491	0.00000000	-26.18110000	-15.18824000
88.79999490	0.00000000	-26.54404000	-17.50738000
88.99999489	0.00000000	-27.34375000	-17.13829000
89.19999487	0.00000000	-28.87549000	-14.85605000
89.39999486	0.00000000	-30.78248000	-10.95595000
89.59999485	0.00000000	-31.95128000	-6.35457700
89.79999484	0.00000000	-32.73252000	-2.17765700
89.99999483	0.00000000	-32.73252000	0.14148620
90.19999482	0.00000000	-31.99434000	-0.22145670
90.39999480	0.00000000	-31.20078000	-2.50369100
90.59999479	0.00000000	-30.03814000	-6.40378900
90.79999478	0.00000000	-28.92470000	-10.95595000
90.99999477	0.00000000	-28.50024000	-14.81299000
91.19999476	0.00000000	-28.45718000	-16.71998000
91.39999474	0.00000000	-28.50024000	-16.35089000
91.59999473	0.00000000	-28.83243000	-13.65650000
91.79999472	0.00000000	-29.24459000	-9.47342500
91.99999471	0.00000000	-29.20767000	-5.19808000
92.19999470	0.00000000	-29.28765000	-1.75935000
92.39999468	0.00000000	-29.25074000	0.14148620
92.59999467	0.00000000	-29.66289000	-0.64591530
92.79999466	0.00000000	-30.03814000	-3.66633800
92.99999465	0.00000000	-30.45644000	-7.93553100
93.19999464	0.00000000	-31.24384000	-12.53691000
93.39999463	0.00000000	-31.99434000	-16.30167000
93.59999461	0.00000000	-32.73252000	-17.46432000
93.79999460	0.00000000	-32.68946000	-15.60654000
93.99999459	0.00000000	-31.57603000	-12.16166000
94.19999458	0.00000000	-29.99508000	-7.89247000
94.39999457	0.00000000	-28.03888000	-3.70939900
94.59999455	0.00000000	-25.76279000	-1.01501000
94.79999454	0.00000000	-24.26796000	-0.63976370
94.99999453	0.00000000	-24.22490000	-2.54675200
95.19999452	0.00000000	-25.38755000	-6.35457700
95.39999451	0.00000000	-27.34375000	-10.53765000
95.59999449	0.00000000	-30.08120000	-13.65650000
95.79999448	0.00000000	-33.15699000	-15.23130000
95.99999447	0.00000000	-35.81446000	-15.23130000
96.19999446	0.00000000	-36.97712000	-13.65650000
96.39999445	0.00000000	-36.23277000	-10.62992000
96.59999444	0.00000000	-34.27657000	-7.14812900
96.79999442	0.00000000	-31.15772000	-4.49680100
96.99999441	0.00000000	-27.29453000	-2.92199800
97.19999440	0.00000000	-23.84965000	-3.33415300
97.39999439	0.00000000	-21.52436000	-5.19808000
97.59999438	0.00000000	-21.10605000	-7.84940900
97.79999436	0.00000000	-22.26870000	-10.16855000
97.99999435	0.00000000	-24.64321000	-11.38041000
98.19999434	0.00000000	-28.50024000	-12.16166000
98.39999433	0.00000000	-32.68946000	-12.11860000
98.59999432	0.00000000	-35.81446000	-11.00517000
98.79999430	0.00000000	-37.43848000	-9.47342500
98.99999429	0.00000000	-37.77067000	-7.93553100
99.19999428	0.00000000	-36.59571000	-6.82209600
99.39999427	0.00000000	-33.53223000	-6.77903500
99.59999426	0.00000000	-30.08120000	-7.47416300
99.79999425	0.00000000	-26.87623000	-7.80019600
99.99999423	0.00000000	-23.84965000	-7.47416300
100.19999422	0.00000000	-21.94882000	-6.72982200
100.39999421	0.00000000	-22.26870000	-6.35457700
100.59999420	0.00000000	-23.80659000	-6.31151500
100.79999419	0.00000000	-26.13189000	-6.35457700
100.99999417	0.00000000	-29.24459000	-6.77903500
101.19999416	0.00000000	-31.90822000	-7.93553100
101.39999415	0.00000000	-33.94439000	-9.47342500
101.59999414	0.00000000	-35.07013000	-11.04823000
101.79999413	0.00000000	-35.48228000	-12.53691000
101.99999411	0.00000000	-34.65182000	-13.23819000
102.19999410	0.00000000	-32.78174000	-12.11860000
102.39999409	0.00000000	-30.41338000	-9.84867000
102.59999408	0.00000000	-28.12500000	-7.47416300
102.79999407	0.00000000	-26.13189000	-4.77977300
102.99999406	0.00000000	-25.01230000	-2.50369100
103.19999404	0.00000000	-24.60015000	-1.75319900
103.39999403	0.00000000	-25.43061000	-2.50369100
103.59999402	0.00000000	-27.29453000	-4.82283400
103.79999401	0.00000000	-29.61983000	-7.89247000
103.99999400	0.00000000	-31.52682000	-11.00517000
104.19999398	0.00000000	-32.73252000	-13.65650000
104.39999397	0.00000000	-33.10777000	-14.81299000
104.59999396	0.00000000	-32.78174000	-14.07480000
104.79999395	0.00000000	-31.99434000	-12.16781000
104.99999394	0.00000000	-31.20078000	-9.42421200
105.19999392	0.00000000	-29.99508000	-6.36072800
105.39999391	0.00000000	-28.50024000	-3.70939900
105.59999390	0.00000000	-27.34375000	-2.54675200
105.79999389	0.00000000	-26.96850000	-3.29109200
105.99999388	0.00000000	-27.34375000	-5.15501900
106.19999387	0.00000000	-28.50024000	-7.51722400
106.39999385	0.00000000	-29.99508000	-9.79945900
106.59999384	0.00000000	-31.15157000	-11.74951000
106.79999383	0.00000000	-31.52682000	-12.49385000
106.99999382	0.00000000	-31.15157000	-12.16166000
107.19999381	0.00000000	-30.03814000	-10.96211000
107.39999379	0.00000000	-28.87549000	-9.05511800
107.59999378	0.00000000	-28.08194000	-6.77903500
107.79999377	0.00000000	-27.34375000	-5.29035400
107.99999376	0.00000000	-27.38681000	-5.24729300
108.19999375	0.00000000	-28.45718000	-6.36072800
108.39999374	0.00000000	-29.61983000	-7.89247000
108.59999372	0.00000000	-30.41338000	-9.42421200
108.79999371	0.00000000	-31.20078000	-10.58686000
108.99999370	0.00000000	-31.52682000	-10.95595000
109.19999369	0.00000000	-31.20078000	-10.58686000
109.39999368	0.00000000	-30.41338000	-9.42421200
109.59999366	0.00000000	-29.61983000	-7.93553100
109.79999365	0.00000000	-28.45718000	-6.72982200
109.99999364	0.00000000	-27.34375000	-5.93626900
110.19999363	0.00000000	-26.91929000	-5.19808000
110.39999362	0.00000000	-26.91929000	-5.24729300
110.59999360	0.00000000	-27.34375000	-6.36072800
110.79999359	0.00000000	-28.50024000	-7.89247000
110.99999358	0.00000000	-29.99508000	-9.42421200
111.19999357	0.00000000	-31.15157000	-10.58686000
111.39999356	0.00000000	-31.57603000	-11.00517000
111.59999355	0.00000000	-31.57603000	-11.00517000
111.79999353	0.00000000	-31.15157000	-10.58686000
111.99999352	0.00000000	-29.99508000	-9.42421200
112.19999351	0.00000000	-28.50024000	-7.98474400
112.39999350	0.00000000	-27.34375000	-7.14812900
112.59999349	0.00000000	-26.96850000	-7.09891700
112.79999347	0.00000000	-27.29453000	-6.72982200
112.99999346	0.00000000	-28.03888000	-6.77903500
113.19999345	0.00000000	-28.45718000	-7.47416300
113.39999344	0.00000000	-28.87549000	-7.84940900
113.59999343	0.00000000	-29.61983000	-7.89247000
113.79999341	0.00000000	-29.99508000	-7.89247000
113.99999340	0.00000000	-30.03814000	-7.93553100
114.19999339	0.00000000	-30.03814000	-8.31077700
114.39999338	0.00000000	-29.99508000	-9.05511800
114.59999337	0.00000000	-29.61983000	-9.43036400
114.79999336	0.00000000	-28.87549000	-9.47342500
114.99999334	0.00000000	-28.50024000	-9.47342500
115.19999333	0.00000000	-28.45718000	-9.47342500
115.39999332	0.00000000	-28.45718000	-9.47342500
115.59999331	0.00000000	-28.45718000	-9.43036400
115.79999330	0.00000000	-28.50024000	-9.05511800
115.99999328	0.00000000	-28.87549000	-8.26771600
116.19999327	0.00000000	-29.61983000	-7.51722400
116.39999326	0.00000000	-29.99508000	-6.72982200
116.59999325	0.00000000	-30.03814000	-6.35457700
116.79999324	0.00000000	-30.03814000	-6.35457700
116.99999322	0.00000000	-29.99508000	-6.72982200
117.19999321	0.00000000	-29.61983000	-7.51722400
117.39999320	0.00000000	-28.83243000	-8.26771600
117.59999319	0.00000000	-28.08194000	-9.09817800
117.79999318	0.00000000	-27.29453000	-9.84867000
117.99999317	0.00000000	-26.91929000	-10.58686000
118.19999315	0.00000000	-26.91929000	-10.58686000
118.39999314	0.00000000	-27.34375000	-9.84867000
118.59999313	0.00000000	-28.45718000	-9.09817800
118.79999312	0.00000000	-29.66289000	-8.31077700
118.99999311	0.00000000	-30.78863000	-7.89247000
119.19999309	0.00000000	-31.93898000	-7.47416300
119.39999308	0.00000000	-31.95128000	-6.72982200
119.59999307	0.00000000	-31.61909000	-6.35457700
119.79999306	0.00000000	-31.15157000	-6.35457700
119.99999305	0.00000000	-29.99508000	-6.72982200
120.19999303	0.00000000	-28.45718000	-7.47416300
120.39999302	0.00000000	-26.91929000	-7.89247000
120.59999301	0.00000000	-25.76279000	-8.31077700
120.79999300	0.00000000	-25.38755000	-9.05511800
120.99999299	0.00000000	-25.76279000	-9.43036400
121.19999298	0.00000000	-26.91929000	-9.47342500
121.39999296	0.00000000	-28.41412000	-9.47342500
121.59999295	0.00000000	-29.61983000	-9.47342500
121.79999294	0.00000000	-30.41338000	-9.43036400
121.99999293	0.00000000	-31.20078000	-9.05511800
122.19999292	0.00000000	-31.57603000	-8.31077700
122.39999290	0.00000000	-31.57603000	-7.93553100
122.59999289	0.00000000	-31.15157000	-7.84940900
122.79999288	0.00000000	-30.03814000	-7.47416300
122.99999287	0.00000000	-28.87549000	-6.72982200
123.19999286	0.00000000	-28.08194000	-6.40378900
123.39999284	0.00000000	-27.29453000	-6.72982200
123.59999283	0.00000000	-26.91929000	-7.51722400
123.79999282	0.00000000	-26.91929000	-8.26771600
123.99999281	0.00000000	-27.29453000	-9.05511800
124.19999280	0.00000000	-28.08194000	-9.43036400
124.39999279	0.00000000	-28.83243000	-9.47342500
124.59999277	0.00000000	-29.61983000	-9.47342500
124.79999276	0.00000000	-29.99508000	-9.43036400
124.99999275	0.00000000	-30.03814000	-9.05511800
125.19999274	0.00000000	-30.03814000	-8.31077700
125.39999273	0.00000000	-30.03814000	-7.93553100
125.59999271	0.00000000	-29.99508000	-7.89247000
125.79999270	0.00000000	-29.61983000	-7.84940900
125.99999269	0.00000000	-28.83243000	-7.51722400
126.19999268	0.00000000	-28.08194000	-7.14812900
126.39999267	0.00000000	-27.29453000	-7.51722400
126.59999265	0.00000000	-26.91929000	-7.84940900
126.79999264	0.00000000	-26.91929000	-7.89247000
126.99999263	0.00000000	-27.29453000	-7.89247000
127.19999262	0.00000000	-28.08194000	-7.93553100
127.39999261	0.00000000	-28.87549000	-8.31077700
127.59999260	0.00000000	-30.03814000	-9.05511800
127.79999258	0.00000000	-31.15157000	-9.38115100
127.99999257	0.00000000	-31.52682000	-9.05511800
128.19999256	0.00000000	-31.20078000	-8.31077700
128.39999255	0.00000000	-30.41338000	-7.93553100
128.59999254	0.00000000	-29.61983000	-7.84940900
128.79999252	0.00000000	-28.45718000	-7.51722400
128.99999251	0.00000000	-27.34375000	-7.14812900
129.19999250	0.00000000	-26.91929000	-7.51722400
129.39999249	0.00000000	-26.91929000	-7.84940900
129.59999248	0.00000000	-27.34375000	-7.89247000
129.79999246	0.00000000	-28.45718000	-7.93553100
129.99999245	0.00000000	-29.57062000	-8.26771600
130.19999244	0.00000000	-29.99508000	-8.63681000
130.39999243	0.00000000	-30.03814000	-8.26771600
130.59999242	0.00000000	-29.99508000	-7.93553100
130.79999241	0.00000000	-29.61983000	-7.89247000
130.99999239	0.00000000	-28.83243000	-7.89247000
131.19999238	0.00000000	-28.08194000	-7.89247000
131.39999237	0.00000000	-27.29453000	-7.89247000
131.59999236	0.00000000	-26.96850000	-7.93553100
131.79999235	0.00000000	-27.29453000	-8.31077700
131.99999233	0.00000000	-28.03888000	-9.05511800
132.19999232	0.00000000	-28.45718000	-9.43036400
132.39999231	0.00000000	-28.87549000	-9.47342500
132.59999230	0.00000000	-29.61983000	-9.47342500
132.79999229	0.00000000	-29.99508000	-9.43036400
132.99999227	0.00000000	-29.99508000	-9.00590400
133.19999226	0.00000000	-29.61983000	-7.89247000
133.39999225	0.00000000	-28.92470000	-6.77903500
133.59999224	0.00000000	-28.87549000	-6.35457700
133.79999223	0.00000000	-29.20152000	-6.31151500
133.99999222	0.00000000	-28.83243000	-6.35457700
134.19999220	0.00000000	-28.50024000	-6.77903500
134.39999219	0.00000000	-28.45718000	-7.89247000
134.59999218	0.00000000	-28.45718000	-9.00590400
134.79999217	0.00000000	-28.45718000	-9.43036400
134.99999216	0.00000000	-28.45718000	-9.51648500
135.19999214	0.00000000	-28.45718000	-9.84867000
135.39999213	0.00000000	-28.45718000	-10.16855000
135.59999212	0.00000000	-28.45718000	-9.42421200
135.79999211	0.00000000	-28.45718000	-8.35998900
135.99999210	0.00000000	-28.50024000	-7.89247000
136.19999208	0.00000000	-28.87549000	-7.47416300
136.39999207	0.00000000	-29.61983000	-6.72982200
136.59999206	0.00000000	-29.99508000	-6.40378900
136.79999205	0.00000000	-30.03814000	-6.72982200
136.99999204	0.00000000	-29.99508000	-7.47416300
137.19999203	0.00000000	-29.61983000	-7.89247000
137.39999201	0.00000000	-28.83243000	-8.31077700
137.59999200	0.00000000	-28.08194000	-9.00590400
137.79999199	0.00000000	-27.29453000	-9.05511800
137.99999198	0.00000000	-26.91929000	-8.72908400
138.19999197	0.00000000	-26.91929000	-9.09817800
138.39999195	0.00000000	-27.29453000	-9.43036400
138.59999194	0.00000000	-28.08194000	-9.43036400
138.79999193	0.00000000	-28.83243000	-9.05511800
138.99999192	0.00000000	-29.61983000	-8.31077700
139.19999191	0.00000000	-29.99508000	-7.89247000
139.39999189	0.00000000	-29.99508000	-7.47416300
139.59999188	0.00000000	-29.61983000	-6.72982200
139.79999187	0.00000000	-28.87549000	-6.35457700
139.99999186	0.00000000	-28.45718000	-6.35457700
140.19999185	0.00000000	-28.03888000	-6.72982200
140.39999184	0.00000000	-27.29453000	-7.51722400
140.59999182	0.00000000	-26.96850000	-8.26771600
140.79999181	0.00000000	-27.29453000	-9.05511800
140.99999180	0.00000000	-28.03888000	-9.43036400
141.19999179	0.00000000	-28.45718000	-9.47342500
141.39999178	0.00000000	-28.83243000	-9.43036400
141.59999176	0.00000000	-29.24459000	-9.05511800
141.79999175	0.00000000	-29.20767000	-8.26771600
141.99999174	0.00000000	-29.24459000	-7.51722400
142.19999173	0.00000000	-28.83243000	-6.72982200
142.39999172	0.00000000	-28.50024000	-6.35457700
142.59999170	0.00000000	-28.45718000	-6.35457700
142.79999169	0.00000000	-28.45718000	-6.72982200
142.99999168	0.00000000	-28.45718000	-7.51722400
143.19999167	0.00000000	-28.45718000	-8.26771600
143.39999166	0.00000000	-28.45718000	-9.05511800
143.59999165	0.00000000	-28.45718000	-9.43036400
143.79999163	0.00000000	-28.45718000	-9.47342500
143.99999162	0.00000000	-28.45718000	-9.43036400
144.19999161	0.00000000	-28.45718000	-9.05511800
144.39999160	0.00000000	-28.45718000	-8.26771600
144.59999159	0.00000000	-28.41412000	-7.51722400
144.79999157	0.00000000	-28.08194000	-6.72982200
144.99999156	0.00000000	-27.71284000	-6.35457700
145.19999155	0.00000000	-28.08194000	-6.35457700
145.39999154	0.00000000	-28.41412000	-6.72982200
145.59999153	0.00000000	-28.45718000	-7.47416300
145.79999151	0.00000000	-28.50024000	-7.89247000
145.99999150	0.00000000	-28.83243000	-8.26771600
146.19999149	0.00000000	-29.20152000	-8.67987200
146.39999148	0.00000000	-28.83243000	-8.68602300
146.59999147	0.00000000	-28.45718000	-9.05511800
146.79999146	0.00000000	-28.03888000	-9.00590400
146.99999144	0.00000000	-27.29453000	-8.31077700
147.19999143	0.00000000	-26.91929000	-7.93553100
147.39999142	0.00000000	-26.91929000	-7.89247000
147.59999141	0.00000000	-27.29453000	-7.84940900
147.79999140	0.00000000	-28.03888000	-7.51722400
147.99999138	0.00000000	-28.41412000	-7.10506800
148.19999137	0.00000000	-28.45718000	-7.14197800
148.39999136	0.00000000	-28.45718000	-7.10506800
148.59999135	0.00000000	-28.45718000	-7.51722400
148.79999134	0.00000000	-28.45718000	-7.89247000
148.99999132	0.00000000	-28.45718000	-8.26771600
149.19999131	0.00000000	-28.45718000	-8.63681000
149.39999130	0.00000000	-28.41412000	-8.26771600
149.59999129	0.00000000	-28.03888000	-7.93553100
149.79999128	0.00000000	-27.29453000	-7.89247000
149.99999127	0.00000000	-26.91929000	-7.89247000
150.19999125	0.00000000	-26.91929000	-7.89247000
150.39999124	0.00000000	-27.29453000	-7.89247000
150.59999123	0.00000000	-28.03888000	-7.84940900
150.79999122	0.00000000	-28.41412000	-7.47416300
150.99999121	0.00000000	-28.45718000	-6.77903500
151.19999119	0.00000000	-28.45718000	-6.77903500
151.39999118	0.00000000	-28.45718000	-7.47416300
151.59999117	0.00000000	-28.45718000	-7.84940900
151.79999116	0.00000000	-28.45718000	-7.89247000
151.99999115	0.00000000	-28.41412000	-7.89247000
152.19999113	0.00000000	-28.03888000	-7.89247000
152.39999112	0.00000000	-27.29453000	-7.89247000
152.59999111	0.00000000	-26.91929000	-7.89247000
152.79999110	0.00000000	-26.87623000	-7.89247000
152.99999109	0.00000000	-26.91929000	-7.89247000
153.19999108	0.00000000	-27.29453000	-7.89247000
153.39999106	0.00000000	-28.03888000	-7.89247000
153.59999105	0.00000000	-28.41412000	-7.89247000
153.79999104	0.00000000	-28.45718000	-7.89247000
153.99999103	0.00000000	-28.45718000	-7.89247000
154.19999102	0.00000000	-28.45718000	-7.89247000
154.39999100	0.00000000	-28.45718000	-7.89247000
154.59999099	0.00000000	-28.45718000	-7.89247000
154.79999098	0.00000000	-28.45718000	-7.89247000
154.99999097	0.00000000	-28.45718000	-7.89247000
155.19999096	0.00000000	-28.41412000	-7.89247000
155.39999094	0.00000000	-28.03888000	-7.89247000
155.59999093	0.00000000	-27.29453000	-7.89247000
155.79999092	0.00000000	-26.91929000	-7.89247000
155.99999091	0.00000000	-26.87623000	-7.89247000
156.19999090	0.00000000	-26.87623000	-7.89247000
156.39999089	0.00000000	-26.91929000	-7.89247000
156.59999087	0.00000000	-27.34375000	-7.84940900
156.79999086	0.00000000	-28.41412000	-7.47416300
156.99999085	0.00000000	-29.20152000	-6.77903500
157.19999084	0.00000000	-29.20767000	-6.72982200
157.39999083	0.00000000	-29.24459000	-7.09891700
157.59999081	0.00000000	-28.83243000	-7.10506800
157.79999080	0.00000000	-28.50024000	-7.51722400
157.99999079	0.00000000	-28.41412000	-7.84940900
158.19999078	0.00000000	-28.03888000	-7.93553100
158.39999077	0.00000000	-27.29453000	-8.31077700
158.59999075	0.00000000	-26.91929000	-9.00590400
158.79999074	0.00000000	-26.87623000	-9.00590400
158.99999073	0.00000000	-26.91929000	-8.31077700
159.19999072	0.00000000	-27.29453000	-7.93553100
159.39999071	0.00000000	-28.03888000	-7.84940900
159.59999070	0.00000000	-28.41412000	-7.47416300
159.79999068	0.00000000	-28.45718000	-6.72982200
159.99999067	0.00000000	-28.45718000	-6.35457700
160.19999066	0.00000000	-28.45718000	-6.35457700
160.39999065	0.00000000	-28.45718000	-6.72982200
160.59999064	0.00000000	-28.45718000	-7.47416300
160.79999062	0.00000000	-28.45718000	-7.84940900
160.99999061	0.00000000	-28.45718000	-7.89247000
161.19999060	0.00000000	-28.45718000	-7.89247000
161.39999059	0.00000000	-28.41412000	-7.89247000
161.59999058	0.00000000	-28.03888000	-7.89247000
161.79999056	0.00000000	-27.29453000	-7.89247000
161.99999055	0.00000000	-26.91929000	-7.89247000
162.19999054	0.00000000	-26.87623000	-7.89247000
162.39999053	0.00000000	-26.87623000	-7.89247000
162.59999052	0.00000000	-26.91929000	-7.89247000
162.79999051	0.00000000	-27.29453000	-7.89247000
162.99999049	0.00000000	-28.03888000	-7.89247000
163.19999048	0.00000000	-28.41412000	-7.89247000
163.39999047	0.00000000	-28.45718000	-7.89247000
163.59999046	0.00000000	-28.50024000	-7.89247000
163.79999045	0.00000000	-28.83243000	-7.89247000
163.99999043	0.00000000	-29.20152000	-7.89247000
164.19999042	0.00000000	-28.78937000	-7.89247000
164.39999041	0.00000000	-28.08194000	-7.89247000
164.59999040	0.00000000	-27.29453000	-7.89247000
164.79999039	0.00000000	-26.91929000	-7.89247000
164.99999037	0.00000000	-26.87623000	-7.89247000
165.19999036	0.00000000	-26.91929000	-7.89247000
165.39999035	0.00000000	-27.29453000	-7.89247000
165.59999034	0.00000000	-27.98966000	-7.89247000
165.79999033	0.00000000	-28.03888000	-7.89247000
165.99999032	0.00000000	-27.71284000	-7.89247000
166.19999030	0.00000000	-28.08194000	-7.89247000
166.39999029	0.00000000	-28.41412000	-7.84940900
166.59999028	0.00000000	-28.45718000	-7.51722400
166.79999027	0.00000000	-28.45718000	-7.14812900
166.99999026	0.00000000	-28.41412000	-7.51722400
167.19999024	0.00000000	-28.03888000	-7.84940900
167.39999023	0.00000000	-27.29453000	-7.89247000
167.59999022	0.00000000	-26.91929000	-7.89247000
167.79999021	0.00000000	-26.87623000	-7.89247000
167.99999020	0.00000000	-26.87623000	-7.89247000
168.19999018	0.00000000	-26.87623000	-7.89247000
168.39999017	0.00000000	-26.87623000	-7.89247000
168.59999016	0.00000000	-26.91929000	-7.89247000
168.79999015	0.00000000	-27.29453000	-7.89247000
168.99999014	0.00000000	-28.03888000	-7.89247000
169.19999013	0.00000000	-28.41412000	-7.89247000
169.39999011	0.00000000	-28.45718000	-7.89247000
169.59999010	0.00000000	-28.45718000	-7.89247000
169.79999009	0.00000000	-28.45718000	-7.89247000
169.99999008	0.00000000	-28.45718000	-7.89247000
170.19999007	0.00000000	-28.45718000	-7.89247000
170.39999005	0.00000000	-28.45718000	-7.89247000
170.59999004	0.00000000	-28.41412000	-7.89247000
170.79999003	0.00000000	-28.08194000	-7.89247000
170.99999002	0.00000000	-27.66978000	-7.89247000
171.19999001	0.00000000	-27.66363000	-7.89247000
171.39998999	0.00000000	-27.25147000	-7.89247000
171.59998998	0.00000000	-26.91929000	-7.89247000
171.79998997	0.00000000	-26.87623000	-7.89247000
171.99998996	0.00000000	-26.91929000	-7.89247000
172.19998995	0.00000000	-27.29453000	-7.89247000
172.39998994	0.00000000	-28.03888000	-7.89247000
172.59998992	0.00000000	-28.41412000	-7.89247000
172.79998991	0.00000000	-28.45718000	-7.89247000
172.99998990	0.00000000	-28.45718000	-7.89247000
173.19998989	0.00000000	-28.41412000	-7.89247000
173.39998988	0.00000000	-28.03888000	-7.89247000
173.59998986	0.00000000	-27.29453000	-7.89247000
173.79998985	0.00000000	-26.91929000	-7.89247000
173.99998984	0.00000000	-26.87623000	-7.89247000
174.19998983	0.00000000	-26.87623000	-7.89247000
174.39998982	0.00000000	-26.87623000	-7.89247000
174.59998980	0.00000000	-26.87623000	-7.89247000
174.79998979	0.00000000	-26.87623000	-7.89247000
174.99998978	0.00000000	-26.91929000	-7.89247000
175.19998977	0.00000000	-27.29453000	-7.89247000
175.39998976	0.00000000	-28.03888000	-7.89247000
175.59998975	0.00000000	-28.41412000	-7.89247000
175.79998973	0.00000000	-28.45718000	-7.93553100
175.99998972	0.00000000	-28.41412000	-8.22465500
176.19998971	0.00000000	-28.03888000	-8.26156400
176.39998970	0.00000000	-27.34375000	-7.52337600
176.59998969	0.00000000	-27.29453000	-7.56028500
176.79998967	0.00000000	-27.62057000	-7.84940900
176.99998966	0.00000000	-27.25147000	-7.89247000
177.19998965	0.00000000	-26.91929000	-7.89247000
177.39998964	0.00000000	-26.87623000	-7.89247000
177.59998963	0.00000000	-26.87623000	-7.89247000
177.79998961	0.00000000	-26.91929000	-7.89247000
177.99998960	0.00000000	-27.29453000	-7.89247000
178.19998959	0.00000000	-28.03888000	-7.89247000
178.39998958	0.00000000	-28.36491000	-7.89247000
178.59998957	0.00000000	-28.03888000	-7.89247000
178.79998956	0.00000000	-27.29453000	-7.89247000
178.99998954	0.00000000	-26.91929000	-7.84940900
179.19998953	0.00000000	-26.91929000	-7.51722400
179.39998952	0.00000000	-27.25147000	-7.14812900
179.59998951	0.00000000	-27.62057000	-7.51722400
179.79998950	0.00000000	-27.25147000	-7.84940900
179.99998948	0.00000000	-26.91929000	-7.89247000
180.19998947	0.00000000	-26.87623000	-7.89247000
180.39998946	0.00000000	-26.87623000	-7.89247000
180.59998945	0.00000000	-26.91929000	-7.89247000
180.79998944	0.00000000	-27.25147000	-7.89247000
180.99998942	0.00000000	-27.66363000	-7.89247000
181.19998941	0.00000000	-27.62672000	-7.89247000
181.39998940	0.00000000	-27.66363000	-7.84940900
181.59998939	0.00000000	-27.25147000	-7.47416300
181.79998938	0.00000000	-26.91929000	-6.72982200
181.99998937	0.00000000	-26.87623000	-6.40378900
182.19998935	0.00000000	-26.87623000	-6.72982200
182.39998934	0.00000000	-26.87623000	-7.47416300
182.59998933	0.00000000	-26.87623000	-7.84940900
182.79998932	0.00000000	-26.87623000	-7.89247000
182.99998931	0.00000000	-26.87623000	-7.89247000
183.19998929	0.00000000	-26.87623000	-7.89247000
183.39998928	0.00000000	-26.87623000	-7.89247000
183.59998927	0.00000000	-26.87623000	-7.89247000
183.79998926	0.00000000	-26.87623000	-7.89247000
183.99998925	0.00000000	-26.87623000	-7.89247000
184.19998923	0.00000000	-26.87623000	-7.89247000
184.39998922	0.00000000	-26.87623000	-7.84940900
184.59998921	0.00000000	-26.91929000	-7.47416300
184.79998920	0.00000000	-27.25147000	-6.72982200
184.99998919	0.00000000	-27.62057000	-6.35457700
185.19998918	0.00000000	-27.25147000	-6.35457700
185.39998916	0.00000000	-26.91929000	-6.72982200
185.59998915	0.00000000	-26.87623000	-7.47416300
185.79998914	0.00000000	-26.87623000	-7.84940900
185.99998913	0.00000000	-26.87623000	-7.89247000
186.19998912	0.00000000	-26.87623000	-7.89247000
186.39998910	0.00000000	-26.87623000	-7.89247000
186.59998909	0.00000000	-26.87623000	-7.89247000
186.79998908	0.00000000	-26.87623000	-7.89247000
186.99998907	0.00000000	-26.91929000	-7.89247000
187.19998906	0.00000000	-27.29453000	-7.89247000
187.39998904	0.00000000	-27.98966000	-7.84940900
187.59998903	0.00000000	-27.98966000	-7.47416300
187.79998902	0.00000000	-27.29453000	-6.72982200
187.99998901	0.00000000	-26.91929000	-6.35457700
188.19998900	0.00000000	-26.87623000	-6.31151500
188.39998899	0.00000000	-26.91929000	-6.35457700
188.59998897	0.00000000	-27.25147000	-6.72982200
188.79998896	0.00000000	-27.62057000	-7.47416300
188.99998895	0.00000000	-27.25147000	-7.84940900
189.19998894	0.00000000	-26.91929000	-7.89247000
189.39998893	0.00000000	-26.87623000	-7.89247000
189.59998891	0.00000000	-26.87623000	-7.89247000
189.79998890	0.00000000	-26.87623000	-7.89247000
189.99998889	0.00000000	-26.91929000	-7.84940900
190.19998888	0.00000000	-27.25147000	-7.47416300
190.39998887	0.00000000	-27.62057000	-6.72982200
190.59998885	0.00000000	-27.25147000	-6.40378900
190.79998884	0.00000000	-26.91929000	-6.68676100
190.99998883	0.00000000	-26.87623000	-7.09891700
191.19998882	0.00000000	-26.87623000	-7.10506800
191.39998881	0.00000000	-26.87623000	-7.51722400
191.59998880	0.00000000	-26.87623000	-7.84940900
191.79998878	0.00000000	-26.87623000	-7.89247000
191.99998877	0.00000000	-26.87623000	-7.89247000
192.19998876	0.00000000	-26.87623000	-7.89247000
192.39998875	0.00000000	-26.87623000	-7.89247000
192.59998874	0.00000000	-26.87623000	-7.89247000
192.79998872	0.00000000	-26.87623000	-7.89247000
192.99998871	0.00000000	-26.87623000	-7.89247000
193.19998870	0.00000000	-26.87623000	-7.89247000
193.39998869	0.00000000	-26.87623000	-7.89247000
193.59998868	0.00000000	-26.87623000	-7.89247000
193.79998866	0.00000000	-26.87623000	-7.84940900
193.99998865	0.00000000	-26.87623000	-7.51722400
194.19998864	0.00000000	-26.87623000	-7.10506800
194.39998863	0.00000000	-26.87623000	-7.09891700
194.59998862	0.00000000	-26.87623000	-6.72982200
194.79998861	0.00000000	-26.87623000	-6.77903500
194.99998859	0.00000000	-26.87623000	-7.47416300
195.19998858	0.00000000	-26.87623000	-7.84940900
195.39998857	0.00000000	-26.87623000	-7.89247000
195.59998856	0.00000000	-26.87623000	-7.89247000
195.79998855	0.00000000	-26.87623000	-7.89247000
195.99998853	0.00000000	-26.87623000	-7.89247000
