Time	Channel A	Channel B	Channel C
(us)	(V)	(mV)	(mV)

-4.59999956	0.00000000	67.99335000	26.42101000
-4.39999957	0.00000000	67.99335000	26.05807000
-4.19999958	0.00000000	67.99335000	26.09498000
-3.99999959	0.00000000	67.99335000	26.05807000
-3.79999960	0.00000000	67.99335000	26.42101000
-3.59999962	0.00000000	67.99335000	26.37795000
-3.39999963	0.00000000	67.99335000	25.68282000
-3.19999964	0.00000000	67.99335000	25.30758000
-2.99999965	0.00000000	67.99335000	25.26452000
-2.79999966	0.00000000	67.99335000	25.26452000
-2.59999968	0.00000000	67.99335000	25.26452000
-2.39999969	0.00000000	67.99335000	25.26452000
-2.19999970	0.00000000	67.95029000	25.26452000
-1.99999971	0.00000000	67.61810000	25.30758000
-1.79999972	0.00000000	67.24901000	25.63976000
-1.59999973	0.00000000	67.61810000	26.00270000
-1.39999975	0.00000000	67.95029000	25.63976000
-1.19999976	0.00000000	67.99335000	25.30758000
-0.99999977	0.00000000	67.99335000	25.30758000
-0.79999978	0.00000000	67.99335000	25.63976000
-0.59999979	0.00000000	67.99335000	26.00270000
-0.39999981	0.00000000	67.99335000	25.63976000
-0.19999982	0.31803640	67.99335000	25.30758000
0.00000017	0.79601380	67.99335000	25.26452000
0.20000016	0.95533960	67.99335000	25.26452000
0.40000015	0.95533960	67.99335000	25.26452000
0.60000013	0.79601380	67.99335000	25.26452000
0.80000012	0.15871060	67.95029000	25.26452000
1.00000011	-0.79601380	67.61810000	25.26452000
1.20000010	-1.75196900	67.24901000	25.30758000
1.40000009	-2.54859700	67.61810000	25.68282000
1.60000008	-2.70792300	67.95029000	26.42101000
1.80000006	-2.22994600	67.99335000	26.79626000
2.00000005	-0.95533960	67.99335000	26.83932000
2.20000004	0.95533960	67.99335000	26.83932000
2.40000003	3.02657500	67.95029000	26.79626000
2.60000002	4.77854300	67.57505000	26.46407000
2.80000000	5.41584600	66.87376000	26.05807000
2.99999999	4.61921700	66.82455000	26.04577000
3.19999998	2.38927200	67.19365000	25.63976000
3.39999997	-0.79601380	67.20596000	25.30758000
3.59999996	-4.14124000	67.57505000	25.26452000
3.79999994	-6.84916400	67.57505000	25.30758000
3.99999993	-7.96444400	67.24901000	25.68282000
4.19999992	-7.16781500	67.61810000	26.42101000
4.39999991	-4.30056600	67.95029000	26.79626000
4.59999990	-0.15871060	67.99335000	26.83932000
4.79999989	4.14124000	67.95029000	26.79626000
4.99999987	7.80511800	67.57505000	26.42101000
5.19999986	9.39837600	66.82455000	25.68282000
5.39999985	8.76107300	66.49852000	25.30758000
5.59999984	5.89382400	66.78149000	25.26452000
5.79999983	1.43331700	67.15059000	25.26452000
5.99999981	-3.34522600	66.82455000	25.26452000
6.19999980	-7.32714100	66.87376000	25.30758000
6.39999979	-9.39837600	67.57505000	25.68282000
6.59999978	-9.07972400	67.95029000	26.42101000
6.79999977	-6.53112700	67.95029000	26.79626000
6.99999975	-2.54859700	67.61810000	26.79626000
7.19999974	1.91129400	67.20596000	26.42101000
7.39999973	5.57517200	67.19365000	25.72589000
7.59999972	7.48646600	66.82455000	25.68282000
7.79999971	7.48646600	66.87376000	26.00270000
7.99999970	5.73449800	67.52583000	25.63976000
8.19999968	2.70792300	67.52583000	25.30758000
8.39999967	-0.63668800	66.87376000	25.26452000
8.59999966	-3.34522600	66.87376000	25.30758000
8.79999965	-4.93786900	67.57505000	25.63976000
8.99999964	-5.09719500	67.95029000	26.04577000
9.19999962	-4.14124000	67.95029000	26.00886000
9.39999961	-2.22994600	67.61810000	26.09498000
9.59999960	-0.31803640	67.24901000	26.00886000
9.79999959	1.27399100	67.61810000	26.09498000
9.99999958	2.38927200	67.95029000	26.00886000
10.19999956	2.54859700	67.95029000	26.04577000
10.39999955	2.07062000	67.57505000	25.63976000
10.59999954	1.27399100	66.82455000	25.30758000
10.79999953	0.31803640	66.49852000	25.26452000
10.99999952	-0.31803640	66.78149000	25.26452000
11.19999951	-0.79601380	67.19365000	25.26452000
11.39999949	-0.95533960	67.15674000	25.26452000
11.59999948	-0.95533960	67.24286000	25.26452000
11.79999947	-0.63668800	67.15674000	25.26452000
11.99999946	-0.31803640	67.19365000	25.26452000
12.19999945	-0.15871060	66.78149000	25.26452000
12.39999943	-0.15871060	66.44931000	25.26452000
12.59999942	-0.15871060	66.40624000	25.26452000
12.79999941	0.00000000	66.44931000	25.26452000
12.99999940	0.00000000	66.78149000	25.26452000
13.19999939	0.00000000	67.15059000	25.26452000
13.39999937	0.00000000	66.78149000	25.26452000
13.59999936	0.00000000	66.44931000	25.30758000
13.79999935	0.00000000	66.44931000	25.68282000
13.99999934	-0.15871060	66.78149000	26.37795000
14.19999933	-0.15871060	67.15059000	26.37795000
14.39999932	-0.15871060	66.78149000	25.68282000
14.59999930	-0.15871060	66.44931000	25.30758000
14.79999929	0.00000000	66.40624000	25.30758000
14.99999928	0.00000000	66.40624000	25.63976000
15.19999927	0.00000000	66.40624000	26.00270000
15.39999926	0.00000000	66.40624000	25.63976000
15.59999924	0.00000000	66.40624000	25.30758000
15.79999923	0.00000000	66.40624000	25.26452000
15.99999922	0.00000000	66.40624000	25.26452000
16.19999921	0.00000000	66.40624000	25.26452000
16.39999920	0.00000000	66.44931000	25.26452000
16.59999919	-0.15871060	66.82455000	25.26452000
16.79999917	0.00000000	67.57505000	25.26452000
16.99999916	0.00000000	67.99335000	25.26452000
17.19999915	0.00000000	68.36859000	25.26452000
17.39999914	0.00000000	68.78075000	25.26452000
17.59999913	0.00000000	68.74384000	25.26452000
17.79999911	0.00000000	68.78075000	25.26452000
17.99999910	0.00000000	68.32554000	25.26452000
18.19999909	0.00000000	67.57505000	25.26452000
18.39999908	0.00000000	66.32012000	25.26452000
18.59999907	0.00000000	64.45004000	25.26452000
18.79999905	0.00000000	62.54921000	25.26452000
18.99999904	0.00000000	61.79872000	25.26452000
19.19999903	0.00000000	62.17396000	25.26452000
19.39999902	0.00000000	63.75492000	25.26452000
19.59999901	0.00000000	66.49852000	25.26452000
19.79999900	0.00000000	69.99261000	25.26452000
19.99999898	0.00000000	73.84965000	25.26452000
20.19999897	0.00000000	76.88238000	25.26452000
20.39999896	0.00000000	78.03887000	25.26452000
20.59999895	0.00000000	76.83316000	25.26452000
20.79999894	0.00000000	73.25295000	25.30758000
20.99999892	0.00000000	67.01525000	25.63976000
21.19999891	0.00000000	58.96899000	26.00270000
21.39999890	0.00000000	51.66092000	25.63976000
21.59999889	0.00000000	47.05339000	25.30758000
21.79999888	0.00000000	46.35826000	25.26452000
21.99999886	0.00000000	50.67667000	25.26452000
22.19999885	0.00000000	59.56569000	25.26452000
22.39999884	0.00000000	71.24138000	25.26452000
22.59999883	0.00000000	83.57529000	25.26452000
22.79999882	0.00000000	93.94685000	25.30758000
22.99999881	0.00000000	98.84349000	25.68282000
23.19999879	0.00000000	96.51205000	26.42101000
23.39999878	0.00000000	86.79256000	26.79626000
23.59999877	0.00000000	71.67200000	26.83932000
23.79999876	0.00000000	53.89394000	26.83932000
23.99999875	0.00000000	37.33390000	26.83932000
24.19999873	0.00000000	26.62401000	26.83932000
24.39999872	0.00000000	24.71703000	26.79626000
24.59999871	0.00000000	32.90477000	26.32874000
24.79999870	0.00000000	49.52017000	24.79700000
24.99999869	0.00000000	71.15526000	22.52091000
25.19999867	0.00000000	92.79034000	20.66314000
25.39999866	0.00000000	109.35650000	19.87574000
25.59999865	0.00000000	117.03370000	20.66314000
25.79999864	0.00000000	113.12750000	22.57013000
25.99999863	0.00000000	98.46825000	25.30758000
26.19999862	0.00000000	76.41486000	28.46333000
26.39999860	0.00000000	51.66092000	31.95128000
26.59999859	0.00000000	29.69365000	35.38385000
26.79999858	0.00000000	15.83415000	37.20472000
26.99999857	0.00000000	13.87795000	36.41117000
27.19999856	0.00000000	23.88041000	32.51107000
27.39999854	0.00000000	43.19635000	26.32874000
27.59999853	0.00000000	67.52583000	18.94685000
27.79999852	0.00000000	91.11713000	11.65108000
27.99999851	0.00000000	108.89520000	6.30536400
28.19999850	0.00000000	117.03370000	4.81668300
28.39999848	0.00000000	113.58880000	7.92937900
28.59999847	0.00000000	100.14150000	15.31742000
28.79999846	0.00000000	80.04429000	25.81816000
28.99999845	0.00000000	57.98474000	37.75836000
29.19999844	0.00000000	38.63189000	48.49286000
29.39999843	0.00000000	25.87967000	54.63213000
29.59999841	0.00000000	22.76083000	54.63213000
29.79999840	0.00000000	29.55832000	48.40059000
29.99999839	0.00000000	43.46702000	36.74335000
30.19999838	0.00000000	60.87598000	21.68430000
30.39999837	0.00000000	78.73400000	6.26230300
30.59999835	0.00000000	93.03026000	-5.67790300
30.79999834	0.00000000	101.21190000	-11.44193000
30.99999833	0.00000000	101.63020000	-9.44266700
31.19999832	0.00000000	94.74654000	0.59055110
31.39999831	0.00000000	82.73868000	16.38779000
31.59999829	0.00000000	68.03641000	34.18430000
31.79999828	0.00000000	53.75246000	50.44291000
31.99999827	0.00000000	43.28247000	62.01402000
32.19999826	0.00000000	38.58883000	66.19709000
32.39999825	0.00000000	40.03444000	61.55265000
32.59999824	0.00000000	46.63509000	48.86811000
32.79999822	0.00000000	56.69291000	31.53297000
32.99999821	0.00000000	68.68848000	13.69340000
33.19999820	0.00000000	79.44143000	-1.40871000
33.39999819	0.00000000	86.46037000	-11.06668000
33.59999818	0.00000000	88.41658000	-13.01673000
33.79999816	0.00000000	85.39001000	-7.21579700
33.99999815	0.00000000	78.41412000	5.14886800
34.19999814	0.00000000	69.19906000	21.72736000
34.39999813	0.00000000	59.94094000	38.31816000
34.59999812	0.00000000	53.37721000	51.51329000
34.79999810	0.00000000	50.63361000	58.85826000
34.99999809	0.00000000	52.17150000	58.90133000
35.19999808	0.00000000	57.47416000	51.93774000
35.39999807	0.00000000	64.36392000	39.57308000
35.59999806	0.00000000	70.60162000	24.15108000
35.79999805	0.00000000	75.25220000	9.55339400
35.99999803	0.00000000	77.52829000	-0.47982280
36.19999802	0.00000000	76.41486000	-3.58636800
36.39999801	0.00000000	72.60088000	0.54749010
36.59999800	0.00000000	67.57505000	10.11934000
36.79999799	0.00000000	62.17396000	22.05955000
36.99999797	0.00000000	57.98474000	33.67372000
37.19999796	0.00000000	56.44685000	42.50738000
37.39999795	0.00000000	57.94168000	46.35826000
37.59999794	0.00000000	61.75566000	44.08218000
37.79999793	0.00000000	66.40624000	36.82948000
37.99999791	0.00000000	71.06299000	26.83932000
38.19999790	0.00000000	74.87697000	16.89222000
38.39999789	0.00000000	76.41486000	10.01476000
38.59999788	0.00000000	75.30142000	8.48302100
38.79999787	0.00000000	72.22563000	12.62303000
38.99999786	0.00000000	67.99335000	20.66314000
39.19999784	0.00000000	63.71186000	29.86589000
39.39999783	0.00000000	60.21776000	37.89985000
39.59999782	0.00000000	57.84941000	42.08292000
39.79999781	0.00000000	57.09892000	40.92643000
39.99999780	0.00000000	57.89247000	34.83022000
40.19999778	0.00000000	60.63607000	25.59055000
40.39999777	0.00000000	64.82529000	16.01255000
40.59999776	0.00000000	69.06373000	8.34768700
40.79999775	0.00000000	72.22563000	5.37032500
40.99999774	0.00000000	74.22490000	8.39074700
41.19999772	0.00000000	75.34448000	16.38164000
41.39999771	0.00000000	74.92618000	26.37180000
41.59999770	0.00000000	72.64394000	35.62377000
41.79999769	0.00000000	69.52509000	42.21825000
41.99999768	0.00000000	66.03100000	44.50664000
42.19999767	0.00000000	62.54921000	42.21825000
42.39999765	0.00000000	60.21776000	35.67298000
42.59999764	0.00000000	59.01205000	26.83932000
42.79999763	0.00000000	59.05511000	17.96260000
42.99999762	0.00000000	60.59301000	11.09129000
43.19999761	0.00000000	63.24434000	8.39689900
43.39999759	0.00000000	65.94488000	10.58071000
43.59999758	0.00000000	67.90108000	15.87721000
43.79999757	0.00000000	69.10678000	22.10261000
43.99999756	0.00000000	69.57431000	28.32800000
44.19999755	0.00000000	69.94955000	33.71678000
44.39999753	0.00000000	70.31865000	36.78642000
44.59999752	0.00000000	69.94955000	36.82948000
44.79999751	0.00000000	69.61736000	34.18430000
44.99999750	0.00000000	69.53124000	29.95817000
45.19999749	0.00000000	69.10678000	25.35679000
45.39999748	0.00000000	67.94415000	21.45669000
45.59999746	0.00000000	66.36318000	19.12524000
45.79999745	0.00000000	64.35777000	18.29478000
45.99999744	0.00000000	61.66338000	19.08218000
46.19999743	0.00000000	58.96899000	20.98917000
46.39999742	0.00000000	57.05585000	23.68356000
46.59999740	0.00000000	56.36073000	26.37795000
46.79999739	0.00000000	57.98474000	28.32800000
46.99999738	0.00000000	62.21702000	29.49065000
47.19999737	0.00000000	68.03641000	29.49065000
47.39999736	0.00000000	74.18184000	28.37721000
47.59999734	0.00000000	79.20152000	26.79626000
47.79999733	0.00000000	81.48991000	24.79700000
47.99999732	0.00000000	80.69020000	22.15182000
48.19999731	0.00000000	76.37180000	19.87574000
48.39999730	0.00000000	69.06373000	19.08218000
48.59999729	0.00000000	60.54995000	19.50049000
48.79999727	0.00000000	52.86663000	21.45669000
48.99999726	0.00000000	47.89001000	24.88927000
49.19999725	0.00000000	47.51476000	28.32800000
49.39999724	0.00000000	51.75319000	31.11466000
49.59999723	0.00000000	59.47957000	32.97859000
49.79999721	0.00000000	69.10678000	33.34153000
49.99999720	0.00000000	77.95275000	31.39763000
50.19999719	0.00000000	83.72293000	27.95275000
50.39999718	0.00000000	84.92863000	23.72662000
50.59999717	0.00000000	81.48991000	19.91880000
50.79999715	0.00000000	74.92002000	17.96260000
50.99999714	0.00000000	66.40624000	17.87647000
51.19999713	0.00000000	57.94168000	19.08218000
51.39999712	0.00000000	51.79626000	21.45669000
51.59999711	0.00000000	49.47096000	25.35679000
51.79999710	0.00000000	51.83932000	29.90895000
51.99999708	0.00000000	58.27386000	33.71678000
52.19999707	0.00000000	66.73228000	35.25467000
52.39999706	0.00000000	74.04650000	34.13509000
52.59999705	0.00000000	79.06618000	31.06545000
52.79999704	0.00000000	80.22883000	26.83932000
52.99999702	0.00000000	77.20841000	22.61319000
53.19999701	0.00000000	71.80733000	19.54355000
53.39999700	0.00000000	64.87450000	18.33784000
53.59999699	0.00000000	58.40305000	19.08218000
53.79999698	0.00000000	54.91510000	20.98917000
53.99999696	0.00000000	54.86589000	23.72662000
54.19999695	0.00000000	57.94168000	26.75320000
54.39999694	0.00000000	63.33661000	29.02928000
54.59999693	0.00000000	69.48203000	29.44759000
54.79999692	0.00000000	74.83390000	28.32800000
54.99999691	0.00000000	77.48523000	26.42101000
55.19999689	0.00000000	76.41486000	24.14493000
55.39999688	0.00000000	72.60088000	22.65625000
55.59999687	0.00000000	67.57505000	22.61319000
55.79999686	0.00000000	62.17396000	23.77584000
55.99999685	0.00000000	57.98474000	25.68282000
56.19999683	0.00000000	56.40379000	28.00197000
56.39999682	0.00000000	57.51722000	29.86589000
56.59999681	0.00000000	60.63607000	30.60408000
56.79999680	0.00000000	65.24360000	29.39837000
56.99999679	0.00000000	70.17716000	26.32874000
57.19999677	0.00000000	73.29601000	22.10261000
57.39999676	0.00000000	74.13878000	17.91953000
57.59999675	0.00000000	73.34522000	15.31742000
57.79999674	0.00000000	70.64468000	15.69267000
57.99999673	0.00000000	66.82455000	19.12524000
58.19999672	0.00000000	63.37967000	24.10187000
58.39999670	0.00000000	61.01131000	29.58292000
58.59999669	0.00000000	60.21776000	34.55955000
58.79999668	0.00000000	60.59301000	37.94907000
58.99999667	0.00000000	62.13090000	37.89985000
59.19999666	0.00000000	64.40699000	34.09203000
59.39999664	0.00000000	66.36318000	27.95891000
59.59999663	0.00000000	67.90108000	20.98917000
59.79999662	0.00000000	68.68848000	14.85605000
59.99999661	0.00000000	68.32554000	10.99901000
60.19999660	0.00000000	67.57505000	10.62377000
60.39999658	0.00000000	66.40624000	13.73647000
60.59999657	0.00000000	65.29281000	19.91880000
60.79999656	0.00000000	64.91756000	27.95275000
60.99999655	0.00000000	65.24360000	35.25467000
61.19999654	0.00000000	65.98794000	39.89911000
61.39999653	0.00000000	66.36318000	41.06176000
61.59999651	0.00000000	66.40624000	38.31816000
61.79999650	0.00000000	66.40624000	32.18504000
61.99999649	0.00000000	66.36318000	24.10187000
62.19999648	0.00000000	65.93873000	16.38779000
62.39999647	0.00000000	64.78223000	10.58071000
62.59999645	0.00000000	63.28740000	7.92937900
62.79999644	0.00000000	62.17396000	9.46727400
62.99999643	0.00000000	62.17396000	14.84990000
63.19999642	0.00000000	63.33661000	22.52091000
63.39999641	0.00000000	65.24360000	30.60408000
63.59999639	0.00000000	67.52583000	36.78642000
63.79999638	0.00000000	69.06373000	39.94832000
63.99999637	0.00000000	69.53124000	39.94832000
64.19999636	0.00000000	69.48203000	36.82948000
64.39999635	0.00000000	68.68848000	31.06545000
64.59999634	0.00000000	66.73843000	24.14493000
64.79999632	0.00000000	64.49311000	17.96260000
64.99999631	0.00000000	62.54921000	13.69340000
65.19999630	0.00000000	61.79872000	12.11245000
65.39999629	0.00000000	62.13090000	13.22589000
65.59999628	0.00000000	63.28740000	16.29552000
65.79999626	0.00000000	64.82529000	20.57087000
65.99999625	0.00000000	66.40624000	25.22145000
66.19999624	0.00000000	67.90108000	29.49065000
66.39999623	0.00000000	68.64542000	32.60334000
66.59999622	0.00000000	67.85802000	34.18430000
66.79999620	0.00000000	65.98794000	34.18430000
66.99999619	0.00000000	63.71186000	32.69562000
67.19999618	0.00000000	62.21702000	30.37647000
67.39999617	0.00000000	62.17396000	28.00197000
67.59999616	0.00000000	63.33661000	25.21530000
67.79999615	0.00000000	65.24360000	22.10261000
67.99999613	0.00000000	67.61810000	19.03297000
68.19999612	0.00000000	69.94955000	16.71383000
68.39999611	0.00000000	72.18258000	15.92027000
68.59999610	0.00000000	72.83464000	16.33858000
68.79999609	0.00000000	70.55241000	18.33784000
68.99999607	0.00000000	66.40624000	22.19488000
69.19999606	0.00000000	62.13090000	26.79626000
69.39999605	0.00000000	58.63681000	31.06545000
69.59999604	0.00000000	56.31151000	34.18430000
69.79999603	0.00000000	55.98548000	35.75910000
69.99999601	0.00000000	57.94168000	35.71604000
70.19999600	0.00000000	62.17396000	33.71678000
70.39999599	0.00000000	67.57505000	29.44759000
70.59999598	0.00000000	72.60088000	23.72662000
70.79999597	0.00000000	76.45792000	18.33784000
70.99999596	0.00000000	77.95275000	14.84990000
71.19999594	0.00000000	76.41486000	13.65034000
71.39999593	0.00000000	72.18258000	14.80684000
71.59999592	0.00000000	66.36318000	17.87647000
71.79999591	0.00000000	60.17470000	22.14567000
71.99999590	0.00000000	54.82283000	26.79626000
72.19999588	0.00000000	52.12844000	30.97933000
72.39999587	0.00000000	52.86663000	33.29847000
72.59999586	0.00000000	56.31151000	32.97859000
72.79999585	0.00000000	61.75566000	31.11466000
72.99999584	0.00000000	67.90108000	28.37721000
73.19999582	0.00000000	73.34522000	25.35064000
73.39999581	0.00000000	76.79011000	23.03149000
73.59999580	0.00000000	77.62057000	22.19488000
73.79999579	0.00000000	75.67052000	22.14567000
73.99999578	0.00000000	71.85040000	22.57013000
74.19999577	0.00000000	66.78149000	23.72662000
74.39999575	0.00000000	61.79872000	25.17224000
74.59999574	0.00000000	57.89247000	25.91043000
74.79999573	0.00000000	55.98548000	25.12918000
74.99999572	0.00000000	56.31151000	23.30832000
75.19999571	0.00000000	58.63681000	21.40748000
75.39999569	0.00000000	62.08169000	20.70620000
75.59999568	0.00000000	65.94488000	21.45669000
75.79999567	0.00000000	69.02066000	23.72662000
75.99999566	0.00000000	70.60162000	26.46407000
76.19999565	0.00000000	70.64468000	29.21383000
76.39999563	0.00000000	69.53124000	32.22810000
76.59999562	0.00000000	67.99335000	33.67372000
76.79999561	0.00000000	66.40624000	32.51722000
76.99999560	0.00000000	64.86835000	29.07234000
77.19999559	0.00000000	63.75492000	24.05881000
77.39999558	0.00000000	63.71186000	19.08218000
77.59999556	0.00000000	64.40699000	15.18209000
77.79999555	0.00000000	64.78223000	13.27510000
77.99999554	0.00000000	64.78223000	13.69340000
78.19999553	0.00000000	64.40699000	16.80610000
78.39999552	0.00000000	63.66264000	22.19488000
78.59999550	0.00000000	63.28740000	28.32800000
78.79999549	0.00000000	63.28740000	33.71678000
78.99999548	0.00000000	63.71186000	36.78642000
79.19999547	0.00000000	64.86835000	36.87869000
79.39999546	0.00000000	66.45546000	34.60261000
79.59999544	0.00000000	68.36859000	31.06545000
79.79999543	0.00000000	70.22637000	26.37795000
79.99999542	0.00000000	70.60162000	20.98917000
80.19999541	0.00000000	69.48203000	16.38779000
80.39999540	0.00000000	67.52583000	13.69340000
80.59999539	0.00000000	64.82529000	13.64419000
80.79999537	0.00000000	62.13090000	15.92027000
80.99999536	0.00000000	60.21776000	19.40822000
81.19999535	0.00000000	59.43036000	23.64050000
81.39999534	0.00000000	60.21776000	27.54060000
81.59999533	0.00000000	62.13090000	30.28420000
81.79999531	0.00000000	64.82529000	32.27731000
81.99999530	0.00000000	67.52583000	33.02165000
82.19999529	0.00000000	69.48203000	32.64640000
82.39999528	0.00000000	70.60162000	31.06545000
82.59999527	0.00000000	70.22637000	28.37721000
82.79999525	0.00000000	68.36859000	25.26452000
82.99999524	0.00000000	66.40624000	22.15182000
83.19999523	0.00000000	64.45004000	19.40822000
83.39999522	0.00000000	62.54921000	17.50123000
83.59999521	0.00000000	61.79872000	16.71383000
83.79999520	0.00000000	62.13090000	17.50123000
83.99999518	0.00000000	63.24434000	19.40822000
84.19999517	0.00000000	64.40699000	22.19488000
84.39999516	0.00000000	65.20053000	25.68282000
84.59999515	0.00000000	66.03100000	29.53371000
84.79999514	0.00000000	66.69537000	32.64640000
84.99999512	0.00000000	66.73228000	34.51033000
85.19999511	0.00000000	65.61884000	34.50418000
85.39999510	0.00000000	64.91756000	31.81594000
85.59999509	0.00000000	64.86835000	28.00197000
85.79999508	0.00000000	65.24360000	23.68356000
85.99999506	0.00000000	65.98794000	19.45743000
86.19999505	0.00000000	66.36318000	16.33858000
86.39999504	0.00000000	66.36318000	14.84990000
86.59999503	0.00000000	65.93873000	15.64960000
86.79999502	0.00000000	64.78223000	19.08218000
86.99999501	0.00000000	63.28740000	23.68356000
87.19999499	0.00000000	62.13090000	28.32800000
87.39999498	0.00000000	61.75566000	32.18504000
87.59999497	0.00000000	62.13090000	34.14124000
87.79999496	0.00000000	63.28740000	34.14124000
87.99999495	0.00000000	64.82529000	32.14198000
88.19999493	0.00000000	66.36318000	27.90969000
88.39999492	0.00000000	67.52583000	22.61319000
88.59999491	0.00000000	67.95029000	18.38090000
88.79999490	0.00000000	67.90108000	16.38164000
88.99999489	0.00000000	67.15059000	16.38164000
89.19999487	0.00000000	65.61884000	18.33784000
89.39999486	0.00000000	64.45004000	22.19488000
89.59999485	0.00000000	63.24434000	26.74705000
89.79999484	0.00000000	62.13090000	30.60408000
89.99999483	0.00000000	61.75566000	32.56028000
90.19999482	0.00000000	62.13090000	32.56028000
90.39999480	0.00000000	63.28740000	30.60408000
90.59999479	0.00000000	64.78223000	26.74705000
90.79999478	0.00000000	65.93873000	22.19488000
90.99999477	0.00000000	66.36318000	18.33784000
91.19999476	0.00000000	66.40624000	16.43085000
91.39999474	0.00000000	66.36318000	16.75689000
91.59999473	0.00000000	65.98794000	19.12524000
91.79999472	0.00000000	65.24360000	22.93922000
91.99999471	0.00000000	64.86835000	27.58366000
92.19999470	0.00000000	64.82529000	31.35457000
92.39999468	0.00000000	64.82529000	33.29847000
92.59999467	0.00000000	64.82529000	32.51722000
92.79999466	0.00000000	64.78223000	29.49065000
92.99999465	0.00000000	64.40699000	25.26452000
93.19999464	0.00000000	63.61958000	20.98917000
93.39999463	0.00000000	62.86909000	17.54429000
93.59999461	0.00000000	62.13090000	15.69267000
93.79999460	0.00000000	62.17396000	16.84916000
93.99999459	0.00000000	63.28740000	20.61393000
94.19999458	0.00000000	64.86835000	25.22145000
94.39999457	0.00000000	66.82455000	29.44759000
94.59999455	0.00000000	69.10678000	32.14198000
94.79999454	0.00000000	70.60162000	32.56028000
94.99999453	0.00000000	70.64468000	31.02239000
95.19999452	0.00000000	69.48203000	27.95275000
95.39999451	0.00000000	67.52583000	24.10187000
95.59999449	0.00000000	64.78223000	20.66314000
95.79999448	0.00000000	61.70644000	18.33784000
95.99999447	0.00000000	59.01205000	18.01181000
96.19999446	0.00000000	57.51722000	19.87574000
96.39999445	0.00000000	57.89247000	23.30832000
96.59999444	0.00000000	60.17470000	26.70398000
96.79999442	0.00000000	63.28740000	29.07234000
96.99999441	0.00000000	66.78149000	29.86589000
97.19999440	0.00000000	70.26943000	29.53371000
97.39999439	0.00000000	72.55782000	28.32800000
97.59999438	0.00000000	73.38828000	26.37795000
97.79999436	0.00000000	72.55782000	23.72662000
97.99999435	0.00000000	70.22637000	21.45669000
98.19999434	0.00000000	66.36318000	20.66314000
98.39999433	0.00000000	62.17396000	20.98917000
98.59999432	0.00000000	59.01205000	22.15182000
98.79999430	0.00000000	57.05585000	23.64050000
98.99999429	0.00000000	56.31151000	24.79700000
99.19999428	0.00000000	57.47416000	25.22145000
99.39999427	0.00000000	60.17470000	25.26452000
99.59999426	0.00000000	63.66264000	25.26452000
99.79999425	0.00000000	67.52583000	25.26452000
99.99999423	0.00000000	70.60162000	25.30758000
100.19999422	0.00000000	72.18258000	25.68282000
100.39999421	0.00000000	72.18258000	26.42101000
100.59999420	0.00000000	70.64468000	26.79626000
100.79999419	0.00000000	67.94415000	26.79626000
100.99999417	0.00000000	64.82529000	26.42101000
101.19999416	0.00000000	61.75566000	25.59055000
101.39999415	0.00000000	59.43036000	24.42790000
101.59999414	0.00000000	58.63681000	22.52091000
101.79999413	0.00000000	58.91978000	21.03838000
101.99999411	0.00000000	59.75024000	20.62008000
102.19999410	0.00000000	60.96825000	21.03838000
102.39999409	0.00000000	63.28740000	22.65625000
102.59999408	0.00000000	65.94488000	25.63976000
102.79999407	0.00000000	67.90108000	28.69709000
102.99999406	0.00000000	69.10678000	30.28420000
103.19999404	0.00000000	69.48203000	31.06545000
103.39999403	0.00000000	69.06373000	30.60408000
103.59999402	0.00000000	67.52583000	28.32800000
103.79999401	0.00000000	65.24360000	25.26452000
103.99999400	0.00000000	63.28740000	22.15182000
104.19999398	0.00000000	61.70644000	19.45743000
104.39999397	0.00000000	60.59301000	17.96260000
104.59999396	0.00000000	60.59301000	18.33784000
104.79999395	0.00000000	61.70644000	20.61393000
104.99999394	0.00000000	63.24434000	23.64050000
105.19999392	0.00000000	64.82529000	26.37795000
105.39999391	0.00000000	66.32012000	28.32800000
105.59999390	0.00000000	67.15059000	29.49065000
105.79999389	0.00000000	67.15674000	29.44759000
105.99999388	0.00000000	67.15059000	27.90969000
106.19999387	0.00000000	66.32012000	25.26452000
106.39999385	0.00000000	64.86835000	22.61319000
106.59999384	0.00000000	63.71186000	21.03838000
106.79999383	0.00000000	63.28740000	20.62008000
106.99999382	0.00000000	63.28740000	20.98917000
107.19999381	0.00000000	63.71186000	22.19488000
107.39999379	0.00000000	64.82529000	24.05881000
107.59999378	0.00000000	65.93873000	25.95964000
107.79999377	0.00000000	66.31397000	26.74705000
107.99999376	0.00000000	65.98794000	26.79626000
108.19999375	0.00000000	65.20053000	26.37795000
108.39999374	0.00000000	64.40699000	25.21530000
108.59999372	0.00000000	63.24434000	23.72662000
108.79999371	0.00000000	62.13090000	22.57013000
108.99999370	0.00000000	61.70644000	22.14567000
109.19999369	0.00000000	61.70644000	22.14567000
109.39999368	0.00000000	62.13090000	22.57013000
109.59999366	0.00000000	63.28740000	23.72662000
109.79999365	0.00000000	64.82529000	25.21530000
109.99999364	0.00000000	66.32012000	26.37795000
110.19999363	0.00000000	67.10752000	26.79626000
110.39999362	0.00000000	66.73843000	26.79626000
110.59999360	0.00000000	65.98794000	26.37795000
110.79999359	0.00000000	64.78223000	25.21530000
110.99999358	0.00000000	63.28740000	23.72662000
111.19999357	0.00000000	62.13090000	22.57013000
111.39999356	0.00000000	61.70644000	22.14567000
111.59999355	0.00000000	61.70644000	22.14567000
111.79999353	0.00000000	62.13090000	22.57013000
111.99999352	0.00000000	63.24434000	23.68356000
112.19999351	0.00000000	64.40699000	24.79700000
112.39999350	0.00000000	65.20053000	25.26452000
112.59999349	0.00000000	65.98794000	25.68282000
112.79999347	0.00000000	66.31397000	26.37795000
112.99999346	0.00000000	65.98794000	26.37795000
113.19999345	0.00000000	65.24360000	25.68282000
113.39999344	0.00000000	64.82529000	25.26452000
113.59999343	0.00000000	64.40699000	24.84621000
113.79999341	0.00000000	63.66264000	24.15108000
113.99999340	0.00000000	63.28740000	24.10187000
114.19999339	0.00000000	63.28740000	24.42790000
114.39999338	0.00000000	63.66264000	24.01575000
114.59999337	0.00000000	64.40699000	23.35138000
114.79999336	0.00000000	64.78223000	22.93922000
114.99999334	0.00000000	64.82529000	23.30832000
115.19999333	0.00000000	64.82529000	23.64050000
115.39999332	0.00000000	64.82529000	23.68356000
115.59999331	0.00000000	64.82529000	23.72662000
115.79999330	0.00000000	64.82529000	24.10187000
115.99999328	0.00000000	64.78223000	24.88927000
116.19999327	0.00000000	64.40699000	25.63976000
116.39999326	0.00000000	63.66264000	26.42101000
116.59999325	0.00000000	63.28740000	26.74705000
116.79999324	0.00000000	63.24434000	26.42101000
116.99999322	0.00000000	63.28740000	25.68282000
117.19999321	0.00000000	63.66264000	25.26452000
117.39999320	0.00000000	64.40699000	24.79700000
117.59999319	0.00000000	64.82529000	23.72662000
117.79999318	0.00000000	65.24360000	22.98843000
117.99999317	0.00000000	65.98794000	23.30832000
118.19999315	0.00000000	66.31397000	23.64050000
118.39999314	0.00000000	65.98794000	23.72662000
118.59999313	0.00000000	65.20053000	24.10187000
118.79999312	0.00000000	64.40699000	24.84621000
118.99999311	0.00000000	63.24434000	25.26452000
119.19999309	0.00000000	62.13090000	25.63976000
119.39999308	0.00000000	61.70644000	26.00270000
119.59999307	0.00000000	61.70644000	25.63976000
119.79999306	0.00000000	62.13090000	25.30758000
119.99999305	0.00000000	63.28740000	25.26452000
120.19999303	0.00000000	64.82529000	25.26452000
120.39999302	0.00000000	66.36318000	25.22145000
120.59999301	0.00000000	67.48277000	24.84621000
120.79999300	0.00000000	67.52583000	24.10187000
120.99999299	0.00000000	66.78149000	23.72662000
121.19999298	0.00000000	65.98794000	23.68356000
121.39999296	0.00000000	64.78223000	23.68356000
121.59999295	0.00000000	63.28740000	23.68356000
121.79999294	0.00000000	62.13090000	23.68356000
121.99999293	0.00000000	61.70644000	23.68356000
122.19999292	0.00000000	61.66338000	23.72662000
122.39999290	0.00000000	61.70644000	24.10187000
122.59999289	0.00000000	62.13090000	24.84621000
122.79999288	0.00000000	63.24434000	25.22145000
122.99999287	0.00000000	64.40699000	25.26452000
123.19999286	0.00000000	65.20053000	25.26452000
123.39999284	0.00000000	65.98794000	25.22145000
123.59999283	0.00000000	66.31397000	24.79700000
123.79999282	0.00000000	65.98794000	23.72662000
123.99999281	0.00000000	65.24360000	22.98843000
124.19999280	0.00000000	64.86835000	23.26525000
124.39999279	0.00000000	64.78223000	23.26525000
124.59999277	0.00000000	64.40699000	22.93922000
124.79999276	0.00000000	63.61958000	23.30832000
124.99999275	0.00000000	62.86909000	23.68356000
125.19999274	0.00000000	62.13090000	24.10187000
125.39999273	0.00000000	62.13090000	24.84621000
125.59999271	0.00000000	62.82603000	25.22145000
125.79999270	0.00000000	63.24434000	25.26452000
125.99999269	0.00000000	63.66264000	25.26452000
126.19999268	0.00000000	64.45004000	25.26452000
126.39999267	0.00000000	65.20053000	25.26452000
126.59999265	0.00000000	65.98794000	25.22145000
126.79999264	0.00000000	66.31397000	24.84621000
126.99999263	0.00000000	65.93873000	24.10187000
127.19999262	0.00000000	64.82529000	23.72662000
127.39999261	0.00000000	63.66264000	23.68356000
127.59999260	0.00000000	62.86909000	23.68356000
127.79999258	0.00000000	62.08169000	23.68356000
127.99999257	0.00000000	61.70644000	23.72662000
128.19999256	0.00000000	61.70644000	24.10187000
128.39999255	0.00000000	62.13090000	24.84621000
128.59999254	0.00000000	63.28740000	25.22145000
128.79999252	0.00000000	64.78223000	25.22145000
128.99999251	0.00000000	65.93873000	24.84621000
129.19999250	0.00000000	66.36318000	24.15108000
129.39999249	0.00000000	66.31397000	24.10187000
129.59999248	0.00000000	65.56963000	24.42790000
129.79999246	0.00000000	64.03790000	24.05881000
129.99999245	0.00000000	62.91216000	23.72662000
130.19999244	0.00000000	62.08169000	23.68356000
130.39999243	0.00000000	61.75566000	23.72662000
130.59999242	0.00000000	62.08169000	24.10187000
130.79999241	0.00000000	62.86909000	24.84621000
130.99999239	0.00000000	63.61958000	25.22145000
131.19999238	0.00000000	64.40699000	25.22145000
131.39999237	0.00000000	64.82529000	24.88927000
131.59999236	0.00000000	65.20053000	24.47712000
131.79999235	0.00000000	65.56963000	24.47096000
131.99999233	0.00000000	65.15748000	24.01575000
132.19999232	0.00000000	64.45004000	23.30832000
132.39999231	0.00000000	63.66264000	22.57013000
132.59999230	0.00000000	63.28740000	22.57013000
132.79999229	0.00000000	63.24434000	23.30832000
132.99999227	0.00000000	63.24434000	24.05881000
133.19999226	0.00000000	63.24434000	24.84621000
133.39999225	0.00000000	63.28740000	25.26452000
133.59999224	0.00000000	63.66264000	25.68282000
133.79999223	0.00000000	64.35777000	26.37795000
133.99999222	0.00000000	64.35777000	26.32874000
134.19999220	0.00000000	63.66264000	25.26452000
134.39999219	0.00000000	63.28740000	24.10187000
134.59999218	0.00000000	63.24434000	23.30832000
134.79999217	0.00000000	63.28740000	22.52091000
134.99999216	0.00000000	63.66264000	22.14567000
135.19999214	0.00000000	64.40699000	22.10261000
135.39999213	0.00000000	64.78223000	22.14567000
135.59999212	0.00000000	64.82529000	22.57013000
135.79999211	0.00000000	64.78223000	23.68356000
135.99999210	0.00000000	64.40699000	24.79700000
136.19999208	0.00000000	63.66264000	25.22145000
136.39999207	0.00000000	63.24434000	25.26452000
136.59999206	0.00000000	62.82603000	25.26452000
136.79999205	0.00000000	62.13090000	25.26452000
136.99999204	0.00000000	62.13090000	25.26452000
137.19999203	0.00000000	62.86909000	25.22145000
137.39999201	0.00000000	63.61958000	24.84621000
137.59999200	0.00000000	64.40699000	24.10187000
137.79999199	0.00000000	64.82529000	23.68356000
137.99999198	0.00000000	65.20053000	23.26525000
138.19999197	0.00000000	65.56963000	22.52091000
138.39999195	0.00000000	65.15748000	22.19488000
138.59999194	0.00000000	64.45004000	22.52091000
138.79999193	0.00000000	63.61958000	23.30832000
138.99999192	0.00000000	62.86909000	24.05881000
139.19999191	0.00000000	62.13090000	24.84621000
139.39999189	0.00000000	62.13090000	25.22145000
139.59999188	0.00000000	62.82603000	25.26452000
139.79999187	0.00000000	63.24434000	25.26452000
139.99999186	0.00000000	63.66264000	25.22145000
140.19999185	0.00000000	64.40699000	24.84621000
140.39999184	0.00000000	64.78223000	24.05881000
140.59999182	0.00000000	64.82529000	23.30832000
140.79999181	0.00000000	64.78223000	22.52091000
140.99999180	0.00000000	64.40699000	22.14567000
141.19999179	0.00000000	63.66264000	22.10261000
141.39999178	0.00000000	63.28740000	22.14567000
141.59999176	0.00000000	63.24434000	22.52091000
141.79999175	0.00000000	63.24434000	23.35138000
141.99999174	0.00000000	63.24434000	24.47712000
142.19999173	0.00000000	63.28740000	25.95964000
142.39999172	0.00000000	63.66264000	26.37795000
142.59999170	0.00000000	64.35777000	26.05807000
142.79999169	0.00000000	64.35777000	26.00270000
142.99999168	0.00000000	63.66264000	25.21530000
143.19999167	0.00000000	63.28740000	24.10187000
143.39999166	0.00000000	63.24434000	23.30832000
143.59999165	0.00000000	63.24434000	22.52091000
143.79999163	0.00000000	63.24434000	22.19488000
143.99999162	0.00000000	63.24434000	22.52091000
144.19999161	0.00000000	63.28740000	23.30832000
144.39999160	0.00000000	63.66264000	24.05881000
144.59999159	0.00000000	64.40699000	24.84621000
144.79999157	0.00000000	64.78223000	25.22145000
144.99999156	0.00000000	64.78223000	25.26452000
145.19999155	0.00000000	64.40699000	25.26452000
145.39999154	0.00000000	63.66264000	25.22145000
145.59999153	0.00000000	63.28740000	24.84621000
145.79999151	0.00000000	63.24434000	24.10187000
145.99999150	0.00000000	63.24434000	23.72662000
146.19999149	0.00000000	63.28740000	23.68356000
146.39999148	0.00000000	63.61958000	23.64050000
146.59999147	0.00000000	63.98867000	23.30832000
146.79999146	0.00000000	63.66264000	22.93922000
146.99999144	0.00000000	63.71186000	23.30832000
147.19999143	0.00000000	64.40699000	23.68356000
147.39999142	0.00000000	64.73302000	24.10187000
147.59999141	0.00000000	64.40699000	24.84621000
147.79999140	0.00000000	63.66264000	25.22145000
147.99999138	0.00000000	63.28740000	25.26452000
148.19999137	0.00000000	63.20127000	25.26452000
148.39999136	0.00000000	62.86909000	25.26452000
148.59999135	0.00000000	62.50000000	25.22145000
148.79999134	0.00000000	62.86909000	24.84621000
148.99999132	0.00000000	63.20127000	24.10187000
149.19999131	0.00000000	63.28740000	23.72662000
149.39999130	0.00000000	63.66264000	23.68356000
149.59999129	0.00000000	64.40699000	23.68356000
149.79999128	0.00000000	64.78223000	23.68356000
149.99999127	0.00000000	64.82529000	23.72662000
150.19999125	0.00000000	64.78223000	24.05881000
150.39999124	0.00000000	64.45004000	24.51402000
150.59999123	0.00000000	64.03790000	24.85236000
150.79999122	0.00000000	64.03174000	25.62746000
150.99999121	0.00000000	63.61958000	25.54749000
151.19999119	0.00000000	63.28740000	24.88927000
151.39999118	0.00000000	63.24434000	24.15108000
151.59999117	0.00000000	63.24434000	24.05881000
151.79999116	0.00000000	63.24434000	24.05266000
151.99999115	0.00000000	63.24434000	23.31447000
152.19999113	0.00000000	63.24434000	23.30832000
152.39999112	0.00000000	63.28740000	23.21604000
152.59999111	0.00000000	63.66264000	22.57013000
152.79999110	0.00000000	64.35777000	22.57013000
152.99999109	0.00000000	64.35777000	23.26525000
153.19999108	0.00000000	63.66264000	23.64050000
153.39999106	0.00000000	63.28740000	23.72662000
153.59999105	0.00000000	63.24434000	24.05881000
153.79999104	0.00000000	63.24434000	24.42790000
153.99999103	0.00000000	63.20127000	24.05881000
154.19999102	0.00000000	62.82603000	23.72662000
154.39999100	0.00000000	62.08169000	23.68356000
154.59999099	0.00000000	61.75566000	23.68356000
154.79999098	0.00000000	62.08169000	23.68356000
154.99999097	0.00000000	62.82603000	23.68356000
155.19999096	0.00000000	63.24434000	23.68356000
155.39999094	0.00000000	63.66264000	23.68356000
155.59999093	0.00000000	64.40699000	23.68356000
155.79999092	0.00000000	64.78223000	23.68356000
155.99999091	0.00000000	64.78223000	23.68356000
156.19999090	0.00000000	64.40699000	23.72662000
156.39999089	0.00000000	63.66264000	24.10187000
156.59999087	0.00000000	63.24434000	24.84621000
156.79999086	0.00000000	62.82603000	25.22145000
156.99999085	0.00000000	62.08169000	25.26452000
157.19999084	0.00000000	61.70644000	25.26452000
157.39999083	0.00000000	61.70644000	25.26452000
157.59999081	0.00000000	62.08169000	25.22145000
157.79999080	0.00000000	62.82603000	24.84621000
157.99999079	0.00000000	63.24434000	24.10187000
158.19999078	0.00000000	63.66264000	23.72662000
158.39999077	0.00000000	64.35777000	23.68356000
158.59999075	0.00000000	64.40699000	23.68356000
158.79999074	0.00000000	64.08095000	23.68356000
158.99999073	0.00000000	64.40699000	23.68356000
159.19999072	0.00000000	64.35777000	23.72662000
159.39999071	0.00000000	63.66264000	24.10187000
159.59999070	0.00000000	63.28740000	24.84621000
159.79999068	0.00000000	63.24434000	25.22145000
159.99999067	0.00000000	63.24434000	25.26452000
160.19999066	0.00000000	63.24434000	25.22145000
160.39999065	0.00000000	63.24434000	24.84621000
160.59999064	0.00000000	63.24434000	24.10187000
160.79999062	0.00000000	63.24434000	23.72662000
160.99999061	0.00000000	63.24434000	23.68356000
161.19999060	0.00000000	63.20127000	23.64050000
161.39999059	0.00000000	62.86909000	23.26525000
161.59999058	0.00000000	62.50000000	22.57013000
161.79999056	0.00000000	62.86909000	22.57013000
161.99999055	0.00000000	63.20127000	23.26525000
162.19999054	0.00000000	63.24434000	23.64050000
162.39999053	0.00000000	63.24434000	23.68356000
162.59999052	0.00000000	63.24434000	23.72662000
162.79999051	0.00000000	63.24434000	24.10187000
162.99999049	0.00000000	63.24434000	24.84621000
163.19999048	0.00000000	63.20127000	25.17224000
163.39999047	0.00000000	62.82603000	24.84621000
163.59999046	0.00000000	62.13090000	24.10187000
163.79999045	0.00000000	62.13090000	23.72662000
163.99999043	0.00000000	62.82603000	23.68356000
164.19999042	0.00000000	63.20127000	23.68356000
164.39999041	0.00000000	63.24434000	23.68356000
164.59999040	0.00000000	63.24434000	23.68356000
164.79999039	0.00000000	63.24434000	23.68356000
164.99999037	0.00000000	63.24434000	23.68356000
165.19999036	0.00000000	63.28740000	23.68356000
165.39999035	0.00000000	63.61958000	23.68356000
165.59999034	0.00000000	63.98867000	23.68356000
165.79999033	0.00000000	63.61958000	23.68356000
165.99999032	0.00000000	63.24434000	23.68356000
166.19999030	0.00000000	62.86909000	23.68356000
166.39999029	0.00000000	62.50000000	23.72662000
166.59999028	0.00000000	62.86909000	24.05881000
166.79999027	0.00000000	63.20127000	24.47096000
166.99999026	0.00000000	63.20127000	24.43405000
167.19999024	0.00000000	62.86909000	24.47096000
167.39999023	0.00000000	62.50000000	24.05881000
167.59999022	0.00000000	62.86909000	23.72662000
167.79999021	0.00000000	63.20127000	23.68356000
167.99999020	0.00000000	63.24434000	23.68356000
168.19999018	0.00000000	63.24434000	23.68356000
168.39999017	0.00000000	63.24434000	23.68356000
168.59999016	0.00000000	63.24434000	23.68356000
168.79999015	0.00000000	63.24434000	23.68356000
168.99999014	0.00000000	63.24434000	23.68356000
169.19999013	0.00000000	63.20127000	23.68356000
169.39999011	0.00000000	62.82603000	23.68356000
169.59999010	0.00000000	62.08169000	23.68356000
169.79999009	0.00000000	61.75566000	23.68356000
169.99999008	0.00000000	62.08169000	23.68356000
170.19999007	0.00000000	62.82603000	23.68356000
170.39999005	0.00000000	63.20127000	23.68356000
170.59999004	0.00000000	63.24434000	23.68356000
170.79999003	0.00000000	63.24434000	23.68356000
170.99999002	0.00000000	63.24434000	23.68356000
171.19999001	0.00000000	63.24434000	23.68356000
171.39998999	0.00000000	63.24434000	23.68356000
171.59998998	0.00000000	63.24434000	23.68356000
171.79998997	0.00000000	63.24434000	23.68356000
171.99998996	0.00000000	63.24434000	23.68356000
172.19998995	0.00000000	63.24434000	23.68356000
172.39998994	0.00000000	63.20127000	23.68356000
172.59998992	0.00000000	62.82603000	23.68356000
172.79998991	0.00000000	62.08169000	23.68356000
172.99998990	0.00000000	61.75566000	23.68356000
173.19998989	0.00000000	62.08169000	23.68356000
173.39998988	0.00000000	62.82603000	23.68356000
173.59998986	0.00000000	63.20127000	23.68356000
173.79998985	0.00000000	63.24434000	23.68356000
173.99998984	0.00000000	63.24434000	23.68356000
174.19998983	0.00000000	63.24434000	23.68356000
174.39998982	0.00000000	63.24434000	23.68356000
174.59998980	0.00000000	63.24434000	23.68356000
174.79998979	0.00000000	63.24434000	23.68356000
174.99998978	0.00000000	63.24434000	23.68356000
175.19998977	0.00000000	63.24434000	23.68356000
175.39998976	0.00000000	63.24434000	23.68356000
175.59998975	0.00000000	63.24434000	23.68356000
175.79998973	0.00000000	63.24434000	23.68356000
175.99998972	0.00000000	63.24434000	23.68356000
176.19998971	0.00000000	63.24434000	23.68356000
176.39998970	0.00000000	63.24434000	23.68356000
176.59998969	0.00000000	63.24434000	23.68356000
176.79998967	0.00000000	63.24434000	23.68356000
176.99998966	0.00000000	63.24434000	23.68356000
177.19998965	0.00000000	63.20127000	23.68356000
177.39998964	0.00000000	62.86909000	23.68356000
177.59998963	0.00000000	62.50000000	23.68356000
177.79998961	0.00000000	62.82603000	23.68356000
177.99998960	0.00000000	62.77681000	23.68356000
178.19998959	0.00000000	62.13090000	23.72662000
178.39998958	0.00000000	62.08169000	24.05881000
178.59998957	0.00000000	62.45079000	24.42790000
178.79998956	0.00000000	62.45694000	24.05881000
178.99998954	0.00000000	62.86909000	23.72662000
179.19998953	0.00000000	63.20127000	23.68356000
179.39998952	0.00000000	63.24434000	23.68356000
179.59998951	0.00000000	63.24434000	23.68356000
179.79998950	0.00000000	63.24434000	23.68356000
179.99998948	0.00000000	63.24434000	23.68356000
180.19998947	0.00000000	63.20127000	23.68356000
180.39998946	0.00000000	62.86909000	23.59129000
180.59998945	0.00000000	62.45694000	22.93307000
180.79998944	0.00000000	62.49385000	22.25024000
180.99998942	0.00000000	62.45694000	23.30832000
181.19998941	0.00000000	62.82603000	24.33563000
181.39998940	0.00000000	62.82603000	24.10187000
181.59998939	0.00000000	62.50000000	24.10187000
181.79998938	0.00000000	62.86909000	24.47096000
181.99998937	0.00000000	63.20127000	24.43405000
182.19998935	0.00000000	63.24434000	24.47096000
182.39998934	0.00000000	63.24434000	24.05881000
182.59998933	0.00000000	63.24434000	23.72662000
182.79998932	0.00000000	63.24434000	23.64050000
182.99998931	0.00000000	63.24434000	23.30832000
183.19998929	0.00000000	63.20127000	22.89616000
183.39998928	0.00000000	62.82603000	22.89001000
183.59998927	0.00000000	62.13090000	22.52091000
183.79998926	0.00000000	62.08169000	22.57013000
183.99998925	0.00000000	62.45079000	23.26525000
184.19998923	0.00000000	62.41388000	23.64050000
184.39998922	0.00000000	62.45079000	23.72662000
184.59998921	0.00000000	62.03863000	24.05881000
184.79998920	0.00000000	61.70644000	24.42790000
184.99998919	0.00000000	61.66338000	24.05881000
185.19998918	0.00000000	61.70644000	23.72662000
185.39998916	0.00000000	62.08169000	23.68356000
185.59998915	0.00000000	62.82603000	23.68356000
185.79998914	0.00000000	63.20127000	23.64050000
185.99998913	0.00000000	63.24434000	23.26525000
186.19998912	0.00000000	63.24434000	22.57013000
186.39998910	0.00000000	63.24434000	22.52091000
186.59998909	0.00000000	63.20127000	22.89001000
186.79998908	0.00000000	62.86909000	22.89616000
186.99998907	0.00000000	62.45694000	23.30832000
187.19998906	0.00000000	62.45079000	23.64050000
187.39998904	0.00000000	62.03863000	23.68356000
187.59998903	0.00000000	61.70644000	23.72662000
187.79998902	0.00000000	61.66338000	24.10187000
187.99998901	0.00000000	61.66338000	24.79700000
188.19998900	0.00000000	61.70644000	24.79700000
188.39998899	0.00000000	62.08169000	24.10187000
188.59998897	0.00000000	62.82603000	23.72662000
188.79998896	0.00000000	63.15207000	23.68356000
188.99998895	0.00000000	62.86909000	23.68356000
189.19998894	0.00000000	62.50000000	23.64050000
189.39998893	0.00000000	62.82603000	23.30832000
189.59998891	0.00000000	62.77681000	22.93922000
189.79998890	0.00000000	62.13090000	23.30832000
189.99998889	0.00000000	62.13090000	23.64050000
190.19998888	0.00000000	62.77681000	23.68356000
190.39998887	0.00000000	62.77681000	23.68356000
190.59998885	0.00000000	62.08169000	23.68356000
190.79998884	0.00000000	61.75566000	23.68356000
190.99998883	0.00000000	62.08169000	23.68356000
191.19998882	0.00000000	62.82603000	23.68356000
191.39998881	0.00000000	63.20127000	23.68356000
191.59998880	0.00000000	63.24434000	23.68356000
191.79998878	0.00000000	63.24434000	23.68356000
191.99998877	0.00000000	63.24434000	23.68356000
192.19998876	0.00000000	63.24434000	23.68356000
192.39998875	0.00000000	63.20127000	23.64050000
192.59998874	0.00000000	62.82603000	23.30832000
192.79998872	0.00000000	62.08169000	22.93922000
192.99998871	0.00000000	61.70644000	23.30832000
193.19998870	0.00000000	61.66338000	23.64050000
193.39998869	0.00000000	61.66338000	23.68356000
193.59998868	0.00000000	61.66338000	23.68356000
193.79998866	0.00000000	61.70644000	23.72662000
193.99998865	0.00000000	62.03863000	24.10187000
194.19998864	0.00000000	62.40772000	24.79700000
194.39998863	0.00000000	62.08169000	24.79700000
194.59998862	0.00000000	62.13090000	24.10187000
194.79998861	0.00000000	62.82603000	23.72662000
194.99998859	0.00000000	63.20127000	23.68356000
195.19998858	0.00000000	63.20127000	23.64050000
195.39998857	0.00000000	62.86909000	23.30832000
195.59998856	0.00000000	62.45694000	22.93922000
195.79998855	0.00000000	62.45079000	23.26525000
195.99998853	0.00000000	62.03863000	23.26525000
