Time	Channel A	Channel B	Channel C
(us)	(V)	(mV)	(mV)

-4.53333289	0.00000000	11.06668000	7.89247000
-4.33333290	0.00000000	11.06668000	7.89247000
-4.13333291	0.00000000	11.06668000	7.89247000
-3.93333293	0.00000000	11.06668000	7.89247000
-3.73333294	0.00000000	11.06668000	7.89247000
-3.53333295	0.00000000	11.06668000	7.89247000
-3.33333296	0.00000000	11.06668000	7.89247000
-3.13333297	0.00000000	11.06668000	7.89247000
-2.93333299	0.00000000	11.06668000	7.89247000
-2.73333300	0.00000000	11.06668000	7.89247000
-2.53333301	0.00000000	11.06668000	7.89247000
-2.33333302	0.00000000	11.06668000	7.89247000
-2.13333303	0.00000000	11.06668000	7.89247000
-1.93333304	0.00000000	11.06668000	7.89247000
-1.73333306	0.00000000	11.06668000	7.89247000
-1.53333307	0.00000000	11.06668000	7.89247000
-1.33333308	0.00000000	11.06668000	7.89247000
-1.13333309	0.00000000	11.06668000	7.89247000
-0.93333310	0.00000000	11.06668000	7.89247000
-0.73333312	0.00000000	11.06668000	7.89247000
-0.53333313	0.00000000	11.06668000	7.89247000
-0.33333314	0.15871060	11.06668000	7.89247000
-0.13333315	0.47736220	11.06668000	7.89247000
0.06666684	0.95533960	11.06668000	7.89247000
0.26666682	0.95533960	11.06668000	7.89247000
0.46666681	0.95533960	11.06668000	7.89247000
0.66666680	0.47736220	11.06668000	7.89247000
0.86666679	-0.31803640	11.06668000	7.89247000
1.06666678	-1.27399100	11.06668000	7.89247000
1.26666677	-2.22994600	11.06668000	7.89247000
1.46666675	-2.70792300	11.06668000	7.89247000
1.66666674	-2.54859700	11.06668000	7.89247000
1.86666673	-1.75196900	11.06668000	7.89247000
2.06666672	0.00000000	11.06668000	7.89247000
2.26666671	2.07062000	11.06668000	7.89247000
2.46666669	4.14124000	11.06668000	7.89247000
2.66666668	5.25652100	11.06668000	7.89247000
2.86666667	5.09719500	11.06668000	7.89247000
3.06666666	3.50393700	11.06668000	7.89247000
3.26666665	0.79601380	11.06668000	7.89247000
3.46666663	-2.70792300	11.06668000	7.89247000
3.66666662	-5.73449800	11.06668000	7.89247000
3.86666661	-7.64579200	11.06668000	7.89247000
4.06666660	-7.80511800	11.06668000	7.93553100
4.26666659	-5.89382400	11.06668000	8.26771600
4.46666658	-2.22994600	11.06668000	8.63681000
4.66666656	2.07062000	11.06668000	8.26771600
4.86666655	6.21247500	11.06668000	7.93553100
5.06666654	8.92039900	11.06668000	7.89247000
5.26666653	9.39837600	11.06668000	7.89247000
5.46666652	7.48646600	11.06668000	7.89247000
5.66666650	3.66326300	11.06668000	7.89247000
5.86666649	-1.11466500	11.06668000	7.89247000
6.06666648	-5.57517200	11.06668000	7.93553100
6.26666647	-8.76107300	11.06668000	8.26771600
6.46666646	-9.39837600	11.06668000	8.67987200
6.66666644	-7.96444400	11.06668000	8.68602300
6.86666643	-4.61921700	11.06668000	9.05511800
7.06666642	-0.15871060	11.06668000	9.00590400
7.26666641	3.98191400	11.06668000	8.31077700
7.46666640	6.69045300	11.06668000	7.93553100
7.66666639	7.80511800	11.06668000	7.89247000
7.86666637	6.84916400	11.06668000	7.89247000
8.06666636	4.30056600	11.06668000	7.89247000
8.26666635	0.95533960	11.06668000	7.89247000
8.46666634	-2.07062000	11.06668000	7.89247000
8.66666633	-4.30056600	11.06668000	7.89247000
8.86666631	-5.25652100	11.06668000	7.89247000
9.06666630	-4.77854300	11.06668000	7.89247000
9.26666629	-3.18590100	11.06668000	7.89247000
9.46666628	-1.27399100	11.06668000	7.89247000
9.66666627	0.63668800	11.06668000	7.89247000
9.86666625	1.91129400	11.06668000	7.89247000
10.06666624	2.54859700	11.06668000	7.89247000
10.26666623	2.38927200	11.06668000	7.89247000
10.46666622	1.75196900	11.06668000	7.89247000
10.66666621	0.79601380	11.06668000	7.89247000
10.86666620	0.00000000	11.06668000	7.89247000
11.06666618	-0.63668800	11.06668000	7.89247000
11.26666617	-0.95533960	11.06668000	7.89247000
11.46666616	-0.95533960	11.06668000	7.89247000
11.66666615	-0.79601380	11.06668000	7.89247000
11.86666614	-0.47736220	11.06668000	7.89247000
12.06666612	-0.15871060	11.06668000	7.89247000
12.26666611	-0.15871060	11.06668000	7.89247000
12.46666610	0.00000000	11.06668000	7.89247000
12.66666609	0.00000000	11.02362000	7.89247000
12.86666608	0.00000000	10.69144000	7.89247000
13.06666606	0.00000000	10.32234000	7.89247000
13.26666605	0.00000000	10.69144000	7.89247000
13.46666604	0.00000000	11.02362000	7.89247000
13.66666603	0.00000000	11.06668000	7.89247000
13.86666602	0.00000000	11.06668000	7.89247000
14.06666601	-0.15871060	11.06668000	7.89247000
14.26666599	-0.15871060	11.06668000	7.89247000
14.46666598	-0.15871060	11.06668000	7.89247000
14.66666597	0.00000000	11.06668000	7.89247000
14.86666596	0.00000000	11.06668000	7.89247000
15.06666595	0.00000000	11.06668000	7.89247000
15.26666593	0.00000000	11.06668000	7.89247000
15.46666592	0.00000000	11.06668000	7.89247000
15.66666591	0.00000000	11.06668000	7.89247000
15.86666590	0.00000000	11.06668000	7.89247000
16.06666589	0.00000000	11.06668000	7.89247000
16.26666587	0.00000000	11.06668000	7.89247000
16.46666586	0.00000000	11.06668000	7.89247000
16.66666585	-0.15871060	11.06668000	7.89247000
16.86666584	0.00000000	11.10974000	7.89247000
17.06666583	0.00000000	11.48499000	7.89247000
17.26666582	0.00000000	12.22933000	7.89247000
17.46666580	0.00000000	12.60458000	7.89247000
17.66666579	0.00000000	12.60458000	7.89247000
17.86666578	0.00000000	12.22933000	7.89247000
18.06666577	0.00000000	11.44193000	7.89247000
18.26666576	0.00000000	10.64838000	7.89247000
18.46666574	0.00000000	9.44266700	7.89247000
18.66666573	0.00000000	7.94783400	7.89247000
18.86666572	0.00000000	6.79133800	7.89247000
19.06666571	0.00000000	6.45915300	7.89247000
19.26666570	0.00000000	7.25270600	7.89247000
19.46666568	0.00000000	9.57800100	7.89247000
19.66666567	0.00000000	12.69070000	7.89247000
19.86666566	0.00000000	16.22785000	7.89247000
20.06666565	0.00000000	20.04183000	7.89247000
20.26666564	0.00000000	22.65010000	7.89247000
20.46666563	0.00000000	22.60704000	7.89247000
20.66666561	0.00000000	19.48819000	7.89247000
20.86666560	0.00000000	13.67495000	7.89247000
21.06666559	0.00000000	6.32381900	7.89247000
21.26666558	0.00000000	-1.02731300	7.89247000
21.46666557	0.00000000	-6.79749000	7.89247000
21.66666555	0.00000000	-9.40575800	7.89247000
21.86666554	0.00000000	-7.40034400	7.89247000
22.06666553	0.00000000	-0.42445860	7.89247000
22.26666552	0.00000000	10.08243000	7.89247000
22.46666551	0.00000000	22.46555000	7.89247000
22.66666549	0.00000000	34.37500000	7.89247000
22.86666548	0.00000000	41.96604000	7.93553100
23.06666547	0.00000000	42.75344000	8.31077700
23.26666546	0.00000000	36.10359000	9.05511800
23.46666545	0.00000000	23.25910000	9.43036400
23.66666544	0.00000000	5.85629900	9.47342500
23.86666542	0.00000000	-12.19242000	9.47342500
24.06666541	0.00000000	-25.68897000	9.43036400
24.26666540	0.00000000	-31.45915000	9.05511800
24.46666539	0.00000000	-27.87278000	8.26771600
24.66666538	0.00000000	-14.70842000	7.47416300
24.86666536	0.00000000	5.38877900	6.26845500
25.06666535	0.00000000	27.76821000	4.73671200
25.26666534	0.00000000	47.44709000	3.24803100
25.46666533	0.00000000	59.36269000	2.50369100
25.66666532	0.00000000	60.47613000	3.33415300
25.86666530	0.00000000	50.05536000	5.61638700
26.06666529	0.00000000	30.33341000	9.14124000
26.26666528	0.00000000	5.99163300	12.96137000
26.46666527	0.00000000	-17.96260000	16.48622000
26.66666526	0.00000000	-35.64837000	18.71924000
26.86666525	0.00000000	-42.62426000	19.08834000
27.06666523	0.00000000	-37.22933000	16.67692000
27.26666522	0.00000000	-21.03223000	11.65723000
27.46666521	0.00000000	2.13459600	4.69365100
27.66666520	0.00000000	26.83932000	-2.64517700
27.86666519	0.00000000	47.35482000	-8.78444900
28.06666517	0.00000000	59.36269000	-12.21703000
28.26666516	0.00000000	60.56840000	-11.34350000
28.46666515	0.00000000	50.94119000	-5.90551100
28.66666514	0.00000000	33.16929000	3.80167300
28.86666513	0.00000000	11.15896000	15.69882000
29.06666511	0.00000000	-10.10089000	26.93774000
29.26666510	0.00000000	-25.59670000	34.98400000
29.46666509	0.00000000	-32.61565000	37.99828000
29.66666508	0.00000000	-29.96432000	34.09818000
29.86666507	0.00000000	-18.79921000	24.06496000
30.06666506	0.00000000	-2.18996000	10.12549000
30.26666504	0.00000000	16.37549000	-5.33956700
30.46666503	0.00000000	32.60949000	-18.81767000
30.66666502	0.00000000	43.12869000	-27.27608000
30.86666501	0.00000000	46.29060000	-28.38951000
31.06666500	0.00000000	42.09522000	-21.42593000
31.26666498	0.00000000	32.04970000	-7.89862200
31.46666497	0.00000000	18.50394000	9.47342500
31.66666496	0.00000000	4.18307100	26.85162000
31.86666495	0.00000000	-7.82480200	40.37278000
32.06666494	0.00000000	-15.21900000	47.33637000
32.26666492	0.00000000	-16.79995000	46.17987000
32.46666491	0.00000000	-12.56767000	37.26009000
32.66666490	0.00000000	-3.67864200	22.20103000
32.86666489	0.00000000	7.90477300	4.04158400
33.06666488	0.00000000	19.44513000	-12.92446000
33.26666487	0.00000000	28.00197000	-25.31988000
33.46666485	0.00000000	31.90822000	-30.34572000
33.66666484	0.00000000	31.16388000	-27.31914000
33.86666483	0.00000000	25.76895000	-17.24286000
34.06666482	0.00000000	17.34744000	-2.18380900
34.26666481	0.00000000	8.45841400	14.81299000
34.46666479	0.00000000	1.10728300	29.87205000
34.66666478	0.00000000	-3.16806100	39.95448000
34.86666477	0.00000000	-3.58636800	43.02411000
35.06666476	0.00000000	-0.51673230	38.42273000
35.26666475	0.00000000	5.25344500	27.26993000
35.46666473	0.00000000	12.13706000	12.62918000
35.66666472	0.00000000	17.90723000	-2.04847400
35.86666471	0.00000000	21.02608000	-13.66265000
36.06666470	0.00000000	21.06914000	-19.84498000
36.26666469	0.00000000	18.37475000	-19.46973000
36.46666468	0.00000000	13.76107000	-12.54921000
36.66666466	0.00000000	8.41535400	-1.07037400
36.86666465	0.00000000	4.18307100	11.65723000
37.06666464	0.00000000	2.22687000	22.39788000
37.26666463	0.00000000	2.60211600	28.61097000
37.46666462	0.00000000	5.29650500	28.62328000
37.66666460	0.00000000	9.52879000	23.27141000
37.86666459	0.00000000	14.18553000	13.69956000
38.06666458	0.00000000	18.41781000	3.01427100
38.26666457	0.00000000	21.06914000	-5.02583600
38.46666456	0.00000000	21.11220000	-8.55068800
38.66666454	0.00000000	18.83612000	-6.60679100
38.86666453	0.00000000	15.34203000	-0.14148620
39.06666452	0.00000000	11.02362000	9.05511800
39.26666451	0.00000000	6.45915300	17.83957000
39.46666450	0.00000000	2.97736200	23.60359000
39.66666449	0.00000000	1.75935000	24.76009000
39.86666447	0.00000000	2.13459600	20.90305000
40.06666446	0.00000000	4.09079700	13.18898000
40.26666445	0.00000000	7.57258800	3.24803100
40.46666444	0.00000000	11.44193000	-5.90551100
40.66666443	0.00000000	15.39124000	-10.87598000
40.86666441	0.00000000	18.83612000	-10.54995000
41.06666440	0.00000000	21.11220000	-5.16117100
41.26666439	0.00000000	21.11220000	3.66633800
41.46666438	0.00000000	18.83612000	13.65650000
41.66666437	0.00000000	15.39124000	22.10876000
41.86666435	0.00000000	11.48499000	26.75935000
42.06666434	0.00000000	7.99704600	26.75935000
42.26666433	0.00000000	5.21038300	22.10876000
42.46666432	0.00000000	3.34030500	13.69956000
42.66666431	0.00000000	2.92814900	4.12770700
42.86666430	0.00000000	4.45989200	-3.53715500
43.06666428	0.00000000	6.74212600	-7.48031400
43.26666427	0.00000000	9.48572700	-7.16043300
43.46666426	0.00000000	12.18012000	-3.72170300
43.66666425	0.00000000	14.09326000	2.08538400
43.86666424	0.00000000	14.92372000	8.96284400
44.06666422	0.00000000	14.60384000	14.72687000
44.26666421	0.00000000	14.22859000	17.88263000
44.46666420	0.00000000	13.81028000	18.35015000
44.66666419	0.00000000	13.06594000	16.81225000
44.86666418	0.00000000	12.69070000	13.69956000
45.06666416	0.00000000	12.64764000	9.51648500
45.26666415	0.00000000	12.60458000	5.66560000
45.46666414	0.00000000	12.13706000	3.29109200
45.66666413	0.00000000	10.55610000	2.08538400
45.86666412	0.00000000	7.90477300	2.12844500
46.06666411	0.00000000	5.21038300	3.66633800
46.26666409	0.00000000	3.25418300	6.31151500
46.46666408	0.00000000	2.13459600	9.00590400
46.66666407	0.00000000	2.64517700	10.96211000
46.86666406	0.00000000	5.76402500	12.16166000
47.06666405	0.00000000	11.10974000	12.53691000
47.26666403	0.00000000	16.92298000	12.11860000
47.46666402	0.00000000	21.99803000	10.58686000
47.66666401	0.00000000	25.76895000	8.26771600
47.86666400	0.00000000	26.46407000	5.93626900
48.06666399	0.00000000	23.02534000	3.66633800
48.26666397	0.00000000	16.83686000	2.50369100
48.46666396	0.00000000	9.06742000	2.87278500
48.66666395	0.00000000	0.97194880	4.03543200
48.86666394	0.00000000	-5.12426100	6.40378900
49.06666393	0.00000000	-7.44955700	9.47342500
49.26666392	0.00000000	-5.12426100	12.53691000
49.46666390	0.00000000	1.02116100	14.81299000
49.66666389	0.00000000	9.57800100	15.18824000
49.86666388	0.00000000	18.79306000	13.69956000
50.06666387	0.00000000	26.46407000	10.96211000
50.26666386	0.00000000	29.90895000	7.47416300
50.46666384	0.00000000	28.42027000	3.62327700
50.66666383	0.00000000	22.65010000	0.59670270
50.86666382	0.00000000	14.18553000	-0.60285430
51.06666381	0.00000000	5.29650500	0.17839570
51.26666380	0.00000000	-2.00541300	2.50369100
51.46666379	0.00000000	-5.81938900	6.40378900
51.66666377	0.00000000	-4.70595500	10.95595000
51.86666376	0.00000000	0.64591530	14.81299000
52.06666375	0.00000000	8.32308000	16.76919000
52.26666374	0.00000000	16.41855000	16.76919000
52.46666373	0.00000000	22.55782000	14.81299000
52.66666371	0.00000000	25.30143000	11.00517000
52.86666370	0.00000000	24.09572000	6.77903500
53.06666369	0.00000000	19.15600000	3.29109200
53.26666368	0.00000000	11.86024000	0.97194880
53.46666367	0.00000000	4.97047200	0.59670270
53.66666365	0.00000000	-0.04921259	2.08538400
53.86666364	0.00000000	-1.58710600	4.77977300
54.06666363	0.00000000	0.68897630	7.84940900
54.26666362	0.00000000	5.67175200	10.53765000
54.46666361	0.00000000	12.18012000	12.07554000
54.66666360	0.00000000	17.95029000	12.07554000
54.86666358	0.00000000	21.44439000	10.58686000
55.06666357	0.00000000	22.18258000	8.31077700
55.26666356	0.00000000	19.48819000	6.40378900
55.46666355	0.00000000	14.18553000	5.24729300
55.66666354	0.00000000	8.41535400	5.29035400
55.86666352	0.00000000	3.75861200	6.82209600
56.06666351	0.00000000	1.06422200	9.47342500
56.26666350	0.00000000	1.06422200	12.07554000
56.46666349	0.00000000	3.71555100	13.23819000
56.66666348	0.00000000	7.94783400	12.45079000
56.86666346	0.00000000	12.60458000	10.16855000
57.06666345	0.00000000	16.83686000	6.68676100
57.26666344	0.00000000	19.48819000	3.24803100
57.46666343	0.00000000	19.53125000	0.55364170
57.66666342	0.00000000	17.25517000	-0.51673230
57.86666341	0.00000000	13.81028000	1.06422200
58.06666339	0.00000000	9.95324800	5.24729300
58.26666338	0.00000000	6.87746000	10.62992000
58.46666337	0.00000000	5.29650500	15.64960000
58.66666336	0.00000000	5.29650500	19.46358000
58.86666335	0.00000000	6.79133800	20.57702000
59.06666333	0.00000000	9.11048200	18.25787000
59.26666332	0.00000000	11.39887000	13.23819000
59.46666331	0.00000000	13.34276000	6.31766700
59.66666330	0.00000000	14.13632000	-0.55979330
59.86666329	0.00000000	14.18553000	-5.20423200
60.06666327	0.00000000	13.76107000	-6.73597400
60.26666326	0.00000000	12.60458000	-4.78592500
60.46666325	0.00000000	11.10974000	0.59670270
60.66666324	0.00000000	9.99630800	7.89247000
60.86666323	0.00000000	9.95324800	15.23130000
61.06666322	0.00000000	10.64838000	21.03838000
61.26666320	0.00000000	11.06668000	24.06496000
61.46666319	0.00000000	11.48499000	23.27141000
61.66666318	0.00000000	12.18012000	18.25787000
61.86666317	0.00000000	12.18012000	10.62992000
62.06666316	0.00000000	11.44193000	2.50369100
62.26666314	0.00000000	10.64838000	-4.04773600
62.46666313	0.00000000	9.48572700	-7.90477300
62.66666312	0.00000000	8.41535400	-7.90477300
62.86666311	0.00000000	8.37229300	-4.04773600
63.06666310	0.00000000	9.11048200	2.46063000
63.26666308	0.00000000	9.90403500	10.21161000
63.46666307	0.00000000	11.10974000	17.14444000
63.66666306	0.00000000	12.64764000	22.15797000
63.86666305	0.00000000	14.13632000	23.68971000
64.06666304	0.00000000	14.88066000	21.41363000
64.26666303	0.00000000	14.13632000	16.43701000
64.46666301	0.00000000	12.64764000	9.89173200
64.66666300	0.00000000	11.06668000	3.66633800
64.86666299	0.00000000	9.52879000	-1.39640700
65.06666298	0.00000000	8.37229300	-4.82898600
65.26666297	0.00000000	7.99704600	-5.20423200
65.46666295	0.00000000	8.41535400	-2.60211600
65.66666294	0.00000000	9.90403500	1.62401600
65.86666293	0.00000000	11.81102000	6.31151500
66.06666292	0.00000000	12.93061000	10.95595000
66.26666291	0.00000000	13.34276000	14.85605000
66.46666289	0.00000000	12.55536000	17.18750000
66.66666288	0.00000000	11.06668000	18.01796000
66.86666287	0.00000000	9.52879000	17.23056000
67.06666286	0.00000000	8.37229300	15.27436000
67.26666285	0.00000000	7.99704600	12.16166000
67.46666284	0.00000000	8.41535400	8.31077700
67.66666282	0.00000000	9.99630800	4.82283400
67.86666281	0.00000000	12.64764000	2.04232300
68.06666280	0.00000000	15.29897000	0.09227362
68.26666279	0.00000000	16.83686000	-1.06422200
68.46666278	0.00000000	16.83686000	-1.02116100
68.66666276	0.00000000	15.29897000	0.55364170
68.86666275	0.00000000	12.55536000	3.66633800
69.06666274	0.00000000	9.06742000	7.89247000
69.26666273	0.00000000	5.21038300	12.16166000
69.46666272	0.00000000	2.17765700	15.69882000
69.66666270	0.00000000	1.06422200	18.39321000
69.86666269	0.00000000	2.60211600	19.46358000
70.06666268	0.00000000	6.45915300	17.93184000
70.26666267	0.00000000	11.48499000	14.07480000
70.46666266	0.00000000	16.87992000	9.05511800
70.66666265	0.00000000	21.11220000	3.66633800
70.86666263	0.00000000	23.06841000	-0.55979330
71.06666262	0.00000000	22.65010000	-2.55905500
71.26666261	0.00000000	19.53125000	-2.55905500
71.46666260	0.00000000	14.13632000	-0.60285430
71.66666259	0.00000000	7.94783400	3.24803100
71.86666257	0.00000000	2.17765700	7.89247000
72.06666256	0.00000000	-1.63016700	12.49385000
72.26666255	0.00000000	-2.05462600	15.92642000
72.46666254	0.00000000	0.59670270	16.71998000
72.66666253	0.00000000	5.25344500	15.27436000
72.86666251	0.00000000	11.06668000	12.58612000
73.06666250	0.00000000	16.83686000	9.51648500
73.26666249	0.00000000	21.11220000	6.77903500
73.46666248	0.00000000	23.06841000	4.87204700
73.66666247	0.00000000	22.65010000	4.08464600
73.86666246	0.00000000	19.58046000	4.82283400
74.06666244	0.00000000	14.60384000	6.31151500
74.26666243	0.00000000	9.57800100	7.80019600
74.46666242	0.00000000	5.29650500	8.58759800
74.66666241	0.00000000	2.60211600	8.22465500
74.86666240	0.00000000	2.17765700	7.47416300
75.06666238	0.00000000	3.71555100	6.31151500
75.26666237	0.00000000	6.79133800	5.24729300
75.46666236	0.00000000	10.64838000	5.24729300
75.66666235	0.00000000	14.09326000	6.40378900
75.86666234	0.00000000	16.46161000	8.35383800
76.06666232	0.00000000	17.21210000	11.04823000
76.26666231	0.00000000	16.50467000	13.69956000
76.46666230	0.00000000	14.60384000	15.23130000
76.66666229	0.00000000	12.73991000	15.18824000
76.86666228	0.00000000	11.53420000	13.23819000
77.06666227	0.00000000	11.06668000	9.38115100
77.26666225	0.00000000	10.69144000	4.77977300
77.46666224	0.00000000	10.32234000	0.55364170
77.66666223	0.00000000	10.69144000	-2.14074800
77.86666222	0.00000000	10.97441000	-2.50984200
78.06666221	0.00000000	10.64838000	-0.55979330
78.26666219	0.00000000	9.86097400	3.66633800
78.46666218	0.00000000	9.11048200	9.05511800
78.66666217	0.00000000	8.37229300	14.07480000
78.86666216	0.00000000	8.41535400	17.97490000
79.06666215	0.00000000	9.57800100	19.88189000
79.26666213	0.00000000	11.48499000	19.46358000
79.46666212	0.00000000	13.81028000	16.39395000
79.66666211	0.00000000	15.67421000	11.42347000
79.86666210	0.00000000	16.50467000	6.40378900
80.06666209	0.00000000	16.09252000	2.08538400
80.26666208	0.00000000	14.92372000	-0.97810030
80.46666206	0.00000000	12.55536000	-2.13459600
80.66666205	0.00000000	9.52879000	-0.97810030
80.86666204	0.00000000	6.83439900	2.04232300
81.06666203	0.00000000	5.29650500	5.89320800
81.26666202	0.00000000	5.29650500	9.42421200
81.46666200	0.00000000	6.83439900	12.58612000
81.66666199	0.00000000	9.52879000	15.23130000
81.86666198	0.00000000	12.60458000	16.39395000
82.06666197	0.00000000	15.29897000	15.69882000
82.26666196	0.00000000	16.83686000	14.16092000
82.46666194	0.00000000	16.87992000	12.16781000
82.66666193	0.00000000	15.71727000	9.42421200
82.86666192	0.00000000	13.76107000	6.36072800
83.06666191	0.00000000	11.10974000	3.61712600
83.26666190	0.00000000	8.83366100	1.66707700
83.46666189	0.00000000	7.99704600	0.51058070
83.66666187	0.00000000	7.94783400	0.55364170
83.86666186	0.00000000	8.37229300	2.08538400
84.06666185	0.00000000	9.48572700	4.77977300
84.26666184	0.00000000	10.64838000	7.89247000
84.46666183	0.00000000	11.44193000	11.04823000
84.66666181	0.00000000	12.22933000	14.11786000
84.86666180	0.00000000	12.55536000	16.39395000
85.06666179	0.00000000	12.22933000	16.76919000
85.26666178	0.00000000	11.53420000	15.27436000
85.46666177	0.00000000	11.53420000	12.49385000
85.66666175	0.00000000	12.18012000	8.63681000
85.86666174	0.00000000	12.22933000	4.04158400
86.06666173	0.00000000	11.90330000	0.59670270
86.26666172	0.00000000	12.22933000	-1.02116100
86.46666171	0.00000000	12.13706000	-0.97810030
86.66666170	0.00000000	11.06668000	0.97194880
86.86666168	0.00000000	9.90403500	4.82898600
87.06666167	0.00000000	9.11048200	9.43036400
87.26666166	0.00000000	8.37229300	13.69956000
87.46666165	0.00000000	8.37229300	16.76919000
87.66666164	0.00000000	9.15354300	17.88263000
87.86666162	0.00000000	10.32234000	16.35089000
88.06666161	0.00000000	12.22933000	12.53691000
88.26666160	0.00000000	13.71801000	7.93553100
88.46666159	0.00000000	14.18553000	3.66633800
88.66666158	0.00000000	14.18553000	0.59670270
88.86666156	0.00000000	13.76107000	-0.55979330
89.06666155	0.00000000	12.60458000	0.64591530
89.26666154	0.00000000	11.06668000	4.04158400
89.46666153	0.00000000	9.52879000	8.67987200
89.66666152	0.00000000	8.37229300	12.86909000
89.86666151	0.00000000	7.99704600	15.97564000
90.06666149	0.00000000	8.37229300	16.71998000
90.26666148	0.00000000	9.48572700	15.18824000
90.46666147	0.00000000	10.64838000	11.70029000
90.66666146	0.00000000	11.44193000	6.72982200
90.86666145	0.00000000	12.22933000	2.17765700
91.06666143	0.00000000	12.60458000	-0.55979330
91.26666142	0.00000000	12.64764000	-0.93503930
91.46666141	0.00000000	12.60458000	0.97194880
91.66666140	0.00000000	12.22933000	4.82898600
91.86666139	0.00000000	11.53420000	9.43036400
92.06666137	0.00000000	11.48499000	13.65650000
92.26666136	0.00000000	11.81102000	16.35089000
92.46666135	0.00000000	11.44193000	16.71998000
92.66666134	0.00000000	11.06668000	14.81299000
92.86666133	0.00000000	10.64838000	10.95595000
93.06666132	0.00000000	9.90403500	6.35457700
93.26666130	0.00000000	9.48572700	2.12844500
93.46666129	0.00000000	9.11048200	-0.51673230
93.66666128	0.00000000	8.74138700	-0.51673230
93.86666127	0.00000000	9.20275500	2.12844500
94.06666126	0.00000000	10.32234000	6.31151500
94.26666124	0.00000000	12.27239000	10.53765000
94.46666123	0.00000000	14.18553000	13.65650000
94.66666122	0.00000000	15.76649000	15.18824000
94.86666121	0.00000000	16.83686000	14.76993000
95.06666120	0.00000000	16.46161000	12.11860000
95.26666118	0.00000000	14.56078000	8.31077700
95.46666117	0.00000000	12.22933000	4.82283400
95.66666116	0.00000000	9.44266700	2.12844500
95.86666115	0.00000000	6.41609200	1.01501000
96.06666114	0.00000000	4.13385800	2.12844500
96.26666113	0.00000000	3.75861200	4.77977300
96.46666111	0.00000000	5.25344500	7.89247000
96.66666110	0.00000000	7.99704600	10.96211000
96.86666109	0.00000000	11.48499000	13.23819000
97.06666108	0.00000000	15.34203000	13.65650000
97.26666107	0.00000000	18.41781000	12.53691000
97.46666105	0.00000000	19.95571000	10.62992000
97.66666104	0.00000000	19.58046000	8.31077700
97.86666103	0.00000000	17.29823000	6.40378900
98.06666102	0.00000000	14.18553000	5.19808000
98.26666101	0.00000000	10.64838000	4.82898600
98.46666099	0.00000000	6.79133800	5.19808000
98.66666098	0.00000000	3.75861200	6.36072800
98.86666097	0.00000000	2.55290300	7.84940900
99.06666096	0.00000000	3.34030500	9.00590400
99.26666095	0.00000000	5.62869100	9.43036400
99.46666094	0.00000000	9.15354300	9.47342500
99.66666092	0.00000000	12.97982000	9.47342500
99.86666091	0.00000000	16.46161000	9.47342500
100.06666090	0.00000000	18.41781000	9.51648500
100.26666089	0.00000000	18.83612000	9.89173200
100.46666088	0.00000000	18.04257000	10.62992000
100.66666086	0.00000000	15.71727000	10.95595000
100.86666085	0.00000000	12.69070000	10.58686000
101.06666084	0.00000000	9.90403500	9.38115100
101.26666083	0.00000000	7.57258800	7.47416300
101.46666082	0.00000000	5.67175200	5.19808000
101.66666080	0.00000000	5.25344500	3.66633800
101.86666079	0.00000000	5.99163300	3.24803100
102.06666078	0.00000000	7.20964500	3.66633800
102.26666077	0.00000000	9.52879000	5.24729300
102.46666076	0.00000000	12.18012000	7.93553100
102.66666075	0.00000000	14.18553000	11.00517000
102.86666073	0.00000000	15.71727000	13.69956000
103.06666072	0.00000000	16.46161000	15.18824000
103.26666071	0.00000000	15.71727000	14.81299000
103.46666070	0.00000000	14.22859000	12.53691000
103.66666069	0.00000000	12.60458000	9.47342500
103.86666067	0.00000000	10.69144000	6.36072800
104.06666066	0.00000000	8.74138700	3.66633800
104.26666065	0.00000000	7.62180000	2.12844500
104.46666064	0.00000000	7.20964500	2.12844500
104.66666063	0.00000000	7.99704600	3.66633800
104.86666061	0.00000000	9.48572700	6.36072800
105.06666060	0.00000000	11.06668000	9.42421200
105.26666059	0.00000000	12.60458000	12.11860000
105.46666058	0.00000000	13.76107000	13.65650000
105.66666057	0.00000000	14.13632000	13.65650000
105.86666056	0.00000000	13.76107000	12.11860000
106.06666054	0.00000000	12.60458000	9.47342500
106.26666053	0.00000000	11.10974000	6.77903500
106.46666052	0.00000000	9.95324800	4.82283400
106.66666051	0.00000000	9.52879000	3.66633800
106.86666050	0.00000000	9.52879000	3.66633800
107.06666048	0.00000000	9.90403500	4.82283400
107.26666047	0.00000000	10.69144000	6.72982200
107.46666046	0.00000000	11.48499000	9.00590400
107.66666045	0.00000000	12.60458000	10.53765000
107.86666044	0.00000000	13.34276000	10.95595000
108.06666042	0.00000000	12.97982000	10.58686000
108.26666041	0.00000000	12.22933000	9.42421200
108.46666040	0.00000000	11.06668000	7.89247000
108.66666039	0.00000000	9.90403500	6.36072800
108.86666038	0.00000000	9.11048200	5.19808000
109.06666037	0.00000000	8.41535400	4.82898600
109.26666035	0.00000000	8.83366100	5.24729300
109.46666034	0.00000000	10.64838000	6.77903500
109.66666033	0.00000000	12.18012000	9.00590400
109.86666032	0.00000000	13.02288000	10.58686000
110.06666031	0.00000000	13.76107000	11.38041000
110.26666029	0.00000000	13.76107000	11.74336000
110.46666028	0.00000000	13.02288000	10.96211000
110.66666027	0.00000000	12.22933000	9.47342500
110.86666026	0.00000000	11.06668000	7.89247000
111.06666025	0.00000000	9.95324800	6.36072800
111.26666023	0.00000000	9.52879000	5.19808000
111.46666022	0.00000000	9.48572700	4.82898600
111.66666021	0.00000000	9.52879000	5.19808000
111.86666020	0.00000000	9.90403500	6.31151500
112.06666019	0.00000000	10.69144000	7.47416300
112.26666018	0.00000000	11.44193000	8.26771600
112.46666016	0.00000000	12.22933000	9.05511800
112.66666015	0.00000000	12.60458000	9.43036400
112.86666014	0.00000000	12.64764000	9.47342500
113.06666013	0.00000000	12.64764000	9.47342500
113.26666012	0.00000000	12.60458000	9.43036400
113.46666010	0.00000000	12.22933000	9.05511800
113.66666009	0.00000000	11.48499000	8.31077700
113.86666008	0.00000000	11.10974000	7.93553100
114.06666007	0.00000000	11.06668000	7.89247000
114.26666006	0.00000000	11.06668000	7.84940900
114.46666004	0.00000000	11.06668000	7.47416300
114.66666003	0.00000000	11.10974000	6.72982200
114.86666002	0.00000000	11.44193000	6.35457700
115.06666001	0.00000000	11.81102000	6.31151500
115.26666000	0.00000000	11.44193000	6.35457700
115.46665999	0.00000000	11.10974000	6.72982200
115.66665997	0.00000000	11.06668000	7.51722400
115.86665996	0.00000000	11.06668000	8.26771600
116.06665995	0.00000000	11.06668000	9.05511800
116.26665994	0.00000000	11.06668000	9.47342500
116.46665993	0.00000000	11.06668000	9.84867000
116.66665991	0.00000000	11.06668000	10.21161000
116.86665990	0.00000000	11.06668000	9.79945900
117.06665989	0.00000000	11.10974000	9.09817800
117.26665988	0.00000000	11.48499000	8.26771600
117.46665987	0.00000000	12.22933000	7.51722400
117.66665985	0.00000000	12.60458000	6.72982200
117.86665984	0.00000000	12.69070000	6.35457700
118.06665983	0.00000000	13.02288000	6.31151500
118.26665982	0.00000000	13.34276000	6.35457700
118.46665981	0.00000000	12.60458000	6.72982200
118.66665980	0.00000000	11.48499000	7.51722400
118.86665978	0.00000000	10.64838000	8.26771600
119.06665977	0.00000000	9.48572700	9.05511800
119.26665976	0.00000000	8.41535400	9.43036400
119.46665975	0.00000000	8.37229300	9.47342500
119.66665974	0.00000000	9.11048200	9.47342500
119.86665972	0.00000000	9.90403500	9.43036400
120.06665971	0.00000000	11.10974000	9.05511800
120.26665970	0.00000000	12.60458000	8.31077700
120.46665969	0.00000000	13.76107000	7.93553100
120.66665968	0.00000000	14.18553000	7.84940900
120.86665966	0.00000000	14.18553000	7.47416300
121.06665965	0.00000000	13.76107000	6.72982200
121.26665964	0.00000000	12.60458000	6.35457700
121.46665963	0.00000000	11.10974000	6.35457700
121.66665962	0.00000000	9.90403500	6.72982200
121.86665961	0.00000000	9.11048200	7.47416300
122.06665959	0.00000000	8.37229300	7.89247000
122.26665958	0.00000000	8.37229300	8.31077700
122.46665957	0.00000000	9.11048200	9.05511800
122.66665956	0.00000000	9.90403500	9.43036400
122.86665955	0.00000000	11.06668000	9.47342500
123.06665953	0.00000000	12.22933000	9.47342500
123.26665952	0.00000000	13.02288000	9.43036400
123.46665951	0.00000000	13.81028000	9.05511800
123.66665950	0.00000000	14.13632000	8.31077700
123.86665949	0.00000000	13.81028000	7.89247000
124.06665947	0.00000000	13.02288000	7.47416300
124.26665946	0.00000000	12.27239000	6.72982200
124.46665945	0.00000000	11.44193000	6.40378900
124.66665944	0.00000000	10.73450000	6.72982200
124.86665943	0.00000000	10.27928000	7.47416300
125.06665942	0.00000000	10.27313000	7.84940900
125.26665940	0.00000000	9.86097400	7.93553100
125.46665939	0.00000000	9.57800100	8.31077700
125.66665938	0.00000000	9.90403500	9.05511800
125.86665937	0.00000000	10.69144000	9.43036400
126.06665936	0.00000000	11.44193000	9.47342500
126.26665934	0.00000000	12.27239000	9.47342500
126.46665933	0.00000000	13.02288000	9.43036400
126.66665932	0.00000000	13.76107000	9.05511800
126.86665931	0.00000000	13.71801000	8.26771600
127.06665930	0.00000000	12.64764000	7.56028500
127.26665928	0.00000000	11.48499000	7.10506800
127.46665927	0.00000000	10.69144000	7.14197800
127.66665926	0.00000000	9.90403500	7.10506800
127.86665925	0.00000000	9.52879000	7.51722400
128.06665924	0.00000000	9.52879000	7.84940900
128.26665923	0.00000000	9.90403500	7.89247000
128.46665921	0.00000000	10.69144000	7.93553100
128.66665920	0.00000000	11.44193000	8.31077700
128.86665919	0.00000000	12.27239000	9.00590400
129.06665918	0.00000000	12.97982000	9.00590400
129.26665917	0.00000000	13.39198000	8.31077700
129.46665915	0.00000000	12.97982000	7.93553100
129.66665914	0.00000000	12.22933000	7.89247000
129.86665913	0.00000000	11.06668000	7.89247000
130.06665912	0.00000000	9.95324800	7.89247000
130.26665911	0.00000000	9.52879000	7.89247000
130.46665909	0.00000000	9.52879000	7.89247000
130.66665908	0.00000000	9.90403500	7.89247000
130.86665907	0.00000000	10.69144000	7.93553100
131.06665906	0.00000000	11.44193000	8.31077700
131.26665905	0.00000000	12.22933000	9.00590400
131.46665904	0.00000000	12.60458000	9.00590400
131.66665902	0.00000000	12.64764000	8.31077700
131.86665901	0.00000000	12.60458000	7.89247000
132.06665900	0.00000000	12.22933000	7.47416300
132.26665899	0.00000000	11.48499000	6.72982200
132.46665898	0.00000000	11.10974000	6.40378900
132.66665896	0.00000000	11.06668000	6.72982200
132.86665895	0.00000000	11.06668000	7.47416300
133.06665894	-0.15871060	11.06668000	7.89247000
133.26665893	0.00000000	11.02362000	8.31077700
133.46665892	0.00000000	10.69144000	9.05511800
133.66665890	0.00000000	10.32234000	9.43036400
133.86665889	0.00000000	10.69144000	9.47342500
134.06665888	0.00000000	11.02362000	9.43036400
134.26665887	0.00000000	11.06668000	9.05511800
134.46665886	0.00000000	11.06668000	8.26771600
134.66665885	0.00000000	11.06668000	7.51722400
134.86665883	0.00000000	11.10974000	6.72982200
135.06665882	0.00000000	11.48499000	6.35457700
135.26665881	0.00000000	12.22933000	6.35457700
135.46665880	0.00000000	12.60458000	6.72982200
135.66665879	0.00000000	12.60458000	7.51722400
135.86665877	0.00000000	12.22933000	8.26771600
136.06665876	0.00000000	11.44193000	9.05511800
136.26665875	0.00000000	10.69144000	9.43036400
136.46665874	0.00000000	9.90403500	9.47342500
136.66665873	0.00000000	9.57800100	9.47342500
136.86665871	0.00000000	9.90403500	9.43036400
137.06665870	0.00000000	10.69144000	9.05511800
137.26665869	0.00000000	11.44193000	8.31077700
137.46665868	0.00000000	12.22933000	7.93553100
137.66665867	0.00000000	12.60458000	7.84940900
137.86665866	0.00000000	12.64764000	7.47416300
138.06665864	0.00000000	12.64764000	6.72982200
138.26665863	0.00000000	12.60458000	6.40378900
138.46665862	0.00000000	12.22933000	6.72982200
138.66665861	0.00000000	11.44193000	7.47416300
138.86665860	0.00000000	10.69144000	7.89247000
139.06665858	0.00000000	9.90403500	8.31077700
139.26665857	0.00000000	9.57800100	9.05511800
139.46665856	0.00000000	9.90403500	9.43036400
139.66665855	0.00000000	10.69144000	9.47342500
139.86665854	0.00000000	11.44193000	9.47342500
140.06665852	0.00000000	12.22933000	9.43036400
140.26665851	0.00000000	12.60458000	9.05511800
140.46665850	0.00000000	12.64764000	8.26771600
140.66665849	0.00000000	12.60458000	7.51722400
140.86665848	0.00000000	12.22933000	6.72982200
141.06665847	0.00000000	11.48499000	6.35457700
141.26665845	0.00000000	11.10974000	6.35457700
141.46665844	0.00000000	11.06668000	6.72982200
141.66665843	0.00000000	11.06668000	7.51722400
141.86665842	0.00000000	11.10974000	8.26771600
142.06665841	0.00000000	11.44193000	9.09817800
142.26665839	0.00000000	11.85408000	9.79945900
142.46665838	0.00000000	11.86024000	10.21161000
142.66665837	0.00000000	12.22933000	9.79945900
142.86665836	0.00000000	12.18012000	9.09817800
143.06665835	0.00000000	11.48499000	8.26771600
143.26665834	0.00000000	11.10974000	7.51722400
143.46665832	0.00000000	11.06668000	6.72982200
143.66665831	0.00000000	11.06668000	6.35457700
143.86665830	0.00000000	11.06668000	6.35457700
144.06665829	0.00000000	11.06668000	6.72982200
144.26665828	0.00000000	11.10974000	7.51722400
144.46665826	0.00000000	11.48499000	8.26771600
144.66665825	0.00000000	12.22933000	9.05511800
144.86665824	0.00000000	12.60458000	9.43036400
145.06665823	0.00000000	12.60458000	9.47342500
145.26665822	0.00000000	12.22933000	9.43036400
145.46665820	0.00000000	11.48499000	9.05511800
145.66665819	0.00000000	11.10974000	8.31077700
145.86665818	0.00000000	11.06668000	7.89247000
146.06665817	0.00000000	11.06668000	7.47416300
146.26665816	0.00000000	11.06668000	6.77903500
146.46665815	0.00000000	11.06668000	6.72982200
146.66665813	0.00000000	11.10974000	7.09891700
146.86665812	0.00000000	11.48499000	7.10506800
147.06665811	0.00000000	12.22933000	7.56028500
147.26665810	0.00000000	12.55536000	8.26771600
147.46665809	0.00000000	12.22933000	9.05511800
147.66665807	0.00000000	11.48499000	9.43036400
147.86665806	0.00000000	11.10974000	9.47342500
148.06665805	0.00000000	11.06668000	9.47342500
148.26665804	0.00000000	11.06668000	9.43036400
148.46665803	0.00000000	11.06668000	9.05511800
148.66665801	0.00000000	11.06668000	8.31077700
148.86665800	0.00000000	11.06668000	7.93553100
149.06665799	0.00000000	11.10974000	7.89247000
149.26665798	0.00000000	11.48499000	7.89247000
149.46665797	0.00000000	12.22933000	7.89247000
149.66665796	0.00000000	12.60458000	7.89247000
149.86665794	0.00000000	12.64764000	7.89247000
150.06665793	0.00000000	12.64764000	7.93553100
150.26665792	0.00000000	12.60458000	8.31077700
150.46665791	0.00000000	12.22933000	9.05511800
150.66665790	0.00000000	11.48499000	9.43036400
150.86665788	0.00000000	11.10974000	9.43036400
151.06665787	0.00000000	11.06668000	9.05511800
151.26665786	0.00000000	11.06668000	8.31077700
151.46665785	0.00000000	11.06668000	7.93553100
151.66665784	0.00000000	11.06668000	7.89247000
151.86665782	0.00000000	11.06668000	7.89247000
152.06665781	0.00000000	11.06668000	7.89247000
152.26665780	0.00000000	11.10974000	7.89247000
152.46665779	0.00000000	11.48499000	7.89247000
152.66665778	0.00000000	12.22933000	7.89247000
152.86665777	0.00000000	12.60458000	7.89247000
153.06665775	0.00000000	12.60458000	7.89247000
153.26665774	0.00000000	12.22933000	7.89247000
153.46665773	0.00000000	11.48499000	7.89247000
153.66665772	0.00000000	11.10974000	7.89247000
153.86665771	0.00000000	11.06668000	7.93553100
154.06665769	0.00000000	11.02362000	8.26771600
154.26665768	0.00000000	10.69144000	8.67987200
154.46665767	0.00000000	10.32234000	8.64296200
154.66665766	0.00000000	10.69144000	8.67987200
154.86665765	0.00000000	11.02362000	8.26771600
155.06665763	0.00000000	11.10974000	7.93553100
155.26665762	0.00000000	11.48499000	7.89247000
155.46665761	0.00000000	12.22933000	7.89247000
155.66665760	0.00000000	12.60458000	7.89247000
155.86665759	0.00000000	12.64764000	7.89247000
156.06665758	0.00000000	12.60458000	7.89247000
156.26665756	0.00000000	12.22933000	7.93553100
156.46665755	0.00000000	11.48499000	8.31077700
156.66665754	0.00000000	11.10974000	9.05511800
156.86665753	0.00000000	11.06668000	9.43036400
157.06665752	0.00000000	11.06668000	9.47342500
157.26665750	0.00000000	11.06668000	9.47342500
157.46665749	0.00000000	11.06668000	9.47342500
157.66665748	0.00000000	11.06668000	9.43036400
157.86665747	0.00000000	11.06668000	9.00590400
158.06665746	0.00000000	11.10974000	7.89247000
158.26665744	0.00000000	11.48499000	6.82209600
158.46665743	0.00000000	12.22933000	6.77903500
158.66665742	0.00000000	12.60458000	7.47416300
158.86665741	0.00000000	12.64764000	7.84940900
159.06665740	0.00000000	12.60458000	7.89247000
159.26665739	0.00000000	12.22933000	7.89247000
159.46665737	0.00000000	11.48499000	7.93553100
159.66665736	0.00000000	11.10974000	8.31077700
159.86665735	0.00000000	11.06668000	9.05511800
160.06665734	0.00000000	11.06668000	9.38115100
160.26665733	0.00000000	11.06668000	9.09817800
160.46665731	0.00000000	11.06668000	8.68602300
160.66665730	0.00000000	11.06668000	8.67987200
160.86665729	0.00000000	11.06668000	8.26771600
161.06665728	0.00000000	11.06668000	7.93553100
161.26665727	0.00000000	11.06668000	7.89247000
161.46665725	0.00000000	11.10974000	7.89247000
161.66665724	0.00000000	11.48499000	7.89247000
161.86665723	0.00000000	12.22933000	7.89247000
162.06665722	0.00000000	12.60458000	7.89247000
162.26665721	0.00000000	12.60458000	7.93553100
162.46665720	0.00000000	12.22933000	8.31077700
162.66665718	0.00000000	11.48499000	9.05511800
162.86665717	0.00000000	11.10974000	9.43036400
163.06665716	0.00000000	11.06668000	9.43036400
163.26665715	0.00000000	11.06668000	9.05511800
163.46665714	0.00000000	11.06668000	8.31077700
163.66665712	0.00000000	11.06668000	7.93553100
163.86665711	0.00000000	11.06668000	7.89247000
164.06665710	0.00000000	11.06668000	7.89247000
164.26665709	0.00000000	11.06668000	7.89247000
164.46665708	0.00000000	11.10974000	7.89247000
164.66665706	0.00000000	11.48499000	7.89247000
164.86665705	0.00000000	12.22933000	7.89247000
165.06665704	0.00000000	12.60458000	7.89247000
165.26665703	0.00000000	12.64764000	7.89247000
165.46665702	0.00000000	12.60458000	7.89247000
165.66665701	0.00000000	12.22933000	7.93553100
165.86665699	0.00000000	11.48499000	8.26771600
166.06665698	0.00000000	11.10974000	8.63681000
166.26665697	0.00000000	11.06668000	8.26771600
166.46665696	0.00000000	11.06668000	7.93553100
166.66665695	0.00000000	11.06668000	7.89247000
166.86665693	0.00000000	11.06668000	7.89247000
167.06665692	0.00000000	11.06668000	7.89247000
167.26665691	0.00000000	11.06668000	7.89247000
167.46665690	0.00000000	11.10974000	7.89247000
167.66665689	0.00000000	11.44193000	7.89247000
167.86665687	0.00000000	11.85408000	7.89247000
168.06665686	0.00000000	11.86024000	7.89247000
168.26665685	0.00000000	12.22933000	7.89247000
168.46665684	0.00000000	12.18012000	7.89247000
168.66665683	0.00000000	11.48499000	7.89247000
168.86665682	0.00000000	11.10974000	7.89247000
169.06665680	0.00000000	11.06668000	7.89247000
169.26665679	0.00000000	11.06668000	7.89247000
169.46665678	0.00000000	11.06668000	7.89247000
169.66665677	0.00000000	11.06668000	7.89247000
169.86665676	0.00000000	11.06668000	7.89247000
170.06665674	0.00000000	11.06668000	7.89247000
170.26665673	0.00000000	11.06668000	7.89247000
170.46665672	0.00000000	11.06668000	7.89247000
170.66665671	0.00000000	11.06668000	7.89247000
170.86665670	0.00000000	11.06668000	7.89247000
171.06665668	0.00000000	11.10974000	7.93553100
171.26665667	0.00000000	11.44193000	8.26771600
171.46665666	0.00000000	11.81102000	8.63681000
171.66665665	0.00000000	11.48499000	8.26771600
171.86665664	0.00000000	11.48499000	7.93553100
172.06665663	0.00000000	11.81102000	7.89247000
172.26665661	0.00000000	11.44193000	7.89247000
172.46665660	0.00000000	11.10974000	7.89247000
172.66665659	0.00000000	11.06668000	7.89247000
172.86665658	0.00000000	11.06668000	7.89247000
173.06665657	0.00000000	11.06668000	7.93553100
173.26665655	0.00000000	11.06668000	8.26771600
173.46665654	0.00000000	11.06668000	8.63681000
173.66665653	0.00000000	11.06668000	8.31077700
173.86665652	0.00000000	11.10974000	8.31077700
174.06665651	0.00000000	11.44193000	8.63681000
174.26665649	0.00000000	11.81102000	8.26771600
174.46665648	0.00000000	11.44193000	7.93553100
174.66665647	0.00000000	11.10974000	7.89247000
174.86665646	0.00000000	11.06668000	7.89247000
175.06665645	0.00000000	11.06668000	7.89247000
175.26665644	0.00000000	11.06668000	7.89247000
175.46665642	0.00000000	11.06668000	7.89247000
175.66665641	0.00000000	11.06668000	7.89247000
175.86665640	0.00000000	11.06668000	7.89247000
176.06665639	0.00000000	11.10974000	7.89247000
176.26665638	0.00000000	11.44193000	7.89247000
176.46665636	0.00000000	11.81102000	7.89247000
176.66665635	0.00000000	11.44193000	7.89247000
176.86665634	0.00000000	11.10974000	7.89247000
177.06665633	0.00000000	11.06668000	7.89247000
177.26665632	0.00000000	11.06668000	7.89247000
177.46665630	0.00000000	11.06668000	7.89247000
177.66665629	0.00000000	11.06668000	7.89247000
177.86665628	0.00000000	11.06668000	7.89247000
178.06665627	0.00000000	11.06668000	7.89247000
178.26665626	0.00000000	11.06668000	7.89247000
178.46665625	0.00000000	11.06668000	7.89247000
178.66665623	0.00000000	11.06668000	7.93553100
178.86665622	0.00000000	11.06668000	8.26771600
179.06665621	0.00000000	11.06668000	8.63681000
179.26665620	0.00000000	11.10974000	8.26771600
179.46665619	0.00000000	11.44193000	7.93553100
179.66665617	0.00000000	11.81102000	7.89247000
179.86665616	0.00000000	11.48499000	7.89247000
180.06665615	0.00000000	11.48499000	7.89247000
180.26665614	0.00000000	11.81102000	7.89247000
180.46665613	0.00000000	11.44193000	7.89247000
180.66665611	0.00000000	11.10974000	7.89247000
180.86665610	0.00000000	11.06668000	7.89247000
181.06665609	0.00000000	11.06668000	7.89247000
181.26665608	0.00000000	11.06668000	7.89247000
181.46665607	0.00000000	11.10974000	7.93553100
181.66665606	0.00000000	11.44193000	8.26771600
181.86665604	0.00000000	11.81102000	8.63681000
182.06665603	0.00000000	11.48499000	8.26771600
182.26665602	0.00000000	11.48499000	7.93553100
182.46665601	0.00000000	11.81102000	7.89247000
182.66665600	0.00000000	11.48499000	7.89247000
182.86665598	0.00000000	11.48499000	7.89247000
183.06665597	0.00000000	11.81102000	7.89247000
183.26665596	0.00000000	11.44193000	7.89247000
183.46665595	0.00000000	11.10974000	7.89247000
183.66665594	0.00000000	11.06668000	7.89247000
183.86665592	0.00000000	11.06668000	7.89247000
184.06665591	0.00000000	11.06668000	7.93553100
184.26665590	0.00000000	11.06668000	8.26771600
184.46665589	0.00000000	11.06668000	8.67987200
184.66665588	0.00000000	11.06668000	8.68602300
184.86665587	0.00000000	11.06668000	9.09817800
185.06665585	0.00000000	11.06668000	9.38115100
185.26665584	0.00000000	11.10974000	9.09817800
185.46665583	0.00000000	11.48499000	8.68602300
185.66665582	0.00000000	12.22933000	8.67987200
185.86665581	0.00000000	12.60458000	8.26771600
186.06665579	0.00000000	12.60458000	7.93553100
186.26665578	0.00000000	12.27239000	7.89247000
186.46665577	0.00000000	11.86024000	7.89247000
186.66665576	0.00000000	11.85408000	7.89247000
186.86665575	0.00000000	11.44193000	7.89247000
187.06665573	0.00000000	11.10974000	7.93553100
187.26665572	0.00000000	11.06668000	8.31077700
187.46665571	0.00000000	11.06668000	9.05511800
187.66665570	0.00000000	11.06668000	9.43036400
187.86665569	0.00000000	11.06668000	9.47342500
188.06665568	0.00000000	11.06668000	9.43036400
188.26665566	0.00000000	11.10974000	9.05511800
188.46665565	0.00000000	11.48499000	8.31077700
188.66665564	0.00000000	12.22933000	7.93553100
188.86665563	0.00000000	12.60458000	7.89247000
189.06665562	0.00000000	12.64764000	7.89247000
189.26665560	0.00000000	12.60458000	7.89247000
189.46665559	0.00000000	12.22933000	7.89247000
189.66665558	0.00000000	11.48499000	7.89247000
189.86665557	0.00000000	11.10974000	7.89247000
190.06665556	0.00000000	11.06668000	7.93553100
190.26665554	0.00000000	11.06668000	8.26771600
190.46665553	0.00000000	11.06668000	8.63681000
190.66665552	0.00000000	11.06668000	8.26771600
190.86665551	0.00000000	11.06668000	7.93553100
191.06665550	0.00000000	11.06668000	7.89247000
191.26665549	0.00000000	11.10974000	7.89247000
191.46665547	0.00000000	11.48499000	7.89247000
191.66665546	0.00000000	12.22933000	7.89247000
191.86665545	0.00000000	12.60458000	7.89247000
192.06665544	0.00000000	12.64764000	7.89247000
192.26665543	0.00000000	12.60458000	7.89247000
192.46665541	0.00000000	12.22933000	7.89247000
192.66665540	0.00000000	11.48499000	7.89247000
192.86665539	0.00000000	11.10974000	7.89247000
193.06665538	0.00000000	11.06668000	7.89247000
193.26665537	0.00000000	11.06668000	7.89247000
193.46665535	0.00000000	11.06668000	7.93553100
193.66665534	0.00000000	11.06668000	8.31077700
193.86665533	0.00000000	11.06668000	9.05511800
194.06665532	0.00000000	11.06668000	9.38115100
194.26665531	0.00000000	11.10974000	9.09817800
194.46665530	0.00000000	11.44193000	8.68602300
194.66665528	0.00000000	11.85408000	8.67987200
194.86665527	0.00000000	11.81717000	8.26771600
195.06665526	0.00000000	11.85408000	7.93553100
195.26665525	0.00000000	11.44193000	7.89247000
195.46665524	0.00000000	11.10974000	7.89247000
195.66665522	0.00000000	11.06668000	7.89247000
195.86665521	0.00000000	11.06668000	7.89247000
196.06665520	0.00000000	11.06668000	7.89247000
