Time	Channel A	Channel B	Channel C
(us)	(V)	(mV)	(mV)

-4.49999956	0.00000000	17.39050000	3.15575800
-4.29999957	0.00000000	17.39050000	3.15575800
-4.09999958	0.00000000	17.39050000	3.15575800
-3.89999959	0.00000000	17.39050000	3.15575800
-3.69999960	0.00000000	17.39050000	3.15575800
-3.49999962	0.00000000	17.39050000	3.15575800
-3.29999963	0.00000000	17.39050000	3.15575800
-3.09999964	0.00000000	17.39050000	3.15575800
-2.89999965	0.00000000	17.39050000	3.15575800
-2.69999966	0.00000000	17.39050000	3.15575800
-2.49999968	0.00000000	17.39050000	3.15575800
-2.29999969	0.00000000	17.39050000	3.15575800
-2.09999970	0.00000000	17.39050000	3.15575800
-1.89999971	0.00000000	17.39050000	3.15575800
-1.69999972	0.00000000	17.39050000	3.15575800
-1.49999973	0.00000000	17.39050000	3.15575800
-1.29999975	0.00000000	17.39050000	3.15575800
-1.09999976	0.00000000	17.39050000	3.15575800
-0.89999977	0.00000000	17.39050000	3.15575800
-0.69999978	0.00000000	17.39050000	3.15575800
-0.49999979	0.00000000	17.39050000	3.15575800
-0.29999981	0.31803640	17.39050000	3.15575800
-0.09999982	0.63668800	17.43356000	3.19881900
0.10000017	0.95533960	17.76575000	3.53100400
0.30000016	0.95533960	18.13484000	3.90009800
0.50000015	0.79601380	17.76575000	3.53100400
0.70000013	0.15871060	17.43356000	3.19881900
0.90000012	-0.63668800	17.39050000	3.15575800
1.10000011	-1.59264300	17.39050000	3.15575800
1.30000010	-2.38927200	17.39050000	3.15575800
1.50000009	-2.70792300	17.39050000	3.19881900
1.70000008	-2.38927200	17.39050000	3.53100400
1.90000006	-1.11466500	17.39050000	3.90009800
2.10000005	0.79601380	17.39050000	3.53100400
2.30000004	3.02657500	17.39050000	3.19881900
2.50000003	4.61921700	17.39050000	3.15575800
2.70000002	5.41584600	17.39050000	3.15575800
2.90000000	4.61921700	17.39050000	3.15575800
3.09999999	2.54859700	17.39050000	3.15575800
3.29999998	-0.63668800	17.39050000	3.15575800
3.49999997	-3.98191400	17.39050000	3.15575800
3.69999996	-6.69045300	17.39050000	3.15575800
3.89999994	-7.96444400	17.39050000	3.19881900
4.09999993	-7.16781500	17.39050000	3.57406500
4.29999992	-4.61921700	17.39050000	4.31840500
4.49999991	-0.47736220	17.39050000	4.69365100
4.69999990	3.82258900	17.39050000	4.69365100
4.89999989	7.48646600	17.39050000	4.31840500
5.09999987	9.39837600	17.39050000	3.53100400
5.29999986	8.92039900	17.34744000	2.78051200
5.49999985	6.05315000	17.01525000	2.04232300
5.69999984	1.75196900	16.64616000	2.04232300
5.89999983	-3.02657500	17.01525000	2.73745100
6.09999981	-7.00848900	17.34744000	3.11269700
6.29999980	-9.23905000	17.39050000	3.19881900
6.49999979	-9.07972400	17.39050000	3.57406500
6.69999978	-6.84916400	17.39050000	4.31840500
6.89999977	-2.86724900	17.39050000	4.64443900
7.09999975	1.59264300	17.39050000	4.31840500
7.29999974	5.25652100	17.39050000	3.57406500
7.49999973	7.32714100	17.39050000	3.19881900
7.69999972	7.64579200	17.39050000	3.15575800
7.89999971	5.89382400	17.39050000	3.15575800
8.09999970	3.02657500	17.39050000	3.15575800
8.29999968	-0.31803640	17.39050000	3.15575800
8.49999967	-3.18590100	17.39050000	3.15575800
8.69999966	-4.77854300	17.39050000	3.15575800
8.89999965	-5.09719500	17.39050000	3.15575800
9.09999964	-4.14124000	17.39050000	3.15575800
9.29999962	-2.38927200	17.39050000	3.15575800
9.49999961	-0.47736220	17.39050000	3.15575800
9.69999960	1.27399100	17.39050000	3.15575800
9.89999959	2.22994600	17.39050000	3.15575800
10.09999958	2.54859700	17.39050000	3.15575800
10.29999956	2.07062000	17.39050000	3.15575800
10.49999955	1.27399100	17.39050000	3.15575800
10.69999954	0.47736220	17.39050000	3.15575800
10.89999953	-0.31803640	17.39050000	3.15575800
11.09999952	-0.79601380	17.39050000	3.15575800
11.29999951	-0.95533960	17.39050000	3.15575800
11.49999949	-0.95533960	17.39050000	3.15575800
11.69999948	-0.63668800	17.39050000	3.15575800
11.89999947	-0.31803640	17.39050000	3.15575800
12.09999946	-0.15871060	17.39050000	3.15575800
12.29999945	-0.15871060	17.39050000	3.15575800
12.49999943	0.00000000	17.39050000	3.15575800
12.69999942	0.00000000	17.39050000	3.15575800
12.89999941	0.00000000	17.39050000	3.15575800
13.09999940	0.00000000	17.39050000	3.15575800
13.29999939	0.15871060	17.39050000	3.15575800
13.49999937	0.00000000	17.39050000	3.15575800
13.69999936	0.00000000	17.39050000	3.15575800
13.89999935	-0.15871060	17.39050000	3.15575800
14.09999934	-0.15871060	17.39050000	3.15575800
14.29999933	-0.15871060	17.39050000	3.15575800
14.49999932	-0.15871060	17.39050000	3.15575800
14.69999930	-0.15871060	17.39050000	3.15575800
14.89999929	0.00000000	17.39050000	3.15575800
15.09999928	0.00000000	17.39050000	3.15575800
15.29999927	0.00000000	17.39050000	3.15575800
15.49999926	0.00000000	17.39050000	3.15575800
15.69999924	0.00000000	17.39050000	3.15575800
15.89999923	0.00000000	17.34744000	3.15575800
16.09999922	0.00000000	17.01525000	3.15575800
16.29999921	-0.15871060	16.64616000	3.15575800
16.49999920	-0.15871060	17.01525000	3.15575800
16.69999919	-0.15871060	17.39050000	3.15575800
16.89999917	-0.15871060	17.80881000	3.15575800
17.09999916	0.00000000	18.55315000	3.15575800
17.29999915	0.00000000	18.87918000	3.15575800
17.49999914	0.00000000	18.59621000	3.15575800
17.69999913	0.00000000	18.18405000	3.15575800
17.89999911	0.00000000	18.13484000	3.15575800
18.09999910	0.00000000	17.29823000	3.15575800
18.29999909	0.00000000	15.80955000	3.15575800
18.49999908	0.00000000	14.22859000	3.15575800
18.69999907	0.00000000	12.69070000	3.15575800
18.89999905	0.00000000	11.57726000	3.15575800
19.09999904	0.00000000	11.62032000	3.15575800
19.29999903	0.00000000	13.20128000	3.15575800
19.49999902	0.00000000	16.32013000	3.15575800
19.69999901	0.00000000	20.55241000	3.15575800
19.89999900	0.00000000	24.78469000	3.15575800
20.09999898	0.00000000	27.86048000	3.15575800
20.29999897	0.00000000	29.01698000	3.15575800
20.49999896	0.00000000	27.76821000	3.15575800
20.69999895	0.00000000	23.85581000	3.15575800
20.89999894	0.00000000	17.25517000	3.15575800
21.09999892	0.00000000	9.52879000	3.15575800
21.29999891	0.00000000	2.17765700	3.15575800
21.49999890	0.00000000	-3.12500000	3.15575800
21.69999889	0.00000000	-4.19537400	3.15575800
21.89999888	0.00000000	0.07997046	3.15575800
22.09999886	0.00000000	9.01205700	3.15575800
22.29999885	0.00000000	21.01993000	3.15575800
22.49999884	0.00000000	33.76599000	3.15575800
22.69999883	0.00000000	44.10064000	3.15575800
22.89999882	0.00000000	49.07726000	3.15575800
23.09999881	0.00000000	46.70890000	3.19881900
23.29999879	0.00000000	37.40157000	3.57406500
23.49999878	0.00000000	22.60704000	4.31840500
23.69999877	0.00000000	4.83513700	4.69365100
23.89999876	0.00000000	-12.05709000	4.73671200
24.09999875	0.00000000	-23.17298000	4.69365100
24.29999873	0.00000000	-25.08612000	4.26919300
24.49999872	0.00000000	-17.31668000	3.11269700
24.69999871	0.00000000	-1.03346500	1.57480300
24.89999870	0.00000000	20.60162000	0.04306102
25.09999869	0.00000000	42.56274000	-1.11343500
25.29999867	0.00000000	59.54109000	-1.48253000
25.49999866	0.00000000	67.22440000	-1.11343500
25.69999865	0.00000000	63.73647000	0.13533460
25.89999864	0.00000000	49.40330000	2.46063000
26.09999863	0.00000000	27.34990000	5.98548200
26.29999862	0.00000000	2.26993100	9.79945900
26.49999860	0.00000000	-20.06029000	13.28125000
26.69999859	0.00000000	-33.59990000	15.09596000
26.89999858	0.00000000	-35.55610000	14.30241000
27.09999857	0.00000000	-25.91658000	10.40846000
27.29999856	0.00000000	-6.56988100	4.22613100
27.49999854	0.00000000	17.67962000	-3.15575800
27.69999853	0.00000000	41.30167000	-10.45152000
27.89999852	0.00000000	58.71063000	-15.79109000
28.09999851	0.00000000	66.84916000	-17.28592000
28.29999850	0.00000000	63.77952000	-14.16708000
28.49999848	0.00000000	50.28912000	-6.78518600
28.69999847	0.00000000	30.27190000	3.66633800
28.89999846	0.00000000	8.18159400	15.27436000
29.09999845	0.00000000	-10.75910000	25.63976000
29.29999844	0.00000000	-23.17298000	32.14813000
29.49999843	0.00000000	-26.29183000	32.47416000
29.69999841	0.00000000	-19.82652000	26.29183000
29.89999840	0.00000000	-6.32997000	14.63459000
30.09999839	0.00000000	11.10974000	-0.41830710
30.29999838	0.00000000	28.88779000	-15.84030000
30.49999837	0.00000000	43.21481000	-27.73745000
30.69999835	0.00000000	50.98425000	-33.16929000
30.89999834	0.00000000	51.07652000	-30.80709000
31.09999833	0.00000000	44.14370000	-21.13681000
31.29999832	0.00000000	32.18504000	-5.67175200
31.49999831	0.00000000	17.90108000	12.07554000
31.69999829	0.00000000	4.69365100	28.29109000
31.89999828	0.00000000	-5.03198800	39.48696000
32.09999827	0.00000000	-10.10089000	42.97490000
32.29999826	0.00000000	-9.27042300	38.37352000
32.49999825	0.00000000	-2.79281500	26.71629000
32.69999824	0.00000000	7.62180000	10.11934000
32.89999822	0.00000000	18.83612000	-8.04010800
33.09999821	0.00000000	28.93085000	-23.46826000
33.29999820	0.00000000	35.86368000	-33.16929000
33.49999819	0.00000000	37.86909000	-35.07628000
33.69999818	0.00000000	35.21161000	-28.94316000
33.89999816	0.00000000	28.97392000	-16.21555000
34.09999815	0.00000000	20.13410000	0.00000000
34.29999814	0.00000000	10.92520000	16.25861000
34.49999813	0.00000000	4.36146600	29.40452000
34.69999812	0.00000000	1.57480300	36.74950000
34.89999810	0.00000000	2.73745100	36.74950000
35.09999809	0.00000000	7.34498000	29.45374000
35.29999808	0.00000000	14.22859000	16.71998000
35.49999807	0.00000000	21.11220000	1.66707700
35.69999806	0.00000000	25.76895000	-12.59227000
35.89999805	0.00000000	27.39296000	-22.58243000
36.09999803	0.00000000	26.23031000	-25.74434000
36.29999802	0.00000000	22.74237000	-21.93036000
36.49999801	0.00000000	17.39050000	-12.72761000
36.69999800	0.00000000	12.03863000	-0.37524600
36.89999799	0.00000000	8.55068800	11.89715000
37.09999797	0.00000000	7.34498000	21.13681000
37.29999796	0.00000000	8.55068800	24.62475000
37.49999795	0.00000000	11.99557000	22.02264000
37.69999794	0.00000000	16.97219000	14.72687000
37.89999793	0.00000000	21.62278000	4.73671200
38.09999791	0.00000000	25.11688000	-5.20423200
38.29999790	0.00000000	27.01772000	-12.08169000
38.49999789	0.00000000	26.23031000	-13.61343000
38.69999788	0.00000000	23.20374000	-9.47957600
38.89999787	0.00000000	18.92839000	-1.43946800
39.09999786	0.00000000	14.32087000	7.75713500
39.29999784	0.00000000	10.41462000	15.79724000
39.49999783	0.00000000	8.08316900	19.98031000
39.69999782	0.00000000	7.29576700	18.86688000
39.89999781	0.00000000	8.45841400	13.10285000
40.09999780	0.00000000	11.15896000	4.22613100
40.29999778	0.00000000	14.69611000	-5.67175200
40.49999777	0.00000000	18.92839000	-13.28740000
40.69999776	0.00000000	22.78543000	-15.66191000
40.89999775	0.00000000	25.15994000	-13.01058000
41.09999774	0.00000000	26.32259000	-6.40994000
41.29999772	0.00000000	25.90428000	3.20497000
41.49999771	0.00000000	23.57899000	13.10285000
41.69999770	0.00000000	20.08489000	20.06643000
41.89999769	0.00000000	15.85261000	22.39788000
42.09999768	0.00000000	11.99557000	20.11565000
42.29999767	0.00000000	9.62106200	13.56422000
42.49999765	0.00000000	8.45841400	4.77977300
42.69999764	0.00000000	8.87672100	-3.71555100
42.89999763	0.00000000	11.15896000	-9.89788300
43.09999762	0.00000000	14.18553000	-12.59227000
43.29999761	0.00000000	16.92298000	-11.10359000
43.49999759	0.00000000	18.87918000	-6.17618100
43.69999758	0.00000000	20.08489000	0.00000000
43.89999757	0.00000000	20.50935000	6.17618100
44.09999756	0.00000000	20.50935000	11.18971000
44.29999755	0.00000000	20.13410000	13.52116000
44.49999753	0.00000000	19.38976000	13.23819000
44.69999752	0.00000000	19.01451000	10.91289000
44.89999751	0.00000000	18.97145000	7.43110200
45.09999750	0.00000000	18.92839000	3.20497000
45.29999749	0.00000000	18.50394000	-0.60285430
45.49999748	0.00000000	17.29823000	-2.60211600
45.69999746	0.00000000	15.34203000	-3.02042300
45.89999745	0.00000000	12.64764000	-2.27608300
46.09999744	0.00000000	9.90403500	-0.33218500
46.29999743	0.00000000	7.66486200	1.95004900
46.49999742	0.00000000	6.60063900	4.31840500
46.69999740	0.00000000	8.59375000	6.22539300
46.89999739	0.00000000	13.15822000	7.38188900
47.09999738	0.00000000	18.97145000	7.38188900
47.29999737	0.00000000	24.78469000	6.26845500
47.49999736	0.00000000	29.39222000	4.68750000
47.69999734	0.00000000	31.66830000	2.73745100
47.89999733	0.00000000	30.46260000	0.41830710
48.09999732	0.00000000	25.81201000	-1.43946800
48.29999731	0.00000000	18.46087000	-2.22687000
48.49999730	0.00000000	9.99630800	-1.43946800
48.69999729	0.00000000	2.68823800	0.46751960
48.89999727	0.00000000	-1.58710600	3.19881900
49.09999726	0.00000000	-1.91929100	6.26845500
49.29999725	0.00000000	1.99311000	8.96284400
49.49999724	0.00000000	10.08243000	10.49459000
49.69999723	0.00000000	20.04183000	10.45152000
49.89999721	0.00000000	28.93085000	8.54453700
50.09999720	0.00000000	34.75024000	5.06274600
50.29999719	0.00000000	36.28814000	1.20570900
50.49999718	0.00000000	33.16929000	-2.64517700
50.69999717	0.00000000	25.86122000	-5.29650500
50.89999715	0.00000000	16.27707000	-5.71481200
51.09999714	0.00000000	7.43110200	-4.18307100
51.29999713	0.00000000	1.61786400	-1.07037400
51.49999712	0.00000000	0.03690945	3.15575800
51.69999711	0.00000000	2.73745100	7.38188900
51.89999710	0.00000000	8.92593500	10.45152000
52.09999708	0.00000000	17.34744000	11.65723000
52.29999707	0.00000000	25.34449000	10.86983000
52.49999706	0.00000000	30.00123000	8.54453700
52.69999705	0.00000000	30.46260000	4.69365100
52.89999704	0.00000000	27.39296000	0.51058070
53.09999702	0.00000000	21.62278000	-2.55905500
53.29999701	0.00000000	14.69611000	-3.76476400
53.49999700	0.00000000	8.55068800	-3.02042300
53.69999699	0.00000000	4.73671200	-1.11343500
53.89999698	0.00000000	4.73671200	1.58095500
54.09999696	0.00000000	8.50147600	4.26919300
54.29999695	0.00000000	14.27165000	6.17618100
54.49999694	0.00000000	20.41708000	6.96358300
54.69999693	0.00000000	25.43676000	6.17618100
54.89999692	0.00000000	27.72515000	4.31840500
55.09999691	0.00000000	26.97465000	2.04232300
55.29999689	0.00000000	23.11762000	0.55364170
55.49999688	0.00000000	17.43356000	0.51058070
55.69999687	0.00000000	12.03863000	1.66707700
55.89999686	0.00000000	8.50147600	3.57406500
56.09999685	0.00000000	6.96973400	5.85014700
56.29999683	0.00000000	7.76328700	7.33882900
56.49999682	0.00000000	11.20202000	7.38188900
56.69999681	0.00000000	15.76649000	6.17618100
56.89999680	0.00000000	20.04183000	3.85088600
57.09999679	0.00000000	23.16068000	0.37524600
57.29999677	0.00000000	24.69857000	-3.02042300
57.49999676	0.00000000	24.27411000	-5.29650500
57.69999675	0.00000000	21.62278000	-5.24729300
57.89999674	0.00000000	17.80881000	-2.55905500
58.09999673	0.00000000	14.36393000	2.04232300
58.29999672	0.00000000	11.99557000	7.42495000
58.49999670	0.00000000	11.20202000	12.03248000
58.69999669	0.00000000	11.57726000	14.72072000
58.89999668	0.00000000	13.15822000	14.67766000
59.09999667	0.00000000	15.76649000	11.56496000
59.29999666	0.00000000	18.04257000	5.80708600
59.49999664	0.00000000	18.87918000	-1.11343500
59.69999663	0.00000000	18.97145000	-7.24655500
59.89999662	0.00000000	18.87918000	-11.10359000
60.09999661	0.00000000	18.13484000	-11.47884000
60.29999660	0.00000000	16.64616000	-8.36614100
60.49999658	0.00000000	15.90182000	-2.18380900
60.69999657	0.00000000	15.85261000	5.85014700
60.89999656	0.00000000	16.22785000	13.14591000
61.09999655	0.00000000	16.97219000	17.79650000
61.29999654	0.00000000	17.34744000	18.95300000
61.49999653	0.00000000	17.39050000	16.21555000
61.69999651	0.00000000	17.39050000	10.07628000
61.89999650	0.00000000	17.29823000	1.99311000
62.09999649	0.00000000	16.55389000	-5.67175200
62.29999648	0.00000000	15.02214000	-11.14665000
62.49999647	0.00000000	13.89641000	-13.42889000
62.69999645	0.00000000	13.11516000	-12.26624000
62.89999644	0.00000000	13.15822000	-7.20349400
63.09999643	0.00000000	14.27165000	0.41830710
63.29999642	0.00000000	15.80955000	8.50147600
63.49999641	0.00000000	17.39050000	14.72687000
63.69999639	0.00000000	18.92839000	18.21481000
63.89999638	0.00000000	20.04183000	18.57775000
64.09999637	0.00000000	20.04183000	15.09596000
64.29999636	0.00000000	18.92839000	9.00590400
64.49999635	0.00000000	17.39050000	2.04232300
64.69999634	0.00000000	15.80955000	-4.14000900
64.89999632	0.00000000	14.27165000	-8.40920300
65.09999631	0.00000000	13.15822000	-9.99015700
65.29999630	0.00000000	13.15822000	-8.87057000
65.49999629	0.00000000	14.27165000	-5.75787400
65.69999628	0.00000000	15.80955000	-1.15649600
65.89999626	0.00000000	17.34744000	3.85703700
66.09999625	0.00000000	18.50394000	7.75713500
66.29999624	0.00000000	18.83612000	10.53765000
66.49999623	0.00000000	18.08563000	12.07554000
66.69999622	0.00000000	16.18479000	12.11860000
66.89999620	0.00000000	14.32087000	10.96211000
67.09999619	0.00000000	13.15822000	8.96284400
67.29999618	0.00000000	13.15822000	5.85014700
67.49999617	0.00000000	14.32087000	1.99311000
67.69999616	0.00000000	16.27707000	-1.48868100
67.89999615	0.00000000	18.92839000	-4.22613100
68.09999613	0.00000000	21.20448000	-5.80093500
68.29999612	0.00000000	21.99803000	-6.17618100
68.49999611	0.00000000	21.62278000	-5.38262700
68.69999610	0.00000000	19.99877000	-3.02042300
68.89999609	0.00000000	16.87992000	0.46751960
69.09999607	0.00000000	12.69070000	4.73671200
69.29999606	0.00000000	8.87672100	8.96284400
69.49999605	0.00000000	6.87746000	12.07554000
69.69999604	0.00000000	6.59448800	13.61343000
69.89999603	0.00000000	8.55684000	13.23819000
70.09999601	0.00000000	13.52116000	10.86983000
70.29999600	0.00000000	18.87918000	7.00664300
70.49999599	0.00000000	23.62205000	1.95004900
70.69999598	0.00000000	27.39296000	-2.97736200
70.89999597	0.00000000	28.55561000	-6.50221400
71.09999596	0.00000000	26.60556000	-7.67101300
71.29999594	0.00000000	22.36712000	-6.92052100
71.49999593	0.00000000	16.18479000	-4.14000900
71.69999592	0.00000000	10.03937000	0.41830710
71.89999591	0.00000000	5.38877900	5.38262700
72.09999590	0.00000000	3.06348400	8.91978400
72.29999588	0.00000000	3.85088600	10.86983000
72.49999587	0.00000000	7.29576700	11.23893000
72.69999586	0.00000000	12.69070000	9.33809000
72.89999585	0.00000000	18.50394000	6.31151500
73.09999584	0.00000000	23.53592000	3.19881900
73.29999582	0.00000000	27.01772000	0.55364170
73.49999581	0.00000000	27.81127000	-0.64591530
73.69999580	0.00000000	26.27953000	-0.32603340
73.89999579	0.00000000	22.78543000	0.41830710
74.09999578	0.00000000	17.76575000	1.57480300
74.29999577	0.00000000	12.78297000	2.68823800
74.49999575	0.00000000	8.87672100	3.06348400
74.69999574	0.00000000	6.96973400	2.68823800
74.89999573	0.00000000	7.29576700	1.53174200
75.09999572	0.00000000	9.62106200	0.09227362
75.29999571	0.00000000	13.06594000	-0.65206690
75.49999569	0.00000000	16.92298000	0.13533460
75.69999568	0.00000000	19.99877000	2.04232300
75.89999567	0.00000000	21.57972000	4.73671200
76.09999566	0.00000000	21.62278000	7.43110200
76.29999565	0.00000000	20.50935000	9.38115100
76.49999563	0.00000000	18.92839000	10.45152000
76.69999562	0.00000000	17.05832000	9.65797200
76.89999561	0.00000000	15.48966000	6.55142700
77.09999560	0.00000000	15.10212000	2.31914400
77.29999559	0.00000000	15.02214000	-2.69439000
77.49999558	0.00000000	15.43430000	-6.82824800
77.69999556	0.00000000	15.76649000	-8.40920300
77.89999555	0.00000000	15.76649000	-7.29576700
78.09999554	0.00000000	15.34203000	-4.18307100
78.29999553	0.00000000	14.22859000	0.46136810
78.49999552	0.00000000	13.15822000	5.85014700
78.69999550	0.00000000	13.15822000	10.49459000
78.89999549	0.00000000	14.27165000	13.60728000
79.09999548	0.00000000	15.85261000	14.72687000
79.29999547	0.00000000	17.76575000	13.14591000
79.49999546	0.00000000	19.71580000	8.96284400
79.69999544	0.00000000	20.83538000	3.57406500
79.89999543	0.00000000	21.24754000	-1.43946800
80.09999542	0.00000000	20.41708000	-5.33956700
80.29999541	0.00000000	18.50394000	-7.24655500
80.49999540	0.00000000	15.80955000	-6.96358300
80.69999539	0.00000000	13.11516000	-5.01968500
80.89999537	0.00000000	11.15896000	-2.27608300
81.09999536	0.00000000	10.03937000	1.62401600
81.29999535	0.00000000	10.45768000	5.80093500
81.49999534	0.00000000	12.73991000	8.91978400
81.69999533	0.00000000	15.76649000	10.53765000
81.89999531	0.00000000	18.50394000	10.91289000
82.09999530	0.00000000	20.46014000	10.16855000
82.29999529	0.00000000	21.62278000	8.21850300
82.49999528	0.00000000	21.57972000	5.89320800
82.69999527	0.00000000	20.04183000	3.15575800
82.89999525	0.00000000	17.39050000	0.41830710
83.09999524	0.00000000	14.73917000	-1.90698800
83.29999523	0.00000000	13.15822000	-3.85088600
83.49999522	0.00000000	12.73991000	-4.60137700
83.69999521	0.00000000	13.06594000	-4.22613100
83.89999520	0.00000000	13.85334000	-2.60211600
84.09999518	0.00000000	14.64690000	0.41830710
84.29999517	0.00000000	15.80955000	3.94315900
84.49999516	0.00000000	16.92298000	7.06200700
84.69999515	0.00000000	17.29823000	10.11934000
84.89999514	0.00000000	16.97219000	11.60802000
85.09999512	0.00000000	16.22785000	10.91289000
85.29999511	0.00000000	15.90182000	8.96284400
85.49999510	0.00000000	16.22785000	5.80093500
85.69999509	0.00000000	16.97219000	1.57480300
85.89999508	0.00000000	17.34744000	-2.64517700
86.09999506	0.00000000	17.34744000	-5.71481200
86.29999505	0.00000000	16.97219000	-6.87130900
86.49999504	0.00000000	16.18479000	-5.71481200
86.69999503	0.00000000	15.39124000	-2.64517700
86.89999502	0.00000000	14.22859000	1.62401600
87.09999501	0.00000000	13.11516000	6.21924200
87.29999499	0.00000000	12.73991000	10.07628000
87.49999498	0.00000000	13.11516000	11.98327000
87.69999497	0.00000000	14.27165000	11.61417000
87.89999496	0.00000000	15.80955000	8.91978400
88.09999495	0.00000000	17.34744000	4.69365100
88.29999493	0.00000000	18.50394000	0.09227362
88.49999492	0.00000000	18.87918000	-3.76476400
88.69999491	0.00000000	18.50394000	-5.71481200
88.89999490	0.00000000	17.34744000	-5.71481200
89.09999489	0.00000000	15.80955000	-3.76476400
89.29999487	0.00000000	14.27165000	0.09227362
89.49999486	0.00000000	13.15822000	4.69365100
89.69999485	0.00000000	13.06594000	8.91978400
89.89999484	0.00000000	13.43504000	11.56496000
90.09999483	0.00000000	13.48425000	11.56496000
90.29999482	0.00000000	14.32087000	8.91978400
90.49999480	0.00000000	15.76649000	4.69365100
90.69999479	0.00000000	16.92298000	0.09227362
90.89999478	0.00000000	17.34744000	-3.76476400
91.09999477	0.00000000	17.39050000	-5.67175200
91.29999476	0.00000000	17.34744000	-5.29650500
91.49999474	0.00000000	16.97219000	-2.60211600
91.69999473	0.00000000	16.22785000	1.62401600
91.89999472	0.00000000	15.85261000	6.21924200
92.09999471	0.00000000	15.80955000	10.07628000
92.29999470	0.00000000	15.80955000	11.94021000
92.49999468	0.00000000	15.80955000	11.18971000
92.69999467	0.00000000	15.76649000	7.75713500
92.89999466	0.00000000	15.39124000	3.20497000
93.09999465	0.00000000	14.60384000	-1.07037400
93.29999464	0.00000000	13.85334000	-4.13385800
93.49999463	0.00000000	13.11516000	-5.29650500
93.69999461	0.00000000	13.15822000	-4.13385800
93.89999460	0.00000000	14.27165000	-1.07037400
94.09999459	0.00000000	15.85261000	3.15575800
94.29999458	0.00000000	17.76575000	7.33882900
94.49999457	0.00000000	19.71580000	10.03322000
94.69999455	0.00000000	20.83538000	10.45152000
94.89999454	0.00000000	21.24754000	8.91978400
95.09999453	0.00000000	20.41708000	5.80093500
95.29999452	0.00000000	18.46087000	1.57480300
95.49999451	0.00000000	15.39124000	-2.55905500
95.69999449	0.00000000	11.95251000	-4.87819900
95.89999448	0.00000000	9.62106200	-4.55831700
96.09999447	0.00000000	8.41535400	-2.64517700
96.29999446	0.00000000	8.50147600	0.46751960
96.49999445	0.00000000	10.41462000	4.26919300
96.69999444	0.00000000	13.85334000	7.29576700
96.89999442	0.00000000	17.34744000	8.50147600
97.09999441	0.00000000	20.50935000	7.80019600
97.29999440	0.00000000	23.16068000	6.26845500
97.49999439	0.00000000	24.27411000	4.31840500
97.69999438	0.00000000	23.16068000	1.99311000
97.89999436	0.00000000	20.46014000	0.09227362
98.09999435	0.00000000	16.97219000	-1.06422200
98.29999434	0.00000000	13.06594000	-1.06422200
98.49999433	0.00000000	9.62106200	0.04306102
98.69999432	0.00000000	7.29576700	1.53174200
98.89999430	0.00000000	6.92052100	2.68823800
99.09999429	0.00000000	8.45841400	3.11269700
99.29999428	0.00000000	11.53420000	3.15575800
99.49999427	0.00000000	15.39124000	3.15575800
99.69999426	0.00000000	18.87918000	3.19881900
99.89999425	0.00000000	21.62278000	3.57406500
100.09999423	0.00000000	23.16068000	4.31840500
100.29999422	0.00000000	23.16068000	4.69365100
100.49999421	0.00000000	21.62278000	4.73671200
100.69999420	0.00000000	18.92839000	4.69365100
100.89999419	0.00000000	15.80955000	4.26919300
101.09999417	0.00000000	12.69070000	3.11269700
101.29999416	0.00000000	10.03937000	1.57480300
101.49999415	0.00000000	8.83366100	0.04306102
101.69999414	0.00000000	9.20275500	-1.11343500
101.89999413	0.00000000	10.32234000	-1.48253000
102.09999411	0.00000000	12.31545000	-1.02116100
102.29999410	0.00000000	14.60384000	0.88582670
102.49999409	0.00000000	16.97219000	3.94315900
102.69999408	0.00000000	18.87918000	6.60063900
102.89999407	0.00000000	20.08489000	8.58759800
103.09999406	0.00000000	20.46014000	9.29502900
103.29999404	0.00000000	20.04183000	8.54453700
103.49999403	0.00000000	18.50394000	6.22539300
103.69999402	0.00000000	16.22785000	3.15575800
103.89999401	0.00000000	14.27165000	0.04306102
104.09999400	0.00000000	12.69070000	-2.60211600
104.29999398	0.00000000	11.57726000	-3.76476400
104.49999397	0.00000000	11.57726000	-3.02042300
104.69999396	0.00000000	12.69070000	-1.11343500
104.89999395	0.00000000	14.22859000	1.58095500
105.09999394	0.00000000	15.80955000	4.26919300
105.29999392	0.00000000	17.34744000	6.22539300
105.49999391	0.00000000	18.46087000	7.38188900
105.69999390	0.00000000	18.50394000	7.33882900
105.89999389	0.00000000	17.76575000	5.85014700
106.09999388	0.00000000	16.97219000	3.53100400
106.29999387	0.00000000	15.80955000	1.24877000
106.49999385	0.00000000	14.64690000	-0.69512790
106.69999384	0.00000000	13.89641000	-1.43946800
106.89999383	0.00000000	13.48425000	-1.11343500
107.09999382	0.00000000	13.89641000	0.09227362
107.29999381	0.00000000	14.64690000	1.99311000
107.49999379	0.00000000	15.80955000	4.26919300
107.69999378	0.00000000	16.92298000	5.75787400
107.89999377	0.00000000	17.29823000	5.80093500
108.09999376	0.00000000	16.92298000	4.68750000
108.29999375	0.00000000	15.76649000	3.15575800
108.49999374	0.00000000	14.27165000	1.62401600
108.69999372	0.00000000	13.11516000	0.46136810
108.89999371	0.00000000	12.73991000	0.04306102
109.09999370	0.00000000	13.11516000	0.04306102
109.29999369	0.00000000	14.22859000	0.46136810
109.49999368	0.00000000	15.39124000	1.62401600
109.69999366	0.00000000	16.18479000	3.15575800
109.89999365	0.00000000	16.97219000	4.68750000
110.09999364	0.00000000	17.34744000	5.80093500
110.29999363	0.00000000	17.34744000	5.80093500
110.49999362	0.00000000	16.92298000	4.68750000
110.69999360	0.00000000	15.80955000	3.15575800
110.89999359	0.00000000	14.64690000	1.62401600
111.09999358	0.00000000	13.85334000	0.46136810
111.29999357	0.00000000	13.11516000	0.04306102
111.49999356	0.00000000	13.11516000	0.04306102
111.69999355	0.00000000	13.85334000	0.46136810
111.89999353	0.00000000	14.60384000	1.57480300
112.09999352	0.00000000	15.43430000	2.68823800
112.29999351	0.00000000	16.18479000	3.15575800
112.49999350	0.00000000	16.92298000	3.57406500
112.69999349	0.00000000	16.92298000	4.26919300
112.89999347	0.00000000	16.22785000	4.26919300
113.09999346	0.00000000	15.85261000	3.57406500
113.29999345	0.00000000	15.76649000	3.19881900
113.49999344	0.00000000	15.39124000	3.15575800
113.69999343	0.00000000	14.64690000	3.11269700
113.89999341	0.00000000	14.27165000	2.73745100
114.09999340	0.00000000	14.22859000	1.99311000
114.29999339	0.00000000	14.27165000	1.61786400
114.49999338	0.00000000	14.64690000	1.57480300
114.69999337	0.00000000	15.39124000	1.53174200
114.89999336	0.00000000	15.76649000	1.19955700
115.09999334	0.00000000	15.80955000	0.83661410
115.29999333	0.00000000	15.80955000	1.19955700
115.49999332	0.00000000	15.80955000	1.57480300
115.69999331	0.00000000	15.80955000	1.99311000
115.89999330	0.00000000	15.76649000	2.78051200
116.09999328	0.00000000	15.39124000	3.53100400
116.29999327	0.00000000	14.64690000	4.31840500
116.49999326	0.00000000	14.27165000	4.69365100
116.69999325	0.00000000	14.27165000	4.73671200
116.89999324	0.00000000	14.64690000	4.64443900
117.09999322	0.00000000	15.39124000	3.90009800
117.29999321	0.00000000	15.80955000	2.36835600
117.49999320	0.00000000	16.22785000	1.24877000
117.69999319	0.00000000	16.97219000	0.41830710
117.89999318	0.00000000	17.34744000	0.04306102
118.09999317	0.00000000	17.34744000	0.04306102
118.29999315	0.00000000	16.97219000	0.46136810
118.49999314	0.00000000	16.18479000	1.57480300
118.69999313	0.00000000	15.39124000	2.73745100
118.89999312	0.00000000	14.22859000	3.53100400
119.09999311	0.00000000	13.11516000	4.31840500
119.29999309	0.00000000	12.69070000	4.69365100
119.49999308	0.00000000	12.69070000	4.69365100
119.69999307	0.00000000	13.11516000	4.31840500
119.89999306	0.00000000	14.27165000	3.57406500
120.09999305	0.00000000	15.80955000	3.15575800
120.29999303	0.00000000	17.34744000	2.73745100
120.49999302	0.00000000	18.50394000	1.99311000
120.69999301	0.00000000	18.87918000	1.61786400
120.89999300	0.00000000	18.50394000	1.57480300
121.09999299	0.00000000	17.39050000	1.57480300
121.29999298	0.00000000	16.18479000	1.57480300
121.49999296	0.00000000	15.01599000	1.57480300
121.69999295	0.00000000	13.48425000	1.61786400
121.89999294	0.00000000	12.73991000	1.99311000
122.09999293	0.00000000	12.69070000	2.73745100
122.29999292	0.00000000	13.06594000	3.11269700
122.49999290	0.00000000	13.85334000	3.15575800
122.69999289	0.00000000	14.60384000	3.15575800
122.89999288	0.00000000	15.43430000	3.15575800
123.09999287	0.00000000	16.18479000	3.15575800
123.29999286	0.00000000	16.97219000	3.11269700
123.49999284	0.00000000	17.34744000	2.73745100
123.69999283	0.00000000	17.34744000	1.99311000
123.89999282	0.00000000	16.97219000	1.61786400
124.09999281	0.00000000	16.18479000	1.57480300
124.29999280	0.00000000	15.43430000	1.57480300
124.49999279	0.00000000	14.64690000	1.57480300
124.69999277	0.00000000	14.27165000	1.61786400
124.89999276	0.00000000	14.22859000	1.99311000
125.09999275	0.00000000	14.18553000	2.73745100
125.29999274	0.00000000	13.85334000	3.11269700
125.49999273	0.00000000	13.48425000	3.15575800
125.69999271	0.00000000	13.89641000	3.15575800
125.89999270	0.00000000	14.64690000	3.15575800
126.09999269	0.00000000	15.80955000	3.15575800
126.29999268	0.00000000	16.92298000	3.15575800
126.49999267	0.00000000	17.34744000	3.11269700
126.69999265	0.00000000	17.34744000	2.73745100
126.89999264	0.00000000	16.97219000	1.99311000
127.09999263	0.00000000	16.14173000	1.61786400
127.29999262	0.00000000	15.01599000	1.57480300
127.49999261	0.00000000	13.48425000	1.57480300
127.69999260	0.00000000	12.73991000	1.57480300
127.89999258	0.00000000	12.64764000	1.61786400
128.09999257	0.00000000	12.69070000	1.99311000
128.29999256	0.00000000	13.11516000	2.78051200
128.49999255	0.00000000	14.27165000	3.48794300
128.69999254	0.00000000	15.76649000	3.90009800
128.89999252	0.00000000	16.92298000	3.53100400
129.09999251	0.00000000	17.34744000	3.15575800
129.29999250	0.00000000	17.34744000	2.73745100
129.49999249	0.00000000	16.92298000	1.99311000
129.69999248	0.00000000	15.80955000	1.61786400
129.89999246	0.00000000	14.64690000	1.57480300
130.09999245	0.00000000	13.89641000	1.57480300
130.29999244	0.00000000	13.48425000	1.61786400
130.49999243	0.00000000	13.85334000	1.99311000
130.69999242	0.00000000	14.22859000	2.73745100
130.89999241	0.00000000	14.64690000	3.11269700
131.09999239	0.00000000	15.43430000	3.15575800
131.29999238	0.00000000	16.18479000	3.11269700
131.49999237	0.00000000	16.92298000	2.73745100
131.69999236	0.00000000	16.92298000	1.99311000
131.89999235	0.00000000	16.18479000	1.61786400
132.09999233	0.00000000	15.43430000	1.57480300
132.29999232	0.00000000	14.64690000	1.57480300
132.49999231	0.00000000	14.27165000	1.57480300
132.69999230	0.00000000	14.22859000	1.61786400
132.89999229	0.00000000	14.22859000	1.99311000
133.09999227	0.00000000	14.27165000	2.73745100
133.29999226	0.00000000	14.60384000	3.11269700
133.49999225	0.00000000	15.01599000	3.15575800
133.69999224	0.00000000	15.02214000	3.15575800
133.89999223	0.00000000	15.39124000	3.15575800
134.09999222	0.00000000	15.39124000	3.11269700
134.29999220	0.00000000	15.02214000	2.73745100
134.49999219	0.00000000	15.01599000	1.95004900
134.69999218	0.00000000	14.64690000	1.19955700
134.89999217	0.00000000	14.69611000	0.46136810
135.09999216	0.00000000	15.39124000	0.46136810
135.29999214	0.00000000	15.76649000	1.15649600
135.49999213	0.00000000	15.80955000	1.57480300
135.69999212	0.00000000	15.76649000	1.99311000
135.89999211	0.00000000	15.39124000	2.78051200
136.09999210	0.00000000	14.64690000	3.53100400
136.29999208	0.00000000	14.22859000	4.26919300
136.49999207	0.00000000	13.81028000	4.26919300
136.69999206	0.00000000	13.11516000	3.57406500
136.89999205	0.00000000	13.11516000	3.15575800
137.09999204	0.00000000	13.85334000	2.73745100
137.29999203	0.00000000	14.60384000	1.99311000
137.49999201	0.00000000	15.43430000	1.61786400
137.69999200	0.00000000	16.18479000	1.57480300
137.89999199	0.00000000	16.92298000	1.57480300
138.09999198	0.00000000	16.92298000	1.57480300
138.29999197	0.00000000	16.18479000	1.57480300
138.49999195	0.00000000	15.43430000	1.57480300
138.69999194	0.00000000	14.60384000	1.61786400
138.89999193	0.00000000	13.89641000	1.99311000
139.09999192	0.00000000	13.48425000	2.73745100
139.29999191	0.00000000	13.85334000	3.11269700
139.49999189	0.00000000	14.22859000	3.15575800
139.69999188	0.00000000	14.64690000	3.15575800
139.89999187	0.00000000	15.39124000	3.15575800
140.09999186	0.00000000	15.76649000	3.11269700
140.29999185	0.00000000	15.80955000	2.73745100
140.49999184	0.00000000	15.80955000	1.95004900
140.69999182	0.00000000	15.76649000	1.19955700
140.89999181	0.00000000	15.39124000	0.41830710
141.09999180	0.00000000	14.64690000	0.09227362
141.29999179	0.00000000	14.27165000	0.41830710
141.49999178	0.00000000	14.22859000	1.19955700
141.69999176	0.00000000	14.22859000	1.95004900
141.89999175	0.00000000	14.27165000	2.78051200
142.09999174	0.00000000	14.64690000	3.53100400
142.29999173	0.00000000	15.39124000	4.26919300
142.49999172	0.00000000	15.76649000	4.26919300
142.69999170	0.00000000	15.76649000	3.53100400
142.89999169	0.00000000	15.39124000	2.78051200
143.09999168	0.00000000	14.64690000	1.95004900
143.29999167	0.00000000	14.27165000	1.19955700
143.49999166	0.00000000	14.22859000	0.41830710
143.69999165	0.00000000	14.22859000	0.09227362
143.89999163	0.00000000	14.27165000	0.46136810
144.09999162	0.00000000	14.64690000	1.53174200
144.29999161	0.00000000	15.39124000	2.31914400
144.49999160	0.00000000	15.76649000	2.41141700
144.69999159	0.00000000	15.80955000	3.19881900
144.89999157	0.00000000	15.80955000	4.22613100
145.09999156	0.00000000	15.76649000	4.26919300
145.29999155	0.00000000	15.39124000	3.57406500
145.49999154	0.00000000	14.64690000	3.15575800
145.69999153	0.00000000	14.27165000	2.73745100
145.89999151	0.00000000	14.22859000	1.99311000
146.09999150	0.00000000	14.22859000	1.61786400
146.29999149	0.00000000	14.22859000	1.57480300
146.49999148	0.00000000	14.27165000	1.57480300
146.69999147	0.00000000	14.64690000	1.57480300
146.89999146	0.00000000	15.39124000	1.57480300
147.09999144	0.00000000	15.76649000	1.61786400
147.29999143	0.00000000	15.80955000	1.99311000
147.49999142	0.00000000	15.76649000	2.73745100
147.69999141	0.00000000	15.39124000	3.11269700
147.89999140	0.00000000	14.64690000	3.15575800
148.09999138	0.00000000	14.27165000	3.15575800
148.29999137	0.00000000	14.22859000	3.11269700
148.49999136	0.00000000	14.22859000	2.73745100
148.69999135	0.00000000	14.22859000	1.99311000
148.89999134	0.00000000	14.22859000	1.61786400
149.09999132	0.00000000	14.27165000	1.57480300
149.29999131	0.00000000	14.64690000	1.57480300
149.49999130	0.00000000	15.39124000	1.57480300
149.69999129	0.00000000	15.76649000	1.57480300
149.89999128	0.00000000	15.80955000	1.61786400
150.09999127	0.00000000	15.76649000	1.99311000
150.29999125	0.00000000	15.39124000	2.73745100
150.49999124	0.00000000	14.64690000	3.11269700
150.69999123	0.00000000	14.27165000	3.15575800
150.89999122	0.00000000	14.22859000	3.15575800
151.09999121	0.00000000	14.22859000	3.15575800
151.29999119	0.00000000	14.22859000	3.11269700
151.49999118	0.00000000	14.22859000	2.73745100
151.69999117	0.00000000	14.22859000	1.99311000
151.89999116	0.00000000	14.27165000	1.61786400
152.09999115	0.00000000	14.60384000	1.57480300
152.29999113	0.00000000	15.01599000	1.57480300
152.49999112	0.00000000	15.02214000	1.57480300
152.69999111	0.00000000	15.43430000	1.61786400
152.89999110	0.00000000	15.76649000	1.95004900
153.09999109	0.00000000	15.76649000	2.36220500
153.29999108	0.00000000	15.39124000	2.36835600
153.49999106	0.00000000	14.64690000	2.78051200
153.69999105	0.00000000	14.27165000	3.11269700
153.89999104	0.00000000	14.22859000	3.15575800
154.09999103	0.00000000	14.22859000	3.15575800
154.29999102	0.00000000	14.22859000	3.15575800
154.49999100	0.00000000	14.22859000	3.15575800
154.69999099	0.00000000	14.22859000	3.15575800
154.89999098	0.00000000	14.22859000	3.11269700
155.09999097	0.00000000	14.22859000	2.73745100
155.29999096	0.00000000	14.27165000	1.99311000
155.49999094	0.00000000	14.64690000	1.61786400
155.69999093	0.00000000	15.39124000	1.57480300
155.89999092	0.00000000	15.76649000	1.57480300
156.09999091	0.00000000	15.76649000	1.57480300
156.29999090	0.00000000	15.39124000	1.61786400
156.49999089	0.00000000	14.64690000	1.99311000
156.69999087	0.00000000	14.27165000	2.73745100
156.89999086	0.00000000	14.18553000	3.11269700
157.09999085	0.00000000	13.85334000	3.15575800
157.29999084	0.00000000	13.48425000	3.11269700
157.49999083	0.00000000	13.85334000	2.73745100
157.69999081	0.00000000	14.18553000	1.99311000
157.89999080	0.00000000	14.27165000	1.61786400
158.09999079	0.00000000	14.64690000	1.57480300
158.29999078	0.00000000	15.39124000	1.57480300
158.49999077	0.00000000	15.76649000	1.57480300
158.69999075	0.00000000	15.80955000	1.57480300
158.89999074	0.00000000	15.80955000	1.61786400
159.09999073	0.00000000	15.76649000	1.99311000
159.29999072	0.00000000	15.39124000	2.73745100
159.49999071	0.00000000	14.64690000	3.11269700
159.69999070	0.00000000	14.27165000	3.15575800
159.89999068	0.00000000	14.22859000	3.15575800
160.09999067	0.00000000	14.22859000	3.15575800
160.29999066	0.00000000	14.22859000	3.11269700
160.49999065	0.00000000	14.22859000	2.73745100
160.69999064	0.00000000	14.22859000	1.99311000
160.89999062	0.00000000	14.22859000	1.61786400
161.09999061	0.00000000	14.22859000	1.57480300
161.29999060	0.00000000	14.27165000	1.57480300
161.49999059	0.00000000	14.60384000	1.57480300
161.69999058	0.00000000	14.97293000	1.57480300
161.89999056	0.00000000	14.64690000	1.61786400
162.09999055	0.00000000	14.64690000	1.99311000
162.29999054	0.00000000	14.97293000	2.73745100
162.49999053	0.00000000	14.60384000	3.06348400
162.69999052	0.00000000	14.27165000	2.78051200
162.89999051	0.00000000	14.22859000	2.36835600
163.09999049	0.00000000	14.22859000	2.36220500
163.29999048	0.00000000	14.18553000	1.95004900
163.49999047	0.00000000	13.85334000	1.61786400
163.69999046	0.00000000	13.48425000	1.57480300
163.89999045	0.00000000	13.85334000	1.57480300
164.09999043	0.00000000	14.18553000	1.57480300
164.29999042	0.00000000	14.22859000	1.57480300
164.49999041	0.00000000	14.22859000	1.57480300
164.69999040	0.00000000	14.27165000	1.57480300
164.89999039	0.00000000	14.64690000	1.57480300
165.09999037	0.00000000	15.39124000	1.57480300
165.29999036	0.00000000	15.71727000	1.57480300
165.49999035	0.00000000	15.39124000	1.57480300
165.69999034	0.00000000	14.64690000	1.61786400
165.89999033	0.00000000	14.27165000	1.99311000
166.09999032	0.00000000	14.22859000	2.68823800
166.29999030	0.00000000	14.22859000	2.68823800
166.49999029	0.00000000	14.22859000	1.99311000
166.69999028	0.00000000	14.22859000	1.61786400
166.89999027	0.00000000	14.22859000	1.57480300
167.09999026	0.00000000	14.22859000	1.57480300
167.29999024	0.00000000	14.22859000	1.57480300
167.49999023	0.00000000	14.22859000	1.57480300
167.69999022	0.00000000	14.22859000	1.57480300
167.89999021	0.00000000	14.22859000	1.57480300
168.09999020	0.00000000	14.22859000	1.57480300
168.29999018	0.00000000	14.22859000	1.57480300
168.49999017	0.00000000	14.22859000	1.57480300
168.69999016	0.00000000	14.22859000	1.57480300
168.89999015	0.00000000	14.22859000	1.57480300
169.09999014	0.00000000	14.22859000	1.57480300
169.29999013	0.00000000	14.22859000	1.57480300
169.49999011	0.00000000	14.22859000	1.57480300
169.69999010	0.00000000	14.22859000	1.57480300
169.89999009	0.00000000	14.22859000	1.57480300
170.09999008	0.00000000	14.22859000	1.57480300
170.29999007	0.00000000	14.22859000	1.57480300
170.49999005	0.00000000	14.27165000	1.61786400
170.69999004	0.00000000	14.60384000	1.95004900
170.89999003	0.00000000	14.97293000	2.31914400
171.09999002	0.00000000	14.60384000	1.95004900
171.29999001	0.00000000	14.27165000	1.61786400
171.49998999	0.00000000	14.22859000	1.57480300
171.69998998	0.00000000	14.22859000	1.57480300
171.89998997	0.00000000	14.22859000	1.57480300
172.09998996	0.00000000	14.22859000	1.57480300
172.29998995	0.00000000	14.22859000	1.57480300
172.49998994	0.00000000	14.22859000	1.57480300
172.69998992	0.00000000	14.22859000	1.61786400
172.89998991	0.00000000	14.22859000	1.99311000
173.09998990	0.00000000	14.22859000	2.68823800
173.29998989	0.00000000	14.22859000	2.68823800
173.49998988	0.00000000	14.22859000	1.99311000
173.69998986	0.00000000	14.22859000	1.61786400
173.89998985	0.00000000	14.22859000	1.57480300
174.09998984	0.00000000	14.22859000	1.57480300
174.29998983	0.00000000	14.22859000	1.57480300
174.49998982	0.00000000	14.22859000	1.57480300
174.69998980	0.00000000	14.22859000	1.57480300
174.89998979	0.00000000	14.22859000	1.57480300
175.09998978	0.00000000	14.22859000	1.57480300
175.29998977	0.00000000	14.22859000	1.57480300
175.49998976	0.00000000	14.22859000	1.61786400
175.69998975	0.00000000	14.22859000	1.95004900
175.89998973	0.00000000	14.22859000	2.31914400
176.09998972	0.00000000	14.22859000	1.95004900
176.29998971	0.00000000	14.22859000	1.61786400
176.49998970	0.00000000	14.22859000	1.57480300
176.69998969	0.00000000	14.22859000	1.57480300
176.89998967	0.00000000	14.22859000	1.57480300
177.09998966	0.00000000	14.22859000	1.57480300
177.29998965	0.00000000	14.22859000	1.57480300
177.49998964	0.00000000	14.22859000	1.57480300
177.69998963	0.00000000	14.22859000	1.57480300
177.89998961	0.00000000	14.22859000	1.57480300
178.09998960	0.00000000	14.22859000	1.57480300
178.29998959	0.00000000	14.22859000	1.57480300
178.49998958	0.00000000	14.22859000	1.57480300
178.69998957	0.00000000	14.22859000	1.57480300
178.89998956	0.00000000	14.22859000	1.57480300
179.09998954	0.00000000	14.22859000	1.57480300
179.29998953	0.00000000	14.22859000	1.57480300
179.49998952	0.00000000	14.22859000	1.57480300
179.69998951	0.00000000	14.22859000	1.57480300
179.89998950	0.00000000	14.22859000	1.57480300
180.09998948	0.00000000	14.22859000	1.57480300
180.29998947	0.00000000	14.22859000	1.57480300
180.49998946	0.00000000	14.22859000	1.57480300
180.69998945	0.00000000	14.22859000	1.57480300
180.89998944	0.00000000	14.22859000	1.61786400
181.09998942	0.00000000	14.22859000	1.99311000
181.29998941	0.00000000	14.22859000	2.73745100
181.49998940	0.00000000	14.22859000	3.11269700
181.69998939	0.00000000	14.22859000	3.15575800
181.89998938	0.00000000	14.22859000	3.11269700
182.09998937	0.00000000	14.22859000	2.73745100
182.29998935	0.00000000	14.22859000	1.99311000
182.49998934	0.00000000	14.22859000	1.61786400
182.69998933	0.00000000	14.22859000	1.57480300
182.89998932	0.00000000	14.22859000	1.57480300
183.09998931	0.00000000	14.22859000	1.57480300
183.29998929	0.00000000	14.22859000	1.57480300
183.49998928	0.00000000	14.22859000	1.57480300
183.69998927	0.00000000	14.22859000	1.57480300
183.89998926	0.00000000	14.22859000	1.61786400
184.09998925	0.00000000	14.22859000	1.95004900
184.29998923	0.00000000	14.22859000	2.36220500
184.49998922	0.00000000	14.22859000	2.36835600
184.69998921	0.00000000	14.22859000	2.78051200
184.89998920	0.00000000	14.22859000	3.11269700
185.09998919	0.00000000	14.22859000	3.11269700
185.29998918	0.00000000	14.22859000	2.73745100
185.49998916	0.00000000	14.22859000	1.99311000
185.69998915	0.00000000	14.22859000	1.61786400
185.89998914	0.00000000	14.22859000	1.57480300
186.09998913	0.00000000	14.22859000	1.57480300
186.29998912	0.00000000	14.22859000	1.57480300
186.49998910	0.00000000	14.22859000	1.57480300
186.69998909	0.00000000	14.22859000	1.57480300
186.89998908	0.00000000	14.22859000	1.57480300
187.09998907	0.00000000	14.22859000	1.61786400
187.29998906	0.00000000	14.22859000	1.99311000
187.49998904	0.00000000	14.22859000	2.73745100
187.69998903	0.00000000	14.22859000	3.11269700
187.89998902	0.00000000	14.22859000	3.15575800
188.09998901	0.00000000	14.22859000	3.11269700
188.29998900	0.00000000	14.22859000	2.73745100
188.49998899	0.00000000	14.22859000	1.99311000
188.69998897	0.00000000	14.22859000	1.61786400
188.89998896	0.00000000	14.27165000	1.57480300
189.09998895	0.00000000	14.60384000	1.53174200
189.29998894	0.00000000	14.97293000	1.19955700
189.49998893	0.00000000	14.60384000	0.83661410
189.69998891	0.00000000	14.22859000	1.19955700
189.89998890	0.00000000	13.85334000	1.53174200
190.09998889	0.00000000	13.48425000	1.61786400
190.29998888	0.00000000	13.85334000	1.99311000
190.49998887	0.00000000	14.18553000	2.73745100
190.69998885	0.00000000	14.22859000	3.11269700
190.89998884	0.00000000	14.22859000	3.11269700
191.09998883	0.00000000	14.22859000	2.73745100
191.29998882	0.00000000	14.22859000	1.99311000
191.49998881	0.00000000	14.22859000	1.61786400
191.69998880	0.00000000	14.22859000	1.57480300
191.89998878	0.00000000	14.22859000	1.57480300
192.09998877	0.00000000	14.22859000	1.57480300
192.29998876	0.00000000	14.22859000	1.57480300
192.49998875	0.00000000	14.22859000	1.57480300
192.69998874	0.00000000	14.22859000	1.57480300
192.89998872	0.00000000	14.22859000	1.57480300
193.09998871	0.00000000	14.18553000	1.57480300
193.29998870	0.00000000	13.85334000	1.57480300
193.49998869	0.00000000	13.48425000	1.57480300
193.69998868	0.00000000	13.85334000	1.61786400
193.89998866	0.00000000	14.18553000	1.95004900
194.09998865	0.00000000	14.22859000	2.31914400
194.29998864	0.00000000	14.22859000	1.95004900
194.49998863	0.00000000	14.22859000	1.61786400
194.69998862	0.00000000	14.22859000	1.57480300
194.89998861	0.00000000	14.22859000	1.57480300
195.09998859	0.00000000	14.22859000	1.57480300
195.29998858	0.00000000	14.22859000	1.57480300
195.49998857	0.00000000	14.18553000	1.57480300
195.69998856	0.00000000	13.85334000	1.57480300
195.89998855	0.00000000	13.48425000	1.57480300
196.09998853	0.00000000	13.85334000	1.57480300
