Time	Channel A	Channel B	Channel C
(us)	(V)	(mV)	(mV)

-4.49999956	0.00000000	1.58095500	7.10506800
-4.29999957	0.00000000	1.58095500	7.51722400
-4.09999958	0.00000000	1.58095500	7.84940900
-3.89999959	0.00000000	1.58095500	7.89247000
-3.69999960	0.00000000	1.58095500	7.84940900
-3.49999962	0.00000000	1.58095500	7.47416300
-3.29999963	0.00000000	1.58095500	6.72982200
-3.09999964	0.00000000	1.58095500	6.40378900
-2.89999965	0.00000000	1.58095500	6.68676100
-2.69999966	0.00000000	1.58095500	7.05585600
-2.49999968	0.00000000	1.58095500	6.68676100
-2.29999969	0.00000000	1.58095500	6.35457700
-2.09999970	0.00000000	1.58095500	6.31151500
-1.89999971	0.00000000	1.58095500	6.31151500
-1.69999972	0.00000000	1.58095500	6.31151500
-1.49999973	0.00000000	1.58095500	6.31151500
-1.29999975	0.00000000	1.58095500	6.35457700
-1.09999976	0.00000000	1.58095500	6.68676100
-0.89999977	0.00000000	1.58095500	7.05585600
-0.69999978	0.00000000	1.58095500	6.72982200
-0.49999979	0.00000000	1.53789400	6.77903500
-0.29999981	0.31803640	1.20570900	7.47416300
-0.09999982	0.63668800	0.83661410	7.80019600
0.10000017	0.95533960	1.20570900	7.51722400
0.30000016	0.95533960	1.53789400	7.10506800
0.50000015	0.79601380	1.58095500	7.09891700
0.70000013	0.31803640	1.58095500	6.68676100
0.90000012	-0.63668800	1.58095500	6.35457700
1.10000011	-1.59264300	1.58095500	6.35457700
1.30000010	-2.38927200	1.58095500	6.72982200
1.50000009	-2.70792300	1.58095500	7.47416300
1.70000008	-2.38927200	1.58095500	7.84940900
1.90000006	-1.27399100	1.58095500	7.89247000
2.10000005	0.63668800	1.58095500	7.84940900
2.30000004	2.86724900	1.58095500	7.51722400
2.50000003	4.61921700	1.58095500	7.10506800
2.70000002	5.41584600	1.58095500	7.09891700
2.90000000	4.77854300	1.58095500	6.68676100
3.09999999	2.70792300	1.58095500	6.35457700
3.29999998	-0.31803640	1.58095500	6.31151500
3.49999997	-3.66326300	1.58095500	6.31151500
3.69999996	-6.53112700	1.58095500	6.35457700
3.89999994	-7.96444400	1.58095500	6.72982200
4.09999993	-7.32714100	1.58095500	7.47416300
4.29999992	-4.77854300	1.58095500	7.84940900
4.49999991	-0.79601380	1.58095500	7.89247000
4.69999990	3.66326300	1.58095500	7.89247000
4.89999989	7.32714100	1.58095500	7.84940900
5.09999987	9.39837600	1.58095500	7.47416300
5.29999986	8.92039900	1.53789400	6.72982200
5.49999985	6.37180100	1.20570900	6.35457700
5.69999984	2.22994600	0.83661410	6.31151500
5.89999983	-2.70792300	1.20570900	6.35457700
6.09999981	-6.84916400	1.53789400	6.68676100
6.29999980	-9.07972400	1.58095500	7.09891700
6.49999979	-9.23905000	1.58095500	7.10506800
6.69999978	-7.00848900	1.58095500	7.51722400
6.89999977	-3.18590100	1.58095500	7.84940900
7.09999975	1.27399100	1.58095500	7.89247000
7.29999974	5.09719500	1.58095500	7.89247000
7.49999973	7.32714100	1.58095500	7.84940900
7.69999972	7.64579200	1.58095500	7.47416300
7.89999971	6.21247500	1.58095500	6.72982200
8.09999970	3.18590100	1.58095500	6.35457700
8.29999968	0.00000000	1.58095500	6.31151500
8.49999967	-3.02657500	1.58095500	6.35457700
8.69999966	-4.77854300	1.58095500	6.72982200
8.89999965	-5.09719500	1.58095500	7.47416300
9.09999964	-4.30056600	1.58095500	7.84940900
9.29999962	-2.54859700	1.58095500	7.89247000
9.49999961	-0.47736220	1.58095500	7.89247000
9.69999960	1.11466500	1.58095500	7.89247000
9.89999959	2.22994600	1.58095500	7.84940900
10.09999958	2.54859700	1.58095500	7.47416300
10.29999956	2.22994600	1.58095500	6.72982200
10.49999955	1.43331700	1.58095500	6.35457700
10.69999954	0.47736220	1.58095500	6.31151500
10.89999953	-0.15871060	1.58095500	6.31151500
11.09999952	-0.79601380	1.58095500	6.31151500
11.29999951	-0.95533960	1.58095500	6.35457700
11.49999949	-0.95533960	1.58095500	6.72982200
11.69999948	-0.63668800	1.58095500	7.47416300
11.89999947	-0.31803640	1.58095500	7.80019600
12.09999946	-0.15871060	1.58095500	7.47416300
12.29999945	-0.15871060	1.58095500	6.72982200
12.49999943	0.00000000	1.58095500	6.40378900
12.69999942	0.00000000	1.58095500	6.72982200
12.89999941	0.00000000	1.58095500	7.47416300
13.09999940	0.00000000	1.58095500	7.80019600
13.29999939	0.00000000	1.58095500	7.51722400
13.49999937	0.00000000	1.58095500	7.14812900
13.69999936	0.00000000	1.58095500	7.51722400
13.89999935	0.00000000	1.58095500	7.84940900
14.09999934	-0.15871060	1.58095500	7.84940900
14.29999933	-0.15871060	1.58095500	7.51722400
14.49999932	-0.15871060	1.58095500	7.14812900
14.69999930	0.00000000	1.58095500	7.47416300
14.89999929	0.00000000	1.58095500	7.47416300
15.09999928	0.00000000	1.58095500	7.14812900
15.29999927	0.00000000	1.58095500	7.47416300
15.49999926	0.00000000	1.53789400	7.47416300
15.69999924	0.00000000	1.20570900	7.14812900
15.89999923	0.00000000	0.83661410	7.47416300
16.09999922	0.00000000	1.20570900	7.47416300
16.29999921	0.00000000	1.53789400	7.14812900
16.49999920	0.00000000	1.58095500	7.47416300
16.69999919	0.00000000	1.62401600	7.42495000
16.89999917	0.00000000	1.99926200	6.72982200
17.09999916	0.00000000	2.74360200	6.40378900
17.29999915	0.00000000	3.11884800	6.72982200
17.49999914	0.00000000	3.16190900	7.42495000
17.69999913	0.00000000	3.11884800	7.42495000
17.89999911	0.00000000	2.74360200	6.72982200
18.09999910	0.00000000	1.95620100	6.40378900
18.29999909	0.00000000	1.11343500	6.72982200
18.49999908	0.00000000	-0.41830710	7.42495000
18.69999907	0.00000000	-2.32529500	7.47416300
18.89999905	0.00000000	-3.44488200	7.10506800
19.09999904	0.00000000	-3.81397600	7.14197800
19.29999903	0.00000000	-2.56520700	7.06200700
19.49999902	0.00000000	0.46751960	7.09891700
19.69999901	0.00000000	4.36761800	6.68676100
19.89999900	0.00000000	8.23695900	6.40378900
20.09999898	0.00000000	11.67569000	6.72982200
20.29999897	0.00000000	13.16437000	7.42495000
20.49999896	0.00000000	12.00172000	7.47416300
20.69999895	0.00000000	8.42150500	7.14812900
20.89999894	0.00000000	2.18996000	7.51722400
21.09999892	0.00000000	-5.85629900	7.84940900
21.29999891	0.00000000	-13.16437000	7.84940900
21.49999890	0.00000000	-17.81496000	7.47416300
21.69999889	0.00000000	-18.89148000	6.72982200
21.89999888	0.00000000	-15.30512000	6.35457700
22.09999886	0.00000000	-6.79749000	6.31151500
22.29999885	0.00000000	4.83513700	6.31151500
22.49999884	0.00000000	17.21210000	6.31151500
22.69999883	0.00000000	27.95891000	6.35457700
22.89999882	0.00000000	33.63681000	6.72982200
23.09999881	0.00000000	32.05585000	7.47416300
23.29999879	0.00000000	23.08071000	7.89247000
23.49999878	0.00000000	8.00319800	8.31077700
23.69999877	0.00000000	-10.13779000	9.05511800
23.89999876	0.00000000	-26.70398000	9.43036400
24.09999875	0.00000000	-37.91830000	9.43036400
24.29999873	0.00000000	-40.85260000	9.00590400
24.49999872	0.00000000	-33.87057000	7.84940900
24.69999871	0.00000000	-17.59350000	6.31151500
24.89999870	0.00000000	3.99852300	4.73671200
25.09999869	0.00000000	26.37795000	3.19881900
25.29999867	0.00000000	43.73154000	2.08538400
25.49999866	0.00000000	51.83316000	2.12844500
25.69999865	0.00000000	49.08341000	3.66633800
25.89999864	0.00000000	35.13164000	6.40378900
26.09999863	0.00000000	13.16437000	9.89173200
26.29999862	0.00000000	-11.58341000	13.79183000
26.49999860	0.00000000	-33.59375000	17.18750000
26.69999859	0.00000000	-47.87770000	19.04527000
26.89999858	0.00000000	-50.94734000	17.88263000
27.09999857	0.00000000	-42.05831000	14.03174000
27.29999856	0.00000000	-23.16683000	8.54453700
27.49999854	0.00000000	1.11343500	1.53174200
27.69999853	0.00000000	24.70472000	-5.71481200
27.89999852	0.00000000	42.52583000	-11.10359000
28.09999851	0.00000000	51.03962000	-12.96752000
28.29999850	0.00000000	48.33907000	-10.59301000
28.49999848	0.00000000	35.31004000	-3.58636800
28.69999847	0.00000000	15.58809000	6.82209600
28.89999846	0.00000000	-6.05314900	18.43627000
29.09999845	0.00000000	-25.39985000	28.80167000
29.29999844	0.00000000	-37.78297000	35.34695000
29.49999843	0.00000000	-40.98794000	36.05438000
29.69999841	0.00000000	-35.21776000	30.61023000
29.89999840	0.00000000	-22.09646000	19.32825000
30.09999839	0.00000000	-4.74286400	4.31840500
30.29999838	0.00000000	12.65379000	-11.10359000
30.49999837	0.00000000	26.28568000	-23.04995000
30.69999835	0.00000000	34.06126000	-28.85088000
30.89999834	0.00000000	34.89173000	-27.27608000
31.09999833	0.00000000	28.70325000	-18.35630000
31.29999832	0.00000000	17.53199000	-3.67249000
31.49999831	0.00000000	3.62942900	13.69956000
31.69999829	0.00000000	-9.49187900	29.95817000
31.89999828	0.00000000	-18.89148000	41.90453000
32.09999827	0.00000000	-23.58514000	46.87500000
32.29999826	0.00000000	-23.16683000	43.02411000
32.49999825	0.00000000	-17.39665000	31.49606000
32.69999824	0.00000000	-7.81250000	15.23130000
32.89999822	0.00000000	2.65132900	-2.55905500
33.09999821	0.00000000	12.00172000	-18.35630000
33.29999820	0.00000000	18.93455000	-28.43258000
33.49999819	0.00000000	21.62893000	-30.80709000
33.69999818	0.00000000	19.39591000	-25.78740000
33.89999816	0.00000000	13.63189000	-14.17323000
34.09999815	0.00000000	5.90551100	1.66707700
34.29999814	0.00000000	-2.23302100	18.25787000
34.49999813	0.00000000	-8.75369100	32.19119000
34.69999812	0.00000000	-12.23548000	40.28051000
34.89999810	0.00000000	-11.54035000	41.11097000
35.09999809	0.00000000	-7.72637700	34.56570000
35.29999808	0.00000000	-2.32529500	22.61934000
35.49999807	0.00000000	3.85703700	7.89247000
35.69999806	0.00000000	8.83981200	-6.69906400
35.89999805	0.00000000	11.58341000	-17.47047000
36.09999803	0.00000000	11.54035000	-21.37672000
36.29999802	0.00000000	8.51377900	-18.35630000
36.49999801	0.00000000	3.53715500	-9.52263600
36.69999800	0.00000000	-1.44562000	2.78051200
36.89999799	0.00000000	-5.35187000	15.09596000
37.09999797	0.00000000	-7.25885800	24.71087000
37.29999796	0.00000000	-6.84055100	28.94316000
37.49999795	0.00000000	-3.81397600	26.71629000
37.69999794	0.00000000	0.78740150	19.46358000
37.89999793	0.00000000	5.07504900	9.47342500
38.09999791	0.00000000	8.93208600	-0.46751960
38.29999790	0.00000000	11.20817000	-7.38804100
38.49999789	0.00000000	10.83907000	-9.34424200
38.69999788	0.00000000	8.55684000	-6.27460600
38.89999787	0.00000000	4.69980300	1.01501000
39.09999786	0.00000000	0.41830710	10.54380000
39.29999784	0.00000000	-3.44488200	18.95300000
39.49999783	0.00000000	-6.55757800	23.60359000
39.69999782	0.00000000	-7.67716500	23.56053000
39.89999781	0.00000000	-6.97588500	18.58391000
40.09999780	0.00000000	-4.60752900	9.75639700
40.29999778	0.00000000	-1.16264800	0.17839570
40.49999777	0.00000000	2.74360200	-7.89862200
40.69999776	0.00000000	6.28075700	-11.99557000
40.89999775	0.00000000	9.35039300	-10.17470000
41.09999774	0.00000000	11.25123000	-3.30339500
41.29999772	0.00000000	10.83907000	5.53026500
41.49999771	0.00000000	8.64911400	14.85605000
41.69999770	0.00000000	5.45029500	22.44094000
41.89999769	0.00000000	1.99311000	25.92274000
42.09999768	0.00000000	-1.90083600	24.02190000
42.29999767	0.00000000	-4.56446800	17.97490000
42.49999765	0.00000000	-5.81323800	9.84867000
42.69999764	0.00000000	-5.81323800	1.75935000
42.89999763	0.00000000	-4.60752900	-4.78592500
43.09999762	0.00000000	-2.32529500	-7.85556000
43.29999761	0.00000000	0.74434050	-6.78518600
43.49999759	0.00000000	3.06963600	-2.60211600
43.69999758	0.00000000	4.69980300	3.15575800
43.89999757	0.00000000	5.85629900	8.96284400
44.09999756	0.00000000	6.23154500	13.61343000
44.29999755	0.00000000	5.90551100	16.35089000
44.49999753	0.00000000	5.16117100	16.76919000
44.69999752	0.00000000	4.78592500	15.23130000
44.89999751	0.00000000	4.74286400	12.16166000
45.09999750	0.00000000	4.69980300	8.31077700
45.29999749	0.00000000	4.27534400	4.87204700
45.49999748	0.00000000	3.02657500	2.50369100
45.69999746	0.00000000	0.69512790	1.75319900
45.89999745	0.00000000	-2.74360200	2.46063000
46.09999744	0.00000000	-5.81323800	4.36146600
46.29999743	0.00000000	-7.76943800	6.26845500
46.49999742	0.00000000	-8.46456700	7.89247000
46.69999740	0.00000000	-6.84055100	9.42421200
46.89999739	0.00000000	-2.60826800	10.58686000
47.09999738	0.00000000	3.20497000	10.91289000
47.29999737	0.00000000	9.39345400	10.16855000
47.49999736	0.00000000	14.78838000	8.21850300
47.69999734	0.00000000	17.77190000	5.98548200
47.89999733	0.00000000	16.97834000	3.99237200
48.09999732	0.00000000	12.00172000	2.82357300
48.29999731	0.00000000	4.65059000	2.04232300
48.49999730	0.00000000	-3.49409400	2.12844500
48.69999729	0.00000000	-11.20817000	3.66633800
48.89999727	0.00000000	-16.14788000	6.36072800
49.09999726	0.00000000	-16.93528000	9.42421200
49.29999725	0.00000000	-13.02903000	12.11860000
49.49999724	0.00000000	-5.35187000	13.65650000
49.69999723	0.00000000	4.27534400	13.65650000
49.89999721	0.00000000	13.16437000	12.11860000
50.09999720	0.00000000	19.35285000	9.38115100
50.29999719	0.00000000	21.58587000	5.89320800
50.49999718	0.00000000	18.55930000	2.08538400
50.69999717	0.00000000	11.26353000	-0.60285430
50.89999715	0.00000000	2.41141700	-1.39640700
51.09999714	0.00000000	-6.50836600	-0.60285430
51.29999713	0.00000000	-12.98597000	2.12844500
51.49999712	0.00000000	-15.35433000	6.31151500
51.69999711	0.00000000	-13.02903000	10.58686000
51.89999710	0.00000000	-6.88361200	14.07480000
52.09999708	0.00000000	1.53789400	16.35089000
52.29999707	0.00000000	9.58415200	16.30167000
52.49999706	0.00000000	14.60999000	13.69956000
52.69999705	0.00000000	15.81570000	9.84867000
52.89999704	0.00000000	13.16437000	5.98548200
53.09999702	0.00000000	7.76943800	2.50369100
53.29999701	0.00000000	1.20570900	0.59670270
53.49999700	0.00000000	-5.30265700	0.51058070
53.69999699	0.00000000	-9.49187900	1.71013800
53.89999698	0.00000000	-9.91018600	3.99237200
54.09999696	0.00000000	-6.88361200	7.09891700
54.29999695	0.00000000	-1.48868100	9.71333600
54.49999694	0.00000000	4.60752900	11.28199000
54.69999693	0.00000000	9.62721400	10.91289000
54.89999692	0.00000000	11.95866000	9.47342500
55.09999691	0.00000000	11.62648000	7.89247000
55.29999689	0.00000000	8.88902600	6.36072800
55.49999688	0.00000000	4.27534400	5.24729300
55.69999687	0.00000000	-1.11343500	5.24729300
55.89999686	0.00000000	-5.67790300	6.40378900
56.09999685	0.00000000	-8.00319800	8.26771600
56.29999683	0.00000000	-7.25885800	10.16855000
56.49999682	0.00000000	-4.23228400	10.86983000
56.69999681	0.00000000	0.04306102	10.11934000
56.89999680	0.00000000	4.65059000	7.80019600
57.09999679	0.00000000	8.46456700	4.77977300
57.29999677	0.00000000	10.04552000	2.04232300
57.49999676	0.00000000	9.30733200	0.17839570
57.69999675	0.00000000	7.01894700	-0.14148620
57.89999674	0.00000000	3.53715500	2.17765700
58.09999673	0.00000000	0.09227362	6.35457700
58.29999672	0.00000000	-2.60826800	11.00517000
58.49999670	0.00000000	-3.77091500	15.23130000
58.69999669	0.00000000	-3.06963600	17.92569000
58.89999668	0.00000000	-1.53789400	18.25787000
59.09999667	0.00000000	0.41830710	15.88336000
59.29999666	0.00000000	2.74360200	10.53765000
59.49999664	0.00000000	4.60752900	4.04158400
59.69999663	0.00000000	5.43799200	-1.39640700
59.89999662	0.00000000	5.07504900	-5.24729300
60.09999661	0.00000000	4.32455700	-6.32381900
60.29999660	0.00000000	3.16190900	-3.62942900
60.49999658	0.00000000	1.99926200	2.12844500
60.69999657	0.00000000	1.24877000	9.42421200
60.89999656	0.00000000	0.83661410	16.35089000
61.09999655	0.00000000	1.24877000	20.99532000
61.29999654	0.00000000	1.95620100	22.52707000
61.49999653	0.00000000	2.74360200	20.57702000
61.69999651	0.00000000	3.11884800	15.18824000
61.89999650	0.00000000	3.11884800	7.84940900
62.09999649	0.00000000	2.69439000	0.17839570
62.29999648	0.00000000	1.58095500	-5.99163300
62.49999647	0.00000000	0.46751960	-8.64911400
62.69999645	0.00000000	0.04306102	-7.57258800
62.89999644	0.00000000	0.04306102	-2.88508800
63.09999643	0.00000000	0.46751960	3.99237200
63.29999642	0.00000000	1.62401600	11.74951000
63.49999641	0.00000000	3.11884800	18.25787000
63.69999639	0.00000000	4.32455700	22.15797000
63.89999638	0.00000000	5.07504900	22.53322000
64.09999637	0.00000000	5.43799200	19.50664000
64.29999636	0.00000000	4.65059000	14.07480000
64.49999635	0.00000000	3.16190900	7.51722400
64.69999634	0.00000000	1.58095500	0.97194880
64.89999632	0.00000000	0.04306102	-3.67249000
65.09999631	0.00000000	-1.07037400	-5.62253900
65.29999630	0.00000000	-1.07037400	-4.92125900
65.49999629	0.00000000	0.04306102	-1.81471400
65.69999628	0.00000000	1.58095500	2.41756900
65.89999626	0.00000000	3.11884800	7.47416300
66.09999625	0.00000000	4.23228400	12.07554000
66.29999624	0.00000000	4.27534400	15.23130000
66.49999623	0.00000000	3.49409400	16.81225000
66.69999622	0.00000000	2.36835600	16.81225000
66.89999620	0.00000000	0.79355310	15.32357000
67.09999619	0.00000000	-0.28297240	12.95522000
67.29999618	0.00000000	-0.69512790	10.21161000
67.49999617	0.00000000	0.13533460	6.72982200
67.69999616	0.00000000	1.99926200	3.61712600
67.89999615	0.00000000	4.32455700	1.24877000
68.09999613	0.00000000	6.23154500	-0.69512790
68.29999612	0.00000000	7.39419200	-1.43946800
68.49999611	0.00000000	7.35113100	-1.06422200
68.69999610	0.00000000	5.77017700	0.55364170
68.89999609	0.00000000	2.69439000	3.66633800
69.09999607	0.00000000	-1.16264800	7.89247000
69.29999606	0.00000000	-4.60752900	12.16166000
69.49999605	0.00000000	-6.93282500	15.64960000
69.69999604	0.00000000	-7.25885800	17.97490000
69.89999603	0.00000000	-5.35187000	18.30093000
70.09999601	0.00000000	-1.44562000	16.39395000
70.29999600	0.00000000	3.53715500	12.49385000
70.49999599	0.00000000	8.55684000	7.47416300
70.69999598	0.00000000	12.00172000	2.08538400
70.89999597	0.00000000	13.20743000	-2.09768700
71.09999596	0.00000000	12.00172000	-3.71555100
71.29999594	0.00000000	8.51377900	-2.97736200
71.49999593	0.00000000	3.11884800	-0.60285430
71.69999592	0.00000000	-2.65132900	3.62327700
71.89999591	0.00000000	-7.35113100	8.54453700
72.09999590	0.00000000	-10.37771000	12.11860000
72.29999588	0.00000000	-10.74680000	14.49311000
72.49999587	0.00000000	-7.67716500	15.97564000
72.69999586	0.00000000	-2.74360200	15.14518000
72.89999585	0.00000000	2.74360200	12.16166000
73.09999584	0.00000000	7.81250000	8.35998900
73.29999582	0.00000000	12.00172000	5.24729300
73.49999581	0.00000000	13.90871000	3.29109200
73.69999580	0.00000000	12.42003000	2.50369100
73.89999579	0.00000000	9.01820900	3.24803100
74.09999578	0.00000000	4.69980300	4.73671200
74.29999577	0.00000000	0.09227362	6.26845500
74.49999575	0.00000000	-3.77091500	7.42495000
74.69999574	0.00000000	-5.72711600	7.80019600
74.89999573	0.00000000	-5.77017700	7.42495000
75.09999572	0.00000000	-4.23228400	6.31151500
75.29999571	0.00000000	-1.53789400	5.24729300
75.49999569	0.00000000	1.53789400	5.24729300
75.69999568	0.00000000	4.27534400	6.40378900
75.89999567	0.00000000	6.18848400	8.35383800
76.09999566	0.00000000	6.97588500	11.04823000
76.29999565	0.00000000	6.23154500	13.65650000
76.49999563	0.00000000	4.74286400	14.81299000
76.69999562	0.00000000	3.20497000	14.03174000
76.89999561	0.00000000	2.04847400	11.70029000
77.09999560	0.00000000	1.62401600	7.84940900
77.29999559	0.00000000	1.58095500	3.57406500
77.49999558	0.00000000	1.58095500	-0.28297240
77.69999556	0.00000000	1.58095500	-3.29724400
77.89999555	0.00000000	1.53789400	-3.62942900
78.09999554	0.00000000	1.16264800	-1.02116100
78.29999553	0.00000000	0.37524600	3.24803100
78.49999552	0.00000000	-0.33218500	8.31077700
78.69999550	0.00000000	-0.69512790	13.69956000
78.89999549	0.00000000	0.09227362	17.88263000
79.09999548	0.00000000	1.62401600	19.46358000
79.29999547	0.00000000	3.58021600	18.30093000
79.49999546	0.00000000	5.85629900	14.85605000
79.69999544	0.00000000	7.39419200	9.84867000
79.89999543	0.00000000	7.81250000	4.82898600
80.09999542	0.00000000	7.39419200	0.55364170
80.29999541	0.00000000	5.81323800	-2.18380900
80.49999540	0.00000000	3.11884800	-2.93430100
80.69999539	0.00000000	0.09227362	-1.80856300
80.89999537	0.00000000	-2.23302100	1.29183100
81.09999536	0.00000000	-3.02657500	5.15501900
81.29999535	0.00000000	-2.65132900	9.43036400
81.49999534	0.00000000	-1.07037400	13.23819000
81.69999533	0.00000000	1.58095500	15.23130000
81.89999531	0.00000000	4.27534400	15.69267000
82.09999530	0.00000000	6.18848400	15.27436000
82.29999529	0.00000000	7.01894700	13.69956000
82.49999528	0.00000000	6.65600300	11.00517000
82.69999527	0.00000000	5.85629900	7.89247000
82.89999525	0.00000000	4.27534400	4.77977300
83.09999524	0.00000000	2.04847400	2.04232300
83.29999523	0.00000000	0.46751960	0.13533460
83.49999522	0.00000000	-0.33218500	-0.65206690
83.69999521	0.00000000	-0.69512790	0.13533460
83.89999520	0.00000000	0.04306102	2.04232300
84.09999518	0.00000000	1.16264800	4.82283400
84.29999517	0.00000000	1.95620100	8.26771600
84.49999516	0.00000000	2.74360200	11.79257000
84.69999515	0.00000000	3.11884800	14.49311000
84.89999514	0.00000000	3.16190900	16.39395000
85.09999512	0.00000000	3.16190900	16.35089000
85.29999511	0.00000000	3.16190900	14.07480000
85.49999510	0.00000000	3.16190900	10.58686000
85.69999509	0.00000000	3.20497000	6.31151500
85.89999508	0.00000000	3.53715500	2.08538400
86.09999506	0.00000000	3.90625000	-1.02116100
86.29999505	0.00000000	3.49409400	-2.50984200
86.49999504	0.00000000	2.74360200	-1.76550200
86.69999503	0.00000000	1.53789400	1.33489200
86.89999502	0.00000000	0.04306102	5.57332700
87.09999501	0.00000000	-1.11343500	10.58686000
87.29999499	0.00000000	-1.48868100	14.76993000
87.49999498	0.00000000	-1.11343500	16.71998000
87.69999497	0.00000000	0.09227362	16.39395000
87.89999496	0.00000000	1.95620100	14.03174000
88.09999495	0.00000000	3.90625000	10.16855000
88.29999493	0.00000000	5.07504900	5.15501900
88.49999492	0.00000000	5.85629900	0.59670270
88.69999491	0.00000000	5.81323800	-2.14074800
88.89999490	0.00000000	4.69980300	-2.50984200
89.09999489	0.00000000	3.16190900	-0.55979330
89.29999487	0.00000000	1.58095500	3.66633800
89.49999486	0.00000000	0.09227362	9.00590400
89.69999485	0.00000000	-0.69512790	13.65650000
89.89999484	0.00000000	-0.33218500	16.72613000
90.09999483	0.00000000	0.41830710	17.46432000
90.29999482	0.00000000	1.58095500	15.14518000
90.49999480	0.00000000	2.74360200	10.58686000
90.69999479	0.00000000	3.53715500	5.19808000
90.89999478	0.00000000	4.27534400	0.59670270
91.09999477	0.00000000	4.27534400	-2.09153500
91.29999476	0.00000000	3.58021600	-2.09153500
91.49999474	0.00000000	3.20497000	0.55364170
91.69999473	0.00000000	3.16190900	4.82898600
91.89999472	0.00000000	3.16190900	9.79945900
92.09999471	0.00000000	3.16190900	14.39468000
92.29999470	0.00000000	3.16190900	16.71998000
92.49999468	0.00000000	3.11884800	16.71998000
92.69999467	0.00000000	2.74360200	14.39468000
92.89999466	0.00000000	1.95620100	9.79945900
93.09999465	0.00000000	1.20570900	4.82898600
93.29999464	0.00000000	0.37524600	0.55364170
93.49999463	0.00000000	-0.33218500	-2.09153500
93.69999461	0.00000000	-0.69512790	-2.04847400
93.89999460	0.00000000	0.09227362	0.97194880
94.09999459	0.00000000	1.62401600	5.89320800
94.29999458	0.00000000	3.58021600	10.49459000
94.49999457	0.00000000	5.85629900	13.65650000
94.69999455	0.00000000	7.39419200	15.18824000
94.89999454	0.00000000	7.81250000	14.76993000
95.09999453	0.00000000	7.39419200	12.11860000
95.29999452	0.00000000	5.81323800	8.26771600
95.49999451	0.00000000	3.11884800	4.45374000
95.69999449	0.00000000	0.04306102	1.39025600
95.89999448	0.00000000	-2.65132900	0.63976370
96.09999447	0.00000000	-4.18922200	2.08538400
96.29999446	0.00000000	-4.18922200	4.77977300
96.49999445	0.00000000	-2.60826800	7.84940900
96.69999444	0.00000000	0.46751960	10.53765000
96.89999442	0.00000000	4.32455700	12.11860000
97.09999441	0.00000000	7.76943800	12.49385000
97.29999440	0.00000000	10.13779000	11.70029000
97.49999439	0.00000000	10.88829000	9.42421200
97.69999438	0.00000000	10.13779000	6.82209600
97.89999436	0.00000000	7.76943800	5.19808000
98.09999435	0.00000000	4.32455700	4.40452700
98.29999434	0.00000000	0.41830710	4.04158400
98.49999433	0.00000000	-3.02657500	4.77977300
98.69999432	0.00000000	-5.35187000	5.89320800
98.89999430	0.00000000	-5.77017700	6.68676100
99.09999429	0.00000000	-4.60752900	7.47416300
99.29999428	0.00000000	-2.27608300	7.89247000
99.49999427	0.00000000	1.20570900	8.31077700
99.69999426	0.00000000	4.65059000	9.05511800
99.89999425	0.00000000	7.43725300	9.43036400
100.09999423	0.00000000	9.35039300	9.47342500
100.29999422	0.00000000	10.09473000	9.51648500
100.49999421	0.00000000	8.93208600	9.84867000
100.69999420	0.00000000	6.28075700	10.16855000
100.89999419	0.00000000	3.20497000	9.38115100
101.09999417	0.00000000	0.46751960	7.89247000
101.29999416	0.00000000	-1.53789400	6.31151500
101.49999415	0.00000000	-3.06963600	4.77977300
101.69999414	0.00000000	-3.81397600	3.62327700
101.89999413	0.00000000	-3.02657500	3.24803100
102.09999411	0.00000000	-1.11343500	3.66633800
102.29999410	0.00000000	1.58095500	5.24729300
102.49999409	0.00000000	4.27534400	7.93553100
102.69999408	0.00000000	6.23154500	10.96211000
102.89999407	0.00000000	7.39419200	13.28125000
103.09999406	0.00000000	7.43725300	14.03174000
103.29999404	0.00000000	6.65600300	13.28125000
103.49999403	0.00000000	5.48720400	10.96211000
103.69999402	0.00000000	3.49409400	7.89247000
103.89999401	0.00000000	1.24877000	4.77977300
104.09999400	0.00000000	-0.69512790	2.12844500
104.29999398	0.00000000	-1.48868100	0.97194880
104.49999397	0.00000000	-1.48868100	1.71013800
104.69999396	0.00000000	-0.69512790	3.61712600
104.89999395	0.00000000	1.20570900	6.36072800
105.09999394	0.00000000	3.06963600	9.38115100
105.29999392	0.00000000	4.32455700	11.70029000
105.49999391	0.00000000	5.07504900	12.49385000
105.69999390	0.00000000	5.43799200	12.16166000
105.89999389	0.00000000	4.69980300	10.96211000
106.09999388	0.00000000	3.58021600	9.05511800
106.29999387	0.00000000	2.74360200	6.72982200
106.49999385	0.00000000	1.58095500	4.82283400
106.69999384	0.00000000	0.51058070	3.66633800
106.89999383	0.00000000	0.46751960	3.66633800
107.09999382	0.00000000	1.20570900	4.82283400
107.29999381	0.00000000	1.99926200	6.72982200
107.49999379	0.00000000	3.16190900	9.00590400
107.69999378	0.00000000	4.27534400	10.49459000
107.89999377	0.00000000	4.65059000	10.53765000
108.09999376	0.00000000	4.32455700	9.42421200
108.29999375	0.00000000	3.53715500	7.89247000
108.49999374	0.00000000	2.74360200	6.31151500
108.69999372	0.00000000	1.58095500	4.82283400
108.89999371	0.00000000	0.51058070	4.04158400
109.09999370	0.00000000	0.46751960	4.40452700
109.29999369	0.00000000	1.20570900	5.19808000
109.49999368	0.00000000	1.99926200	6.72982200
109.69999366	0.00000000	3.16190900	8.63681000
109.89999365	0.00000000	4.27534400	9.79945900
110.09999364	0.00000000	4.69980300	10.62992000
110.29999363	0.00000000	4.69980300	10.91289000
110.49999362	0.00000000	4.32455700	10.16855000
110.69999360	0.00000000	3.53715500	8.26771600
110.89999359	0.00000000	2.78666300	6.40378900
111.09999358	0.00000000	1.95620100	5.19808000
111.29999357	0.00000000	1.24877000	4.77977300
111.49999356	0.00000000	0.83661410	4.73671200
111.69999355	0.00000000	1.20570900	4.77977300
111.89999353	0.00000000	1.58095500	5.19808000
112.09999352	0.00000000	1.99926200	6.36072800
112.29999351	0.00000000	2.74360200	7.84940900
112.49999350	0.00000000	3.11884800	9.00590400
112.69999349	0.00000000	3.16190900	9.43036400
112.89999347	0.00000000	3.16190900	9.43036400
113.09999346	0.00000000	3.16190900	9.05511800
113.29999345	0.00000000	3.16190900	8.31077700
113.49999344	0.00000000	3.16190900	7.89247000
113.69999343	0.00000000	3.16190900	7.47416300
113.89999341	0.00000000	3.11884800	6.72982200
114.09999340	0.00000000	2.74360200	6.35457700
114.29999339	0.00000000	2.04847400	6.31151500
114.49999338	0.00000000	1.99926200	6.31151500
114.69999337	0.00000000	2.36835600	6.31151500
114.89999336	0.00000000	2.37450800	6.31151500
115.09999334	0.00000000	2.78666300	6.31151500
115.29999333	0.00000000	3.11884800	6.31151500
115.49999332	0.00000000	3.16190900	6.35457700
115.69999331	0.00000000	3.16190900	6.72982200
115.89999330	0.00000000	3.16190900	7.51722400
116.09999328	0.00000000	3.11884800	8.26771600
116.29999327	0.00000000	2.74360200	9.05511800
116.49999326	0.00000000	1.99926200	9.43036400
116.69999325	0.00000000	1.67322800	9.47342500
116.89999324	0.00000000	1.99926200	9.43036400
117.09999322	0.00000000	2.74360200	9.00590400
117.29999321	0.00000000	3.11884800	7.89247000
117.49999320	0.00000000	3.20497000	6.72982200
117.69999319	0.00000000	3.58021600	5.93626900
117.89999318	0.00000000	4.32455700	5.15501900
118.09999317	0.00000000	4.69980300	4.82898600
118.29999315	0.00000000	4.69980300	5.15501900
118.49999314	0.00000000	4.27534400	5.93626900
118.69999313	0.00000000	3.16190900	6.72982200
118.89999312	0.00000000	1.99926200	7.89247000
119.09999311	0.00000000	1.20570900	9.00590400
119.29999309	0.00000000	0.41830710	9.43036400
119.49999308	0.00000000	0.09227362	9.47342500
119.69999307	0.00000000	0.46751960	9.43036400
119.89999306	0.00000000	1.58095500	9.05511800
120.09999305	0.00000000	2.74360200	8.31077700
120.29999303	0.00000000	3.58021600	7.89247000
120.49999302	0.00000000	4.74286400	7.47416300
120.69999301	0.00000000	5.81323800	6.72982200
120.89999300	0.00000000	5.81323800	6.35457700
121.09999299	0.00000000	4.74286400	6.31151500
121.29999298	0.00000000	3.58021600	6.31151500
121.49999296	0.00000000	2.74360200	6.31151500
121.69999295	0.00000000	1.58095500	6.35457700
121.89999294	0.00000000	0.46751960	6.72982200
122.09999293	0.00000000	0.04306102	7.47416300
122.29999292	0.00000000	0.04306102	7.84940900
122.49999290	0.00000000	0.46751960	7.93553100
122.69999289	0.00000000	1.58095500	8.26771600
122.89999288	0.00000000	2.74360200	8.63681000
123.09999287	0.00000000	3.53715500	8.26771600
123.29999286	0.00000000	4.32455700	7.93553100
123.49999284	0.00000000	4.69980300	7.84940900
123.69999283	0.00000000	4.74286400	7.47416300
123.89999282	0.00000000	4.69980300	6.72982200
124.09999281	0.00000000	4.32455700	6.35457700
124.29999280	0.00000000	3.53715500	6.31151500
124.49999279	0.00000000	2.78666300	6.31151500
124.69999277	0.00000000	1.95620100	6.35457700
124.89999276	0.00000000	1.20570900	6.72982200
125.09999275	0.00000000	0.41830710	7.47416300
125.29999274	0.00000000	0.09227362	7.84940900
125.49999273	0.00000000	0.46751960	7.93553100
125.69999271	0.00000000	1.58095500	8.31077700
125.89999270	0.00000000	2.74360200	9.00590400
126.09999269	0.00000000	3.53715500	9.00590400
126.29999268	0.00000000	4.32455700	8.31077700
126.49999267	0.00000000	4.69980300	7.93553100
126.69999265	0.00000000	4.74286400	7.84940900
126.89999264	0.00000000	4.69980300	7.47416300
127.09999263	0.00000000	4.27534400	6.72982200
127.29999262	0.00000000	3.11884800	6.35457700
127.49999261	0.00000000	1.62401600	6.31151500
127.69999260	0.00000000	0.46751960	6.35457700
127.89999258	0.00000000	0.09227362	6.72982200
128.09999257	0.00000000	0.41830710	7.47416300
128.29999256	0.00000000	1.24877000	7.84940900
128.49999255	0.00000000	2.37450800	7.89247000
128.69999254	0.00000000	3.90625000	7.89247000
128.89999252	0.00000000	4.65059000	7.89247000
129.09999251	0.00000000	4.74286400	7.89247000
129.29999250	0.00000000	4.69980300	7.84940900
129.49999249	0.00000000	4.32455700	7.47416300
129.69999248	0.00000000	3.53715500	6.72982200
129.89999246	0.00000000	2.78666300	6.35457700
130.09999245	0.00000000	1.95620100	6.35457700
130.29999244	0.00000000	1.24877000	6.72982200
130.49999243	0.00000000	0.83661410	7.47416300
130.69999242	0.00000000	1.24877000	7.84940900
130.89999241	0.00000000	1.99926200	7.93553100
131.09999239	0.00000000	3.16190900	8.26771600
131.29999238	0.00000000	4.27534400	8.63681000
131.49999237	0.00000000	4.69980300	8.22465500
131.69999236	0.00000000	4.69980300	7.51722400
131.89999235	0.00000000	4.32455700	6.72982200
132.09999233	0.00000000	3.58021600	6.35457700
132.29999232	0.00000000	3.16190900	6.31151500
132.49999231	0.00000000	2.74360200	6.31151500
132.69999230	0.00000000	1.99926200	6.35457700
132.89999229	0.00000000	1.62401600	6.72982200
133.09999227	0.00000000	1.62401600	7.47416300
133.29999226	0.00000000	1.99926200	7.89247000
133.49999225	0.00000000	2.74360200	8.31077700
133.69999224	0.00000000	3.11884800	9.00590400
133.89999223	0.00000000	3.16190900	9.00590400
134.09999222	0.00000000	3.16190900	8.31077700
134.29999220	0.00000000	3.16190900	7.89247000
134.49999219	0.00000000	3.16190900	7.47416300
134.69999218	0.00000000	3.20497000	6.72982200
134.89999217	0.00000000	3.53715500	6.35457700
135.09999216	0.00000000	3.94931100	6.31151500
135.29999214	0.00000000	3.91240100	6.35457700
135.49999213	0.00000000	3.94931100	6.72982200
135.69999212	0.00000000	3.53715500	7.47416300
135.89999211	0.00000000	3.16190900	7.84940900
136.09999210	0.00000000	2.74360200	7.89247000
136.29999208	0.00000000	1.99926200	7.93553100
136.49999207	0.00000000	1.62401600	8.26771600
136.69999206	0.00000000	1.58095500	8.63681000
136.89999205	0.00000000	1.62401600	8.22465500
137.09999204	0.00000000	1.99926200	7.51722400
137.29999203	0.00000000	2.78666300	6.72982200
137.49999201	0.00000000	3.53715500	6.35457700
137.69999200	0.00000000	4.27534400	6.26845500
137.89999199	0.00000000	4.32455700	5.93626900
138.09999198	0.00000000	3.95546200	5.57332700
138.29999197	0.00000000	3.94931100	5.93626900
138.49999195	0.00000000	3.49409400	6.31151500
138.69999194	0.00000000	2.78666300	6.72982200
138.89999193	0.00000000	1.99926200	7.51722400
139.09999192	0.00000000	1.62401600	8.26771600
139.29999191	0.00000000	1.58095500	9.05511800
139.49999189	0.00000000	1.62401600	9.43036400
139.69999188	0.00000000	1.99926200	9.43036400
139.89999187	0.00000000	2.78666300	9.05511800
140.09999186	0.00000000	3.49409400	8.26771600
140.29999185	0.00000000	3.90625000	7.51722400
140.49999184	0.00000000	3.53715500	6.72982200
140.69999182	0.00000000	3.20497000	6.35457700
140.89999181	0.00000000	3.16190900	6.31151500
141.09999180	0.00000000	3.16190900	6.31151500
141.29999179	0.00000000	3.16190900	6.35457700
141.49999178	0.00000000	3.16190900	6.72982200
141.69999176	0.00000000	3.16190900	7.51722400
141.89999175	0.00000000	3.16190900	8.26771600
142.09999174	0.00000000	3.16190900	9.05511800
142.29999173	0.00000000	3.16190900	9.43036400
142.49999172	0.00000000	3.20497000	9.43036400
142.69999170	0.00000000	3.53715500	9.05511800
142.89999169	0.00000000	3.90625000	8.26771600
143.09999168	0.00000000	3.53715500	7.51722400
143.29999167	0.00000000	3.16190900	6.68676100
143.49999166	0.00000000	2.78666300	5.98548200
143.69999165	0.00000000	2.41756900	5.57332700
143.89999163	0.00000000	2.78666300	5.93626900
144.09999162	0.00000000	3.11884800	6.31151500
144.29999161	0.00000000	3.16190900	6.77903500
144.49999160	0.00000000	3.20497000	7.89247000
144.69999159	0.00000000	3.53715500	9.00590400
144.89999157	0.00000000	3.90625000	9.43036400
145.09999156	0.00000000	3.53715500	9.43036400
145.29999155	0.00000000	3.20497000	9.05511800
145.49999154	0.00000000	3.11884800	8.31077700
145.69999153	0.00000000	2.78666300	7.89247000
145.89999151	0.00000000	2.41756900	7.47416300
146.09999150	0.00000000	2.74360200	6.72982200
146.29999149	0.00000000	2.74360200	6.35457700
146.49999148	0.00000000	2.41756900	6.31151500
146.69999147	0.00000000	2.78666300	6.35457700
146.89999146	0.00000000	3.11884800	6.72982200
147.09999144	0.00000000	3.16190900	7.47416300
147.29999143	0.00000000	3.16190900	7.84940900
147.49999142	0.00000000	3.16190900	7.89247000
147.69999141	0.00000000	3.16190900	7.89247000
147.89999140	0.00000000	3.11884800	7.89247000
148.09999138	0.00000000	2.78666300	7.89247000
148.29999137	0.00000000	2.37450800	7.89247000
148.49999136	0.00000000	2.36835600	7.84940900
148.69999135	0.00000000	1.99926200	7.47416300
148.89999134	0.00000000	2.04847400	6.72982200
149.09999132	0.00000000	2.74360200	6.35457700
149.29999131	0.00000000	3.11884800	6.35457700
149.49999130	0.00000000	3.16190900	6.72982200
149.69999129	0.00000000	3.16190900	7.47416300
149.89999128	0.00000000	3.16190900	7.84940900
150.09999127	0.00000000	3.16190900	7.89247000
150.29999125	0.00000000	3.16190900	7.89247000
150.49999124	0.00000000	3.16190900	7.89247000
150.69999123	0.00000000	3.16190900	7.89247000
150.89999122	0.00000000	3.16190900	7.89247000
151.09999121	0.00000000	3.16190900	7.89247000
151.29999119	0.00000000	3.16190900	7.89247000
151.49999118	0.00000000	3.16190900	7.89247000
151.69999117	0.00000000	3.16190900	7.84940900
151.89999116	0.00000000	3.16190900	7.51722400
152.09999115	0.00000000	3.16190900	7.14812900
152.29999113	0.00000000	3.16190900	7.47416300
152.49999112	0.00000000	3.20497000	7.47416300
152.69999111	0.00000000	3.53715500	7.14812900
152.89999110	0.00000000	3.90625000	7.51722400
153.09999109	0.00000000	3.53715500	7.84940900
153.29999108	0.00000000	3.20497000	7.89247000
153.49999106	0.00000000	3.16190900	7.89247000
153.69999105	0.00000000	3.11884800	7.89247000
153.89999104	0.00000000	2.74360200	7.89247000
154.09999103	0.00000000	1.99926200	7.89247000
154.29999102	0.00000000	1.62401600	7.89247000
154.49999100	0.00000000	1.62401600	7.89247000
154.69999099	0.00000000	1.99926200	7.89247000
154.89999098	0.00000000	2.74360200	7.89247000
155.09999097	0.00000000	3.11884800	7.89247000
155.29999096	0.00000000	3.20497000	7.89247000
155.49999094	0.00000000	3.58021600	7.89247000
155.69999093	0.00000000	4.32455700	7.89247000
155.89999092	0.00000000	4.65059000	7.89247000
156.09999091	0.00000000	4.32455700	7.89247000
156.29999090	0.00000000	3.58021600	7.89247000
156.49999089	0.00000000	3.16190900	7.89247000
156.69999087	0.00000000	2.74360200	7.89247000
156.89999086	0.00000000	1.99926200	7.93553100
157.09999085	0.00000000	1.62401600	8.26771600
157.29999084	0.00000000	1.58095500	8.63681000
157.49999083	0.00000000	1.58095500	8.26771600
157.69999081	0.00000000	1.62401600	7.89247000
157.89999080	0.00000000	1.99926200	7.51722400
158.09999079	0.00000000	2.78666300	7.10506800
158.29999078	0.00000000	3.49409400	7.09891700
158.49999077	0.00000000	3.90625000	6.68676100
158.69999075	0.00000000	3.53715500	6.35457700
158.89999074	0.00000000	3.20497000	6.35457700
159.09999073	0.00000000	3.16190900	6.72982200
159.29999072	0.00000000	3.16190900	7.47416300
159.49999071	0.00000000	3.16190900	7.89247000
159.69999070	0.00000000	3.11884800	8.26771600
159.89999068	0.00000000	2.74360200	8.63681000
160.09999067	0.00000000	1.99926200	8.26771600
160.29999066	0.00000000	1.62401600	7.93553100
160.49999065	0.00000000	1.62401600	7.89247000
160.69999064	0.00000000	1.99926200	7.84940900
160.89999062	0.00000000	2.74360200	7.47416300
161.09999061	0.00000000	3.11884800	6.72982200
161.29999060	0.00000000	3.16190900	6.35457700
161.49999059	0.00000000	3.16190900	6.35457700
161.69999058	0.00000000	3.16190900	6.72982200
161.89999056	0.00000000	3.16190900	7.47416300
162.09999055	0.00000000	3.16190900	7.84940900
162.29999054	0.00000000	3.16190900	7.89247000
162.49999053	0.00000000	3.16190900	7.89247000
162.69999052	0.00000000	3.16190900	7.89247000
162.89999051	0.00000000	3.16190900	7.89247000
163.09999049	0.00000000	3.16190900	7.89247000
163.29999048	0.00000000	3.11884800	7.89247000
163.49999047	0.00000000	2.78666300	7.89247000
163.69999046	0.00000000	2.41756900	7.89247000
163.89999045	0.00000000	2.78666300	7.89247000
164.09999043	0.00000000	3.11884800	7.89247000
164.29999042	0.00000000	3.16190900	7.89247000
164.49999041	0.00000000	3.20497000	7.89247000
164.69999040	0.00000000	3.53715500	7.89247000
164.89999039	0.00000000	3.90625000	7.89247000
165.09999037	0.00000000	3.58021600	7.89247000
165.29999036	0.00000000	3.58021600	7.89247000
165.49999035	0.00000000	3.90625000	7.89247000
165.69999034	0.00000000	3.53715500	7.89247000
165.89999033	0.00000000	3.16190900	7.89247000
166.09999032	0.00000000	2.78666300	7.89247000
166.29999030	0.00000000	2.41756900	7.89247000
166.49999029	0.00000000	2.78666300	7.89247000
166.69999028	0.00000000	3.11884800	7.89247000
166.89999027	0.00000000	3.16190900	7.89247000
167.09999026	0.00000000	3.16190900	7.89247000
167.29999024	0.00000000	3.16190900	7.89247000
167.49999023	0.00000000	3.16190900	7.89247000
167.69999022	0.00000000	3.16190900	7.89247000
167.89999021	0.00000000	3.16190900	7.89247000
168.09999020	0.00000000	3.16190900	7.89247000
168.29999018	0.00000000	3.16190900	7.89247000
168.49999017	0.00000000	3.16190900	7.89247000
168.69999016	0.00000000	3.16190900	7.89247000
168.89999015	0.00000000	3.16190900	7.89247000
169.09999014	0.00000000	3.16190900	7.89247000
169.29999013	0.00000000	3.11884800	7.89247000
169.49999011	0.00000000	2.78666300	7.89247000
169.69999010	0.00000000	2.41756900	7.89247000
169.89999009	0.00000000	2.78666300	7.89247000
170.09999008	0.00000000	3.11884800	7.89247000
170.29999007	0.00000000	3.16190900	7.89247000
170.49999005	0.00000000	3.16190900	7.89247000
170.69999004	0.00000000	3.16190900	7.89247000
170.89999003	0.00000000	3.16190900	7.89247000
171.09999002	0.00000000	3.16190900	7.89247000
171.29999001	0.00000000	3.16190900	7.89247000
171.49998999	0.00000000	3.16190900	7.89247000
171.69998998	0.00000000	3.16190900	7.84940900
171.89998997	0.00000000	3.16190900	7.51722400
172.09998996	0.00000000	3.16190900	7.14812900
172.29998995	0.00000000	3.16190900	7.51722400
172.49998994	0.00000000	3.16190900	7.84940900
172.69998992	0.00000000	3.16190900	7.89247000
172.89998991	0.00000000	3.16190900	7.89247000
173.09998990	0.00000000	3.16190900	7.89247000
173.29998989	0.00000000	3.16190900	7.89247000
173.49998988	0.00000000	3.16190900	7.89247000
173.69998986	0.00000000	3.16190900	7.89247000
173.89998985	0.00000000	3.16190900	7.89247000
174.09998984	0.00000000	3.16190900	7.89247000
174.29998983	0.00000000	3.16190900	7.89247000
174.49998982	0.00000000	3.16190900	7.89247000
174.69998980	0.00000000	3.16190900	7.89247000
174.89998979	0.00000000	3.16190900	7.89247000
175.09998978	0.00000000	3.16190900	7.89247000
175.29998977	0.00000000	3.16190900	7.89247000
175.49998976	0.00000000	3.16190900	7.89247000
175.69998975	0.00000000	3.16190900	7.89247000
175.89998973	0.00000000	3.16190900	7.89247000
176.09998972	0.00000000	3.20497000	7.89247000
176.29998971	0.00000000	3.53715500	7.89247000
176.49998970	0.00000000	3.90625000	7.89247000
176.69998969	0.00000000	3.53715500	7.89247000
176.89998967	0.00000000	3.20497000	7.89247000
177.09998966	0.00000000	3.16190900	7.89247000
177.29998965	0.00000000	3.16190900	7.89247000
177.49998964	0.00000000	3.16190900	7.89247000
177.69998963	0.00000000	3.16190900	7.89247000
177.89998961	0.00000000	3.16190900	7.89247000
178.09998960	0.00000000	3.16190900	7.89247000
178.29998959	0.00000000	3.11884800	7.89247000
178.49998958	0.00000000	2.78666300	7.89247000
178.69998957	0.00000000	2.41756900	7.89247000
178.89998956	0.00000000	2.78666300	7.89247000
179.09998954	0.00000000	3.11884800	7.89247000
179.29998953	0.00000000	3.16190900	7.89247000
179.49998952	0.00000000	3.16190900	7.89247000
179.69998951	0.00000000	3.16190900	7.89247000
179.89998950	0.00000000	3.16190900	7.89247000
180.09998948	0.00000000	3.16190900	7.89247000
180.29998947	0.00000000	3.16190900	7.89247000
180.49998946	0.00000000	3.16190900	7.89247000
180.69998945	0.00000000	3.16190900	7.89247000
180.89998944	0.00000000	3.16190900	7.89247000
181.09998942	0.00000000	3.16190900	7.89247000
181.29998941	0.00000000	3.16190900	7.89247000
181.49998940	0.00000000	3.16190900	7.89247000
181.69998939	0.00000000	3.20497000	7.89247000
181.89998938	0.00000000	3.53715500	7.89247000
182.09998937	0.00000000	3.90625000	7.89247000
182.29998935	0.00000000	3.58021600	7.89247000
182.49998934	0.00000000	3.58021600	7.89247000
182.69998933	0.00000000	3.90625000	7.89247000
182.89998932	0.00000000	3.53715500	7.89247000
183.09998931	0.00000000	3.20497000	7.89247000
183.29998929	0.00000000	3.16190900	7.84940900
183.49998928	0.00000000	3.16190900	7.47416300
183.69998927	0.00000000	3.16190900	6.77903500
183.89998926	0.00000000	3.16190900	6.77903500
184.09998925	0.00000000	3.16190900	7.47416300
184.29998923	0.00000000	3.16190900	7.84940900
184.49998922	0.00000000	3.16190900	7.89247000
184.69998921	0.00000000	3.16190900	7.89247000
184.89998920	0.00000000	3.16190900	7.89247000
185.09998919	0.00000000	3.16190900	7.89247000
185.29998918	0.00000000	3.16190900	7.89247000
185.49998916	0.00000000	3.16190900	7.89247000
185.69998915	0.00000000	3.16190900	7.84940900
185.89998914	0.00000000	3.16190900	7.47416300
186.09998913	0.00000000	3.16190900	6.72982200
186.29998912	0.00000000	3.16190900	6.35457700
186.49998910	0.00000000	3.16190900	6.35457700
186.69998909	0.00000000	3.16190900	6.72982200
186.89998908	0.00000000	3.16190900	7.47416300
187.09998907	0.00000000	3.16190900	7.84940900
187.29998906	0.00000000	3.16190900	7.89247000
187.49998904	0.00000000	3.16190900	7.89247000
187.69998903	0.00000000	3.16190900	7.89247000
187.89998902	0.00000000	3.16190900	7.89247000
188.09998901	0.00000000	3.16190900	7.89247000
188.29998900	0.00000000	3.16190900	7.89247000
188.49998899	0.00000000	3.16190900	7.84940900
188.69998897	0.00000000	3.16190900	7.47416300
188.89998896	0.00000000	3.16190900	6.72982200
189.09998895	0.00000000	3.16190900	6.35457700
189.29998894	0.00000000	3.16190900	6.35457700
189.49998893	0.00000000	3.16190900	6.72982200
189.69998891	0.00000000	3.16190900	7.47416300
189.89998890	0.00000000	3.16190900	7.84940900
190.09998889	0.00000000	3.16190900	7.89247000
190.29998888	0.00000000	3.16190900	7.89247000
190.49998887	0.00000000	3.16190900	7.89247000
190.69998885	0.00000000	3.16190900	7.89247000
190.89998884	0.00000000	3.16190900	7.89247000
191.09998883	0.00000000	3.16190900	7.89247000
191.29998882	0.00000000	3.16190900	7.89247000
191.49998881	0.00000000	3.16190900	7.89247000
191.69998880	0.00000000	3.16190900	7.89247000
191.89998878	0.00000000	3.16190900	7.89247000
192.09998877	0.00000000	3.16190900	7.89247000
192.29998876	0.00000000	3.16190900	7.89247000
192.49998875	0.00000000	3.16190900	7.89247000
192.69998874	0.00000000	3.16190900	7.89247000
192.89998872	0.00000000	3.16190900	7.89247000
193.09998871	0.00000000	3.16190900	7.89247000
193.29998870	0.00000000	3.16190900	7.89247000
193.49998869	0.00000000	3.11884800	7.89247000
193.69998868	0.00000000	2.78666300	7.89247000
193.89998866	0.00000000	2.41756900	7.89247000
194.09998865	0.00000000	2.78666300	7.89247000
194.29998864	0.00000000	3.11884800	7.89247000
194.49998863	0.00000000	3.16190900	7.89247000
194.69998862	0.00000000	3.20497000	7.89247000
194.89998861	0.00000000	3.53715500	7.89247000
195.09998859	0.00000000	3.90625000	7.89247000
195.29998858	0.00000000	3.53715500	7.89247000
195.49998857	0.00000000	3.20497000	7.84940900
195.69998856	0.00000000	3.16190900	7.51722400
195.89998855	0.00000000	3.16190900	7.14812900
196.09998853	0.00000000	3.16190900	7.51722400
