Time	Channel A	Channel B	Channel C
(us)	(V)	(mV)	(mV)

-4.49999956	0.00000000	-1.62401600	6.31151500
-4.29999957	0.00000000	-1.95620100	6.31151500
-4.09999958	0.00000000	-2.32529500	6.31151500
-3.89999959	0.00000000	-1.99926200	6.31151500
-3.69999960	0.00000000	-1.99926200	6.31151500
-3.49999962	0.00000000	-2.32529500	6.31151500
-3.29999963	0.00000000	-1.95620100	6.31151500
-3.09999964	0.00000000	-1.62401600	6.31151500
-2.89999965	0.00000000	-1.58095500	6.31151500
-2.69999966	0.00000000	-1.58095500	6.31151500
-2.49999968	0.00000000	-1.58095500	6.31151500
-2.29999969	0.00000000	-1.58095500	6.31151500
-2.09999970	0.00000000	-1.58095500	6.31151500
-1.89999971	0.00000000	-1.58095500	6.31151500
-1.69999972	0.00000000	-1.58095500	6.31151500
-1.49999973	0.00000000	-1.58095500	6.31151500
-1.29999975	0.00000000	-1.58095500	6.31151500
-1.09999976	0.00000000	-1.58095500	6.31151500
-0.89999977	0.00000000	-1.58095500	6.31151500
-0.69999978	0.00000000	-1.58095500	6.31151500
-0.49999979	0.00000000	-1.58095500	6.31151500
-0.29999981	0.15871060	-1.58095500	6.31151500
-0.09999982	0.63668800	-1.58095500	6.31151500
0.10000017	0.95533960	-1.58095500	6.31151500
0.30000016	0.95533960	-1.58095500	6.31151500
0.50000015	0.95533960	-1.62401600	6.31151500
0.70000013	0.47736220	-1.95620100	6.31151500
0.90000012	-0.31803640	-2.32529500	6.31151500
1.10000011	-1.27399100	-1.95620100	6.31151500
1.30000010	-2.22994600	-1.62401600	6.31151500
1.50000009	-2.70792300	-1.58095500	6.31151500
1.70000008	-2.54859700	-1.58095500	6.31151500
1.90000006	-1.59264300	-1.58095500	6.31151500
2.10000005	0.15871060	-1.58095500	6.31151500
2.30000004	2.22994600	-1.58095500	6.31151500
2.50000003	4.14124000	-1.62401600	6.31151500
2.70000002	5.25652100	-1.95620100	6.26845500
2.90000000	5.09719500	-2.32529500	5.89320800
3.09999999	3.50393700	-1.99926200	5.15501900
3.29999998	0.47736220	-1.99926200	4.82898600
3.49999997	-2.86724900	-2.32529500	5.15501900
3.69999996	-5.89382400	-1.95620100	5.89320800
3.89999994	-7.80511800	-1.62401600	6.26845500
4.09999993	-7.80511800	-1.58095500	6.35457700
4.29999992	-5.57517200	-1.58095500	6.68676100
4.49999991	-1.91129400	-1.58095500	7.05585600
4.69999990	2.38927200	-1.58095500	6.68676100
4.89999989	6.53112700	-1.58095500	6.31151500
5.09999987	9.07972400	-1.58095500	5.93626900
5.29999986	9.23905000	-1.58095500	5.53026500
5.49999985	7.32714100	-1.58095500	5.51796200
5.69999984	3.34522600	-1.58095500	5.11195900
5.89999983	-1.27399100	-1.58095500	4.77977300
6.09999981	-5.89382400	-1.58095500	4.77977300
6.29999980	-8.76107300	-1.58095500	5.15501900
6.49999979	-9.39837600	-1.58095500	5.89320800
6.69999978	-7.80511800	-1.58095500	6.26845500
6.89999977	-4.30056600	-1.58095500	6.31151500
7.09999975	0.00000000	-1.58095500	6.31151500
7.29999974	4.14124000	-1.58095500	6.31151500
7.49999973	6.84916400	-1.58095500	6.31151500
7.69999972	7.80511800	-1.62401600	6.31151500
7.89999971	6.69045300	-1.99926200	6.31151500
8.09999970	4.14124000	-2.69439000	6.31151500
8.29999968	0.79601380	-2.69439000	6.31151500
8.49999967	-2.22994600	-1.99926200	6.31151500
8.69999966	-4.45989200	-1.62401600	6.31151500
8.89999965	-5.25652100	-1.58095500	6.31151500
9.09999964	-4.61921700	-1.58095500	6.31151500
9.29999962	-3.02657500	-1.58095500	6.31151500
9.49999961	-1.11466500	-1.58095500	6.35457700
9.69999960	0.79601380	-1.58095500	6.68676100
9.89999959	2.07062000	-1.58095500	7.05585600
10.09999958	2.54859700	-1.58095500	6.68676100
10.29999956	2.38927200	-1.58095500	6.35457700
10.49999955	1.59264300	-1.58095500	6.31151500
10.69999954	0.63668800	-1.58095500	6.31151500
10.89999953	-0.15871060	-1.58095500	6.26845500
11.09999952	-0.63668800	-1.58095500	5.93626900
11.29999951	-0.95533960	-1.58095500	5.57332700
11.49999949	-0.95533960	-1.58095500	5.93626900
11.69999948	-0.79601380	-1.58095500	6.26845500
11.89999947	-0.47736220	-1.58095500	6.31151500
12.09999946	-0.15871060	-1.58095500	6.31151500
12.29999945	-0.15871060	-1.58095500	6.31151500
12.49999943	-0.15871060	-1.58095500	6.31151500
12.69999942	0.00000000	-1.58095500	6.31151500
12.89999941	0.00000000	-1.58095500	6.26845500
13.09999940	0.15871060	-1.58095500	5.93626900
13.29999939	0.00000000	-1.58095500	5.57332700
13.49999937	0.00000000	-1.58095500	5.93626900
13.69999936	0.00000000	-1.58095500	6.26845500
13.89999935	0.00000000	-1.58095500	6.31151500
14.09999934	-0.15871060	-1.58095500	6.31151500
14.29999933	-0.15871060	-1.58095500	6.31151500
14.49999932	-0.15871060	-1.58095500	6.31151500
14.69999930	0.00000000	-1.58095500	6.31151500
14.89999929	0.00000000	-1.58095500	6.31151500
15.09999928	0.00000000	-1.58095500	6.31151500
15.29999927	0.00000000	-1.58095500	6.31151500
15.49999926	0.00000000	-1.58095500	6.31151500
15.69999924	0.00000000	-1.62401600	6.31151500
15.89999923	0.00000000	-1.95620100	6.31151500
16.09999922	0.00000000	-2.36835600	6.31151500
16.29999921	0.00000000	-2.33144700	6.31151500
16.49999920	-0.15871060	-2.36835600	6.31151500
16.69999919	-0.15871060	-1.95620100	6.31151500
16.89999917	-0.15871060	-1.58095500	6.31151500
17.09999916	0.00000000	-1.16264800	6.31151500
17.29999915	0.00000000	-0.41830710	6.31151500
17.49999914	0.00000000	-0.04306102	6.31151500
17.69999913	0.00000000	-0.04306102	6.31151500
17.89999911	0.00000000	-0.46751960	6.31151500
18.09999910	0.00000000	-1.62401600	6.31151500
18.29999909	0.00000000	-3.16190900	6.31151500
18.49999908	0.00000000	-4.69980300	6.31151500
18.69999907	0.00000000	-5.90551100	6.26845500
18.89999905	0.00000000	-6.65600300	5.93626900
19.09999904	0.00000000	-6.97588500	5.57332700
19.29999903	0.00000000	-5.77017700	5.93626900
19.49999902	0.00000000	-3.06963600	6.26845500
19.69999901	0.00000000	0.41830710	6.31151500
19.89999900	0.00000000	4.32455700	6.31151500
20.09999898	0.00000000	7.76943800	6.31151500
20.29999897	0.00000000	10.00246000	6.26845500
20.49999896	0.00000000	9.58415200	5.93626900
20.69999895	0.00000000	6.05314900	5.57332700
20.89999894	0.00000000	0.23375980	5.93626900
21.09999892	0.00000000	-7.52952700	6.21924200
21.29999891	0.00000000	-15.21284000	5.93626900
21.49999890	0.00000000	-20.97687000	5.57332700
21.69999889	0.00000000	-23.20989000	5.93626900
21.89999888	0.00000000	-20.47244000	6.21924200
22.09999886	0.00000000	-13.07210000	5.93626900
22.29999885	0.00000000	-2.18996000	5.57332700
22.49999884	0.00000000	10.55610000	5.93626900
22.69999883	0.00000000	22.05339000	6.26845500
22.89999882	0.00000000	28.98007000	6.31151500
23.09999881	0.00000000	29.26304000	6.31151500
23.29999879	0.00000000	22.23794000	6.35457700
23.49999878	0.00000000	8.28617100	6.72982200
23.69999877	0.00000000	-9.44266700	7.47416300
23.89999876	0.00000000	-26.79626000	7.84940900
24.09999875	0.00000000	-39.49926000	7.84940900
24.29999873	0.00000000	-44.10679000	7.47416300
24.49999872	0.00000000	-39.40699000	6.68676100
24.69999871	0.00000000	-25.81816000	5.89320800
24.89999870	0.00000000	-5.67790300	4.68750000
25.09999869	0.00000000	16.65846000	3.15575800
25.29999867	0.00000000	35.96210000	1.66707700
25.49999866	0.00000000	47.09030000	0.92888770
25.69999865	0.00000000	47.45940000	1.75319900
25.89999864	0.00000000	36.20201000	4.03543200
26.09999863	0.00000000	15.77264000	7.56028500
26.29999862	0.00000000	-8.93208600	11.42347000
26.49999860	0.00000000	-32.14813000	15.27436000
26.69999859	0.00000000	-48.71432000	17.88263000
26.89999858	0.00000000	-54.85359000	17.88263000
27.09999857	0.00000000	-48.33907000	15.09596000
27.29999856	0.00000000	-31.40379000	9.65797200
27.49999854	0.00000000	-8.55684000	1.95004900
27.69999853	0.00000000	15.77264000	-5.71481200
27.89999852	0.00000000	35.82677000	-11.52190000
28.09999851	0.00000000	46.71506000	-14.16708000
28.29999850	0.00000000	46.75812000	-12.59227000
28.49999848	0.00000000	36.33735000	-6.74212600
28.69999847	0.00000000	17.82111000	2.59596400
28.89999846	0.00000000	-4.14616100	14.16092000
29.09999845	0.00000000	-24.28642000	25.31373000
29.29999844	0.00000000	-38.29355000	32.98474000
29.49999843	0.00000000	-44.14985000	35.26082000
29.69999841	0.00000000	-41.03100000	30.98548000
29.89999840	0.00000000	-29.49065000	20.90305000
30.09999839	0.00000000	-12.55536000	7.01279500
30.29999838	0.00000000	5.21653500	-8.08316900
30.49999837	0.00000000	20.00492000	-20.77387000
30.69999835	0.00000000	29.35531000	-28.52485000
30.89999834	0.00000000	32.09892000	-29.18307000
31.09999833	0.00000000	27.86663000	-22.25640000
31.29999832	0.00000000	17.81496000	-8.69832600
31.49999831	0.00000000	4.32455700	8.26771600
31.69999829	0.00000000	-9.58415200	25.31373000
31.89999828	0.00000000	-20.47244000	38.79183000
32.09999827	0.00000000	-26.74705000	45.71235000
32.29999826	0.00000000	-27.86663000	44.18061000
32.49999825	0.00000000	-23.25910000	34.56570000
32.69999824	0.00000000	-14.05020000	19.46358000
32.89999822	0.00000000	-3.25418300	1.66707700
33.09999821	0.00000000	6.84055100	-15.28666000
33.29999820	0.00000000	14.23474000	-27.27608000
33.49999819	0.00000000	17.72884000	-31.96973000
33.69999818	0.00000000	16.97834000	-28.90010000
33.89999816	0.00000000	11.95866000	-18.86688000
34.09999815	0.00000000	4.27534400	-4.14000900
34.29999814	0.00000000	-4.18922200	12.49385000
34.49999813	0.00000000	-11.16511000	27.87278000
34.69999812	0.00000000	-15.02830000	37.91216000
34.89999810	0.00000000	-15.48966000	40.32357000
35.09999809	0.00000000	-12.37697000	35.72219000
35.29999808	0.00000000	-7.01894700	25.22145000
35.49999807	0.00000000	-0.46751960	10.58686000
35.69999806	0.00000000	5.25959600	-4.78592500
35.89999805	0.00000000	8.37844500	-16.73228000
36.09999803	0.00000000	8.42150500	-22.58243000
36.29999802	0.00000000	5.77017700	-21.41978000
36.49999801	0.00000000	1.48868100	-13.79798000
36.69999800	0.00000000	-3.53715500	-1.86392700
36.89999799	0.00000000	-8.46456700	10.82677000
37.09999797	0.00000000	-11.11590000	21.60433000
37.29999796	0.00000000	-10.46998000	27.36835000
37.49999795	0.00000000	-7.76943800	26.66708000
37.69999794	0.00000000	-3.90625000	20.57702000
37.89999793	0.00000000	0.74434050	10.96211000
38.09999791	0.00000000	4.60752900	0.63976370
38.29999790	0.00000000	7.30807100	-7.43725300
38.49999789	0.00000000	8.04626000	-10.87598000
38.69999788	0.00000000	6.14542300	-9.01205700
38.89999787	0.00000000	2.69439000	-2.46678100
39.09999786	0.00000000	-1.58095500	6.68676100
39.29999784	0.00000000	-5.81323800	15.88336000
39.49999783	0.00000000	-8.97514600	21.97957000
39.69999782	0.00000000	-10.88829000	23.13607000
39.89999781	0.00000000	-11.25123000	18.95300000
40.09999780	0.00000000	-9.30733200	10.86983000
40.29999778	0.00000000	-5.85629900	1.29183100
40.49999777	0.00000000	-1.58095500	-7.52952700
40.69999776	0.00000000	2.65132900	-12.45694000
40.89999775	0.00000000	5.77017700	-12.13091000
41.09999774	0.00000000	7.35113100	-6.74212600
41.29999772	0.00000000	7.35113100	2.08538400
41.49999771	0.00000000	5.81323800	12.07554000
41.69999770	0.00000000	3.06963600	20.48474000
41.89999769	0.00000000	-0.41830710	24.76009000
42.09999768	0.00000000	-4.32455700	24.06496000
42.29999767	0.00000000	-7.76943800	19.42052000
42.49999765	0.00000000	-10.04552000	11.74951000
42.69999764	0.00000000	-10.09473000	2.92199800
42.89999763	0.00000000	-8.23695900	-4.00467500
43.09999762	0.00000000	-5.90551100	-7.94783400
43.29999761	0.00000000	-3.16190900	-8.31692900
43.49999759	0.00000000	-0.46751960	-5.29650500
43.69999758	0.00000000	1.48868100	0.09227362
43.89999757	0.00000000	2.65132900	6.22539300
44.09999756	0.00000000	2.69439000	11.65723000
44.29999755	0.00000000	1.99926200	15.14518000
44.49999753	0.00000000	1.62401600	16.30167000
44.69999752	0.00000000	1.53789400	14.81299000
44.89999751	0.00000000	1.16264800	11.38041000
45.09999750	0.00000000	0.41830710	7.51722400
45.29999749	0.00000000	0.00000000	3.66633800
45.49999748	0.00000000	-0.51058070	0.97194880
45.69999746	0.00000000	-2.09153500	0.13533460
45.89999745	0.00000000	-4.78592500	0.51058070
46.09999744	0.00000000	-7.86171200	2.04232300
46.29999743	0.00000000	-10.51304000	4.36146600
46.49999742	0.00000000	-11.62648000	6.68676100
46.69999740	0.00000000	-10.42077000	9.00590400
46.89999739	0.00000000	-6.93282500	10.49459000
47.09999738	0.00000000	-1.48868100	10.53765000
47.29999737	0.00000000	4.65059000	9.42421200
47.49999736	0.00000000	10.04552000	7.89247000
47.69999734	0.00000000	13.12131000	6.26845500
47.89999733	0.00000000	13.12131000	4.36146600
48.09999732	0.00000000	9.95939900	2.46063000
48.29999731	0.00000000	3.72170300	1.66707700
48.49999730	0.00000000	-4.74286400	1.66707700
48.69999729	0.00000000	-13.16437000	2.50369100
48.89999727	0.00000000	-18.93455000	4.82283400
49.09999726	0.00000000	-20.51550000	7.84940900
49.29999725	0.00000000	-17.77190000	10.58686000
49.49999724	0.00000000	-11.20817000	12.49385000
49.69999723	0.00000000	-1.91314000	13.23819000
49.89999721	0.00000000	7.67716500	12.07554000
50.09999720	0.00000000	15.35433000	9.38115100
50.29999719	0.00000000	18.42397000	5.89320800
50.49999718	0.00000000	16.19094000	2.04232300
50.69999717	0.00000000	10.00246000	-0.97810030
50.89999715	0.00000000	1.11343500	-2.18380900
51.09999714	0.00000000	-8.46456700	-1.39640700
51.29999713	0.00000000	-15.77264000	0.92888770
51.49999712	0.00000000	-18.89148000	4.77977300
51.69999711	0.00000000	-17.39665000	9.00590400
51.89999710	0.00000000	-12.00172000	12.49385000
52.09999708	0.00000000	-4.32455700	14.81299000
52.29999707	0.00000000	3.77091500	15.14518000
52.49999706	0.00000000	9.95939900	13.28125000
52.69999705	0.00000000	12.98597000	9.79945900
52.89999704	0.00000000	11.81717000	5.93626900
53.09999702	0.00000000	6.14542300	2.08538400
53.29999701	0.00000000	-1.11343500	-0.55979330
53.49999700	0.00000000	-7.72637700	-1.02116100
53.69999699	0.00000000	-12.69685000	0.09227362
53.89999698	0.00000000	-14.23474000	2.04232300
54.09999696	0.00000000	-11.95866000	4.77977300
54.29999695	0.00000000	-6.97588500	7.80019600
54.49999694	0.00000000	-0.46751960	10.07628000
54.69999693	0.00000000	5.30265700	10.49459000
54.89999692	0.00000000	8.79675100	9.42421200
55.09999691	0.00000000	9.53494100	7.84940900
55.29999689	0.00000000	6.88361200	5.93626900
55.49999688	0.00000000	1.91314000	4.08464600
55.69999687	0.00000000	-3.49409400	3.70939900
55.89999686	0.00000000	-8.46456700	4.77977300
56.09999685	0.00000000	-11.16511000	6.31151500
56.29999683	0.00000000	-10.83907000	7.84940900
56.49999682	0.00000000	-8.55684000	8.96284400
56.69999681	0.00000000	-4.65059000	8.91978400
56.89999680	0.00000000	-0.09227362	7.38188900
57.09999679	0.00000000	3.77091500	4.68750000
57.29999677	0.00000000	5.72711600	1.66707700
57.49999676	0.00000000	5.77017700	-0.60285430
57.69999675	0.00000000	4.18922200	-0.97810030
57.89999674	0.00000000	1.11343500	0.55364170
58.09999673	0.00000000	-2.69439000	3.70939900
58.29999672	0.00000000	-5.81323800	8.31077700
58.49999670	0.00000000	-7.72637700	13.23819000
58.69999669	0.00000000	-8.08932000	16.35089000
58.89999668	0.00000000	-6.23154500	17.09523000
59.09999667	0.00000000	-3.58021600	15.50812000
59.29999666	0.00000000	-1.24877000	10.86983000
59.49999664	0.00000000	0.69512790	4.77977300
59.69999663	0.00000000	1.48868100	-1.06422200
59.89999662	0.00000000	1.53789400	-5.67175200
60.09999661	0.00000000	1.11343500	-7.89862200
60.29999660	0.00000000	-0.04306102	-6.32381900
60.49999658	0.00000000	-1.53789400	-0.97810030
60.69999657	0.00000000	-2.65132900	6.31766700
60.89999656	0.00000000	-2.69439000	13.65650000
61.09999655	0.00000000	-1.95620100	19.42052000
61.29999654	0.00000000	-1.20570900	22.10876000
61.49999653	0.00000000	-0.41830710	20.90305000
61.69999651	0.00000000	-0.04306102	15.92642000
61.89999650	0.00000000	-0.04306102	8.22465500
62.09999649	0.00000000	-0.46751960	0.17839570
62.29999648	0.00000000	-1.62401600	-6.40994000
62.49999647	0.00000000	-3.11884800	-9.84867000
62.69999645	0.00000000	-4.27534400	-9.52263600
62.89999644	0.00000000	-4.65059000	-5.62253900
63.09999643	0.00000000	-4.27534400	0.88582670
63.29999642	0.00000000	-3.11884800	8.58759800
63.49999641	0.00000000	-1.58095500	15.14518000
63.69999639	0.00000000	-0.04306102	19.46358000
63.89999638	0.00000000	1.11343500	20.95226000
64.09999637	0.00000000	1.48868100	19.04527000
64.29999636	0.00000000	1.11343500	14.07480000
64.49999635	0.00000000	-0.04306102	7.89247000
64.69999634	0.00000000	-1.58095500	1.66707700
64.89999632	0.00000000	-3.11884800	-3.67249000
65.09999631	0.00000000	-4.27534400	-6.40994000
65.29999630	0.00000000	-4.65059000	-6.09005900
65.49999629	0.00000000	-4.27534400	-3.80782500
65.69999628	0.00000000	-3.11884800	0.09227362
65.89999626	0.00000000	-1.58095500	4.73671200
66.09999625	0.00000000	-0.09227362	9.38115100
66.29999624	0.00000000	0.69512790	13.23819000
66.49999623	0.00000000	0.28297240	15.23130000
66.69999622	0.00000000	-0.79355310	15.64960000
66.89999620	0.00000000	-2.36835600	14.85605000
67.09999619	0.00000000	-3.44488200	12.58612000
67.29999618	0.00000000	-3.90625000	9.84867000
67.49999617	0.00000000	-3.44488200	7.05585600
67.69999616	0.00000000	-2.32529500	3.57406500
67.89999615	0.00000000	-0.37524600	0.51058070
68.09999613	0.00000000	1.53789400	-1.48868100
68.29999612	0.00000000	3.06963600	-2.64517700
68.49999611	0.00000000	3.77091500	-2.60211600
68.69999610	0.00000000	2.60826800	-1.07037400
68.89999609	0.00000000	-0.09227362	1.66707700
69.09999607	0.00000000	-3.58021600	5.19808000
69.29999606	0.00000000	-7.39419200	9.47342500
69.49999605	0.00000000	-10.04552000	13.65650000
69.69999604	0.00000000	-10.46998000	16.35089000
69.89999603	0.00000000	-8.93208600	16.76919000
70.09999601	0.00000000	-5.77017700	15.23130000
70.29999600	0.00000000	-1.16264800	12.07554000
70.49999599	0.00000000	3.85703700	7.42495000
70.69999598	0.00000000	7.67716500	2.08538400
70.89999597	0.00000000	9.62721400	-2.18380900
71.09999596	0.00000000	8.83981200	-4.50910400
71.29999594	0.00000000	5.77017700	-4.87819900
71.49999593	0.00000000	1.07037400	-2.55905500
71.69999592	0.00000000	-4.69980300	1.62401600
71.89999591	0.00000000	-10.04552000	6.26845500
72.09999590	0.00000000	-13.16437000	10.53765000
72.29999588	0.00000000	-13.58268000	13.60728000
72.49999587	0.00000000	-11.67569000	14.76993000
72.69999586	0.00000000	-7.76943800	13.65650000
72.89999585	0.00000000	-2.74360200	11.00517000
73.09999584	0.00000000	2.69439000	7.93553100
73.29999582	0.00000000	7.25885800	5.19808000
73.49999581	0.00000000	9.62721400	3.24803100
73.69999580	0.00000000	9.25812000	2.08538400
73.89999579	0.00000000	6.93282500	2.12844500
74.09999578	0.00000000	2.65132900	3.57406500
74.29999577	0.00000000	-2.69439000	5.47490100
74.49999575	0.00000000	-7.30807100	6.59448800
74.69999574	0.00000000	-10.04552000	7.00664300
74.89999573	0.00000000	-10.46998000	6.22539300
75.09999572	0.00000000	-8.93208600	4.77977300
75.29999571	0.00000000	-5.85629900	3.66633800
75.49999569	0.00000000	-2.04847400	3.66633800
75.69999568	0.00000000	1.07037400	4.82283400
75.89999567	0.00000000	3.02657500	6.77903500
76.09999566	0.00000000	3.81397600	9.47342500
76.29999565	0.00000000	3.06963600	12.11860000
76.49999563	0.00000000	1.58095500	13.65650000
76.69999562	0.00000000	0.04306102	13.61343000
76.89999561	0.00000000	-1.11343500	11.65723000
77.09999560	0.00000000	-1.53789400	7.80019600
77.29999559	0.00000000	-1.58095500	3.20497000
77.49999558	0.00000000	-1.58095500	-1.07037400
77.69999556	0.00000000	-1.58095500	-4.09079700
77.89999555	0.00000000	-1.62401600	-4.87819900
78.09999554	0.00000000	-2.04847400	-2.93430100
78.29999553	0.00000000	-3.16190900	0.87967510
78.49999552	0.00000000	-4.27534400	5.93626900
78.69999550	0.00000000	-4.65059000	10.95595000
78.89999549	0.00000000	-4.27534400	15.23130000
79.09999548	0.00000000	-3.06963600	17.88263000
79.29999547	0.00000000	-1.16264800	17.83957000
79.49999546	0.00000000	1.16264800	14.81299000
79.69999544	0.00000000	3.06963600	9.84867000
79.89999543	0.00000000	4.23228400	4.82898600
80.09999542	0.00000000	4.18922200	0.51058070
80.29999541	0.00000000	2.65132900	-2.60211600
80.49999540	0.00000000	-0.04306102	-4.14000900
80.69999539	0.00000000	-3.11884800	-3.71555100
80.89999537	0.00000000	-5.81323800	-1.02116100
81.09999536	0.00000000	-7.35113100	3.15575800
81.29999535	0.00000000	-7.39419200	7.43110200
81.49999534	0.00000000	-6.18848400	10.96211000
81.69999533	0.00000000	-3.90625000	13.65650000
81.89999531	0.00000000	-0.83661410	14.81299000
82.09999530	0.00000000	1.48868100	14.11786000
82.29999529	0.00000000	3.06963600	12.58612000
82.49999528	0.00000000	3.81397600	10.58686000
82.69999527	0.00000000	3.02657500	7.84940900
82.89999525	0.00000000	1.16264800	4.73671200
83.09999524	0.00000000	-1.16264800	1.66707700
83.29999523	0.00000000	-3.06963600	-0.64591530
83.49999522	0.00000000	-4.27534400	-1.43946800
83.69999521	0.00000000	-4.65059000	-1.11343500
83.89999520	0.00000000	-4.27534400	0.13533460
84.09999518	0.00000000	-3.16190900	2.46063000
84.29999517	0.00000000	-1.99926200	5.93626900
84.49999516	0.00000000	-1.20570900	9.42421200
84.69999515	0.00000000	-0.46751960	12.53691000
84.89999514	0.00000000	-0.41830710	14.81299000
85.09999512	0.00000000	-0.74434050	15.18824000
85.29999511	0.00000000	-0.37524600	13.65650000
85.49999510	0.00000000	-0.04306102	10.53765000
85.69999509	0.00000000	0.00000000	6.31151500
85.89999508	0.00000000	0.00000000	2.04232300
86.09999506	0.00000000	0.00000000	-1.44562000
86.29999505	0.00000000	-0.04306102	-3.71555100
86.49999504	0.00000000	-0.46751960	-3.67249000
86.69999503	0.00000000	-1.62401600	-1.02116100
86.89999502	0.00000000	-3.11884800	3.20497000
87.09999501	0.00000000	-4.27534400	7.84940900
87.29999499	0.00000000	-4.65059000	12.11860000
87.49999498	0.00000000	-4.27534400	15.18824000
87.69999497	0.00000000	-3.11884800	16.30167000
87.89999496	0.00000000	-1.58095500	14.72072000
88.09999495	0.00000000	-0.04306102	10.53765000
88.29999493	0.00000000	1.16264800	5.19808000
88.49999492	0.00000000	1.91314000	0.55364170
88.69999491	0.00000000	2.27608300	-2.55905500
88.89999490	0.00000000	1.44562000	-3.71555100
89.09999489	0.00000000	-0.37524600	-2.51599400
89.29999487	0.00000000	-2.32529500	0.97194880
89.49999486	0.00000000	-3.49409400	6.31151500
89.69999485	0.00000000	-4.27534400	11.65723000
89.89999484	0.00000000	-4.27534400	15.09596000
90.09999483	0.00000000	-3.53715500	15.97564000
90.29999482	0.00000000	-2.74360200	14.35777000
90.49999480	0.00000000	-1.58095500	10.90674000
90.69999479	0.00000000	-0.46751960	5.53026500
90.89999478	0.00000000	-0.04306102	0.59670270
91.09999477	0.00000000	0.00000000	-2.55905500
91.29999476	0.00000000	0.00000000	-3.67249000
91.49999474	0.00000000	-0.04306102	-2.09768700
91.69999473	0.00000000	-0.37524600	2.08538400
91.89999472	0.00000000	-0.74434050	7.42495000
92.09999471	0.00000000	-0.37524600	12.07554000
92.29999470	0.00000000	-0.04306102	15.14518000
92.49999468	0.00000000	-0.04306102	15.88336000
92.69999467	0.00000000	-0.41830710	13.61343000
92.89999466	0.00000000	-1.20570900	9.43036400
93.09999465	0.00000000	-1.95620100	4.77977300
93.29999464	0.00000000	-2.78666300	0.55364170
93.49999463	0.00000000	-3.53715500	-2.14074800
93.69999461	0.00000000	-4.27534400	-2.50984200
93.89999460	0.00000000	-4.18922200	-0.60285430
94.09999459	0.00000000	-2.69439000	3.24803100
94.29999458	0.00000000	-0.41830710	7.80019600
94.49999457	0.00000000	1.53789400	11.65723000
94.69999455	0.00000000	3.11884800	13.56422000
94.89999454	0.00000000	4.23228400	13.23819000
95.09999453	0.00000000	4.18922200	10.91289000
95.29999452	0.00000000	2.65132900	7.47416300
95.49999451	0.00000000	-0.04306102	3.62327700
95.69999449	0.00000000	-3.11884800	0.59670270
95.89999448	0.00000000	-5.85629900	-0.60285430
96.09999447	0.00000000	-7.76943800	0.13533460
96.29999446	0.00000000	-8.51377900	2.08538400
96.49999445	0.00000000	-7.35113100	5.15501900
96.69999444	0.00000000	-4.65059000	8.58759800
96.89999442	0.00000000	-1.16264800	10.86983000
97.09999441	0.00000000	2.69439000	11.70029000
97.29999440	0.00000000	5.77017700	10.91289000
97.49999439	0.00000000	7.35113100	9.05511800
97.69999438	0.00000000	7.30807100	6.72982200
97.89999436	0.00000000	5.39493100	4.82283400
98.09999435	0.00000000	1.91314000	3.62327700
98.29999434	0.00000000	-1.95620100	3.24803100
98.49999433	0.00000000	-5.85629900	3.62327700
98.69999432	0.00000000	-8.88902600	4.73671200
98.89999430	0.00000000	-10.04552000	5.89320800
99.09999429	0.00000000	-8.93208600	6.68676100
99.29999428	0.00000000	-6.28075700	7.47416300
99.49999427	0.00000000	-3.16190900	7.84940900
99.69999426	0.00000000	0.00000000	7.89247000
99.89999425	0.00000000	3.06963600	7.89247000
100.09999423	0.00000000	5.39493100	7.89247000
100.29999422	0.00000000	6.14542300	7.93553100
100.49999421	0.00000000	5.43799200	8.26771600
100.69999420	0.00000000	3.44488200	8.63681000
100.89999419	0.00000000	0.78740150	8.17544300
101.09999417	0.00000000	-2.36835600	7.05585600
101.29999416	0.00000000	-5.02583600	5.15501900
101.49999415	0.00000000	-7.01894700	3.62327700
101.69999414	0.00000000	-7.72637700	2.78051200
101.89999413	0.00000000	-7.01894700	2.04232300
102.09999411	0.00000000	-5.07504900	2.12844500
102.29999410	0.00000000	-2.78666300	3.66633800
102.49999409	0.00000000	-0.41830710	6.31151500
102.69999408	0.00000000	1.53789400	9.00590400
102.89999407	0.00000000	3.06963600	10.96211000
103.09999406	0.00000000	3.81397600	12.11860000
103.29999404	0.00000000	3.06963600	12.07554000
103.49999403	0.00000000	1.58095500	10.53765000
103.69999402	0.00000000	-0.04306102	7.84940900
103.89999401	0.00000000	-1.95620100	4.77977300
104.09999400	0.00000000	-3.90625000	2.04232300
104.29999398	0.00000000	-5.02583600	0.17839570
104.49999397	0.00000000	-5.43799200	-0.18454720
104.69999396	0.00000000	-4.60752900	1.71013800
104.89999395	0.00000000	-2.78666300	4.68750000
105.09999394	0.00000000	-0.83661410	7.43110200
105.29999392	0.00000000	0.33218500	9.38115100
105.49999391	0.00000000	1.16264800	10.58686000
105.69999390	0.00000000	1.48868100	10.91289000
105.89999389	0.00000000	1.11343500	10.11934000
106.09999388	0.00000000	-0.04306102	7.84940900
106.29999387	0.00000000	-1.53789400	5.19808000
106.49999385	0.00000000	-2.69439000	3.24803100
106.69999384	0.00000000	-3.11884800	2.08538400
106.89999383	0.00000000	-3.11884800	2.08538400
107.09999382	0.00000000	-2.69439000	3.19881900
107.29999381	0.00000000	-1.58095500	4.77977300
107.49999379	0.00000000	-0.41830710	6.68676100
107.69999378	0.00000000	0.37524600	8.58759800
107.89999377	0.00000000	1.07037400	9.33809000
108.09999376	0.00000000	0.69512790	9.00590400
108.29999375	0.00000000	-0.78740150	7.84940900
108.49999374	0.00000000	-1.91314000	6.31151500
108.69999372	0.00000000	-2.74360200	4.77977300
108.89999371	0.00000000	-3.11884800	3.62327700
109.09999370	0.00000000	-3.16190900	3.24803100
109.29999369	0.00000000	-3.11884800	3.62327700
109.49999368	0.00000000	-2.69439000	4.82283400
109.69999366	0.00000000	-1.58095500	6.68676100
109.89999365	0.00000000	-0.46751960	8.63681000
110.09999364	0.00000000	0.00000000	9.75639700
110.29999363	0.00000000	0.37524600	10.16855000
110.49999362	0.00000000	0.69512790	9.38115100
110.69999360	0.00000000	-0.04306102	7.89247000
110.89999359	0.00000000	-1.16264800	6.31151500
111.09999358	0.00000000	-1.95620100	4.77977300
111.29999357	0.00000000	-2.74360200	3.62327700
111.49999356	0.00000000	-3.06963600	3.24803100
111.69999355	0.00000000	-2.74360200	3.57406500
111.89999353	0.00000000	-1.99926200	4.36146600
112.09999352	0.00000000	-1.58095500	5.15501900
112.29999351	0.00000000	-1.16264800	6.31151500
112.49999350	0.00000000	-0.41830710	7.42495000
112.69999349	0.00000000	-0.04306102	7.84940900
112.89999347	0.00000000	0.00000000	7.89247000
113.09999346	0.00000000	-0.04306102	7.84940900
113.29999345	0.00000000	-0.41830710	7.47416300
113.49999344	0.00000000	-1.16264800	6.72982200
113.69999343	0.00000000	-1.53789400	6.35457700
113.89999341	0.00000000	-1.58095500	6.26845500
114.09999340	0.00000000	-1.58095500	5.89320800
114.29999339	0.00000000	-1.58095500	5.15501900
114.49999338	0.00000000	-1.58095500	4.77977300
114.69999337	0.00000000	-1.58095500	4.73671200
114.89999336	0.00000000	-1.53789400	4.73671200
115.09999334	0.00000000	-1.20570900	4.73671200
115.29999333	0.00000000	-0.83661410	4.77977300
115.49999332	0.00000000	-1.16264800	5.15501900
115.69999331	0.00000000	-1.11343500	5.89320800
115.89999330	0.00000000	-0.46751960	6.31151500
116.09999328	0.00000000	-0.46751960	6.72982200
116.29999327	0.00000000	-1.16264800	7.51722400
116.49999326	0.00000000	-1.53789400	8.22465500
116.69999325	0.00000000	-1.62401600	8.63681000
116.89999324	0.00000000	-1.95620100	8.22465500
117.09999322	0.00000000	-2.32529500	7.47416300
117.29999321	0.00000000	-1.91314000	6.31151500
117.49999320	0.00000000	-1.20570900	5.19808000
117.69999319	0.00000000	-0.41830710	4.73671200
117.89999318	0.00000000	-0.04306102	4.36146600
118.09999317	0.00000000	0.00000000	3.99237200
118.29999315	0.00000000	0.00000000	4.36146600
118.49999314	0.00000000	-0.04306102	4.73671200
118.69999313	0.00000000	-0.46751960	5.19808000
118.89999312	0.00000000	-1.58095500	6.31151500
119.09999311	0.00000000	-2.74360200	7.42495000
119.29999309	0.00000000	-3.53715500	7.84940900
119.49999308	0.00000000	-4.27534400	7.89247000
119.69999307	0.00000000	-4.23228400	7.89247000
119.89999306	0.00000000	-3.11884800	7.84940900
120.09999305	0.00000000	-1.58095500	7.47416300
120.29999303	0.00000000	-0.04306102	6.72982200
120.49999302	0.00000000	1.11343500	6.31151500
120.69999301	0.00000000	1.53789400	5.89320800
120.89999300	0.00000000	1.53789400	5.15501900
121.09999299	0.00000000	1.16264800	4.77977300
121.29999298	0.00000000	0.37524600	4.73671200
121.49999296	0.00000000	-0.41830710	4.73671200
121.69999295	0.00000000	-1.58095500	4.77977300
121.89999294	0.00000000	-2.74360200	5.15501900
122.09999293	0.00000000	-3.53715500	5.89320800
122.29999292	0.00000000	-4.27534400	6.31151500
122.49999290	0.00000000	-4.23228400	6.72982200
122.69999289	0.00000000	-3.11884800	7.47416300
122.89999288	0.00000000	-1.62401600	7.84940900
123.09999287	0.00000000	-0.41830710	7.89247000
123.29999286	0.00000000	0.37524600	7.84940900
123.49999284	0.00000000	1.16264800	7.47416300
123.69999283	0.00000000	1.48868100	6.68676100
123.89999282	0.00000000	1.16264800	5.93626900
124.09999281	0.00000000	0.37524600	5.15501900
124.29999280	0.00000000	-0.37524600	4.77977300
124.49999279	0.00000000	-1.20570900	4.77977300
124.69999277	0.00000000	-1.95620100	5.15501900
124.89999276	0.00000000	-2.74360200	5.89320800
125.09999275	0.00000000	-3.11884800	6.26845500
125.29999274	0.00000000	-3.16190900	6.35457700
125.49999273	0.00000000	-3.11884800	6.72982200
125.69999271	0.00000000	-2.69439000	7.47416300
125.89999270	0.00000000	-1.58095500	7.84940900
126.09999269	0.00000000	-0.46751960	7.89247000
126.29999268	0.00000000	0.00000000	7.84940900
126.49999267	0.00000000	0.41830710	7.47416300
126.69999265	0.00000000	1.11343500	6.72982200
126.89999264	0.00000000	1.11343500	6.31151500
127.09999263	0.00000000	0.37524600	5.89320800
127.29999262	0.00000000	-0.41830710	5.15501900
127.49999261	0.00000000	-1.58095500	4.77977300
127.69999260	0.00000000	-2.69439000	4.77977300
127.89999258	0.00000000	-3.11884800	5.15501900
128.09999257	0.00000000	-3.11884800	5.89320800
128.29999256	0.00000000	-2.74360200	6.26845500
128.49999255	0.00000000	-1.91314000	6.35457700
128.69999254	0.00000000	-0.78740150	6.68676100
128.89999252	0.00000000	0.74434050	7.05585600
129.09999251	0.00000000	1.44562000	6.68676100
129.29999250	0.00000000	1.16264800	6.35457700
129.49999249	0.00000000	0.37524600	6.31151500
129.69999248	0.00000000	-0.41830710	6.26845500
129.89999246	0.00000000	-1.58095500	5.93626900
130.09999245	0.00000000	-2.69439000	5.57332700
130.29999244	0.00000000	-3.11884800	5.93626900
130.49999243	0.00000000	-3.11884800	6.26845500
130.69999242	0.00000000	-2.74360200	6.31151500
130.89999241	0.00000000	-1.95620100	6.35457700
131.09999239	0.00000000	-1.20570900	6.68676100
131.29999238	0.00000000	-0.41830710	7.05585600
131.49999237	0.00000000	-0.04306102	6.68676100
131.69999236	0.00000000	0.00000000	6.35457700
131.89999235	0.00000000	-0.04306102	6.26845500
132.09999233	0.00000000	-0.41830710	5.89320800
132.29999232	0.00000000	-1.16264800	5.15501900
132.49999231	0.00000000	-1.53789400	4.82898600
132.69999230	0.00000000	-1.58095500	5.15501900
132.89999229	0.00000000	-1.58095500	5.89320800
133.09999227	0.00000000	-1.58095500	6.31151500
133.29999226	0.00000000	-1.58095500	6.72982200
133.49999225	0.00000000	-1.58095500	7.47416300
133.69999224	0.00000000	-1.58095500	7.84940900
133.89999223	0.00000000	-1.58095500	7.84940900
134.09999222	0.00000000	-1.58095500	7.47416300
134.29999220	0.00000000	-1.58095500	6.68676100
134.49999219	0.00000000	-1.58095500	5.93626900
134.69999218	0.00000000	-1.53789400	5.15501900
134.89999217	0.00000000	-1.16264800	4.77977300
135.09999216	0.00000000	-0.41830710	4.73671200
135.29999214	0.00000000	-0.04306102	4.73671200
135.49999213	0.00000000	0.00000000	4.77977300
135.69999212	0.00000000	-0.04306102	5.15501900
135.89999211	0.00000000	-0.41830710	5.93626900
136.09999210	0.00000000	-1.16264800	6.68676100
136.29999208	0.00000000	-1.53789400	7.47416300
136.49999207	0.00000000	-1.58095500	7.84940900
136.69999206	0.00000000	-1.58095500	7.89247000
136.89999205	0.00000000	-1.58095500	7.84940900
137.09999204	0.00000000	-1.53789400	7.42495000
137.29999203	0.00000000	-1.16264800	6.31151500
137.49999201	0.00000000	-0.41830710	5.19808000
137.69999200	0.00000000	0.00000000	4.77977300
137.89999199	0.00000000	0.37524600	4.73671200
138.09999198	0.00000000	0.74434050	4.73671200
138.29999197	0.00000000	0.33218500	4.73671200
138.49999195	0.00000000	-0.37524600	4.77977300
138.69999194	0.00000000	-1.20570900	5.15501900
138.89999193	0.00000000	-1.95620100	5.93626900
139.09999192	0.00000000	-2.69439000	6.68676100
139.29999191	0.00000000	-2.69439000	7.47416300
139.49999189	0.00000000	-1.99926200	7.84940900
139.69999188	0.00000000	-1.58095500	7.89247000
139.89999187	0.00000000	-1.16264800	7.84940900
140.09999186	0.00000000	-0.41830710	7.47416300
140.29999185	0.00000000	-0.04306102	6.68676100
140.49999184	0.00000000	0.00000000	5.93626900
140.69999182	0.00000000	-0.04306102	5.15501900
140.89999181	0.00000000	-0.41830710	4.77977300
141.09999180	0.00000000	-1.16264800	4.73671200
141.29999179	0.00000000	-1.53789400	4.77977300
141.49999178	0.00000000	-1.58095500	5.15501900
141.69999176	0.00000000	-1.58095500	5.93626900
141.89999175	0.00000000	-1.53789400	6.68676100
142.09999174	0.00000000	-1.16264800	7.47416300
142.29999173	0.00000000	-0.46751960	7.84940900
142.49999172	0.00000000	-0.41830710	7.89247000
142.69999170	0.00000000	-0.74434050	7.84940900
142.89999169	0.00000000	-0.41830710	7.42495000
143.09999168	0.00000000	-0.46751960	6.31151500
143.29999167	0.00000000	-1.16264800	5.19808000
143.49999166	0.00000000	-1.53789400	4.77977300
143.69999165	0.00000000	-1.58095500	4.73671200
143.89999163	0.00000000	-1.58095500	4.73671200
144.09999162	0.00000000	-1.53789400	4.77977300
144.29999161	0.00000000	-1.16264800	5.15501900
144.49999160	0.00000000	-0.41830710	5.93626900
144.69999159	0.00000000	-0.04306102	6.68676100
144.89999157	0.00000000	0.00000000	7.47416300
145.09999156	0.00000000	0.00000000	7.80019600
145.29999155	0.00000000	-0.04306102	7.51722400
145.49999154	0.00000000	-0.41830710	7.10506800
145.69999153	0.00000000	-1.16264800	7.05585600
145.89999151	0.00000000	-1.53789400	6.26845500
146.09999150	0.00000000	-1.58095500	5.19808000
146.29999149	0.00000000	-1.58095500	4.77977300
146.49999148	0.00000000	-1.58095500	4.73671200
146.69999147	0.00000000	-1.53789400	4.77977300
146.89999146	0.00000000	-1.16264800	5.15501900
147.09999144	0.00000000	-0.41830710	5.89320800
147.29999143	0.00000000	-0.04306102	6.31151500
147.49999142	0.00000000	0.00000000	6.72982200
147.69999141	0.00000000	-0.04306102	7.47416300
147.89999140	0.00000000	-0.41830710	7.80019600
148.09999138	0.00000000	-1.20570900	7.47416300
148.29999137	0.00000000	-1.91314000	6.72982200
148.49999136	0.00000000	-2.32529500	6.35457700
148.69999135	0.00000000	-1.99926200	6.26845500
148.89999134	0.00000000	-1.95620100	5.89320800
149.09999132	0.00000000	-1.90083600	5.15501900
149.29999131	0.00000000	-0.79355310	4.82898600
149.49999130	0.00000000	-0.09227362	5.15501900
149.69999129	0.00000000	0.00000000	5.89320800
149.89999128	0.00000000	0.00000000	6.26845500
150.09999127	0.00000000	0.00000000	6.31151500
150.29999125	0.00000000	0.00000000	6.35457700
150.49999124	0.00000000	-0.04306102	6.72982200
150.69999123	0.00000000	-0.41830710	7.42495000
150.89999122	0.00000000	-1.16264800	7.42495000
151.09999121	0.00000000	-1.53789400	6.72982200
151.29999119	0.00000000	-1.58095500	6.35457700
151.49999118	0.00000000	-1.58095500	6.31151500
151.69999117	0.00000000	-1.58095500	6.31151500
151.89999116	0.00000000	-1.58095500	6.31151500
152.09999115	0.00000000	-1.53789400	6.31151500
152.29999113	0.00000000	-1.16264800	6.31151500
152.49999112	0.00000000	-0.41830710	6.31151500
152.69999111	0.00000000	-0.04306102	6.31151500
152.89999110	0.00000000	0.00000000	6.31151500
153.09999109	0.00000000	0.00000000	6.31151500
153.29999108	0.00000000	0.00000000	6.31151500
153.49999106	0.00000000	-0.04306102	6.31151500
153.69999105	0.00000000	-0.41830710	6.31151500
153.89999104	0.00000000	-1.16264800	6.31151500
154.09999103	0.00000000	-1.58095500	6.31151500
154.29999102	0.00000000	-1.95620100	6.31151500
154.49999100	0.00000000	-2.32529500	6.31151500
154.69999099	0.00000000	-1.95620100	6.31151500
154.89999098	0.00000000	-1.58095500	6.31151500
155.09999097	0.00000000	-1.16264800	6.31151500
155.29999096	0.00000000	-0.41830710	6.31151500
155.49999094	0.00000000	-0.04306102	6.31151500
155.69999093	0.00000000	0.00000000	6.31151500
155.89999092	0.00000000	0.00000000	6.31151500
156.09999091	0.00000000	0.00000000	6.31151500
156.29999090	0.00000000	-0.04306102	6.31151500
156.49999089	0.00000000	-0.41830710	6.31151500
156.69999087	0.00000000	-1.16264800	6.35457700
156.89999086	0.00000000	-1.53789400	6.72982200
157.09999085	0.00000000	-1.58095500	7.47416300
157.29999084	0.00000000	-1.58095500	7.80019600
157.49999083	0.00000000	-1.58095500	7.47416300
157.69999081	0.00000000	-1.58095500	6.72982200
157.89999080	0.00000000	-1.53789400	6.35457700
158.09999079	0.00000000	-1.16264800	6.26845500
158.29999078	0.00000000	-0.41830710	5.89320800
158.49999077	0.00000000	-0.04306102	5.15501900
158.69999075	0.00000000	0.00000000	4.82898600
158.89999074	0.00000000	0.00000000	5.15501900
159.09999073	0.00000000	-0.04306102	5.89320800
159.29999072	0.00000000	-0.41830710	6.31151500
159.49999071	0.00000000	-1.16264800	6.72982200
159.69999070	0.00000000	-1.53789400	7.47416300
159.89999068	0.00000000	-1.58095500	7.84940900
160.09999067	0.00000000	-1.58095500	7.84940900
160.29999066	0.00000000	-1.58095500	7.47416300
160.49999065	0.00000000	-1.58095500	6.72982200
160.69999064	0.00000000	-1.58095500	6.35457700
160.89999062	0.00000000	-1.58095500	6.31151500
161.09999061	0.00000000	-1.53789400	6.31151500
161.29999060	0.00000000	-1.16264800	6.26845500
161.49999059	0.00000000	-0.41830710	5.93626900
161.69999058	0.00000000	-0.04306102	5.57332700
161.89999056	0.00000000	0.00000000	5.93626900
162.09999055	0.00000000	0.00000000	6.26845500
162.29999054	0.00000000	0.00000000	6.35457700
162.49999053	0.00000000	0.00000000	6.72982200
162.69999052	0.00000000	-0.04306102	7.42495000
162.89999051	0.00000000	-0.41830710	7.42495000
163.09999049	0.00000000	-1.16264800	6.72982200
163.29999048	0.00000000	-1.53789400	6.35457700
163.49999047	0.00000000	-1.58095500	6.31151500
163.69999046	0.00000000	-1.58095500	6.31151500
163.89999045	0.00000000	-1.58095500	6.31151500
164.09999043	0.00000000	-1.58095500	6.31151500
164.29999042	0.00000000	-1.53789400	6.31151500
164.49999041	0.00000000	-1.16264800	6.31151500
164.69999040	0.00000000	-0.41830710	6.31151500
164.89999039	0.00000000	-0.04306102	6.31151500
165.09999037	0.00000000	0.00000000	6.31151500
165.29999036	0.00000000	0.00000000	6.31151500
165.49999035	0.00000000	0.00000000	6.31151500
165.69999034	0.00000000	-0.04306102	6.31151500
165.89999033	0.00000000	-0.41830710	6.35457700
166.09999032	0.00000000	-1.16264800	6.72982200
166.29999030	0.00000000	-1.53789400	7.42495000
166.49999029	0.00000000	-1.58095500	7.42495000
166.69999028	0.00000000	-1.58095500	6.72982200
166.89999027	0.00000000	-1.58095500	6.35457700
167.09999026	0.00000000	-1.58095500	6.26845500
167.29999024	0.00000000	-1.53789400	5.93626900
167.49999023	0.00000000	-1.16264800	5.57332700
167.69999022	0.00000000	-0.41830710	5.93626900
167.89999021	0.00000000	-0.04306102	6.26845500
168.09999020	0.00000000	0.00000000	6.31151500
168.29999018	0.00000000	0.00000000	6.31151500
168.49999017	0.00000000	-0.04306102	6.31151500
168.69999016	0.00000000	-0.37524600	6.31151500
168.89999015	0.00000000	-0.78740150	6.31151500
169.09999014	0.00000000	-0.79355310	6.31151500
169.29999013	0.00000000	-1.20570900	6.31151500
169.49999011	0.00000000	-1.53789400	6.26845500
169.69999010	0.00000000	-1.53789400	5.98548200
169.89999009	0.00000000	-1.20570900	5.94857300
170.09999008	0.00000000	-0.83661410	6.68061000
170.29999007	0.00000000	-1.20570900	6.64370100
170.49999005	0.00000000	-1.48868100	6.35457700
170.69999004	0.00000000	-1.16264800	6.31151500
170.89999003	0.00000000	-0.41830710	6.31151500
171.09999002	0.00000000	-0.04306102	6.31151500
171.29999001	0.00000000	0.00000000	6.31151500
171.49998999	0.00000000	0.00000000	6.31151500
171.69998998	0.00000000	0.00000000	6.31151500
171.89998997	0.00000000	-0.04306102	6.31151500
172.09998996	0.00000000	-0.37524600	6.31151500
172.29998995	0.00000000	-0.74434050	6.31151500
172.49998994	0.00000000	-0.41830710	6.31151500
172.69998992	0.00000000	-0.46751960	6.31151500
172.89998991	0.00000000	-1.16264800	6.31151500
173.09998990	0.00000000	-1.53789400	6.31151500
173.29998989	0.00000000	-1.53789400	6.31151500
173.49998988	0.00000000	-1.16264800	6.31151500
173.69998986	0.00000000	-0.41830710	6.31151500
173.89998985	0.00000000	-0.04306102	6.31151500
174.09998984	0.00000000	0.00000000	6.31151500
174.29998983	0.00000000	0.00000000	6.31151500
174.49998982	0.00000000	0.00000000	6.31151500
174.69998980	0.00000000	0.00000000	6.31151500
174.89998979	0.00000000	-0.04306102	6.31151500
175.09998978	0.00000000	-0.41830710	6.31151500
175.29998977	0.00000000	-1.16264800	6.31151500
175.49998976	0.00000000	-1.53789400	6.31151500
175.69998975	0.00000000	-1.58095500	6.31151500
175.89998973	0.00000000	-1.53789400	6.31151500
176.09998972	0.00000000	-1.16264800	6.31151500
176.29998971	0.00000000	-0.41830710	6.31151500
176.49998970	0.00000000	-0.04306102	6.31151500
176.69998969	0.00000000	0.00000000	6.31151500
176.89998967	0.00000000	-0.04306102	6.31151500
177.09998966	0.00000000	-0.41830710	6.31151500
177.29998965	0.00000000	-1.11343500	6.31151500
177.49998964	0.00000000	-1.16264800	6.31151500
177.69998963	0.00000000	-0.83661410	6.31151500
177.89998961	0.00000000	-1.16264800	6.31151500
178.09998960	0.00000000	-1.16264800	6.31151500
178.29998959	0.00000000	-0.79355310	6.31151500
178.49998958	0.00000000	-0.83046260	6.31151500
178.69998957	0.00000000	-0.75049200	6.31151500
178.89998956	0.00000000	-0.83046260	6.31151500
179.09998954	0.00000000	-0.75049200	6.31151500
179.29998953	0.00000000	-0.78740150	6.31151500
179.49998952	0.00000000	-0.37524600	6.31151500
179.69998951	0.00000000	-0.04306102	6.31151500
179.89998950	0.00000000	-0.04306102	6.31151500
180.09998948	0.00000000	-0.37524600	6.31151500
180.29998947	0.00000000	-0.74434050	6.31151500
180.49998946	0.00000000	-0.37524600	6.31151500
180.69998945	0.00000000	-0.04306102	6.35457700
180.89998944	0.00000000	-0.04306102	6.68676100
181.09998942	0.00000000	-0.37524600	7.05585600
181.29998941	0.00000000	-0.74434050	6.68676100
181.49998940	0.00000000	-0.41830710	6.35457700
181.69998939	0.00000000	-0.41830710	6.31151500
181.89998938	0.00000000	-0.78740150	6.31151500
182.09998937	0.00000000	-0.75049200	6.31151500
182.29998935	0.00000000	-0.78740150	6.31151500
182.49998934	0.00000000	-0.37524600	6.31151500
182.69998933	0.00000000	-0.04306102	6.31151500
182.89998932	0.00000000	0.00000000	6.31151500
183.09998931	0.00000000	0.00000000	6.31151500
183.29998929	0.00000000	0.00000000	6.31151500
183.49998928	0.00000000	0.00000000	6.31151500
183.69998927	0.00000000	-0.04306102	6.31151500
183.89998926	0.00000000	-0.41830710	6.31151500
184.09998925	0.00000000	-1.16264800	6.31151500
184.29998923	0.00000000	-1.53789400	6.31151500
184.49998922	0.00000000	-1.58095500	6.31151500
184.69998921	0.00000000	-1.53789400	6.31151500
184.89998920	0.00000000	-1.16264800	6.31151500
185.09998919	0.00000000	-0.41830710	6.31151500
185.29998918	0.00000000	-0.04306102	6.31151500
185.49998916	0.00000000	0.00000000	6.31151500
185.69998915	0.00000000	0.00000000	6.31151500
185.89998914	0.00000000	0.00000000	6.26845500
186.09998913	0.00000000	0.00000000	5.89320800
186.29998912	0.00000000	0.00000000	5.19808000
186.49998910	0.00000000	0.00000000	5.19808000
186.69998909	0.00000000	-0.04306102	5.89320800
186.89998908	0.00000000	-0.37524600	6.26845500
187.09998907	0.00000000	-0.78740150	6.31151500
187.29998906	0.00000000	-0.79355310	6.35457700
187.49998904	0.00000000	-1.20570900	6.72982200
187.69998903	0.00000000	-1.53789400	7.47416300
187.89998902	0.00000000	-1.58095500	7.80019600
188.09998901	0.00000000	-1.53789400	7.47416300
188.29998900	0.00000000	-1.16264800	6.72982200
188.49998899	0.00000000	-0.41830710	6.35457700
188.69998897	0.00000000	-0.04306102	6.31151500
188.89998896	0.00000000	0.00000000	6.31151500
189.09998895	0.00000000	0.00000000	6.26845500
189.29998894	0.00000000	0.00000000	5.93626900
189.49998893	0.00000000	0.00000000	5.57332700
189.69998891	0.00000000	0.00000000	5.93626900
189.89998890	0.00000000	-0.04306102	6.26845500
190.09998889	0.00000000	-0.41830710	6.31151500
190.29998888	0.00000000	-1.16264800	6.31151500
190.49998887	0.00000000	-1.53789400	6.31151500
190.69998885	0.00000000	-1.53789400	6.31151500
190.89998884	0.00000000	-1.16264800	6.31151500
191.09998883	0.00000000	-0.41830710	6.31151500
191.29998882	0.00000000	-0.04306102	6.31151500
191.49998881	0.00000000	0.00000000	6.31151500
191.69998880	0.00000000	0.00000000	6.31151500
191.89998878	0.00000000	0.00000000	6.31151500
192.09998877	0.00000000	0.00000000	6.31151500
192.29998876	0.00000000	-0.04306102	6.31151500
192.49998875	0.00000000	-0.37524600	6.31151500
192.69998874	0.00000000	-0.78740150	6.31151500
192.89998872	0.00000000	-0.79355310	6.31151500
193.09998871	0.00000000	-1.20570900	6.31151500
193.29998870	0.00000000	-1.53789400	6.31151500
193.49998869	0.00000000	-1.58095500	6.31151500
193.69998868	0.00000000	-1.53789400	6.31151500
193.89998866	0.00000000	-1.16264800	6.31151500
194.09998865	0.00000000	-0.41830710	6.31151500
194.29998864	0.00000000	-0.09227362	6.31151500
194.49998863	0.00000000	-0.37524600	6.31151500
194.69998862	0.00000000	-0.74434050	6.31151500
194.89998861	0.00000000	-0.37524600	6.31151500
195.09998859	0.00000000	-0.04306102	6.31151500
195.29998858	0.00000000	0.00000000	6.31151500
195.49998857	0.00000000	0.00000000	6.31151500
195.69998856	0.00000000	-0.04306102	6.31151500
195.89998855	0.00000000	-0.37524600	6.31151500
196.09998853	0.00000000	-0.78740150	6.31151500
