Time	Channel A	Channel B
(us)	(V)	(mV)

-4.49999956	0.00000000	8.65526600
-4.29999957	0.00000000	8.65526600
-4.09999958	0.00000000	8.65526600
-3.89999959	0.00000000	8.65526600
-3.69999960	0.00000000	8.65526600
-3.49999962	0.00000000	8.65526600
-3.29999963	0.00000000	8.65526600
-3.09999964	0.00000000	8.65526600
-2.89999965	0.00000000	8.65526600
-2.69999966	0.00000000	8.65526600
-2.49999968	0.00000000	8.65526600
-2.29999969	0.00000000	8.65526600
-2.09999970	0.00000000	8.65526600
-1.89999971	0.00000000	8.65526600
-1.69999972	0.00000000	8.65526600
-1.49999973	0.00000000	8.65526600
-1.29999975	0.00000000	8.65526600
-1.09999976	0.00000000	8.65526600
-0.89999977	0.00000000	8.65526600
-0.69999978	0.00000000	8.65526600
-0.49999979	0.17531990	8.65526600
-0.29999981	0.52657480	8.65526600
-0.09999982	0.70250980	8.65526600
0.10000017	1.05376500	8.65526600
0.30000016	1.05376500	8.65526600
0.50000015	0.52657480	8.65526600
0.70000013	0.00000000	8.65526600
0.90000012	-1.05376500	8.65526600
1.10000011	-1.93282500	8.65526600
1.30000010	-2.63533500	8.65526600
1.50000009	-2.63533500	8.65526600
1.70000008	-1.93282500	8.65526600
1.90000006	-0.35125490	8.65526600
2.10000005	1.75689000	8.65526600
2.30000004	3.68971500	8.65526600
2.50000003	5.09534900	8.60605200
2.70000002	5.27128500	8.19389700
2.90000000	4.04096900	7.38804100
3.09999999	1.40563500	7.02509800
3.29999998	-1.93282500	7.38804100
3.49999997	-5.27128500	8.19389700
3.69999996	-7.37942900	8.60605200
3.89999994	-7.90661900	8.70447700
4.09999993	-6.32566500	9.06742000
4.29999992	-2.98659000	9.46727400
4.49999991	1.40563500	9.06742000
4.69999990	5.62254000	8.70447700
4.89999989	8.60974400	8.60605200
5.09999987	9.48818900	8.19389700
5.29999986	7.90661900	7.38804100
5.49999985	4.39283900	7.02509800
5.69999984	-0.17531990	7.38804100
5.89999983	-4.91941500	8.19389700
6.09999981	-8.25849000	8.60605200
6.29999980	-9.48818900	8.65526600
6.49999979	-8.25849000	8.70447700
6.69999978	-5.27128500	9.06742000
6.89999977	-1.05376500	9.46727400
7.09999975	3.33846000	9.06742000
7.29999974	6.50098400	8.65526600
7.49999973	7.73129900	8.19389700
7.69999972	7.02817400	7.43725300
7.89999971	4.74409400	7.43725300
8.09999970	1.40563500	8.19389700
8.29999968	-1.75689000	8.60605200
8.49999967	-4.04096900	8.65526600
8.69999966	-5.09534900	8.65526600
8.89999965	-4.74409400	8.65526600
9.09999964	-3.33846000	8.65526600
9.29999962	-1.40563500	8.65526600
9.49999961	0.52657480	8.65526600
9.69999960	1.93282500	8.65526600
9.89999959	2.45940000	8.65526600
10.09999958	2.28408000	8.65526600
10.29999956	1.58095500	8.65526600
10.49999955	0.70250980	8.65526600
10.69999954	-0.17531990	8.65526600
10.89999953	-0.70250980	8.65526600
11.09999952	-0.87844490	8.65526600
11.29999951	-0.87844490	8.65526600
11.49999949	-0.70250980	8.60605200
11.69999948	-0.35125490	8.24311000
11.89999947	0.00000000	7.84325700
12.09999946	0.00000000	8.24311000
12.29999945	0.00000000	8.60605200
12.49999943	0.00000000	8.65526600
12.69999942	-0.17531990	8.65526600
12.89999941	-0.17531990	8.65526600
13.09999940	0.00000000	8.65526600
13.29999939	0.00000000	8.65526600
13.49999937	0.00000000	8.65526600
13.69999936	0.00000000	8.65526600
13.89999935	0.00000000	8.65526600
14.09999934	0.00000000	8.65526600
14.29999933	0.00000000	8.65526600
14.49999932	0.00000000	8.65526600
14.69999930	0.00000000	8.65526600
14.89999929	0.00000000	8.70447700
15.09999928	0.00000000	9.06742000
15.29999927	0.00000000	9.46727400
15.49999926	0.00000000	9.06742000
15.69999924	0.00000000	8.70447700
15.89999923	0.00000000	8.65526600
16.09999922	0.00000000	8.65526600
16.29999921	0.00000000	8.65526600
16.49999920	0.00000000	8.65526600
16.69999919	0.00000000	8.65526600
16.89999917	0.00000000	8.65526600
17.09999916	0.00000000	8.65526600
17.29999915	0.00000000	8.65526600
17.49999914	0.00000000	8.65526600
17.69999913	0.00000000	8.65526600
17.89999911	0.00000000	8.65526600
18.09999910	0.00000000	8.60605200
18.29999909	0.00000000	8.24311000
18.49999908	0.00000000	7.84325700
18.69999907	0.00000000	8.24311000
18.89999905	0.00000000	8.60605200
19.09999904	0.00000000	8.65526600
19.29999903	0.00000000	8.65526600
19.49999902	0.00000000	8.65526600
19.69999901	0.00000000	8.65526600
19.89999900	0.00000000	8.65526600
20.09999898	0.00000000	8.65526600
20.29999897	0.00000000	8.65526600
20.49999896	0.00000000	8.65526600
20.69999895	0.00000000	8.65526600
20.89999894	0.00000000	8.65526600
21.09999892	0.00000000	8.65526600
21.29999891	0.00000000	8.65526600
21.49999890	0.00000000	8.65526600
21.69999889	0.00000000	8.65526600
21.89999888	0.00000000	8.65526600
22.09999886	0.00000000	8.65526600
22.29999885	0.00000000	8.65526600
22.49999884	0.00000000	8.65526600
22.69999883	0.00000000	8.60605200
22.89999882	0.00000000	8.19389700
23.09999881	0.00000000	7.38804100
23.29999879	0.00000000	6.97588500
23.49999878	0.00000000	6.92667200
23.69999877	0.00000000	6.92667200
23.89999876	0.00000000	6.97588500
24.09999875	0.00000000	7.38804100
24.29999873	0.00000000	8.24311000
24.49999872	0.00000000	9.11663300
24.69999871	0.00000000	10.39001000
24.89999870	0.00000000	11.60802000
25.09999869	0.00000000	12.02018000
25.29999867	0.00000000	11.60802000
25.49999866	0.00000000	10.29158000
25.69999865	0.00000000	8.14468500
25.89999864	0.00000000	5.19192900
26.09999863	0.00000000	2.23917300
26.29999862	0.00000000	0.14763780
26.49999860	0.00000000	-0.66437010
26.69999859	0.00000000	0.70743110
26.89999858	0.00000000	4.52755900
27.09999857	0.00000000	10.43922000
27.29999856	0.00000000	16.75689000
27.49999854	0.00000000	21.89960000
27.69999853	0.00000000	25.21530000
27.89999852	0.00000000	25.52288000
28.09999851	0.00000000	21.19833000
28.29999850	0.00000000	12.73376000
28.49999848	0.00000000	1.72859200
28.69999847	0.00000000	-9.22736200
28.89999846	0.00000000	-17.22441000
29.09999845	0.00000000	-20.12795000
29.29999844	0.00000000	-16.66462000
29.49999843	0.00000000	-6.78518600
29.69999841	0.00000000	8.40305000
29.89999840	0.00000000	25.67052000
30.09999839	0.00000000	39.59153000
30.29999838	0.00000000	47.23179000
30.49999837	0.00000000	46.67815000
30.69999835	0.00000000	36.89099000
30.89999834	0.00000000	19.51895000
31.09999833	0.00000000	-1.63016700
31.29999832	0.00000000	-21.96112000
31.49999831	0.00000000	-36.69414000
31.69999829	0.00000000	-42.09522000
31.89999828	0.00000000	-35.72834000
32.09999827	0.00000000	-18.81152000
32.29999826	0.00000000	4.52755900
32.49999825	0.00000000	29.95817000
32.69999824	0.00000000	51.82086000
32.89999822	0.00000000	64.04404000
33.09999821	0.00000000	63.23819000
33.29999820	0.00000000	50.13533000
33.49999819	0.00000000	27.61442000
33.69999818	0.00000000	0.09842519
33.89999816	0.00000000	-26.50098000
34.09999815	0.00000000	-45.50935000
34.29999814	0.00000000	-52.28838000
34.49999813	0.00000000	-45.55856000
34.69999812	0.00000000	-26.90699000
34.89999810	0.00000000	-0.66437010
35.09999809	0.00000000	27.66363000
35.29999808	0.00000000	51.35949000
35.49999807	0.00000000	64.91756000
35.69999806	0.00000000	65.77879000
35.89999805	0.00000000	53.50024000
36.09999803	0.00000000	31.12697000
36.29999802	0.00000000	4.12155500
36.49999801	0.00000000	-20.84769000
36.69999800	0.00000000	-37.81988000
36.89999799	0.00000000	-43.82382000
37.09999797	0.00000000	-37.86909000
37.29999796	0.00000000	-21.45054000
37.49999795	0.00000000	1.31643700
37.69999794	0.00000000	24.10187000
37.89999793	0.00000000	41.52928000
38.09999791	0.00000000	50.03691000
38.29999790	0.00000000	48.35752000
38.49999789	0.00000000	37.03863000
38.69999788	0.00000000	19.35900000
38.89999787	0.00000000	0.85506890
39.09999786	0.00000000	-14.06865000
39.29999784	0.00000000	-22.12721000
39.49999783	0.00000000	-22.62549000
39.69999782	0.00000000	-15.44660000
39.89999781	0.00000000	-2.90354300
40.09999780	0.00000000	10.95595000
40.29999778	0.00000000	21.96112000
40.49999777	0.00000000	27.56521000
40.69999776	0.00000000	27.61442000
40.89999775	0.00000000	22.61934000
41.09999774	0.00000000	14.26550000
41.29999772	0.00000000	5.85014700
41.49999771	0.00000000	-0.51673230
41.69999770	0.00000000	-3.51870100
41.89999769	0.00000000	-2.75590500
42.09999768	0.00000000	0.55979330
42.29999767	0.00000000	5.19192900
42.49999765	0.00000000	9.83021600
42.69999764	0.00000000	13.19513000
42.89999763	0.00000000	14.46850000
43.09999762	0.00000000	13.29355000
43.29999761	0.00000000	10.85138000
43.49999759	0.00000000	8.75369100
43.69999758	0.00000000	7.48646600
43.89999757	0.00000000	7.43725300
44.09999756	0.00000000	8.19389700
44.29999755	0.00000000	8.65526600
44.49999753	0.00000000	9.01820900
44.69999752	0.00000000	8.96284400
44.89999751	0.00000000	7.28961600
45.09999750	0.00000000	5.29035400
45.29999749	0.00000000	3.97391700
45.49999748	0.00000000	3.61097400
45.69999746	0.00000000	4.47834600
45.89999745	0.00000000	7.02509800
46.09999744	0.00000000	10.39001000
46.29999743	0.00000000	13.75492000
46.49999742	0.00000000	16.20325000
46.69999740	0.00000000	16.20325000
46.89999739	0.00000000	13.75492000
47.09999738	0.00000000	10.34080000
47.29999737	0.00000000	6.46530500
47.49999736	0.00000000	2.28838600
47.69999734	0.00000000	-0.61515740
47.89999733	0.00000000	-1.07037400
48.09999732	0.00000000	0.55979330
48.29999731	0.00000000	3.56176100
48.49999730	0.00000000	7.38804100
48.69999729	0.00000000	11.60802000
48.89999727	0.00000000	14.92372000
49.09999726	0.00000000	16.24631000
49.29999725	0.00000000	15.43430000
49.49999724	0.00000000	13.34276000
49.69999723	0.00000000	10.39001000
49.89999721	0.00000000	7.43725300
50.09999720	0.00000000	5.24114100
50.29999719	0.00000000	3.51254900
50.49999718	0.00000000	2.28838600
50.69999717	0.00000000	2.28838600
50.89999715	0.00000000	3.51254900
51.09999714	0.00000000	5.19192900
51.29999713	0.00000000	6.92667200
51.49999712	0.00000000	8.65526600
51.69999711	0.00000000	10.39001000
51.89999710	0.00000000	12.06939000
52.09999708	0.00000000	13.29355000
52.29999707	0.00000000	13.29355000
52.49999706	0.00000000	12.06939000
52.69999705	0.00000000	10.39001000
52.89999704	0.00000000	8.60605200
53.09999702	0.00000000	6.46530500
53.29999701	0.00000000	3.97391700
53.49999700	0.00000000	2.33759800
53.69999699	0.00000000	2.28838600
53.89999698	0.00000000	3.56176100
54.09999696	0.00000000	5.70251000
54.29999695	0.00000000	8.70447700
54.49999694	0.00000000	11.97096000
54.69999693	0.00000000	14.10556000
54.89999692	0.00000000	14.16708000
55.09999691	0.00000000	13.34276000
55.29999689	0.00000000	11.50960000
55.49999688	0.00000000	8.19389700
55.69999687	0.00000000	4.47834600
55.89999686	0.00000000	2.38681100
56.09999685	0.00000000	2.28838600
56.29999683	0.00000000	3.56176100
56.49999682	0.00000000	5.70251000
56.69999681	0.00000000	8.65526600
56.89999680	0.00000000	11.60802000
57.09999679	0.00000000	13.65650000
57.29999677	0.00000000	14.10556000
57.49999676	0.00000000	12.43233000
57.69999675	0.00000000	9.92864100
57.89999674	0.00000000	6.87746000
58.09999673	0.00000000	3.56176100
58.29999672	0.00000000	1.06422200
58.49999670	0.00000000	0.65821850
58.69999669	0.00000000	2.28838600
58.89999668	0.00000000	5.24114100
59.09999667	0.00000000	8.65526600
59.29999666	0.00000000	12.02018000
59.49999664	0.00000000	14.51772000
59.69999663	0.00000000	14.97293000
59.89999662	0.00000000	13.70571000
60.09999661	0.00000000	11.15280000
60.29999660	0.00000000	7.33882900
60.49999658	0.00000000	3.61097400
60.69999657	0.00000000	1.01501000
60.89999656	0.00000000	0.19685040
61.09999655	0.00000000	1.01501000
61.29999654	0.00000000	3.56176100
61.49999653	0.00000000	6.92667200
61.69999651	0.00000000	10.34080000
61.89999650	0.00000000	13.29355000
62.09999649	0.00000000	14.92372000
62.29999648	0.00000000	14.56693000
62.49999647	0.00000000	12.48154000
62.69999645	0.00000000	9.97785300
62.89999644	0.00000000	7.38804100
63.09999643	0.00000000	5.29035400
63.29999642	0.00000000	3.97391700
63.49999641	0.00000000	3.51254900
63.69999639	0.00000000	3.51254900
63.89999638	0.00000000	3.97391700
64.09999637	0.00000000	5.24114100
64.29999636	0.00000000	6.92667200
64.49999635	0.00000000	8.65526600
64.69999634	0.00000000	10.39001000
64.89999632	0.00000000	12.06939000
65.09999631	0.00000000	13.34276000
65.29999630	0.00000000	13.75492000
65.49999629	0.00000000	13.34276000
65.69999628	0.00000000	12.02018000
65.89999626	0.00000000	9.83021600
66.09999625	0.00000000	6.46530500
66.29999624	0.00000000	2.70054100
66.49999623	0.00000000	0.14763780
66.69999622	0.00000000	-1.11958700
66.89999620	0.00000000	-0.66437010
67.09999619	0.00000000	1.92544300
67.29999618	0.00000000	6.16387700
67.49999617	0.00000000	11.60802000
67.69999616	0.00000000	16.24631000
67.89999615	0.00000000	18.79921000
68.09999613	0.00000000	19.25443000
68.29999612	0.00000000	17.07062000
68.49999611	0.00000000	12.83834000
68.69999610	0.00000000	6.92667200
68.89999609	0.00000000	1.01501000
69.09999607	0.00000000	-3.21727300
69.29999606	0.00000000	-5.30265700
69.49999605	0.00000000	-4.02928100
69.69999604	0.00000000	0.09842519
69.89999603	0.00000000	5.24114100
70.09999601	0.00000000	10.75295000
70.29999600	0.00000000	15.84030000
70.49999599	0.00000000	18.79921000
70.69999598	0.00000000	19.66043000
70.89999597	0.00000000	17.93184000
71.09999596	0.00000000	13.75492000
71.29999594	0.00000000	8.65526600
71.49999593	0.00000000	3.56176100
71.69999592	0.00000000	-0.66437010
71.89999591	0.00000000	-2.75590500
72.09999590	0.00000000	-2.39911400
72.29999588	0.00000000	0.14763780
72.49999587	0.00000000	3.97391700
72.69999586	0.00000000	8.60605200
72.89999585	0.00000000	12.83218000
73.09999584	0.00000000	15.43430000
73.29999582	0.00000000	16.70768000
73.49999581	0.00000000	16.25246000
73.69999580	0.00000000	13.70571000
73.89999579	0.00000000	9.92864100
74.09999578	0.00000000	5.65329700
74.29999577	0.00000000	1.87623000
74.49999575	0.00000000	-0.66437010
74.69999574	0.00000000	-1.07037400
74.89999573	0.00000000	0.60900590
75.09999572	0.00000000	4.02313000
75.29999571	0.00000000	8.60605200
75.49999569	0.00000000	12.83218000
75.69999568	0.00000000	15.38509000
75.89999567	0.00000000	16.19710000
76.09999566	0.00000000	14.51772000
76.29999565	0.00000000	10.75295000
76.49999563	0.00000000	6.51451700
76.69999562	0.00000000	2.23917300
76.89999561	0.00000000	-1.07652500
77.09999560	0.00000000	-2.34375000
77.29999559	0.00000000	-1.02731300
77.49999558	0.00000000	2.74975400
77.69999556	0.00000000	8.24311000
77.89999555	0.00000000	13.70571000
78.09999554	0.00000000	17.93184000
78.29999553	0.00000000	19.61122000
78.49999552	0.00000000	18.38706000
78.69999550	0.00000000	14.97293000
78.89999549	0.00000000	9.87942800
79.09999548	0.00000000	3.97391700
79.29999547	0.00000000	-1.11958700
79.49999546	0.00000000	-4.48449800
79.69999544	0.00000000	-5.25344500
79.89999543	0.00000000	-2.30068900
80.09999542	0.00000000	3.51254900
80.29999541	0.00000000	9.87942800
80.49999540	0.00000000	15.43430000
80.69999539	0.00000000	19.70964000
80.89999537	0.00000000	21.75197000
81.09999536	0.00000000	20.88459000
81.29999535	0.00000000	16.65846000
81.49999534	0.00000000	10.34080000
81.69999533	0.00000000	3.51254900
81.89999531	0.00000000	-2.80511800
82.09999530	0.00000000	-7.03125000
82.29999529	0.00000000	-7.89862200
82.49999528	0.00000000	-5.75787400
82.69999527	0.00000000	-0.66437010
82.89999525	0.00000000	6.51451700
83.09999524	0.00000000	13.65650000
83.29999523	0.00000000	19.25443000
83.49999522	0.00000000	22.21334000
83.69999521	0.00000000	22.66855000
83.89999520	0.00000000	20.07259000
84.09999518	0.00000000	15.02214000
84.29999517	0.00000000	8.60605200
84.49999516	0.00000000	1.87623000
84.69999515	0.00000000	-3.66633800
84.89999514	0.00000000	-6.63139700
85.09999512	0.00000000	-7.08046200
85.29999511	0.00000000	-4.48449800
85.49999510	0.00000000	0.55979330
85.69999509	0.00000000	6.92667200
85.89999508	0.00000000	13.29355000
86.09999506	0.00000000	18.43627000
86.29999505	0.00000000	21.85039000
86.49999504	0.00000000	23.02534000
86.69999503	0.00000000	20.93381000
86.89999502	0.00000000	15.84646000
87.09999501	0.00000000	9.51648500
87.29999499	0.00000000	2.65132900
87.49999498	0.00000000	-3.21727300
87.69999497	0.00000000	-7.03125000
87.89999496	0.00000000	-7.44340500
88.09999495	0.00000000	-4.53371000
88.29999493	0.00000000	0.55979330
88.49999492	0.00000000	6.92667200
88.69999491	0.00000000	13.29355000
88.89999490	0.00000000	18.38706000
89.09999489	0.00000000	21.34596000
89.29999487	0.00000000	21.34596000
89.49999486	0.00000000	18.38706000
89.69999485	0.00000000	13.34276000
89.89999484	0.00000000	7.38804100
90.09999483	0.00000000	1.87623000
90.29999482	0.00000000	-2.39911400
90.49999480	0.00000000	-4.48449800
90.69999479	0.00000000	-4.07849400
90.89999478	0.00000000	-1.11958700
91.09999477	0.00000000	3.51254900
91.29999476	0.00000000	8.60605200
91.49999474	0.00000000	13.24434000
91.69999473	0.00000000	16.25246000
91.89999472	0.00000000	17.11983000
92.09999471	0.00000000	16.30167000
92.29999470	0.00000000	13.75492000
92.49999468	0.00000000	10.39001000
92.69999467	0.00000000	6.97588500
92.89999466	0.00000000	4.02313000
93.09999465	0.00000000	2.28838600
93.29999464	0.00000000	1.82701800
93.49999463	0.00000000	2.28838600
93.69999461	0.00000000	3.97391700
93.89999460	0.00000000	6.46530500
94.09999459	0.00000000	8.55684000
94.29999458	0.00000000	9.92864100
94.49999457	0.00000000	10.75295000
94.69999455	0.00000000	11.20202000
94.89999454	0.00000000	10.75295000
95.09999453	0.00000000	9.92864100
95.29999452	0.00000000	8.65526600
95.49999451	0.00000000	7.38804100
95.69999449	0.00000000	6.51451700
95.89999448	0.00000000	5.65329700
96.09999447	0.00000000	5.24114100
96.29999446	0.00000000	5.19192900
96.49999445	0.00000000	5.24114100
96.69999444	0.00000000	5.65329700
96.89999442	0.00000000	6.46530500
97.09999441	0.00000000	6.92667200
97.29999440	0.00000000	7.38804100
97.49999439	0.00000000	8.19389700
97.69999438	0.00000000	8.65526600
97.89999436	0.00000000	9.06742000
98.09999435	0.00000000	9.46727400
98.29999434	0.00000000	9.06742000
98.49999433	0.00000000	8.65526600
98.69999432	0.00000000	8.19389700
98.89999430	0.00000000	7.33882900
99.09999429	0.00000000	6.51451700
99.29999428	0.00000000	5.65329700
99.49999427	0.00000000	5.29035400
99.69999426	0.00000000	5.65329700
99.89999425	0.00000000	6.51451700
100.09999423	0.00000000	7.33882900
100.29999422	0.00000000	8.24311000
100.49999421	0.00000000	9.06742000
100.69999420	0.00000000	9.92864100
100.89999419	0.00000000	10.29158000
101.09999417	0.00000000	9.92864100
101.29999416	0.00000000	9.06742000
101.49999415	0.00000000	8.19389700
101.69999414	0.00000000	6.92667200
101.89999413	0.00000000	5.70251000
102.09999411	0.00000000	5.24114100
102.29999410	0.00000000	5.24114100
102.49999409	0.00000000	5.65329700
102.69999408	0.00000000	6.51451700
102.89999407	0.00000000	7.33882900
103.09999406	0.00000000	8.19389700
103.29999404	0.00000000	8.60605200
103.49999403	0.00000000	8.65526600
103.69999402	0.00000000	8.65526600
103.89999401	0.00000000	8.60605200
104.09999400	0.00000000	8.14468500
104.29999398	0.00000000	6.92667200
104.49999397	0.00000000	5.70251000
104.69999396	0.00000000	5.24114100
104.89999395	0.00000000	5.24114100
105.09999394	0.00000000	5.65329700
105.29999392	0.00000000	6.51451700
105.49999391	0.00000000	7.38804100
105.69999390	0.00000000	8.65526600
105.89999389	0.00000000	9.87942800
106.09999388	0.00000000	10.29158000
106.29999387	0.00000000	9.92864100
106.49999385	0.00000000	9.06742000
106.69999384	0.00000000	8.19389700
106.89999383	0.00000000	6.92667200
107.09999382	0.00000000	5.70251000
107.29999381	0.00000000	5.24114100
107.49999379	0.00000000	5.19192900
107.69999378	0.00000000	5.24114100
107.89999377	0.00000000	5.75172200
108.09999376	0.00000000	7.38804100
108.29999375	0.00000000	9.42421200
108.49999374	0.00000000	10.29158000
108.69999372	0.00000000	10.39001000
108.89999371	0.00000000	10.29158000
109.09999370	0.00000000	9.42421200
109.29999369	0.00000000	7.38804100
109.49999368	0.00000000	5.70251000
109.69999366	0.00000000	4.77977300
109.89999365	0.00000000	3.92470400
110.09999364	0.00000000	3.56176100
110.29999363	0.00000000	4.02313000
110.49999362	0.00000000	5.70251000
110.69999360	0.00000000	8.19389700
110.89999359	0.00000000	10.29158000
111.09999358	0.00000000	11.60802000
111.29999357	0.00000000	12.02018000
111.49999356	0.00000000	11.60802000
111.69999355	0.00000000	10.29158000
111.89999353	0.00000000	8.19389700
112.09999352	0.00000000	5.65329700
112.29999351	0.00000000	3.56176100
112.49999350	0.00000000	2.28838600
112.69999349	0.00000000	2.28838600
112.89999347	0.00000000	3.51254900
113.09999346	0.00000000	5.24114100
113.29999345	0.00000000	7.38804100
113.49999344	0.00000000	9.92864100
113.69999343	0.00000000	11.97096000
113.89999341	0.00000000	12.83218000
114.09999340	0.00000000	12.02018000
114.29999339	0.00000000	10.34080000
114.49999338	0.00000000	8.19389700
114.69999337	0.00000000	5.65329700
114.89999336	0.00000000	3.56176100
115.09999334	0.00000000	2.28838600
115.29999333	0.00000000	2.28838600
115.49999332	0.00000000	3.56176100
115.69999331	0.00000000	5.65329700
115.89999330	0.00000000	8.19389700
116.09999328	0.00000000	10.29158000
116.29999327	0.00000000	11.60802000
116.49999326	0.00000000	11.97096000
116.69999325	0.00000000	11.20202000
116.89999324	0.00000000	9.47342500
117.09999322	0.00000000	7.78789300
117.29999321	0.00000000	5.65329700
117.49999320	0.00000000	4.02313000
117.69999319	0.00000000	3.56176100
117.89999318	0.00000000	3.97391700
118.09999317	0.00000000	5.24114100
118.29999315	0.00000000	6.92667200
118.49999314	0.00000000	8.60605200
118.69999313	0.00000000	9.87942800
118.89999312	0.00000000	10.29158000
119.09999311	0.00000000	9.92864100
119.29999309	0.00000000	9.06742000
119.49999308	0.00000000	8.19389700
119.69999307	0.00000000	6.92667200
119.89999306	0.00000000	5.70251000
120.09999305	0.00000000	5.24114100
120.29999303	0.00000000	5.24114100
120.49999302	0.00000000	5.70251000
120.69999301	0.00000000	6.92667200
120.89999300	0.00000000	8.14468500
121.09999299	0.00000000	8.60605200
121.29999298	0.00000000	8.65526600
121.49999296	0.00000000	8.60605200
121.69999295	0.00000000	8.19389700
121.89999294	0.00000000	7.33882900
122.09999293	0.00000000	6.51451700
122.29999292	0.00000000	5.70251000
122.49999290	0.00000000	5.70251000
122.69999289	0.00000000	6.46530500
122.89999288	0.00000000	6.87746000
123.09999287	0.00000000	6.97588500
123.29999286	0.00000000	7.38804100
123.49999284	0.00000000	8.19389700
123.69999283	0.00000000	8.60605200
123.89999282	0.00000000	8.65526600
124.09999281	0.00000000	8.60605200
124.29999280	0.00000000	8.19389700
124.49999279	0.00000000	7.33882900
124.69999277	0.00000000	6.51451700
124.89999276	0.00000000	5.65329700
125.09999275	0.00000000	5.24114100
125.29999274	0.00000000	5.24114100
125.49999273	0.00000000	5.70251000
125.69999271	0.00000000	6.92667200
125.89999270	0.00000000	8.14468500
126.09999269	0.00000000	8.60605200
126.29999268	0.00000000	8.65526600
126.49999267	0.00000000	8.60605200
126.69999265	0.00000000	8.14468500
126.89999264	0.00000000	6.92667200
127.09999263	0.00000000	5.70251000
127.29999262	0.00000000	5.24114100
127.49999261	0.00000000	5.19192900
127.69999260	0.00000000	5.24114100
127.89999258	0.00000000	5.70251000
128.09999257	0.00000000	6.97588500
128.29999256	0.00000000	8.60605200
128.49999255	0.00000000	9.87942800
128.69999254	0.00000000	10.29158000
128.89999252	0.00000000	9.92864100
129.09999251	0.00000000	9.06742000
129.29999250	0.00000000	8.19389700
129.49999249	0.00000000	6.92667200
129.69999248	0.00000000	5.70251000
129.89999246	0.00000000	5.24114100
130.09999245	0.00000000	5.24114100
130.29999244	0.00000000	5.65329700
130.49999243	0.00000000	6.51451700
130.69999242	0.00000000	7.33882900
130.89999241	0.00000000	8.19389700
131.09999239	0.00000000	8.60605200
131.29999238	0.00000000	8.65526600
131.49999237	0.00000000	8.60605200
131.69999236	0.00000000	8.19389700
131.89999235	0.00000000	7.38804100
132.09999233	0.00000000	6.97588500
132.29999232	0.00000000	6.87746000
132.49999231	0.00000000	6.51451700
132.69999230	0.00000000	6.11466500
132.89999229	0.00000000	6.51451700
133.09999227	0.00000000	6.92667200
133.29999226	0.00000000	7.33882900
133.49999225	0.00000000	7.73868000
133.69999224	0.00000000	7.33882900
133.89999223	0.00000000	6.97588500
134.09999222	0.00000000	6.92667200
134.29999220	0.00000000	6.92667200
134.49999219	0.00000000	6.92667200
134.69999218	0.00000000	6.92667200
134.89999217	0.00000000	6.97588500
135.09999216	0.00000000	7.38804100
135.29999214	0.00000000	8.19389700
135.49999213	0.00000000	8.60605200
135.69999212	0.00000000	8.65526600
135.89999211	0.00000000	8.60605200
136.09999210	0.00000000	8.19389700
136.29999208	0.00000000	7.33882900
136.49999207	0.00000000	6.51451700
136.69999206	0.00000000	5.65329700
136.89999205	0.00000000	5.24114100
137.09999204	0.00000000	5.24114100
137.29999203	0.00000000	5.70251000
137.49999201	0.00000000	6.92667200
137.69999200	0.00000000	8.19389700
137.89999199	0.00000000	9.06742000
138.09999198	0.00000000	9.87942800
138.29999197	0.00000000	9.87942800
138.49999195	0.00000000	9.06742000
138.69999194	0.00000000	8.19389700
138.89999193	0.00000000	6.92667200
139.09999192	0.00000000	5.65329700
139.29999191	0.00000000	4.77977300
139.49999189	0.00000000	3.97391700
139.69999188	0.00000000	3.97391700
139.89999187	0.00000000	4.77977300
140.09999186	0.00000000	5.60408400
140.29999185	0.00000000	6.51451700
140.49999184	0.00000000	7.38804100
140.69999182	0.00000000	8.60605200
140.89999181	0.00000000	9.41806000
141.09999180	0.00000000	9.06742000
141.29999179	0.00000000	8.65526600
141.49999178	0.00000000	8.19389700
141.69999176	0.00000000	7.33882900
141.89999175	0.00000000	6.51451700
142.09999174	0.00000000	5.65329700
142.29999173	0.00000000	5.24114100
142.49999172	0.00000000	5.19192900
142.69999170	0.00000000	5.24114100
142.89999169	0.00000000	5.65329700
143.09999168	0.00000000	6.51451700
143.29999167	0.00000000	7.33882900
143.49999166	0.00000000	8.19389700
143.69999165	0.00000000	8.60605200
143.89999163	0.00000000	8.65526600
144.09999162	0.00000000	8.65526600
144.29999161	0.00000000	8.60605200
144.49999160	0.00000000	8.19389700
144.69999159	0.00000000	7.38804100
144.89999157	0.00000000	6.92667200
145.09999156	0.00000000	6.46530500
145.29999155	0.00000000	5.65329700
145.49999154	0.00000000	5.24114100
145.69999153	0.00000000	5.19192900
145.89999151	0.00000000	5.24114100
146.09999150	0.00000000	5.65329700
146.29999149	0.00000000	6.51451700
146.49999148	0.00000000	7.33882900
146.69999147	0.00000000	8.19389700
146.89999146	0.00000000	8.60605200
147.09999144	0.00000000	8.65526600
147.29999143	0.00000000	8.60605200
147.49999142	0.00000000	8.19389700
147.69999141	0.00000000	7.33882900
147.89999140	0.00000000	6.51451700
148.09999138	0.00000000	5.65329700
148.29999137	0.00000000	5.24114100
148.49999136	0.00000000	5.19192900
148.69999135	0.00000000	5.24114100
148.89999134	0.00000000	5.65329700
149.09999132	0.00000000	6.51451700
149.29999131	0.00000000	7.33882900
149.49999130	0.00000000	8.19389700
149.69999129	0.00000000	8.60605200
149.89999128	0.00000000	8.60605200
150.09999127	0.00000000	8.19389700
150.29999125	0.00000000	7.38804100
150.49999124	0.00000000	6.92667200
150.69999123	0.00000000	6.46530500
150.89999122	0.00000000	5.65329700
151.09999121	0.00000000	5.29035400
151.29999119	0.00000000	5.65329700
151.49999118	0.00000000	6.46530500
151.69999117	0.00000000	6.92667200
151.89999116	0.00000000	7.38804100
152.09999115	0.00000000	8.19389700
152.29999113	0.00000000	8.60605200
152.49999112	0.00000000	8.65526600
152.69999111	0.00000000	8.60605200
152.89999110	0.00000000	8.19389700
153.09999109	0.00000000	7.38804100
153.29999108	0.00000000	6.97588500
153.49999106	0.00000000	6.92667200
153.69999105	0.00000000	6.92667200
153.89999104	0.00000000	6.92667200
154.09999103	0.00000000	6.92667200
154.29999102	0.00000000	6.92667200
154.49999100	0.00000000	6.92667200
154.69999099	0.00000000	6.92667200
154.89999098	0.00000000	6.92667200
155.09999097	0.00000000	6.92667200
155.29999096	0.00000000	6.92667200
155.49999094	0.00000000	6.92667200
155.69999093	0.00000000	6.92667200
155.89999092	0.00000000	6.92667200
156.09999091	0.00000000	6.92667200
156.29999090	0.00000000	6.92667200
156.49999089	0.00000000	6.92667200
156.69999087	0.00000000	6.92667200
156.89999086	0.00000000	6.87746000
157.09999085	0.00000000	6.51451700
157.29999084	0.00000000	6.11466500
157.49999083	0.00000000	6.51451700
157.69999081	0.00000000	6.87746000
157.89999080	0.00000000	6.92667200
158.09999079	0.00000000	6.92667200
158.29999078	0.00000000	6.92667200
158.49999077	0.00000000	6.92667200
158.69999075	0.00000000	6.92667200
158.89999074	0.00000000	6.92667200
159.09999073	0.00000000	6.92667200
159.29999072	0.00000000	6.92667200
159.49999071	0.00000000	6.92667200
159.69999070	0.00000000	6.87746000
159.89999068	0.00000000	6.46530500
160.09999067	0.00000000	5.70251000
160.29999066	0.00000000	5.70251000
160.49999065	0.00000000	6.46530500
160.69999064	0.00000000	6.87746000
160.89999062	0.00000000	6.92667200
161.09999061	0.00000000	6.92667200
161.29999060	0.00000000	6.92667200
161.49999059	0.00000000	6.92667200
161.69999058	0.00000000	6.92667200
161.89999056	0.00000000	6.92667200
162.09999055	0.00000000	6.92667200
162.29999054	0.00000000	6.92667200
162.49999053	0.00000000	6.92667200
162.69999052	0.00000000	6.92667200
162.89999051	0.00000000	6.92667200
163.09999049	0.00000000	6.92667200
163.29999048	0.00000000	6.92667200
163.49999047	0.00000000	6.92667200
163.69999046	0.00000000	6.92667200
163.89999045	0.00000000	6.92667200
164.09999043	0.00000000	6.92667200
164.29999042	0.00000000	6.92667200
164.49999041	0.00000000	6.92667200
164.69999040	0.00000000	6.92667200
164.89999039	0.00000000	6.92667200
165.09999037	0.00000000	6.92667200
165.29999036	0.00000000	6.92667200
165.49999035	0.00000000	6.92667200
165.69999034	0.00000000	6.92667200
165.89999033	0.00000000	6.92667200
166.09999032	0.00000000	6.92667200
166.29999030	0.00000000	6.92667200
166.49999029	0.00000000	6.92667200
166.69999028	0.00000000	6.92667200
166.89999027	0.00000000	6.92667200
167.09999026	0.00000000	6.92667200
167.29999024	0.00000000	6.92667200
167.49999023	0.00000000	6.92667200
167.69999022	0.00000000	6.92667200
167.89999021	0.00000000	6.92667200
168.09999020	0.00000000	6.92667200
168.29999018	0.00000000	6.92667200
168.49999017	0.00000000	6.92667200
168.69999016	0.00000000	6.92667200
168.89999015	0.00000000	6.92667200
169.09999014	0.00000000	6.92667200
169.29999013	0.00000000	6.92667200
169.49999011	0.00000000	6.92667200
169.69999010	0.00000000	6.92667200
169.89999009	0.00000000	6.92667200
170.09999008	0.00000000	6.87746000
170.29999007	0.00000000	6.51451700
170.49999005	0.00000000	6.11466500
170.69999004	0.00000000	6.51451700
170.89999003	0.00000000	6.87746000
171.09999002	0.00000000	6.92667200
171.29999001	0.00000000	6.92667200
171.49998999	0.00000000	6.92667200
171.69998998	0.00000000	6.92667200
171.89998997	0.00000000	6.92667200
172.09998996	0.00000000	6.92667200
172.29998995	0.00000000	6.92667200
172.49998994	0.00000000	6.92667200
172.69998992	0.00000000	6.92667200
172.89998991	0.00000000	6.92667200
173.09998990	0.00000000	6.87746000
173.29998989	0.00000000	6.46530500
173.49998988	0.00000000	5.70251000
173.69998986	0.00000000	5.70251000
173.89998985	0.00000000	6.46530500
174.09998984	0.00000000	6.87746000
174.29998983	0.00000000	6.92667200
174.49998982	0.00000000	6.92667200
174.69998980	0.00000000	6.92667200
174.89998979	0.00000000	6.92667200
175.09998978	0.00000000	6.92667200
175.29998977	0.00000000	6.87746000
175.49998976	0.00000000	6.46530500
175.69998975	0.00000000	5.65329700
175.89998973	0.00000000	5.24114100
176.09998972	0.00000000	5.19192900
176.29998971	0.00000000	5.24114100
176.49998970	0.00000000	5.65329700
176.69998969	0.00000000	6.46530500
176.89998967	0.00000000	6.87746000
177.09998966	0.00000000	6.92667200
177.29998965	0.00000000	6.92667200
177.49998964	0.00000000	6.92667200
177.69998963	0.00000000	6.92667200
177.89998961	0.00000000	6.92667200
178.09998960	0.00000000	6.92667200
178.29998959	0.00000000	6.87746000
178.49998958	0.00000000	6.51451700
178.69998957	0.00000000	6.06545300
178.89998956	0.00000000	6.10236200
179.09998954	0.00000000	6.06545300
179.29998953	0.00000000	6.51451700
179.49998952	0.00000000	6.87746000
179.69998951	0.00000000	6.92667200
179.89998950	0.00000000	6.92667200
180.09998948	0.00000000	6.92667200
180.29998947	0.00000000	6.92667200
180.49998946	0.00000000	6.92667200
180.69998945	0.00000000	6.92667200
180.89998944	0.00000000	6.92667200
181.09998942	0.00000000	6.92667200
181.29998941	0.00000000	6.92667200
181.49998940	0.00000000	6.92667200
181.69998939	0.00000000	6.92667200
181.89998938	0.00000000	6.92667200
182.09998937	0.00000000	6.92667200
182.29998935	0.00000000	6.92667200
182.49998934	0.00000000	6.92667200
182.69998933	0.00000000	6.92667200
182.89998932	0.00000000	6.92667200
183.09998931	0.00000000	6.92667200
183.29998929	0.00000000	6.92667200
183.49998928	0.00000000	6.92667200
183.69998927	0.00000000	6.92667200
183.89998926	0.00000000	6.92667200
184.09998925	0.00000000	6.92667200
184.29998923	0.00000000	6.92667200
184.49998922	0.00000000	6.92667200
184.69998921	0.00000000	6.92667200
184.89998920	0.00000000	6.92667200
185.09998919	0.00000000	6.92667200
185.29998918	0.00000000	6.92667200
185.49998916	0.00000000	6.92667200
185.69998915	0.00000000	6.92667200
185.89998914	0.00000000	6.92667200
186.09998913	0.00000000	6.92667200
186.29998912	0.00000000	6.92667200
186.49998910	0.00000000	6.92667200
186.69998909	0.00000000	6.92667200
186.89998908	0.00000000	6.92667200
187.09998907	0.00000000	6.92667200
187.29998906	0.00000000	6.92667200
187.49998904	0.00000000	6.92667200
187.69998903	0.00000000	6.87746000
187.89998902	0.00000000	6.46530500
188.09998901	0.00000000	5.65329700
188.29998900	0.00000000	5.29035400
188.49998899	0.00000000	5.65329700
188.69998897	0.00000000	6.46530500
188.89998896	0.00000000	6.87746000
189.09998895	0.00000000	6.92667200
189.29998894	0.00000000	6.92667200
189.49998893	0.00000000	6.92667200
189.69998891	0.00000000	6.92667200
189.89998890	0.00000000	6.92667200
190.09998889	0.00000000	6.87746000
190.29998888	0.00000000	6.46530500
190.49998887	0.00000000	5.65329700
190.69998885	0.00000000	5.24114100
190.89998884	0.00000000	5.24114100
191.09998883	0.00000000	5.60408400
191.29998882	0.00000000	6.05314900
191.49998881	0.00000000	6.06545300
191.69998880	0.00000000	6.51451700
191.89998878	0.00000000	6.87746000
192.09998877	0.00000000	6.92667200
192.29998876	0.00000000	6.92667200
192.49998875	0.00000000	6.92667200
192.69998874	0.00000000	6.92667200
192.89998872	0.00000000	6.92667200
193.09998871	0.00000000	6.92667200
193.29998870	0.00000000	6.87746000
193.49998869	0.00000000	6.46530500
193.69998868	0.00000000	5.65329700
193.89998866	0.00000000	5.29035400
194.09998865	0.00000000	5.65329700
194.29998864	0.00000000	6.46530500
194.49998863	0.00000000	6.87746000
194.69998862	0.00000000	6.92667200
194.89998861	0.00000000	6.92667200
195.09998859	0.00000000	6.92667200
195.29998858	0.00000000	6.92667200
195.49998857	0.00000000	6.92667200
195.69998856	0.00000000	6.92667200
195.89998855	0.00000000	6.92667200
196.09998853	0.00000000	6.92667200
