Time	Channel A	Channel B	Channel C
(us)	(V)	(mV)	(mV)

-4.49999956	0.00000000	22.13336000	5.19808000
-4.29999957	0.00000000	22.13336000	5.85014700
-4.09999958	0.00000000	22.13336000	5.89320800
-3.89999959	0.00000000	22.13336000	5.57332700
-3.69999960	0.00000000	22.13336000	5.89320800
-3.49999962	0.00000000	22.13336000	5.85014700
-3.29999963	0.00000000	22.13336000	5.15501900
-3.09999964	0.00000000	22.13336000	4.82898600
-2.89999965	0.00000000	22.13336000	5.11195900
-2.69999966	0.00000000	22.13336000	5.51796200
-2.49999968	0.00000000	22.13336000	5.48105300
-2.29999969	0.00000000	22.13336000	5.56717500
-2.09999970	0.00000000	22.13336000	5.48105300
-1.89999971	0.00000000	22.13336000	5.56717500
-1.69999972	0.00000000	22.13336000	5.53026500
-1.49999973	0.00000000	22.13336000	5.89320800
-1.29999975	0.00000000	22.13336000	5.85014700
-1.09999976	0.00000000	22.13336000	5.15501900
-0.89999977	0.00000000	22.13336000	4.77977300
-0.69999978	0.00000000	22.13336000	4.73671200
-0.49999979	0.00000000	22.13336000	4.77977300
-0.29999981	0.31803640	22.13336000	5.11195900
-0.09999982	0.63668800	22.13336000	5.47490100
0.10000017	0.95533960	22.13336000	5.11195900
0.30000016	1.11466500	22.13336000	4.77977300
0.50000015	0.79601380	22.13336000	4.73671200
0.70000013	0.31803640	22.13336000	4.73671200
0.90000012	-0.63668800	22.13336000	4.73671200
1.10000011	-1.59264300	22.13336000	4.73671200
1.30000010	-2.38927200	22.13336000	4.77977300
1.50000009	-2.70792300	22.13336000	5.15501900
1.70000008	-2.38927200	22.13336000	5.89320800
1.90000006	-1.11466500	22.09030000	6.21924200
2.10000005	0.79601380	21.75812000	5.93626900
2.30000004	2.86724900	21.38902000	5.53026500
2.50000003	4.61921700	21.71506000	5.51796200
2.70000002	5.41584600	21.71506000	5.11195900
2.90000000	4.77854300	21.38902000	4.77977300
3.09999999	2.70792300	21.75812000	4.73671200
3.29999998	-0.31803640	22.09030000	4.73671200
3.49999997	-3.66326300	22.13336000	4.73671200
3.69999996	-6.53112700	22.13336000	4.77977300
3.89999994	-7.96444400	22.13336000	5.15501900
4.09999993	-7.32714100	22.13336000	5.89320800
4.29999992	-4.77854300	22.13336000	6.26845500
4.49999991	-0.79601380	22.13336000	6.31151500
4.69999990	3.66326300	22.13336000	6.31151500
4.89999989	7.48646600	22.13336000	6.26845500
5.09999987	9.39837600	22.13336000	5.85014700
5.29999986	8.92039900	22.09030000	4.77977300
5.49999985	6.37180100	21.75812000	4.04158400
5.69999984	2.07062000	21.38902000	4.36146600
5.89999983	-2.86724900	21.71506000	4.69365100
6.09999981	-6.84916400	21.71506000	4.77977300
6.29999980	-9.23905000	21.38902000	5.15501900
6.49999979	-9.23905000	21.75812000	5.89320800
6.69999978	-6.84916400	22.09030000	6.26845500
6.89999977	-3.02657500	22.13336000	6.31151500
7.09999975	1.43331700	22.13336000	6.31151500
7.29999974	5.09719500	22.13336000	6.26845500
7.49999973	7.32714100	22.13336000	5.89320800
7.69999972	7.64579200	22.13336000	5.15501900
7.89999971	6.05315000	22.09030000	4.77977300
8.09999970	3.18590100	21.71506000	4.73671200
8.29999968	-0.15871060	21.01993000	4.73671200
8.49999967	-3.02657500	21.01993000	4.73671200
8.69999966	-4.77854300	21.71506000	4.73671200
8.89999965	-5.09719500	22.09030000	4.77977300
9.09999964	-4.14124000	22.13336000	5.15501900
9.29999962	-2.54859700	22.13336000	5.89320800
9.49999961	-0.47736220	22.13336000	6.26845500
9.69999960	1.27399100	22.13336000	6.26845500
9.89999959	2.22994600	22.13336000	5.89320800
10.09999958	2.54859700	22.13336000	5.15501900
10.29999956	2.22994600	22.13336000	4.77977300
10.49999955	1.43331700	22.09030000	4.73671200
10.69999954	0.47736220	21.75812000	4.73671200
10.89999953	-0.31803640	21.38902000	4.73671200
11.09999952	-0.79601380	21.75812000	4.73671200
11.29999951	-0.95533960	22.09030000	4.73671200
11.49999949	-0.95533960	22.13336000	4.73671200
11.69999948	-0.63668800	22.13336000	4.73671200
11.89999947	-0.31803640	22.09030000	4.73671200
12.09999946	-0.15871060	21.75812000	4.77977300
12.29999945	-0.15871060	21.38902000	5.11195900
12.49999943	-0.15871060	21.75812000	5.47490100
12.69999942	0.00000000	22.09030000	5.15501900
12.89999941	0.00000000	22.13336000	5.15501900
13.09999940	0.00000000	22.13336000	5.51796200
13.29999939	0.00000000	22.13336000	5.53026500
13.49999937	0.00000000	22.13336000	5.93626900
13.69999936	0.00000000	22.13336000	6.21924200
13.89999935	0.00000000	22.13336000	5.93626900
14.09999934	-0.15871060	22.13336000	5.57332700
14.29999933	-0.15871060	22.09030000	5.89320800
14.49999932	-0.15871060	21.75812000	5.89320800
14.69999930	0.00000000	21.38902000	5.53026500
14.89999929	0.00000000	21.71506000	5.51796200
15.09999928	0.00000000	21.71506000	5.11195900
15.29999927	0.00000000	21.34596000	4.77977300
15.49999926	0.00000000	21.33981000	4.73671200
15.69999924	0.00000000	20.92766000	4.73671200
15.89999923	0.00000000	20.59547000	4.73671200
16.09999922	0.00000000	20.55241000	4.73671200
16.29999921	0.00000000	20.59547000	4.73671200
16.49999920	-0.15871060	20.97072000	4.77977300
16.69999919	-0.15871060	21.71506000	5.11195900
16.89999917	0.00000000	22.13336000	5.47490100
17.09999916	0.00000000	22.55167000	5.11195900
17.29999915	0.00000000	23.29601000	4.77977300
17.49999914	0.00000000	23.67126000	4.73671200
17.69999913	0.00000000	23.67126000	4.73671200
17.89999911	0.00000000	23.24680000	4.73671200
18.09999910	0.00000000	22.09030000	4.73671200
18.29999909	0.00000000	20.55241000	4.73671200
18.49999908	0.00000000	19.01451000	4.77977300
18.69999907	0.00000000	17.80881000	5.11195900
18.89999905	0.00000000	17.05832000	5.47490100
19.09999904	0.00000000	16.73843000	5.11195900
19.29999903	0.00000000	17.94414000	4.77977300
19.49999902	0.00000000	20.59547000	4.73671200
19.69999901	0.00000000	23.75738000	4.73671200
19.89999900	0.00000000	27.25147000	4.73671200
20.09999898	0.00000000	30.69020000	4.73671200
20.29999897	0.00000000	32.55413000	4.73671200
20.49999896	0.00000000	32.13582000	4.73671200
20.69999895	0.00000000	28.97392000	4.73671200
20.89999894	0.00000000	23.11762000	4.73671200
21.09999892	0.00000000	15.43430000	4.73671200
21.29999891	0.00000000	7.72022600	4.73671200
21.49999890	0.00000000	2.36220500	4.73671200
21.69999889	0.00000000	0.50442900	4.73671200
21.89999888	0.00000000	3.66633800	4.73671200
22.09999886	0.00000000	11.79872000	4.73671200
22.29999885	0.00000000	23.01919000	4.73671200
22.49999884	0.00000000	35.39001000	4.73671200
22.69999883	0.00000000	45.81693000	4.73671200
22.89999882	0.00000000	51.91314000	4.77977300
23.09999881	0.00000000	51.81471000	5.15501900
23.29999879	0.00000000	43.96531000	5.89320800
23.49999878	0.00000000	29.71826000	6.31151500
23.69999877	0.00000000	11.90330000	6.72982200
23.89999876	0.00000000	-5.03198800	7.47416300
24.09999875	0.00000000	-17.35974000	7.80019600
24.29999873	0.00000000	-21.50590000	7.42495000
24.49999872	0.00000000	-15.68651000	6.26845500
24.69999871	0.00000000	-0.94119090	4.73671200
24.89999870	0.00000000	19.90034000	3.15575800
25.09999869	0.00000000	42.27977000	1.57480300
25.29999867	0.00000000	60.42692000	0.09227362
25.49999866	0.00000000	70.43552000	-0.60285430
25.69999865	0.00000000	69.59277000	0.55364170
25.89999864	0.00000000	57.22195000	3.24803100
26.09999863	0.00000000	36.37426000	6.77903500
26.29999862	0.00000000	11.66954000	11.00517000
26.49999860	0.00000000	-11.12820000	14.81299000
26.69999859	0.00000000	-26.57480000	16.71998000
26.89999858	0.00000000	-31.60064000	16.35089000
27.09999857	0.00000000	-24.62475000	13.56422000
27.29999856	0.00000000	-7.26500900	8.45226300
27.49999854	0.00000000	16.27707000	1.11343500
27.69999853	0.00000000	40.60654000	-6.92052100
27.89999852	0.00000000	59.96555000	-13.05364000
28.09999851	0.00000000	70.43552000	-15.74803000
28.29999850	0.00000000	70.06028000	-14.12401000
28.49999848	0.00000000	58.89518000	-7.89862200
28.69999847	0.00000000	39.99754000	2.17765700
28.89999846	0.00000000	17.94414000	14.16092000
29.09999845	0.00000000	-2.52214600	25.68897000
29.29999844	0.00000000	-16.89837000	33.72293000
29.49999843	0.00000000	-22.38558000	35.62992000
29.69999841	0.00000000	-18.94070000	30.98548000
29.89999840	0.00000000	-7.31422200	20.48474000
30.09999839	0.00000000	9.99630800	5.75787400
30.29999838	0.00000000	28.55561000	-10.40846000
30.49999837	0.00000000	44.10064000	-24.24951000
30.69999835	0.00000000	54.23843000	-31.92052000
30.89999834	0.00000000	57.30807000	-31.55143000
31.09999833	0.00000000	52.70054000	-23.04995000
31.29999832	0.00000000	41.53543000	-8.36614100
31.49999831	0.00000000	26.87623000	9.43036400
31.69999829	0.00000000	12.17397000	26.80241000
31.89999828	0.00000000	0.50442900	39.95448000
32.09999827	0.00000000	-6.10851300	46.08759000
32.29999826	0.00000000	-6.93897600	43.76230000
32.49999825	0.00000000	-1.87007900	32.94168000
32.69999824	0.00000000	7.72022600	16.39395000
32.89999822	0.00000000	19.71580000	-2.18380900
33.09999821	0.00000000	30.93012000	-18.81767000
33.29999820	0.00000000	39.44390000	-30.43184000
33.49999819	0.00000000	43.30709000	-34.65797000
33.69999818	0.00000000	41.44931000	-30.43184000
33.89999816	0.00000000	35.30389000	-18.86688000
34.09999815	0.00000000	26.41486000	-2.65132900
34.29999814	0.00000000	16.78149000	14.72687000
34.49999813	0.00000000	9.06126900	29.40452000
34.69999812	0.00000000	4.77977300	38.33046000
34.89999810	0.00000000	4.77977300	39.90526000
35.09999809	0.00000000	8.96899500	34.14124000
35.29999808	0.00000000	15.85261000	22.52707000
35.49999807	0.00000000	23.20374000	7.47416300
35.69999806	0.00000000	29.34916000	-7.89862200
35.89999805	0.00000000	32.83710000	-19.42667000
36.09999803	0.00000000	32.46801000	-24.11417000
36.29999802	0.00000000	29.06619000	-21.51206000
36.49999801	0.00000000	23.62205000	-13.05364000
36.69999800	0.00000000	17.52584000	-1.11343500
36.89999799	0.00000000	12.54921000	11.57111000
37.09999797	0.00000000	10.59301000	21.55512000
37.29999796	0.00000000	11.66339000	26.24877000
37.49999795	0.00000000	14.82529000	25.13533000
37.69999794	0.00000000	19.80807000	19.00221000
37.89999793	0.00000000	25.47982000	9.38730200
38.09999791	0.00000000	28.97392000	-0.93503930
38.29999790	0.00000000	29.85974000	-8.96899500
38.49999789	0.00000000	29.10925000	-12.03863000
38.69999788	0.00000000	26.74089000	-9.38730200
38.89999787	0.00000000	23.24680000	-2.14074800
39.09999786	0.00000000	19.01451000	7.43110200
39.29999784	0.00000000	15.15748000	16.21555000
39.49999783	0.00000000	12.82603000	21.55512000
39.69999782	0.00000000	12.03863000	21.55512000
39.89999781	0.00000000	13.20128000	16.21555000
40.09999780	0.00000000	15.85261000	7.38188900
40.29999778	0.00000000	18.97145000	-2.60211600
40.49999777	0.00000000	22.13336000	-11.01132000
40.69999776	0.00000000	25.20300000	-15.19439000
40.89999775	0.00000000	27.52830000	-13.66265000
41.09999774	0.00000000	28.32185000	-6.78518600
41.29999772	0.00000000	27.98966000	3.20497000
41.49999771	0.00000000	26.78395000	13.56422000
41.69999770	0.00000000	24.82775000	21.64739000
41.89999769	0.00000000	22.09030000	25.13533000
42.09999768	0.00000000	19.01451000	23.64665000
42.29999767	0.00000000	16.32013000	17.83957000
42.49999765	0.00000000	14.73917000	9.01205700
42.69999764	0.00000000	14.32087000	-0.60285430
42.89999763	0.00000000	14.69611000	-8.27386800
43.09999762	0.00000000	15.90182000	-12.17397000
43.29999761	0.00000000	17.80881000	-11.42962000
43.49999759	0.00000000	20.13410000	-6.87746000
43.69999758	0.00000000	22.04109000	0.04306102
43.89999757	0.00000000	23.24680000	7.33882900
44.09999756	0.00000000	23.71432000	13.18898000
44.29999755	0.00000000	24.13263000	16.67692000
44.49999753	0.00000000	24.87697000	17.46432000
44.69999752	0.00000000	25.25221000	15.18824000
44.89999751	0.00000000	25.25221000	11.00517000
45.09999750	0.00000000	24.82775000	6.35457700
45.29999749	0.00000000	23.62205000	2.08538400
45.49999748	0.00000000	21.66585000	-0.97810030
45.69999746	0.00000000	18.92839000	-2.18380900
45.89999745	0.00000000	15.85261000	-1.48868100
46.09999744	0.00000000	13.11516000	0.09227362
46.29999743	0.00000000	11.15896000	2.41141700
46.49999742	0.00000000	10.08243000	5.51796200
46.69999740	0.00000000	11.01747000	8.17544300
46.89999739	0.00000000	15.20054000	10.16855000
47.09999738	0.00000000	21.33981000	10.91289000
47.29999737	0.00000000	27.20841000	10.53765000
47.49999736	0.00000000	32.64640000	8.96284400
47.69999734	0.00000000	36.37426000	6.31151500
47.89999733	0.00000000	36.37426000	3.61712600
48.09999732	0.00000000	32.51107000	1.62401600
48.29999731	0.00000000	25.90428000	0.09227362
48.49999730	0.00000000	17.39050000	-0.60285430
48.69999729	0.00000000	8.96899500	0.55364170
48.89999727	0.00000000	3.19881900	3.19881900
49.09999726	0.00000000	1.61786400	6.31151500
49.29999725	0.00000000	4.36146600	9.38115100
49.49999724	0.00000000	10.92520000	11.70029000
49.69999723	0.00000000	20.17716000	12.45079000
49.89999721	0.00000000	29.39837000	11.65723000
50.09999720	0.00000000	36.37426000	8.96284400
50.29999719	0.00000000	39.45005000	5.11195900
50.49999718	0.00000000	37.91216000	1.24877000
50.69999717	0.00000000	32.13582000	-2.18380900
50.89999715	0.00000000	23.67126000	-3.67249000
51.09999714	0.00000000	14.82529000	-2.60211600
51.29999713	0.00000000	7.85556000	0.09227362
51.49999712	0.00000000	4.36146600	3.57406500
51.69999711	0.00000000	4.77977300	7.51722400
51.89999710	0.00000000	9.43651600	11.28814000
52.09999708	0.00000000	17.43356000	13.92717000
52.29999707	0.00000000	25.85507000	13.56422000
52.49999706	0.00000000	32.04970000	10.96211000
52.69999705	0.00000000	34.75024000	7.47416300
52.89999704	0.00000000	33.25541000	3.62327700
53.09999702	0.00000000	28.27879000	0.55364170
53.29999701	0.00000000	21.75812000	-1.02116100
53.49999700	0.00000000	15.20054000	-1.02116100
53.69999699	0.00000000	10.59301000	0.51058070
53.89999698	0.00000000	9.06126900	3.19881900
54.09999696	0.00000000	10.96826000	6.22539300
54.29999695	0.00000000	15.94488000	8.54453700
54.49999694	0.00000000	22.04109000	9.29502900
54.69999693	0.00000000	27.43602000	8.54453700
54.89999692	0.00000000	30.51181000	6.26845500
55.09999691	0.00000000	30.55487000	3.61712600
55.29999689	0.00000000	27.86048000	1.71013800
55.49999688	0.00000000	23.24680000	0.97194880
55.69999687	0.00000000	17.90108000	2.12844500
55.89999686	0.00000000	13.66880000	4.77977300
56.09999685	0.00000000	11.66339000	7.84940900
56.29999683	0.00000000	11.66339000	10.49459000
56.49999682	0.00000000	13.66880000	11.60802000
56.69999681	0.00000000	17.85802000	10.45152000
56.89999680	0.00000000	22.78543000	7.38188900
57.09999679	0.00000000	26.32259000	3.15575800
57.29999677	0.00000000	28.27879000	-1.07037400
57.49999676	0.00000000	28.64173000	-4.13385800
57.69999675	0.00000000	26.69783000	-5.25344500
57.89999674	0.00000000	23.29601000	-3.62942900
58.09999673	0.00000000	19.43897000	0.97194880
58.29999672	0.00000000	16.36319000	7.47416300
58.49999670	0.00000000	14.82529000	13.61343000
58.69999669	0.00000000	15.15748000	17.83957000
58.89999668	0.00000000	17.01525000	18.95300000
59.09999667	0.00000000	18.97145000	16.30167000
59.29999666	0.00000000	20.92766000	10.91289000
59.49999664	0.00000000	22.82849000	4.31840500
59.69999663	0.00000000	23.57899000	-2.60211600
59.89999662	0.00000000	23.24680000	-7.94783400
60.09999661	0.00000000	22.09030000	-9.85482200
60.29999660	0.00000000	20.59547000	-7.89862200
60.49999658	0.00000000	19.43897000	-2.14074800
60.69999657	0.00000000	19.06373000	5.85014700
60.89999656	0.00000000	19.43897000	13.18898000
61.09999655	0.00000000	20.55241000	18.25787000
61.29999654	0.00000000	21.66585000	20.53395000
61.49999653	0.00000000	22.09030000	18.95300000
61.69999651	0.00000000	22.09030000	13.56422000
61.89999650	0.00000000	21.66585000	5.89320800
62.09999649	0.00000000	20.50935000	-2.18380900
62.29999648	0.00000000	18.97145000	-8.36614100
62.49999647	0.00000000	17.43356000	-11.47884000
62.69999645	0.00000000	16.27707000	-11.06053000
62.89999644	0.00000000	15.94488000	-6.82824800
63.09999643	0.00000000	16.69537000	0.09227362
63.29999642	0.00000000	18.63927000	7.80019600
63.49999641	0.00000000	20.92766000	14.72687000
63.69999639	0.00000000	23.29601000	19.00221000
63.89999638	0.00000000	25.15994000	19.79577000
64.09999637	0.00000000	25.94734000	17.50738000
64.29999636	0.00000000	25.15994000	12.49385000
64.49999635	0.00000000	23.24680000	6.36072800
64.69999634	0.00000000	20.55241000	0.51058070
64.89999632	0.00000000	17.85802000	-4.14000900
65.09999631	0.00000000	15.94488000	-6.82824800
65.29999630	0.00000000	15.15748000	-6.82824800
65.49999629	0.00000000	15.94488000	-4.18307100
65.69999628	0.00000000	17.80881000	0.00000000
65.89999626	0.00000000	20.13410000	4.26919300
66.09999625	0.00000000	22.04109000	7.84940900
66.29999624	0.00000000	23.24680000	10.96211000
66.49999623	0.00000000	23.57899000	13.28125000
66.69999622	0.00000000	22.82849000	14.07480000
66.89999620	0.00000000	20.92766000	13.69956000
67.09999619	0.00000000	19.01451000	12.11860000
67.29999618	0.00000000	17.48277000	9.42421200
67.49999617	0.00000000	16.78149000	6.31151500
67.69999616	0.00000000	17.94414000	3.15575800
67.89999615	0.00000000	20.55241000	0.04306102
68.09999613	0.00000000	23.24680000	-2.69439000
68.29999612	0.00000000	25.20300000	-4.55831700
68.49999611	0.00000000	26.32259000	-4.92125900
68.69999610	0.00000000	25.85507000	-3.02042300
68.89999609	0.00000000	23.16068000	0.09227362
69.09999607	0.00000000	18.97145000	4.04158400
69.29999606	0.00000000	14.73917000	9.05511800
69.49999605	0.00000000	11.66339000	13.61343000
69.69999604	0.00000000	10.50689000	16.35089000
69.89999603	0.00000000	11.66339000	16.71998000
70.09999601	0.00000000	14.78223000	14.76993000
70.29999600	0.00000000	19.48204000	10.53765000
70.49999599	0.00000000	25.20300000	5.15501900
70.69999598	0.00000000	30.17962000	0.13533460
70.89999597	0.00000000	32.51107000	-3.76476400
71.09999596	0.00000000	32.13582000	-5.67175200
71.29999594	0.00000000	29.01698000	-5.29650500
71.49999593	0.00000000	23.57899000	-2.60211600
71.69999592	0.00000000	17.05832000	1.62401600
71.89999591	0.00000000	10.88213000	6.26845500
72.09999590	0.00000000	7.05585600	10.49459000
72.29999588	0.00000000	6.22539300	13.14591000
72.49999587	0.00000000	8.55068800	13.18898000
72.69999586	0.00000000	13.20128000	10.96211000
72.89999585	0.00000000	19.38976000	7.89247000
73.09999584	0.00000000	25.94734000	4.82283400
73.29999582	0.00000000	30.93012000	2.50369100
73.49999581	0.00000000	33.29847000	1.71013800
73.69999580	0.00000000	32.51107000	2.04232300
73.89999579	0.00000000	29.10925000	3.19881900
74.09999578	0.00000000	24.04650000	4.68750000
74.29999577	0.00000000	18.63927000	5.80093500
74.49999575	0.00000000	13.61959000	5.80093500
74.69999574	0.00000000	10.54995000	4.68750000
74.89999573	0.00000000	10.08243000	3.15575800
75.09999572	0.00000000	11.62032000	1.57480300
75.29999571	0.00000000	14.69611000	0.13533460
75.49999569	0.00000000	18.55315000	-0.18454720
75.69999568	0.00000000	22.04109000	1.75935000
75.89999567	0.00000000	24.78469000	5.15501900
76.09999566	0.00000000	26.32259000	9.05511800
76.29999565	0.00000000	26.32259000	12.49385000
76.49999563	0.00000000	24.82775000	14.76993000
76.69999562	0.00000000	22.55167000	14.67766000
76.89999561	0.00000000	20.64468000	11.60802000
77.09999560	0.00000000	19.43897000	6.26845500
77.29999559	0.00000000	19.06373000	0.51058070
77.49999558	0.00000000	19.34670000	-4.18307100
77.69999556	0.00000000	19.71580000	-7.25270600
77.89999555	0.00000000	19.34670000	-7.99089500
78.09999554	0.00000000	18.97145000	-5.67175200
78.29999553	0.00000000	18.55315000	-1.02116100
78.49999552	0.00000000	17.80881000	5.15501900
78.69999550	0.00000000	17.48277000	11.65723000
78.89999549	0.00000000	17.85802000	16.30167000
79.09999548	0.00000000	19.06373000	18.25787000
79.29999547	0.00000000	20.97072000	17.50738000
79.49999546	0.00000000	23.24680000	14.03174000
79.69999544	0.00000000	24.78469000	9.00590400
79.89999543	0.00000000	25.20300000	3.20497000
80.09999542	0.00000000	24.78469000	-2.18380900
80.29999541	0.00000000	23.20374000	-5.67175200
80.49999540	0.00000000	20.55241000	-6.87130900
80.69999539	0.00000000	17.80881000	-5.71481200
80.89999537	0.00000000	15.52657000	-2.64517700
81.09999536	0.00000000	13.95177000	1.57480300
81.29999535	0.00000000	13.98868000	5.85014700
81.49999534	0.00000000	15.11442000	9.38115100
81.69999533	0.00000000	17.48277000	12.11860000
81.89999531	0.00000000	20.50935000	13.65650000
82.09999530	0.00000000	23.24680000	13.65650000
82.29999529	0.00000000	25.15994000	12.11860000
82.49999528	0.00000000	25.90428000	9.42421200
82.69999527	0.00000000	24.78469000	6.31151500
82.89999525	0.00000000	22.50861000	3.15575800
83.09999524	0.00000000	20.17716000	0.04306102
83.29999523	0.00000000	17.85802000	-2.64517700
83.49999522	0.00000000	16.36319000	-4.18307100
83.69999521	0.00000000	16.32013000	-4.18307100
83.89999520	0.00000000	17.39050000	-2.60211600
84.09999518	0.00000000	18.55315000	0.46751960
84.29999517	0.00000000	19.38976000	4.36146600
84.49999516	0.00000000	20.50935000	8.22465500
84.69999515	0.00000000	21.29675000	11.79257000
84.89999514	0.00000000	21.30290000	14.40084000
85.09999512	0.00000000	21.33981000	15.55733000
85.29999511	0.00000000	20.92766000	13.98253000
85.49999510	0.00000000	20.59547000	10.53765000
85.69999509	0.00000000	20.59547000	5.85014700
85.89999508	0.00000000	20.97072000	0.46136810
86.09999506	0.00000000	21.66585000	-4.09079700
86.29999505	0.00000000	21.66585000	-6.40994000
86.49999504	0.00000000	20.92766000	-5.71481200
86.69999503	0.00000000	20.13410000	-3.02042300
86.89999502	0.00000000	18.97145000	0.87967510
87.09999501	0.00000000	17.80881000	5.89320800
87.29999499	0.00000000	17.05832000	10.49459000
87.49999498	0.00000000	16.69537000	13.60728000
87.69999497	0.00000000	17.48277000	14.72687000
87.89999496	0.00000000	18.97145000	13.18898000
88.09999495	0.00000000	20.55241000	9.38115100
88.29999493	0.00000000	22.09030000	4.77977300
88.49999492	0.00000000	23.24680000	0.51058070
88.69999491	0.00000000	23.62205000	-2.55905500
88.89999490	0.00000000	23.24680000	-3.71555100
89.09999489	0.00000000	22.04109000	-2.55905500
89.29999487	0.00000000	20.17716000	0.51058070
89.49999486	0.00000000	18.22711000	4.73671200
89.69999485	0.00000000	17.10753000	8.96284400
89.89999484	0.00000000	16.64616000	12.03248000
90.09999483	0.00000000	17.05832000	13.14591000
90.29999482	0.00000000	17.76575000	11.61417000
90.49999480	0.00000000	18.63927000	7.84940900
90.69999479	0.00000000	19.76501000	3.62327700
90.89999478	0.00000000	21.29675000	0.13533460
91.09999477	0.00000000	22.04109000	-2.18380900
91.29999476	0.00000000	22.09030000	-2.55905500
91.49999474	0.00000000	21.71506000	-1.02116100
91.69999473	0.00000000	20.97072000	2.08538400
91.89999472	0.00000000	20.59547000	6.26845500
92.09999471	0.00000000	20.55241000	10.07628000
92.29999470	0.00000000	20.55241000	12.03248000
92.49999468	0.00000000	20.50935000	12.03248000
92.69999467	0.00000000	20.13410000	10.07628000
92.89999466	0.00000000	19.34670000	6.21924200
93.09999465	0.00000000	18.59621000	1.66707700
93.29999464	0.00000000	17.80881000	-2.14074800
93.49999463	0.00000000	17.43356000	-3.67249000
93.69999461	0.00000000	17.43356000	-2.60211600
93.89999460	0.00000000	17.85802000	0.09227362
94.09999459	0.00000000	19.01451000	3.57406500
94.29999458	0.00000000	20.59547000	7.42495000
94.49999457	0.00000000	22.50861000	10.49459000
94.69999455	0.00000000	24.36639000	12.03248000
94.89999454	0.00000000	24.78469000	11.61417000
95.09999453	0.00000000	24.04650000	8.91978400
95.29999452	0.00000000	22.82849000	4.73671200
95.49999451	0.00000000	20.46014000	0.55364170
95.69999449	0.00000000	17.43356000	-2.14074800
95.89999448	0.00000000	14.73917000	-2.55905500
96.09999447	0.00000000	13.20128000	-1.07037400
96.29999446	0.00000000	13.15822000	1.66707700
96.49999445	0.00000000	14.36393000	5.11195900
96.69999444	0.00000000	16.69537000	8.54453700
96.89999442	0.00000000	20.17716000	10.45152000
97.09999441	0.00000000	23.62205000	10.53765000
97.29999440	0.00000000	26.36565000	9.38115100
97.49999439	0.00000000	27.90354000	7.43110200
97.69999438	0.00000000	27.90354000	4.73671200
97.89999436	0.00000000	26.32259000	2.08538400
98.09999435	0.00000000	23.20374000	0.55364170
98.29999434	0.00000000	19.01451000	0.51058070
98.49999433	0.00000000	15.15748000	1.62401600
98.69999432	0.00000000	12.78297000	3.15575800
98.89999430	0.00000000	11.62032000	4.68750000
99.09999429	0.00000000	12.03863000	5.85014700
99.29999428	0.00000000	14.36393000	6.26845500
99.49999427	0.00000000	17.80881000	6.26845500
99.69999426	0.00000000	21.66585000	5.89320800
99.89999425	0.00000000	24.78469000	5.19808000
100.09999423	0.00000000	26.74089000	5.19808000
100.29999422	0.00000000	27.48524000	5.89320800
100.49999421	0.00000000	26.36565000	6.26845500
100.69999420	0.00000000	24.08957000	6.31151500
100.89999419	0.00000000	21.71506000	6.26845500
101.09999417	0.00000000	18.97145000	5.80093500
101.29999416	0.00000000	16.27707000	4.31840500
101.49999415	0.00000000	14.36393000	2.41141700
101.69999414	0.00000000	13.57652000	1.24877000
101.89999413	0.00000000	14.32087000	0.46136810
102.09999411	0.00000000	15.85261000	0.55364170
102.29999410	0.00000000	17.80881000	2.04232300
102.49999409	0.00000000	20.13410000	4.36146600
102.69999408	0.00000000	22.09030000	6.68676100
102.89999407	0.00000000	23.67126000	9.05511800
103.09999406	0.00000000	24.78469000	10.86983000
103.29999404	0.00000000	24.74163000	11.23893000
103.49999403	0.00000000	23.24680000	9.33809000
103.69999402	0.00000000	20.97072000	6.31151500
103.89999401	0.00000000	19.06373000	3.19881900
104.09999400	0.00000000	17.80881000	0.51058070
104.29999398	0.00000000	17.01525000	-1.06422200
104.49999397	0.00000000	16.27707000	-1.43946800
104.69999396	0.00000000	16.32013000	-0.64591530
104.89999395	0.00000000	17.43356000	1.66707700
105.09999394	0.00000000	18.97145000	4.68750000
105.29999392	0.00000000	20.50935000	7.38188900
105.49999391	0.00000000	21.66585000	8.96284400
105.69999390	0.00000000	22.04109000	9.33809000
105.89999389	0.00000000	21.66585000	8.54453700
106.09999388	0.00000000	20.55241000	6.31151500
106.29999387	0.00000000	19.38976000	3.99237200
106.49999385	0.00000000	18.59621000	2.40526600
106.69999384	0.00000000	17.85802000	0.87967510
106.89999383	0.00000000	17.85802000	0.55364170
107.09999382	0.00000000	18.59621000	1.62401600
107.29999381	0.00000000	19.38976000	3.15575800
107.49999379	0.00000000	20.55241000	4.73671200
107.69999378	0.00000000	21.62278000	6.22539300
107.89999377	0.00000000	21.66585000	7.00664300
108.09999376	0.00000000	20.92766000	6.64370100
108.29999375	0.00000000	20.13410000	5.89320800
108.49999374	0.00000000	18.97145000	4.68750000
108.69999372	0.00000000	17.85802000	3.19881900
108.89999371	0.00000000	17.43356000	2.08538400
109.09999370	0.00000000	17.43356000	2.04232300
109.29999369	0.00000000	17.85802000	2.82357300
109.49999368	0.00000000	19.01451000	3.99237200
109.69999366	0.00000000	20.50935000	5.89320800
109.89999365	0.00000000	21.66585000	7.38188900
110.09999364	0.00000000	22.09030000	7.80019600
110.29999363	0.00000000	22.09030000	7.42495000
110.49999362	0.00000000	21.66585000	6.26845500
110.69999360	0.00000000	20.50935000	4.73671200
110.89999359	0.00000000	19.01451000	3.19881900
111.09999358	0.00000000	17.80881000	2.04232300
111.29999357	0.00000000	17.05832000	1.66707700
111.49999356	0.00000000	16.64616000	1.99311000
111.69999355	0.00000000	17.05832000	2.78051200
111.89999353	0.00000000	17.80881000	3.57406500
112.09999352	0.00000000	18.97145000	4.73671200
112.29999351	0.00000000	20.08489000	5.85014700
112.49999350	0.00000000	20.50935000	6.26845500
112.69999349	0.00000000	20.55241000	6.31151500
112.89999347	0.00000000	20.55241000	6.26845500
113.09999346	0.00000000	20.50935000	5.89320800
113.29999345	0.00000000	20.13410000	5.15501900
113.49999344	0.00000000	19.34670000	4.77977300
113.69999343	0.00000000	18.59621000	4.73671200
113.89999341	0.00000000	17.85802000	4.69365100
114.09999340	0.00000000	17.85802000	4.31840500
114.29999339	0.00000000	18.55315000	3.57406500
114.49999338	0.00000000	18.92839000	3.19881900
114.69999337	0.00000000	19.01451000	3.15575800
114.89999336	0.00000000	19.34670000	3.15575800
115.09999334	0.00000000	19.75886000	3.15575800
115.29999333	0.00000000	19.76501000	3.15575800
115.49999332	0.00000000	20.17716000	3.19881900
115.69999331	0.00000000	20.46014000	3.57406500
115.89999330	0.00000000	20.13410000	4.36146600
116.09999328	0.00000000	19.34670000	5.11195900
116.29999327	0.00000000	18.59621000	5.89320800
116.49999326	0.00000000	17.80881000	6.26845500
116.69999325	0.00000000	17.43356000	6.26845500
116.89999324	0.00000000	17.43356000	5.89320800
117.09999322	0.00000000	17.85802000	5.11195900
117.29999321	0.00000000	18.97145000	4.36146600
117.49999320	0.00000000	20.08489000	3.53100400
117.69999319	0.00000000	20.55241000	2.82357300
117.89999318	0.00000000	20.97072000	2.41141700
118.09999317	0.00000000	21.66585000	2.78051200
118.29999315	0.00000000	21.62278000	3.15575800
118.49999314	0.00000000	20.50935000	3.57406500
118.69999313	0.00000000	19.01451000	4.36146600
118.89999312	0.00000000	17.80881000	5.11195900
119.09999311	0.00000000	17.01525000	5.89320800
119.29999309	0.00000000	16.27707000	6.26845500
119.49999308	0.00000000	16.27707000	6.26845500
119.69999307	0.00000000	17.01525000	5.89320800
119.89999306	0.00000000	17.80881000	5.15501900
120.09999305	0.00000000	19.01451000	4.77977300
120.29999303	0.00000000	20.50935000	4.73671200
120.49999302	0.00000000	21.66585000	4.73671200
120.69999301	0.00000000	22.09030000	4.73671200
120.89999300	0.00000000	22.09030000	4.69365100
121.09999299	0.00000000	21.66585000	4.31840500
121.29999298	0.00000000	20.50935000	3.57406500
121.49999296	0.00000000	19.01451000	3.19881900
121.69999295	0.00000000	17.80881000	3.15575800
121.89999294	0.00000000	17.05832000	3.19881900
122.09999293	0.00000000	16.64616000	3.57406500
122.29999292	0.00000000	17.05832000	4.36146600
122.49999290	0.00000000	17.76575000	5.11195900
122.69999289	0.00000000	18.59621000	5.89320800
122.89999288	0.00000000	19.34670000	6.26845500
123.09999287	0.00000000	20.13410000	6.31151500
123.29999286	0.00000000	20.50935000	6.26845500
123.49999284	0.00000000	20.55241000	5.89320800
123.69999283	0.00000000	20.55241000	5.11195900
123.89999282	0.00000000	20.55241000	4.36146600
124.09999281	0.00000000	20.50935000	3.57406500
124.29999280	0.00000000	20.13410000	3.19881900
124.49999279	0.00000000	19.34670000	3.15575800
124.69999277	0.00000000	18.59621000	3.19881900
124.89999276	0.00000000	17.80881000	3.57406500
125.09999275	0.00000000	17.43356000	4.31840500
125.29999274	0.00000000	17.43356000	4.69365100
125.49999273	0.00000000	17.80881000	4.73671200
125.69999271	0.00000000	18.59621000	4.77977300
125.89999270	0.00000000	19.34670000	5.11195900
126.09999269	0.00000000	20.13410000	5.47490100
126.29999268	0.00000000	20.55241000	5.11195900
126.49999267	0.00000000	20.92766000	4.77977300
126.69999265	0.00000000	21.29675000	4.69365100
126.89999264	0.00000000	20.88459000	4.31840500
127.09999263	0.00000000	20.17716000	3.57406500
127.29999262	0.00000000	19.34670000	3.19881900
127.49999261	0.00000000	18.59621000	3.19881900
127.69999260	0.00000000	17.80881000	3.57406500
127.89999258	0.00000000	17.43356000	4.31840500
128.09999257	0.00000000	17.43356000	4.69365100
128.29999256	0.00000000	17.85802000	4.73671200
128.49999255	0.00000000	18.97145000	4.73671200
128.69999254	0.00000000	20.13410000	4.73671200
128.89999252	0.00000000	20.92766000	4.73671200
129.09999251	0.00000000	21.66585000	4.73671200
129.29999250	0.00000000	21.62278000	4.73671200
129.49999249	0.00000000	20.55241000	4.69365100
129.69999248	0.00000000	19.38976000	4.31840500
129.89999246	0.00000000	18.59621000	3.62327700
130.09999245	0.00000000	17.80881000	3.62327700
130.29999244	0.00000000	17.43356000	4.31840500
130.49999243	0.00000000	17.43356000	4.69365100
130.69999242	0.00000000	17.80881000	4.73671200
130.89999241	0.00000000	18.59621000	4.73671200
131.09999239	0.00000000	19.34670000	4.73671200
131.29999238	0.00000000	20.13410000	4.73671200
131.49999237	0.00000000	20.50935000	4.69365100
131.69999236	0.00000000	20.55241000	4.31840500
131.89999235	0.00000000	20.50935000	3.57406500
132.09999233	0.00000000	20.13410000	3.19881900
132.29999232	0.00000000	19.34670000	3.15575800
132.49999231	0.00000000	18.59621000	3.15575800
132.69999230	0.00000000	17.80881000	3.19881900
132.89999229	0.00000000	17.48277000	3.57406500
133.09999227	0.00000000	17.80881000	4.36146600
133.29999226	0.00000000	18.55315000	5.11195900
133.49999225	0.00000000	18.92839000	5.89320800
133.69999224	0.00000000	19.01451000	6.21924200
133.89999223	0.00000000	19.34670000	5.89320800
134.09999222	0.00000000	19.71580000	5.11195900
134.29999220	0.00000000	19.34670000	4.36146600
134.49999219	0.00000000	19.01451000	3.57406500
134.69999218	0.00000000	18.97145000	3.15575800
134.89999217	0.00000000	18.97145000	2.73745100
135.09999216	0.00000000	19.01451000	2.04232300
135.29999214	0.00000000	19.34670000	2.04232300
135.49999213	0.00000000	19.71580000	2.78051200
135.69999212	0.00000000	19.34670000	3.53100400
135.89999211	0.00000000	19.01451000	4.36146600
136.09999210	0.00000000	18.92839000	5.11195900
136.29999208	0.00000000	18.55315000	5.89320800
136.49999207	0.00000000	17.80881000	6.21924200
136.69999206	0.00000000	17.43356000	5.89320800
136.89999205	0.00000000	17.43356000	5.15501900
137.09999204	0.00000000	17.80881000	4.73671200
137.29999203	0.00000000	18.59621000	4.31840500
137.49999201	0.00000000	19.34670000	3.57406500
137.69999200	0.00000000	20.13410000	3.19881900
137.89999199	0.00000000	20.50935000	3.15575800
138.09999198	0.00000000	20.50935000	3.15575800
138.29999197	0.00000000	20.13410000	3.15575800
138.49999195	0.00000000	19.38976000	3.15575800
138.69999194	0.00000000	18.97145000	3.19881900
138.89999193	0.00000000	18.55315000	3.57406500
139.09999192	0.00000000	17.80881000	4.31840500
139.29999191	0.00000000	17.43356000	4.73671200
139.49999189	0.00000000	17.39050000	5.15501900
139.69999188	0.00000000	17.43356000	5.89320800
139.89999187	0.00000000	17.85802000	6.21924200
140.09999186	0.00000000	18.97145000	5.89320800
140.29999185	0.00000000	20.08489000	5.11195900
140.49999184	0.00000000	20.46014000	4.36146600
140.69999182	0.00000000	20.13410000	3.57406500
140.89999181	0.00000000	19.38976000	3.19881900
141.09999180	0.00000000	19.01451000	3.15575800
141.29999179	0.00000000	18.97145000	3.15575800
141.49999178	0.00000000	18.97145000	3.19881900
141.69999176	0.00000000	18.97145000	3.57406500
141.89999175	0.00000000	18.97145000	4.36146600
142.09999174	0.00000000	18.97145000	5.11195900
142.29999173	0.00000000	18.97145000	5.89320800
142.49999172	0.00000000	18.97145000	6.26845500
142.69999170	0.00000000	18.97145000	6.31151500
142.89999169	0.00000000	18.97145000	6.21924200
143.09999168	0.00000000	18.97145000	5.47490100
143.29999167	0.00000000	18.97145000	3.94931100
143.49999166	0.00000000	18.92839000	2.82357300
143.69999165	0.00000000	18.59621000	2.04232300
143.89999163	0.00000000	18.22711000	2.04232300
144.09999162	0.00000000	18.59621000	2.78051200
144.29999161	0.00000000	18.92839000	3.53100400
144.49999160	0.00000000	18.97145000	4.31840500
144.69999159	0.00000000	19.01451000	4.73671200
144.89999157	0.00000000	19.34670000	5.11195900
145.09999156	0.00000000	19.71580000	5.47490100
145.29999155	0.00000000	19.30364000	5.11195900
145.49999154	0.00000000	18.59621000	4.73671200
145.69999153	0.00000000	17.80881000	4.31840500
145.89999151	0.00000000	17.48277000	3.57406500
146.09999150	0.00000000	17.80881000	3.19881900
146.29999149	0.00000000	18.55315000	3.15575800
146.49999148	0.00000000	18.92839000	3.15575800
146.69999147	0.00000000	18.97145000	3.15575800
146.89999146	0.00000000	19.01451000	3.19881900
147.09999144	0.00000000	19.38976000	3.57406500
147.29999143	0.00000000	20.08489000	4.31840500
147.49999142	0.00000000	20.08489000	4.69365100
147.69999141	0.00000000	19.38976000	4.73671200
147.89999140	0.00000000	19.01451000	4.73671200
148.09999138	0.00000000	18.92839000	4.73671200
148.29999137	0.00000000	18.55315000	4.73671200
148.49999136	0.00000000	17.80881000	4.73671200
148.69999135	0.00000000	17.48277000	4.73671200
148.89999134	0.00000000	17.80881000	4.73671200
149.09999132	0.00000000	18.55315000	4.69365100
149.29999131	0.00000000	18.97145000	4.31840500
149.49999130	0.00000000	19.38976000	3.57406500
149.69999129	0.00000000	20.08489000	3.19881900
149.89999128	0.00000000	20.08489000	3.15575800
150.09999127	0.00000000	19.38976000	3.19881900
150.29999125	0.00000000	19.01451000	3.53100400
150.49999124	0.00000000	18.97145000	3.98622000
150.69999123	0.00000000	18.92839000	4.32455700
150.89999122	0.00000000	18.55315000	5.09965500
151.09999121	0.00000000	17.80881000	5.06274600
151.29999119	0.00000000	17.43356000	4.77977300
151.49999118	0.00000000	17.43356000	4.73671200
151.69999117	0.00000000	17.80881000	4.73671200
151.89999116	0.00000000	18.55315000	4.69365100
152.09999115	0.00000000	18.92839000	4.31840500
152.29999113	0.00000000	18.97145000	3.57406500
152.49999112	0.00000000	18.97145000	3.24803100
152.69999111	0.00000000	18.97145000	3.57406500
152.89999110	0.00000000	18.97145000	4.31840500
153.09999109	0.00000000	18.97145000	4.69365100
153.29999108	0.00000000	18.97145000	4.73671200
153.49999106	0.00000000	18.92839000	4.73671200
153.69999105	0.00000000	18.55315000	4.73671200
153.89999104	0.00000000	17.80881000	4.73671200
154.09999103	0.00000000	17.43356000	4.73671200
154.29999102	0.00000000	17.39050000	4.73671200
154.49999100	0.00000000	17.39050000	4.73671200
154.69999099	0.00000000	17.43356000	4.73671200
154.89999098	0.00000000	17.80881000	4.73671200
155.09999097	0.00000000	18.55315000	4.69365100
155.29999096	0.00000000	18.92839000	4.36146600
155.49999094	0.00000000	18.97145000	3.94931100
155.69999093	0.00000000	18.97145000	3.94315900
155.89999092	0.00000000	18.97145000	3.53100400
156.09999091	0.00000000	18.97145000	3.19881900
156.29999090	0.00000000	18.97145000	3.19881900
156.49999089	0.00000000	18.92839000	3.57406500
156.69999087	0.00000000	18.55315000	4.31840500
156.89999086	0.00000000	17.80881000	4.69365100
157.09999085	0.00000000	17.43356000	4.73671200
157.29999084	0.00000000	17.39050000	4.73671200
157.49999083	0.00000000	17.39050000	4.73671200
157.69999081	0.00000000	17.43356000	4.73671200
157.89999080	0.00000000	17.80881000	4.73671200
158.09999079	0.00000000	18.55315000	4.69365100
158.29999078	0.00000000	18.92839000	4.31840500
158.49999077	0.00000000	18.97145000	3.57406500
158.69999075	0.00000000	18.97145000	3.19881900
158.89999074	0.00000000	18.97145000	3.15575800
159.09999073	0.00000000	18.97145000	3.19881900
159.29999072	0.00000000	18.97145000	3.57406500
159.49999071	0.00000000	18.97145000	4.31840500
159.69999070	0.00000000	18.92839000	4.69365100
159.89999068	0.00000000	18.55315000	4.73671200
160.09999067	0.00000000	17.80881000	4.73671200
160.29999066	0.00000000	17.43356000	4.73671200
160.49999065	0.00000000	17.43356000	4.73671200
160.69999064	0.00000000	17.80881000	4.69365100
160.89999062	0.00000000	18.55315000	4.31840500
161.09999061	0.00000000	18.92839000	3.57406500
161.29999060	0.00000000	18.97145000	3.19881900
161.49999059	0.00000000	18.97145000	3.15575800
161.69999058	0.00000000	18.97145000	3.19881900
161.89999056	0.00000000	18.97145000	3.57406500
162.09999055	0.00000000	18.97145000	4.31840500
162.29999054	0.00000000	18.97145000	4.69365100
162.49999053	0.00000000	18.97145000	4.73671200
162.69999052	0.00000000	18.97145000	4.73671200
162.89999051	0.00000000	18.92839000	4.73671200
163.09999049	0.00000000	18.55315000	4.73671200
163.29999048	0.00000000	17.80881000	4.73671200
163.49999047	0.00000000	17.43356000	4.73671200
163.69999046	0.00000000	17.39050000	4.73671200
163.89999045	0.00000000	17.39050000	4.73671200
164.09999043	0.00000000	17.39050000	4.69365100
164.29999042	0.00000000	17.43356000	4.31840500
164.49999041	0.00000000	17.80881000	3.57406500
164.69999040	0.00000000	18.55315000	3.19881900
164.89999039	0.00000000	18.92839000	3.15575800
165.09999037	0.00000000	18.97145000	3.19881900
165.29999036	0.00000000	18.97145000	3.57406500
165.49999035	0.00000000	18.97145000	4.31840500
165.69999034	0.00000000	18.97145000	4.69365100
165.89999033	0.00000000	18.92839000	4.73671200
166.09999032	0.00000000	18.55315000	4.73671200
166.29999030	0.00000000	17.80881000	4.73671200
166.49999029	0.00000000	17.43356000	4.69365100
166.69999028	0.00000000	17.39050000	4.31840500
166.89999027	0.00000000	17.39050000	3.57406500
167.09999026	0.00000000	17.43356000	3.19881900
167.29999024	0.00000000	17.80881000	3.15575800
167.49999023	0.00000000	18.55315000	3.15575800
167.69999022	0.00000000	18.92839000	3.15575800
167.89999021	0.00000000	18.97145000	3.15575800
168.09999020	0.00000000	18.97145000	3.15575800
168.29999018	0.00000000	18.97145000	3.15575800
168.49999017	0.00000000	18.97145000	3.15575800
168.69999016	0.00000000	18.97145000	3.19881900
168.89999015	0.00000000	18.97145000	3.57406500
169.09999014	0.00000000	18.92839000	4.31840500
169.29999013	0.00000000	18.55315000	4.64443900
169.49999011	0.00000000	17.80881000	4.36146600
169.69999010	0.00000000	17.43356000	3.99237200
169.89999009	0.00000000	17.43356000	4.36146600
170.09999008	0.00000000	17.76575000	4.69365100
170.29999007	0.00000000	18.17790000	4.73671200
170.49999005	0.00000000	18.18405000	4.73671200
170.69999004	0.00000000	18.59621000	4.73671200
170.89999003	0.00000000	18.92839000	4.73671200
171.09999002	0.00000000	18.97145000	4.69365100
171.29999001	0.00000000	18.97145000	4.31840500
171.49998999	0.00000000	18.97145000	3.57406500
171.69998998	0.00000000	18.97145000	3.19881900
171.89998997	0.00000000	18.97145000	3.15575800
172.09998996	0.00000000	18.92839000	3.15575800
172.29998995	0.00000000	18.55315000	3.15575800
172.49998994	0.00000000	17.85802000	3.19881900
172.69998992	0.00000000	17.80881000	3.57406500
172.89998991	0.00000000	18.17790000	4.31840500
173.09998990	0.00000000	18.18405000	4.69365100
173.29998989	0.00000000	18.59621000	4.73671200
173.49998988	0.00000000	18.92839000	4.73671200
173.69998986	0.00000000	18.97145000	4.73671200
173.89998985	0.00000000	18.97145000	4.73671200
174.09998984	0.00000000	18.97145000	4.69365100
174.29998983	0.00000000	18.92839000	4.31840500
174.49998982	0.00000000	18.59621000	3.57406500
174.69998980	0.00000000	18.18405000	3.19881900
174.89998979	0.00000000	18.22096000	3.19881900
175.09998978	0.00000000	18.18405000	3.53100400
175.29998977	0.00000000	18.55315000	3.94315900
175.49998976	0.00000000	18.55315000	3.94931100
175.69998975	0.00000000	18.22711000	4.36146600
175.89998973	0.00000000	18.59621000	4.69365100
176.09998972	0.00000000	18.92839000	4.73671200
176.29998971	0.00000000	18.97145000	4.73671200
176.49998970	0.00000000	18.97145000	4.73671200
176.69998969	0.00000000	18.97145000	4.73671200
176.89998967	0.00000000	18.97145000	4.69365100
177.09998966	0.00000000	18.92839000	4.31840500
177.29998965	0.00000000	18.55315000	3.57406500
177.49998964	0.00000000	17.85802000	3.19881900
177.69998963	0.00000000	17.80881000	3.19881900
177.89998961	0.00000000	18.13484000	3.53100400
178.09998960	0.00000000	17.76575000	3.94315900
178.29998959	0.00000000	17.43356000	3.94931100
178.49998958	0.00000000	17.43356000	4.36146600
178.69998957	0.00000000	17.80881000	4.69365100
178.89998956	0.00000000	18.55315000	4.73671200
179.09998954	0.00000000	18.92839000	4.73671200
179.29998953	0.00000000	18.97145000	4.73671200
179.49998952	0.00000000	18.97145000	4.69365100
179.69998951	0.00000000	18.97145000	4.36146600
179.89998950	0.00000000	18.97145000	3.94931100
180.09998948	0.00000000	18.92839000	3.94315900
180.29998947	0.00000000	18.55315000	3.53100400
180.49998946	0.00000000	17.80881000	3.19881900
180.69998945	0.00000000	17.48277000	3.15575800
180.89998944	0.00000000	17.76575000	3.15575800
181.09998942	0.00000000	18.13484000	3.19881900
181.29998941	0.00000000	17.76575000	3.57406500
181.49998940	0.00000000	17.43356000	4.31840500
181.69998939	0.00000000	17.43356000	4.69365100
181.89998938	0.00000000	17.80881000	4.73671200
182.09998937	0.00000000	18.55315000	4.73671200
182.29998935	0.00000000	18.92839000	4.73671200
182.49998934	0.00000000	18.97145000	4.69365100
182.69998933	0.00000000	18.97145000	4.31840500
182.89998932	0.00000000	18.97145000	3.57406500
183.09998931	0.00000000	18.97145000	3.24803100
183.29998929	0.00000000	18.92839000	3.53100400
183.49998928	0.00000000	18.59621000	3.90009800
183.69998927	0.00000000	18.18405000	3.53100400
183.89998926	0.00000000	18.17790000	3.24803100
184.09998925	0.00000000	17.80881000	3.57406500
184.29998923	0.00000000	17.80881000	4.31840500
184.49998922	0.00000000	18.13484000	4.69365100
184.69998921	0.00000000	17.76575000	4.73671200
184.89998920	0.00000000	17.43356000	4.73671200
185.09998919	0.00000000	17.43356000	4.73671200
185.29998918	0.00000000	17.80881000	4.73671200
185.49998916	0.00000000	18.55315000	4.69365100
185.69998915	0.00000000	18.92839000	4.31840500
185.89998914	0.00000000	18.97145000	3.57406500
186.09998913	0.00000000	18.92839000	3.19881900
186.29998912	0.00000000	18.55315000	3.15575800
186.49998910	0.00000000	17.85802000	3.15575800
186.69998909	0.00000000	17.85802000	3.15575800
186.89998908	0.00000000	18.50394000	3.19881900
187.09998907	0.00000000	18.50394000	3.57406500
187.29998906	0.00000000	17.80881000	4.31840500
187.49998904	0.00000000	17.43356000	4.69365100
187.69998903	0.00000000	17.39050000	4.73671200
187.89998902	0.00000000	17.39050000	4.73671200
188.09998901	0.00000000	17.39050000	4.73671200
188.29998900	0.00000000	17.39050000	4.69365100
188.49998899	0.00000000	17.39050000	4.31840500
188.69998897	0.00000000	17.43356000	3.57406500
188.89998896	0.00000000	17.80881000	3.19881900
189.09998895	0.00000000	18.55315000	3.15575800
189.29998894	0.00000000	18.87918000	3.15575800
189.49998893	0.00000000	18.55315000	3.15575800
189.69998891	0.00000000	17.80881000	3.15575800
189.89998890	0.00000000	17.43356000	3.15575800
190.09998889	0.00000000	17.39050000	3.19881900
190.29998888	0.00000000	17.39050000	3.57406500
190.49998887	0.00000000	17.39050000	4.31840500
190.69998885	0.00000000	17.39050000	4.69365100
190.89998884	0.00000000	17.39050000	4.73671200
191.09998883	0.00000000	17.43356000	4.73671200
191.29998882	0.00000000	17.80881000	4.73671200
191.49998881	0.00000000	18.55315000	4.69365100
191.69998880	0.00000000	18.92839000	4.31840500
191.89998878	0.00000000	18.97145000	3.57406500
192.09998877	0.00000000	18.97145000	3.19881900
192.29998876	0.00000000	18.97145000	3.15575800
192.49998875	0.00000000	18.92839000	3.15575800
192.69998874	0.00000000	18.55315000	3.15575800
192.89998872	0.00000000	17.80881000	3.15575800
193.09998871	0.00000000	17.43356000	3.19881900
193.29998870	0.00000000	17.39050000	3.57406500
193.49998869	0.00000000	17.39050000	4.31840500
193.69998868	0.00000000	17.39050000	4.69365100
193.89998866	0.00000000	17.39050000	4.73671200
194.09998865	0.00000000	17.39050000	4.73671200
194.29998864	0.00000000	17.43356000	4.73671200
194.49998863	0.00000000	17.80881000	4.73671200
194.69998862	0.00000000	18.55315000	4.73671200
194.89998861	0.00000000	18.92839000	4.73671200
195.09998859	0.00000000	18.92839000	4.69365100
195.29998858	0.00000000	18.55315000	4.31840500
195.49998857	0.00000000	17.80881000	3.57406500
195.69998856	0.00000000	17.43356000	3.19881900
195.89998855	0.00000000	17.39050000	3.15575800
196.09998853	0.00000000	17.39050000	3.15575800
