Time	Channel A	Channel B	Channel C
(us)	(V)	(mV)	(mV)

-4.59999956	0.00000000	18.97145000	4.69365100
-4.39999957	0.00000000	18.97145000	4.31840500
-4.19999958	0.00000000	18.97145000	3.57406500
-3.99999959	0.00000000	18.97145000	3.24803100
-3.79999960	0.00000000	18.97145000	3.53100400
-3.59999962	0.00000000	18.97145000	3.94315900
-3.39999963	0.00000000	18.97145000	3.90625000
-3.19999964	0.00000000	18.97145000	3.98622000
-2.99999965	0.00000000	18.97145000	3.90625000
-2.79999966	0.00000000	18.97145000	3.98622000
-2.59999968	0.00000000	18.97145000	3.94931100
-2.39999969	0.00000000	18.97145000	4.36146600
-2.19999970	0.00000000	18.97145000	4.64443900
-1.99999971	0.00000000	18.97145000	4.36146600
-1.79999972	0.00000000	18.97145000	3.94931100
-1.59999973	0.00000000	18.97145000	3.98622000
-1.39999975	0.00000000	18.97145000	3.90625000
-1.19999976	0.00000000	18.97145000	3.98622000
-0.99999977	0.00000000	18.97145000	3.94931100
-0.79999978	0.00000000	18.97145000	4.36146600
-0.59999979	0.00000000	18.97145000	4.69365100
-0.39999981	0.15871060	18.92839000	4.73671200
-0.19999982	0.47736220	18.59621000	4.69365100
0.00000017	0.79601380	18.22711000	4.31840500
0.20000016	0.95533960	18.59621000	3.57406500
0.40000015	0.95533960	18.92839000	3.19881900
0.60000013	0.47736220	18.97145000	3.15575800
0.80000012	-0.15871060	18.97145000	3.15575800
1.00000011	-1.27399100	18.97145000	3.19881900
1.20000010	-2.07062000	18.97145000	3.57406500
1.40000009	-2.70792300	18.97145000	4.31840500
1.60000008	-2.70792300	18.97145000	4.69365100
1.80000006	-1.75196900	18.97145000	4.73671200
2.00000005	0.00000000	18.97145000	4.73671200
2.20000004	2.07062000	18.97145000	4.73671200
2.40000003	3.98191400	18.97145000	4.69365100
2.60000002	5.25652100	18.97145000	4.31840500
2.80000000	5.09719500	18.97145000	3.57406500
2.99999999	3.66326300	18.97145000	3.19881900
3.19999998	0.95533960	18.97145000	3.15575800
3.39999997	-2.54859700	18.97145000	3.19881900
3.59999996	-5.73449800	18.97145000	3.57406500
3.79999994	-7.64579200	18.97145000	4.31840500
3.99999993	-7.80511800	18.92839000	4.69365100
4.19999992	-5.89382400	18.59621000	4.73671200
4.39999991	-2.38927200	18.22711000	4.73671200
4.59999990	2.07062000	18.59621000	4.73671200
4.79999989	6.21247500	18.92839000	4.69365100
4.99999987	8.92039900	18.92839000	4.31840500
5.19999986	9.39837600	18.59621000	3.57406500
5.39999985	7.48646600	18.22711000	3.19881900
5.59999984	3.66326300	18.55315000	3.15575800
5.79999983	-0.95533960	18.55315000	3.19881900
5.99999981	-5.41584600	18.18405000	3.57406500
6.19999980	-8.60174700	18.22096000	4.31840500
6.39999979	-9.39837600	18.18405000	4.69365100
6.59999978	-7.96444400	18.59621000	4.73671200
6.79999977	-4.61921700	18.92839000	4.73671200
6.99999975	-0.31803640	18.97145000	4.73671200
7.19999974	3.82258900	18.97145000	4.73671200
7.39999973	6.69045300	18.97145000	4.69365100
7.59999972	7.80511800	18.97145000	4.31840500
7.79999971	6.84916400	18.92839000	3.57406500
7.99999970	4.45989200	18.59621000	3.19881900
8.19999968	1.11466500	18.22711000	3.15575800
8.39999967	-2.07062000	18.59621000	3.15575800
8.59999966	-4.30056600	18.92839000	3.19881900
8.79999965	-5.25652100	18.97145000	3.57406500
8.99999964	-4.77854300	18.97145000	4.31840500
9.19999962	-3.34522600	18.97145000	4.69365100
9.39999961	-1.27399100	18.97145000	4.73671200
9.59999960	0.63668800	18.97145000	4.73671200
9.79999959	1.91129400	18.97145000	4.69365100
9.99999958	2.54859700	18.97145000	4.31840500
10.19999956	2.38927200	18.97145000	3.57406500
10.39999955	1.75196900	18.97145000	3.19881900
10.59999954	0.79601380	18.97145000	3.15575800
10.79999953	0.00000000	18.97145000	3.15575800
10.99999952	-0.63668800	18.97145000	3.15575800
11.19999951	-0.95533960	18.97145000	3.19881900
11.39999949	-0.95533960	18.97145000	3.53100400
11.59999948	-0.79601380	18.97145000	3.94315900
11.79999947	-0.47736220	18.97145000	3.90625000
11.99999946	-0.15871060	18.97145000	3.94315900
12.19999945	-0.15871060	18.97145000	3.53100400
12.39999943	-0.15871060	18.92839000	3.19881900
12.59999942	0.00000000	18.59621000	3.19881900
12.79999941	0.00000000	18.22711000	3.53100400
12.99999940	0.00000000	18.59621000	3.90009800
13.19999939	0.15871060	18.92839000	3.53100400
13.39999937	0.00000000	18.97145000	3.19881900
13.59999936	0.00000000	18.97145000	3.15575800
13.79999935	0.00000000	18.97145000	3.15575800
13.99999934	-0.15871060	18.97145000	3.15575800
14.19999933	-0.15871060	18.97145000	3.19881900
14.39999932	0.00000000	18.97145000	3.53100400
14.59999930	-0.15871060	18.97145000	3.94315900
14.79999929	0.00000000	18.92839000	3.90625000
14.99999928	0.00000000	18.59621000	3.98622000
15.19999927	0.00000000	18.18405000	3.90625000
15.39999926	0.00000000	18.17790000	3.98622000
15.59999924	0.00000000	17.80881000	3.94931100
15.79999923	0.00000000	17.80881000	4.31840500
15.99999922	0.00000000	18.13484000	4.31840500
16.19999921	0.00000000	17.76575000	3.99237200
16.39999920	-0.15871060	17.48277000	4.31840500
16.59999919	-0.15871060	17.80881000	4.26919300
16.79999917	0.00000000	18.55315000	3.57406500
16.99999916	0.00000000	18.92839000	3.19881900
17.19999915	0.00000000	19.01451000	3.15575800
17.39999914	0.00000000	19.38976000	3.15575800
17.59999913	0.00000000	20.08489000	3.15575800
17.79999911	0.00000000	20.04183000	3.15575800
17.99999910	0.00000000	18.92839000	3.15575800
18.19999909	0.00000000	17.43356000	3.15575800
18.39999908	0.00000000	16.18479000	3.15575800
18.59999907	0.00000000	15.01599000	3.19881900
18.79999905	0.00000000	13.48425000	3.53100400
18.99999904	-0.15871060	12.82603000	3.90009800
19.19999903	0.00000000	13.57652000	3.53100400
19.39999902	0.00000000	15.94488000	3.19881900
19.59999901	0.00000000	19.38976000	3.15575800
19.79999900	0.00000000	23.29601000	3.15575800
19.99999898	0.00000000	26.74089000	3.15575800
20.19999897	0.00000000	29.06619000	3.15575800
20.39999896	0.00000000	29.34916000	3.15575800
20.59999895	0.00000000	27.01772000	3.15575800
20.79999894	0.00000000	21.90576000	3.15575800
20.99999892	0.00000000	14.97293000	3.19881900
21.19999891	0.00000000	7.20964500	3.53100400
21.39999890	0.00000000	0.73203740	3.90009800
21.59999889	0.00000000	-2.70669300	3.53100400
21.79999888	0.00000000	-1.45177200	3.19881900
21.99999886	0.00000000	4.73671200	3.15575800
22.19999885	0.00000000	14.87451000	3.15575800
22.39999884	0.00000000	27.20841000	3.15575800
22.59999883	0.00000000	39.16092000	3.15575800
22.79999882	0.00000000	47.21949000	3.19881900
22.99999881	0.00000000	49.49557000	3.57406500
23.19999879	0.00000000	44.70964000	4.31840500
23.39999878	0.00000000	32.70177000	4.73671200
23.59999877	0.00000000	15.72342000	5.15501900
23.79999876	0.00000000	-2.00541300	5.89320800
23.99999875	0.00000000	-16.28937000	6.21924200
24.19999873	0.00000000	-23.54823000	5.85014700
24.39999872	0.00000000	-21.54897000	4.68750000
24.59999871	0.00000000	-9.92249000	3.15575800
24.79999870	0.00000000	9.01205700	1.57480300
24.99999869	0.00000000	31.02239000	0.04306102
25.19999867	0.00000000	51.11958000	-1.11343500
25.39999866	0.00000000	64.57307000	-1.48253000
25.59999865	-0.15871060	68.01181000	-1.02116100
25.79999864	0.00000000	59.87328000	0.92888770
25.99999863	0.00000000	42.09522000	4.40452700
26.19999862	0.00000000	18.51009000	8.26771600
26.39999860	0.00000000	-5.81938900	12.11860000
26.59999859	0.00000000	-25.08612000	14.76993000
26.79999858	0.00000000	-34.71949000	15.18824000
26.99999857	0.00000000	-32.01895000	13.56422000
27.19999856	0.00000000	-17.82726000	9.61491000
27.39999854	0.00000000	3.85088600	3.02042300
27.59999853	0.00000000	28.18651000	-4.64443900
27.79999852	0.00000000	50.23376000	-11.61417000
27.99999851	0.00000000	64.48695000	-16.16634000
28.19999850	0.00000000	68.06102000	-16.86762000
28.39999848	0.00000000	60.38385000	-12.54921000
28.59999847	0.00000000	44.18676000	-3.62942900
28.79999846	0.00000000	23.25295000	8.31077700
28.99999845	0.00000000	1.61786400	20.62008000
29.19999844	0.00000000	-15.77879000	29.87205000
29.39999843	0.00000000	-25.08612000	34.09818000
29.59999841	0.00000000	-24.80315000	32.10507000
29.79999840	0.00000000	-15.54503000	23.55438000
29.99999839	0.00000000	-0.14148620	9.99015700
30.19999838	0.00000000	18.09178000	-6.18233200
30.39999837	0.00000000	35.12549000	-21.22908000
30.59999835	0.00000000	47.91462000	-31.22539000
30.79999834	0.00000000	53.72785000	-34.33194000
30.99999833	0.00000000	51.49483000	-29.22613000
31.19999832	0.00000000	42.65502000	-16.86762000
31.39999831	0.00000000	29.48450000	0.51058070
31.59999829	0.00000000	14.78223000	19.04527000
31.79999828	0.00000000	1.61786400	34.47342000
31.99999827	0.00000000	-7.31422200	43.76230000
32.19999826	0.00000000	-10.42692000	44.50664000
32.39999825	0.00000000	-7.40034400	36.79257000
32.59999824	0.00000000	0.68897630	22.11491000
32.79999822	0.00000000	11.53420000	3.57406500
32.99999821	0.00000000	23.16068000	-14.59153000
33.19999820	0.00000000	33.16929000	-28.90010000
33.39999819	0.00000000	38.98253000	-36.23893000
33.59999818	0.00000000	39.40084000	-35.08243000
33.79999816	0.00000000	34.83636000	-25.83046000
33.99999815	0.00000000	26.74089000	-10.40846000
34.19999814	0.00000000	17.48277000	7.33882900
34.39999813	0.00000000	8.96899500	23.60359000
34.59999812	0.00000000	3.19881900	35.21776000
34.79999810	0.00000000	1.61786400	39.86220000
34.99999809	0.00000000	4.26919300	36.74950000
35.19999808	0.00000000	10.03937000	26.38410000
35.39999807	0.00000000	17.34744000	11.38041000
35.59999806	0.00000000	24.27411000	-4.04773600
35.79999805	0.00000000	28.83858000	-16.81841000
35.99999803	0.00000000	29.66904000	-24.16338000
36.19999802	0.00000000	26.64862000	-24.58169000
36.39999801	0.00000000	21.71506000	-18.44242000
36.59999800	0.00000000	16.27707000	-7.29576700
36.79999799	0.00000000	11.62032000	5.75787400
36.99999797	0.00000000	8.55068800	17.28592000
37.19999796	0.00000000	7.80634800	24.24951000
37.39999795	0.00000000	10.13164000	25.04306000
37.59999794	0.00000000	14.69611000	20.10950000
37.79999793	0.00000000	20.04183000	10.91289000
37.99999791	0.00000000	24.32333000	0.59670270
38.19999790	0.00000000	26.64862000	-7.90477300
38.39999789	0.00000000	27.06078000	-12.50615000
38.59999788	0.00000000	25.11688000	-12.08169000
38.79999787	0.00000000	21.66585000	-6.36687900
38.99999786	0.00000000	17.43356000	2.78051200
39.19999784	0.00000000	13.53346000	11.98942000
39.39999783	0.00000000	10.82677000	18.86688000
39.59999782	0.00000000	9.25196800	21.13681000
39.79999781	0.00000000	9.66412400	17.70423000
39.99999780	0.00000000	11.53420000	10.03322000
40.19999778	0.00000000	14.32087000	0.04306102
40.39999777	0.00000000	17.76575000	-9.47957600
40.59999776	0.00000000	21.24754000	-15.23745000
40.79999775	0.00000000	23.57899000	-15.66191000
40.99999774	0.00000000	24.82775000	-11.01132000
41.19999772	0.00000000	25.15994000	-2.18380900
41.39999771	0.00000000	24.40945000	8.54453700
41.59999770	0.00000000	22.46555000	17.74729000
41.79999769	0.00000000	20.13410000	23.18528000
41.99999768	0.00000000	17.39050000	23.56053000
42.19999767	0.00000000	14.69611000	19.00221000
42.39999765	0.00000000	12.73991000	10.91289000
42.59999764	0.00000000	11.57726000	1.66707700
42.79999763	0.00000000	11.57726000	-6.83439900
42.99999762	0.00000000	12.69070000	-12.54921000
43.19999761	0.00000000	14.27165000	-13.74877000
43.39999759	0.00000000	16.22785000	-10.35925000
43.59999758	0.00000000	18.50394000	-4.22613100
43.79999757	0.00000000	20.04183000	3.11269700
43.99999756	0.00000000	20.55241000	10.03322000
44.19999755	0.00000000	20.97072000	14.67766000
44.39999753	0.00000000	21.71506000	16.25861000
44.59999752	0.00000000	22.09030000	14.76993000
44.79999751	0.00000000	22.13336000	10.95595000
44.99999750	0.00000000	22.09030000	6.35457700
45.19999749	0.00000000	21.62278000	2.04232300
45.39999748	0.00000000	20.04183000	-1.44562000
45.59999746	0.00000000	17.34744000	-3.76476400
45.79999745	0.00000000	14.22859000	-4.14000900
45.99999744	0.00000000	11.10974000	-2.64517700
46.19999743	0.00000000	8.41535400	0.04306102
46.39999742	0.00000000	6.92052100	3.11269700
46.59999740	0.00000000	7.38804100	5.89320800
46.79999739	0.00000000	10.50689000	8.17544300
46.99999738	0.00000000	15.90182000	9.70103300
47.19999737	0.00000000	22.09030000	9.33809000
47.39999736	0.00000000	27.90354000	7.84940900
47.59999734	0.00000000	32.09276000	5.85014700
47.79999733	0.00000000	33.25541000	3.15575800
47.99999732	0.00000000	30.88705000	0.46751960
48.19999731	0.00000000	25.43676000	-1.43946800
48.39999730	0.00000000	17.34744000	-2.22687000
48.59999729	0.00000000	8.87672100	-1.43946800
48.79999727	0.00000000	2.31299200	0.46751960
48.99999726	0.00000000	-1.12573800	3.19881900
49.19999725	0.00000000	0.03690945	6.26845500
49.39999724	0.00000000	5.43184000	8.96284400
49.59999723	0.00000000	13.57652000	10.49459000
49.79999721	0.00000000	23.20374000	10.45152000
49.99999720	0.00000000	31.62524000	8.54453700
50.19999719	0.00000000	36.28199000	5.11195900
50.39999718	0.00000000	36.33120000	1.62401600
50.59999717	0.00000000	32.04970000	-1.48868100
50.79999715	0.00000000	24.36639000	-3.76476400
50.99999714	0.00000000	15.11442000	-4.14000900
51.19999713	0.00000000	7.05585600	-2.60211600
51.39999712	0.00000000	1.99311000	0.51058070
51.59999711	0.00000000	1.24261800	4.73671200
51.79999710	0.00000000	4.69365100	8.91978400
51.99999708	0.00000000	11.57726000	11.61417000
52.19999707	0.00000000	19.62352000	12.03248000
52.39999706	0.00000000	26.18725000	10.49459000
52.59999705	0.00000000	30.08735000	7.42495000
52.79999704	0.00000000	30.41954000	3.57406500
52.99999702	0.00000000	27.01772000	0.13533460
53.19999701	0.00000000	20.88459000	-2.18380900
53.39999700	0.00000000	14.36393000	-2.60211600
53.59999699	0.00000000	8.96899500	-1.48868100
53.79999698	0.00000000	6.27460600	0.46751960
53.99999696	0.00000000	7.01279500	3.15575800
54.19999695	0.00000000	10.50689000	5.80093500
54.39999694	0.00000000	16.22785000	7.33882900
54.59999693	0.00000000	22.36712000	7.33882900
54.79999692	0.00000000	26.56250000	5.80093500
54.99999691	0.00000000	28.18036000	3.15575800
55.19999689	0.00000000	26.60556000	0.55364170
55.39999688	0.00000000	22.78543000	-0.60285430
55.59999687	0.00000000	17.39050000	0.13533460
55.79999686	0.00000000	12.03863000	2.04232300
55.99999685	0.00000000	8.59375000	4.77977300
56.19999683	0.00000000	7.76328700	7.80019600
56.39999682	0.00000000	9.66412400	10.03322000
56.59999681	0.00000000	13.11516000	9.98400600
56.79999680	0.00000000	17.39050000	7.33882900
56.99999679	0.00000000	21.62278000	3.15575800
57.19999677	0.00000000	24.69857000	-1.11343500
57.39999676	0.00000000	25.85507000	-4.60137700
57.59999675	0.00000000	24.69857000	-6.82824800
57.79999674	0.00000000	21.66585000	-6.36687900
57.99999673	0.00000000	17.85802000	-2.55905500
58.19999672	0.00000000	14.78223000	3.20497000
58.39999670	0.00000000	13.15822000	9.38115100
58.59999669	0.00000000	12.73991000	14.72687000
58.79999668	0.00000000	13.15822000	17.37205000
58.99999667	0.00000000	14.69611000	16.21555000
59.19999666	0.00000000	16.97219000	11.61417000
59.39999664	0.00000000	18.87918000	4.69365100
59.59999663	0.00000000	20.04183000	-2.60211600
59.79999662	0.00000000	20.08489000	-8.40920300
59.99999661	0.00000000	19.34670000	-11.47884000
60.19999660	0.00000000	18.55315000	-11.06053000
60.39999658	0.00000000	17.39050000	-6.78518600
60.59999657	0.00000000	16.32013000	0.51058070
60.79999656	0.00000000	16.27707000	8.96284400
60.99999655	0.00000000	17.01525000	16.21555000
61.19999654	0.00000000	17.80881000	20.06643000
61.39999653	0.00000000	18.92839000	19.37131000
61.59999651	0.00000000	19.66658000	15.14518000
61.79999650	0.00000000	19.25443000	8.54453700
61.99999649	0.00000000	18.17790000	0.46751960
62.19999648	0.00000000	16.60310000	-6.82824800
62.39999647	0.00000000	15.43430000	-11.47884000
62.59999645	0.00000000	14.22859000	-12.63533000
62.79999644	0.00000000	13.15822000	-9.94094400
62.99999643	0.00000000	13.20128000	-4.14000900
63.19999642	0.00000000	14.73917000	3.53100400
63.39999641	0.00000000	17.39050000	11.23893000
63.59999639	0.00000000	20.08489000	16.63386000
63.79999638	0.00000000	21.99803000	19.00221000
63.99999637	0.00000000	22.78543000	17.83957000
64.19999636	0.00000000	22.04109000	13.61343000
64.39999635	0.00000000	20.50935000	7.47416300
64.59999634	0.00000000	18.50394000	0.92888770
64.79999632	0.00000000	15.85261000	-4.14000900
64.99999631	0.00000000	13.57652000	-7.29576700
65.19999630	0.00000000	12.73991000	-8.45226300
65.39999629	0.00000000	12.73991000	-7.29576700
65.59999628	0.00000000	13.57652000	-4.22613100
65.79999626	0.00000000	15.85261000	0.04306102
65.99999625	0.00000000	18.46087000	4.64443900
66.19999624	0.00000000	20.04183000	8.54453700
66.39999623	0.00000000	20.46014000	10.91289000
66.59999622	0.00000000	20.04183000	12.11860000
66.79999620	0.00000000	18.50394000	12.11860000
66.99999619	0.00000000	16.22785000	10.96211000
67.19999618	0.00000000	14.36393000	9.00590400
67.39999617	0.00000000	13.57652000	6.26845500
67.59999616	0.00000000	14.36393000	3.15575800
67.79999615	0.00000000	16.27707000	0.00000000
67.99999613	0.00000000	18.97145000	-3.06348400
68.19999612	0.00000000	21.62278000	-5.38262700
68.39999611	0.00000000	23.16068000	-6.13312000
68.59999610	0.00000000	23.11762000	-5.33956700
68.79999609	0.00000000	21.16142000	-2.60211600
68.99999607	0.00000000	17.34744000	1.62401600
69.19999606	0.00000000	13.11516000	6.26845500
69.39999605	0.00000000	9.62106200	10.53765000
69.59999604	0.00000000	7.34498000	13.65650000
69.79999603	0.00000000	7.34498000	15.14518000
69.99999601	0.00000000	9.71333600	14.34547000
70.19999600	0.00000000	13.99483000	10.86983000
70.39999599	0.00000000	20.13410000	5.89320800
70.59999598	0.00000000	25.85507000	0.46136810
70.79999597	0.00000000	29.34916000	-4.14000900
70.99999596	0.00000000	30.13656000	-6.87746000
71.19999594	0.00000000	27.81127000	-7.29576700
71.39999593	0.00000000	23.16068000	-5.71481200
71.59999592	0.00000000	16.97219000	-2.22687000
71.79999591	0.00000000	10.41462000	2.73745100
71.99999590	0.00000000	5.43184000	7.33882900
72.19999588	0.00000000	3.06348400	10.45152000
72.39999587	0.00000000	3.89394600	11.60802000
72.59999586	0.00000000	7.72022600	10.49459000
72.79999585	0.00000000	13.89641000	7.84940900
72.99999584	0.00000000	20.41708000	4.77977300
73.19999582	0.00000000	25.90428000	2.08538400
73.39999581	0.00000000	29.34916000	0.51058070
73.59999580	0.00000000	30.13656000	0.13533460
73.79999579	0.00000000	27.81127000	0.87967510
73.99999578	0.00000000	23.20374000	2.73745100
74.19999577	0.00000000	17.43356000	4.22613100
74.39999575	0.00000000	12.03863000	4.64443900
74.59999574	0.00000000	8.55068800	4.22613100
74.79999573	0.00000000	7.29576700	2.69439000
74.99999572	0.00000000	8.08316900	0.46751960
75.19999571	0.00000000	10.41462000	-1.06422200
75.39999569	0.00000000	14.27165000	-1.43946800
75.59999568	0.00000000	18.46087000	-0.60285430
75.79999567	0.00000000	21.57972000	2.08538400
75.99999566	0.00000000	23.16068000	5.93626900
76.19999565	0.00000000	23.20374000	9.75639700
76.39999563	0.00000000	22.09030000	12.81988000
76.59999562	0.00000000	20.55241000	13.52116000
76.79999561	0.00000000	18.97145000	11.61417000
76.99999560	0.00000000	17.43356000	7.33882900
77.19999559	0.00000000	16.27707000	1.57480300
77.39999558	0.00000000	15.85261000	-4.18307100
77.59999556	0.00000000	15.80955000	-8.40920300
77.79999555	0.00000000	15.80955000	-9.94094400
77.99999554	0.00000000	15.80955000	-8.40920300
78.19999553	0.00000000	15.76649000	-4.18307100
78.39999552	0.00000000	15.39124000	1.62401600
78.59999550	0.00000000	14.69611000	7.80019600
78.79999549	0.00000000	14.69611000	13.18898000
78.99999548	0.00000000	15.47736000	16.30167000
79.19999547	0.00000000	16.69537000	16.67692000
79.39999546	0.00000000	18.97145000	14.35162000
79.59999544	0.00000000	21.24754000	9.33809000
79.79999543	0.00000000	22.41634000	3.24803100
79.99999542	0.00000000	22.78543000	-2.22687000
80.19999541	0.00000000	21.57972000	-6.09005900
80.39999540	0.00000000	18.92839000	-8.07701800
80.59999539	0.00000000	15.85261000	-7.66486200
80.79999537	0.00000000	13.11516000	-5.38262700
80.99999536	0.00000000	11.20202000	-1.53174200
81.19999535	0.00000000	10.45768000	2.73745100
81.39999534	0.00000000	11.62032000	6.64370100
81.59999533	0.00000000	14.27165000	10.11934000
81.79999531	0.00000000	17.34744000	12.07554000
81.99999530	0.00000000	20.04183000	12.53691000
82.19999529	0.00000000	21.62278000	12.07554000
82.39999528	0.00000000	22.04109000	10.11934000
82.59999527	0.00000000	21.62278000	6.68676100
82.79999525	0.00000000	20.08489000	3.19881900
82.99999524	0.00000000	17.80881000	0.04306102
83.19999523	0.00000000	15.85261000	-2.69439000
83.39999522	0.00000000	14.27165000	-4.64443900
83.59999521	0.00000000	13.15822000	-5.75787400
83.79999520	0.00000000	13.15822000	-5.33956700
83.99999518	0.00000000	14.27165000	-3.02042300
84.19999517	0.00000000	15.76649000	0.46751960
84.39999516	0.00000000	16.97219000	4.73671200
84.59999515	0.00000000	17.76575000	8.96284400
84.79999514	0.00000000	18.50394000	12.07554000
84.99999512	0.00000000	18.50394000	13.61343000
85.19999511	0.00000000	17.80881000	13.18898000
85.39999510	0.00000000	17.43356000	10.45152000
85.59999509	0.00000000	17.39050000	5.85014700
85.79999508	0.00000000	17.39050000	0.46136810
85.99999506	0.00000000	17.43356000	-4.14000900
86.19999505	0.00000000	17.76575000	-6.87746000
86.39999504	0.00000000	18.13484000	-7.29576700
86.59999503	0.00000000	17.72268000	-5.71481200
86.79999502	0.00000000	16.97219000	-2.22687000
86.99999501	0.00000000	15.80955000	2.78051200
87.19999499	0.00000000	14.69611000	7.75713500
87.39999498	0.00000000	14.27165000	11.65723000
87.59999497	0.00000000	14.27165000	13.52116000
87.79999496	0.00000000	14.69611000	12.77067000
87.99999495	0.00000000	15.85261000	9.33809000
88.19999493	0.00000000	17.39050000	4.77977300
88.39999492	0.00000000	18.92839000	0.46751960
88.59999491	0.00000000	20.04183000	-3.02042300
88.79999490	0.00000000	20.04183000	-5.29650500
88.99999489	0.00000000	18.92839000	-5.24729300
89.19999487	0.00000000	17.39050000	-2.60211600
89.39999486	0.00000000	15.80955000	1.57480300
89.59999485	0.00000000	14.32087000	5.85014700
89.79999484	0.00000000	13.53346000	9.29502900
89.99999483	0.00000000	13.89641000	11.23893000
90.19999482	0.00000000	14.64690000	10.82677000
90.39999480	0.00000000	15.80955000	8.54453700
90.59999479	0.00000000	16.97219000	4.69365100
90.79999478	0.00000000	17.76575000	0.46751960
90.99999477	0.00000000	18.55315000	-2.97736200
91.19999476	0.00000000	18.87918000	-4.87819900
91.39999474	0.00000000	18.55315000	-4.09079700
91.59999473	0.00000000	17.80881000	-1.07037400
91.79999472	0.00000000	17.43356000	3.15575800
91.99999471	0.00000000	17.39050000	7.38188900
92.19999470	0.00000000	17.39050000	10.45152000
92.39999468	0.00000000	17.34744000	11.56496000
92.59999467	0.00000000	16.97219000	10.03322000
92.79999466	0.00000000	16.22785000	6.26845500
92.99999465	0.00000000	15.80955000	2.04232300
93.19999464	0.00000000	15.39124000	-1.44562000
93.39999463	0.00000000	14.64690000	-3.76476400
93.59999461	0.00000000	14.32087000	-4.14000900
93.79999460	0.00000000	14.69611000	-2.60211600
93.99999459	0.00000000	15.85261000	0.51058070
94.19999458	0.00000000	17.39050000	4.69365100
94.39999457	0.00000000	18.97145000	8.50147600
94.59999455	0.00000000	20.50935000	10.45152000
94.79999454	0.00000000	21.62278000	10.45152000
94.99999453	0.00000000	21.62278000	8.50147600
95.19999452	0.00000000	20.46014000	4.69365100
95.39999451	0.00000000	18.50394000	0.51058070
95.59999449	0.00000000	15.80955000	-2.60211600
95.79999448	0.00000000	13.11516000	-4.14000900
95.99999447	0.00000000	11.15896000	-3.76476400
96.19999446	0.00000000	9.99630800	-1.44562000
96.39999445	0.00000000	10.08243000	1.99311000
96.59999444	0.00000000	11.99557000	5.80093500
96.79999442	0.00000000	15.47736000	8.50147600
96.99999441	0.00000000	19.30364000	9.33809000
97.19999440	0.00000000	22.78543000	8.91978400
97.39999439	0.00000000	24.69857000	7.01279500
97.59999438	0.00000000	24.74163000	3.99237200
97.79999436	0.00000000	23.20374000	1.66707700
97.99999435	0.00000000	20.46014000	0.09227362
98.19999434	0.00000000	16.97219000	-0.65206690
98.39999433	0.00000000	13.11516000	0.09227362
98.59999432	0.00000000	10.03937000	1.57480300
98.79999430	0.00000000	8.45841400	3.11269700
98.99999429	0.00000000	8.50147600	4.31840500
99.19999428	0.00000000	10.41462000	5.06274600
99.39999427	0.00000000	13.85334000	5.47490100
99.59999426	0.00000000	17.34744000	5.06274600
99.79999425	0.00000000	20.46014000	4.36146600
99.99999423	0.00000000	22.78543000	3.62327700
100.19999422	0.00000000	23.57899000	3.62327700
100.39999421	0.00000000	23.24680000	4.31840500
100.59999420	0.00000000	21.99803000	4.69365100
100.79999419	0.00000000	19.66658000	4.69365100
100.99999417	0.00000000	16.22785000	4.26919300
101.19999416	0.00000000	13.15822000	3.11269700
101.39999415	0.00000000	11.20202000	1.57480300
101.59999414	0.00000000	10.37155000	0.04306102
101.79999413	0.00000000	10.73450000	-1.11343500
101.99999411	0.00000000	11.53420000	-1.43946800
102.19999410	0.00000000	13.15822000	-0.64591530
102.39999409	0.00000000	15.80955000	1.66707700
102.59999408	0.00000000	18.50394000	4.68750000
102.79999407	0.00000000	20.46014000	7.38188900
102.99999406	0.00000000	21.62278000	8.96284400
103.19999404	0.00000000	21.62278000	9.33809000
103.39999403	0.00000000	20.50935000	8.54453700
103.59999402	0.00000000	18.92839000	6.22539300
103.79999401	0.00000000	16.97219000	3.15575800
103.99999400	0.00000000	14.69611000	0.09227362
104.19999398	0.00000000	13.15822000	-2.22687000
104.39999397	0.00000000	12.73991000	-3.02042300
104.59999396	0.00000000	13.11516000	-2.64517700
104.79999395	0.00000000	14.27165000	-1.02116100
104.99999394	0.00000000	15.80955000	1.99311000
105.19999392	0.00000000	17.34744000	5.43184000
105.39999391	0.00000000	18.46087000	7.75713500
105.59999390	0.00000000	18.55315000	8.91978400
105.79999389	0.00000000	18.18405000	8.50147600
105.99999388	0.00000000	18.13484000	6.26845500
106.19999387	0.00000000	17.34744000	3.61712600
106.39999385	0.00000000	16.22785000	1.66707700
106.59999384	0.00000000	15.47736000	0.46136810
106.79999383	0.00000000	15.06521000	0.09227362
106.99999382	0.00000000	15.47736000	0.46136810
107.19999381	0.00000000	16.18479000	1.62401600
107.39999379	0.00000000	17.01525000	3.15575800
107.59999378	0.00000000	17.76575000	4.68750000
107.79999377	0.00000000	18.50394000	5.80093500
107.99999376	0.00000000	18.46087000	5.80093500
108.19999375	0.00000000	17.34744000	4.68750000
108.39999374	0.00000000	15.85261000	3.15575800
108.59999372	0.00000000	14.69611000	1.62401600
108.79999371	0.00000000	14.27165000	0.51058070
108.99999370	0.00000000	14.27165000	0.46136810
109.19999369	0.00000000	14.64690000	1.19955700
109.39999368	0.00000000	15.47736000	1.99311000
109.59999366	0.00000000	16.60310000	3.19881900
109.79999365	0.00000000	18.13484000	4.68750000
109.99999364	0.00000000	18.87918000	5.85014700
110.19999363	0.00000000	18.92839000	6.21924200
110.39999362	0.00000000	18.55315000	5.80093500
110.59999360	0.00000000	17.72268000	4.31840500
110.79999359	0.00000000	16.55389000	2.41141700
110.99999358	0.00000000	14.69611000	1.24877000
111.19999357	0.00000000	13.57652000	0.41830710
111.39999356	0.00000000	13.85334000	0.09227362
111.59999355	0.00000000	14.22859000	0.46136810
111.79999353	0.00000000	14.69611000	1.57480300
111.99999352	0.00000000	15.80955000	2.73745100
112.19999351	0.00000000	16.97219000	3.53100400
112.39999350	0.00000000	17.76575000	4.31840500
112.59999349	0.00000000	18.55315000	4.69365100
112.79999347	0.00000000	18.87918000	4.69365100
112.99999346	0.00000000	18.55315000	4.31840500
113.19999345	0.00000000	17.76575000	3.57406500
113.39999344	0.00000000	17.01525000	3.19881900
113.59999343	0.00000000	16.22785000	3.15575800
113.79999341	0.00000000	15.80955000	3.15575800
113.99999340	0.00000000	15.43430000	3.15575800
114.19999339	0.00000000	15.06521000	3.11269700
114.39999338	0.00000000	15.43430000	2.73745100
114.59999337	0.00000000	15.80955000	1.99311000
114.79999336	0.00000000	16.22785000	1.61786400
114.99999334	0.00000000	16.97219000	1.57480300
115.19999333	0.00000000	17.34744000	1.57480300
115.39999332	0.00000000	17.39050000	1.61786400
115.59999331	0.00000000	17.39050000	1.99311000
115.79999330	0.00000000	17.34744000	2.78051200
115.99999328	0.00000000	16.97219000	3.53100400
116.19999327	0.00000000	16.22785000	4.31840500
116.39999326	0.00000000	15.80955000	4.69365100
116.59999325	0.00000000	15.39124000	4.73671200
116.79999324	0.00000000	14.69611000	4.69365100
116.99999322	0.00000000	14.69611000	4.31840500
117.19999321	0.00000000	15.43430000	3.53100400
117.39999320	0.00000000	16.22785000	2.78051200
117.59999319	0.00000000	17.39050000	1.99311000
117.79999318	0.00000000	18.50394000	1.61786400
117.99999317	0.00000000	18.87918000	1.57480300
118.19999315	0.00000000	18.55315000	1.61786400
118.39999314	0.00000000	17.76575000	1.99311000
118.59999313	0.00000000	16.97219000	2.73745100
118.79999312	0.00000000	15.76649000	3.15575800
118.99999311	0.00000000	14.27165000	3.57406500
119.19999309	0.00000000	13.11516000	4.31840500
119.39999308	0.00000000	12.73991000	4.69365100
119.59999307	0.00000000	13.11516000	4.73671200
119.79999306	0.00000000	14.27165000	4.69365100
119.99999305	0.00000000	15.80955000	4.31840500
120.19999303	0.00000000	17.34744000	3.57406500
120.39999302	0.00000000	18.55315000	3.19881900
120.59999301	0.00000000	19.30364000	3.11269700
120.79999300	0.00000000	19.66658000	2.73745100
120.99999299	0.00000000	18.87918000	1.99311000
121.19999298	0.00000000	17.43356000	1.61786400
121.39999296	0.00000000	16.22785000	1.57480300
121.59999295	0.00000000	15.39124000	1.61786400
121.79999294	0.00000000	14.22859000	1.99311000
121.99999293	0.00000000	13.15822000	2.73745100
122.19999292	0.00000000	13.11516000	3.15575800
122.39999290	0.00000000	13.85334000	3.57406500
122.59999289	0.00000000	14.60384000	4.31840500
122.79999288	0.00000000	15.43430000	4.69365100
122.99999287	0.00000000	16.22785000	4.73671200
123.19999286	0.00000000	17.39050000	4.69365100
123.39999284	0.00000000	18.50394000	4.31840500
123.59999283	0.00000000	18.87918000	3.53100400
123.79999282	0.00000000	18.55315000	2.78051200
123.99999281	0.00000000	17.80881000	1.99311000
124.19999280	0.00000000	17.39050000	1.61786400
124.39999279	0.00000000	16.92298000	1.57480300
124.59999277	0.00000000	15.80955000	1.61786400
124.79999276	0.00000000	14.69611000	1.99311000
124.99999275	0.00000000	14.27165000	2.73745100
125.19999274	0.00000000	14.22859000	3.15575800
125.39999273	0.00000000	14.27165000	3.57406500
125.59999271	0.00000000	14.64690000	4.31840500
125.79999270	0.00000000	15.43430000	4.69365100
125.99999269	0.00000000	16.18479000	4.69365100
126.19999268	0.00000000	17.01525000	4.31840500
126.39999267	0.00000000	17.76575000	3.57406500
126.59999265	0.00000000	18.50394000	3.19881900
126.79999264	0.00000000	18.50394000	3.15575800
126.99999263	0.00000000	17.76575000	3.11269700
127.19999262	0.00000000	16.97219000	2.78051200
127.39999261	0.00000000	15.80955000	2.41141700
127.59999260	0.00000000	14.69611000	2.78051200
127.79999258	0.00000000	14.27165000	3.11269700
127.99999257	0.00000000	14.27165000	3.15575800
128.19999256	0.00000000	14.64690000	3.15575800
128.39999255	0.00000000	15.43430000	3.15575800
128.59999254	0.00000000	16.22785000	3.15575800
128.79999252	0.00000000	17.39050000	3.15575800
128.99999251	0.00000000	18.46087000	3.15575800
129.19999250	0.00000000	18.50394000	3.15575800
129.39999249	0.00000000	17.76575000	3.15575800
129.59999248	0.00000000	16.97219000	3.11269700
129.79999246	0.00000000	15.80955000	2.73745100
129.99999245	0.00000000	14.64690000	2.04232300
130.19999244	0.00000000	13.89641000	2.04232300
130.39999243	0.00000000	13.53346000	2.73745100
130.59999242	0.00000000	14.27165000	3.11269700
130.79999241	0.00000000	15.39124000	3.15575800
130.99999239	0.00000000	16.18479000	3.15575800
131.19999238	0.00000000	17.01525000	3.15575800
131.39999237	0.00000000	17.72268000	3.15575800
131.59999236	0.00000000	18.13484000	3.11269700
131.79999235	0.00000000	17.72268000	2.73745100
131.99999233	0.00000000	17.01525000	1.99311000
132.19999232	0.00000000	16.18479000	1.61786400
132.39999231	0.00000000	15.43430000	1.57480300
132.59999230	0.00000000	14.64690000	1.61786400
132.79999229	0.00000000	14.32087000	1.99311000
132.99999227	0.00000000	14.64690000	2.78051200
133.19999226	0.00000000	15.39124000	3.53100400
133.39999225	0.00000000	15.80955000	4.31840500
133.59999224	0.00000000	16.22785000	4.69365100
133.79999223	0.00000000	16.92298000	4.73671200
133.99999222	0.00000000	16.97219000	4.69365100
134.19999220	0.00000000	16.60310000	4.26919300
134.39999219	0.00000000	16.59695000	3.15575800
134.59999218	0.00000000	16.18479000	2.04232300
134.79999217	0.00000000	15.85261000	1.61786400
134.99999216	0.00000000	15.80955000	1.57480300
135.19999214	0.00000000	15.85261000	1.57480300
135.39999213	0.00000000	16.22785000	1.61786400
135.59999212	0.00000000	16.92298000	1.99311000
135.79999211	0.00000000	16.92298000	2.78051200
135.99999210	0.00000000	16.22785000	3.53100400
136.19999208	0.00000000	15.80955000	4.31840500
136.39999207	0.00000000	15.39124000	4.69365100
136.59999206	0.00000000	14.64690000	4.69365100
136.79999205	0.00000000	14.27165000	4.31840500
136.99999204	0.00000000	14.27165000	3.57406500
137.19999203	0.00000000	14.69611000	3.19881900
137.39999201	0.00000000	15.80955000	3.11269700
137.59999200	0.00000000	16.92298000	2.73745100
137.79999199	0.00000000	17.34744000	1.99311000
137.99999198	0.00000000	17.39050000	1.61786400
138.19999197	0.00000000	17.34744000	1.57480300
138.39999195	0.00000000	16.97219000	1.57480300
138.59999194	0.00000000	16.18479000	1.61786400
138.79999193	0.00000000	15.43430000	1.99311000
138.99999192	0.00000000	14.64690000	2.78051200
139.19999191	0.00000000	14.27165000	3.53100400
139.39999189	0.00000000	14.27165000	4.31840500
139.59999188	0.00000000	14.64690000	4.69365100
139.79999187	0.00000000	15.43430000	4.73671200
139.99999186	0.00000000	16.14173000	4.69365100
140.19999185	0.00000000	16.59695000	4.31840500
140.39999184	0.00000000	16.60310000	3.57406500
140.59999182	0.00000000	16.97219000	3.15575800
140.79999181	0.00000000	16.92298000	2.73745100
140.99999180	0.00000000	16.18479000	1.95004900
141.19999179	0.00000000	15.43430000	1.24877000
141.39999178	0.00000000	14.64690000	0.87967510
141.59999176	0.00000000	14.32087000	1.62401600
141.79999175	0.00000000	14.64690000	2.73745100
141.99999174	0.00000000	15.39124000	3.53100400
142.19999173	0.00000000	15.76649000	4.31840500
142.39999172	0.00000000	15.80955000	4.69365100
142.59999170	0.00000000	15.80955000	4.69365100
142.79999169	0.00000000	15.80955000	4.31840500
142.99999168	0.00000000	15.80955000	3.53100400
143.19999167	0.00000000	15.80955000	2.78051200
143.39999166	0.00000000	15.80955000	1.95004900
143.59999165	0.00000000	15.80955000	1.19955700
143.79999163	0.00000000	15.80955000	0.46136810
143.99999162	0.00000000	15.80955000	0.51058070
144.19999161	0.00000000	15.80955000	1.57480300
144.39999160	0.00000000	15.85261000	2.68823800
144.59999159	0.00000000	16.22785000	3.15575800
144.79999157	0.00000000	16.92298000	3.57406500
144.99999156	0.00000000	16.92298000	4.26919300
145.19999155	0.00000000	16.22785000	4.26919300
145.39999154	0.00000000	15.85261000	3.57406500
145.59999153	0.00000000	15.76649000	3.19881900
145.79999151	0.00000000	15.39124000	3.15575800
145.99999150	0.00000000	14.64690000	3.11269700
146.19999149	0.00000000	14.32087000	2.73745100
146.39999148	0.00000000	14.64690000	1.99311000
146.59999147	0.00000000	15.43430000	1.61786400
146.79999146	0.00000000	16.18479000	1.61786400
146.99999144	0.00000000	16.97219000	1.99311000
147.19999143	0.00000000	17.34744000	2.73745100
147.39999142	0.00000000	17.34744000	3.11269700
147.59999141	0.00000000	16.97219000	3.15575800
147.79999140	0.00000000	16.22785000	3.15575800
147.99999138	0.00000000	15.80955000	3.15575800
148.19999137	0.00000000	15.39124000	3.15575800
148.39999136	0.00000000	14.69611000	3.15575800
148.59999135	0.00000000	14.69611000	3.15575800
148.79999134	0.00000000	15.39124000	3.15575800
148.99999132	0.00000000	15.76649000	3.15575800
149.19999131	0.00000000	15.80955000	3.11269700
149.39999130	0.00000000	15.85261000	2.73745100
149.59999129	0.00000000	16.22785000	1.99311000
149.79999128	0.00000000	16.97219000	1.66707700
149.99999127	0.00000000	17.29823000	1.99311000
150.19999125	0.00000000	16.97219000	2.73745100
150.39999124	0.00000000	16.22785000	3.11269700
150.59999123	0.00000000	15.85261000	3.15575800
150.79999122	0.00000000	15.76649000	3.15575800
150.99999121	0.00000000	15.43430000	3.15575800
151.19999119	0.00000000	15.06521000	3.15575800
151.39999118	0.00000000	15.43430000	3.15575800
151.59999117	0.00000000	15.71727000	3.15575800
151.79999116	0.00000000	15.43430000	3.11269700
151.99999115	0.00000000	15.06521000	2.73745100
152.19999113	0.00000000	15.47736000	2.04232300
152.39999112	0.00000000	16.18479000	2.04232300
152.59999111	0.00000000	16.92298000	2.73745100
152.79999110	0.00000000	16.97219000	3.11269700
152.99999109	0.00000000	16.60310000	3.15575800
153.19999108	0.00000000	16.59695000	3.15575800
153.39999106	0.00000000	16.18479000	3.15575800
153.59999105	0.00000000	15.80955000	3.15575800
153.79999104	0.00000000	15.39124000	3.15575800
153.99999103	0.00000000	14.64690000	3.15575800
154.19999102	0.00000000	14.27165000	3.15575800
154.39999100	0.00000000	14.27165000	3.15575800
154.59999099	0.00000000	14.64690000	3.15575800
154.79999098	0.00000000	15.39124000	3.15575800
154.99999097	0.00000000	15.76649000	3.15575800
155.19999096	0.00000000	15.80955000	3.15575800
155.39999094	0.00000000	15.85261000	3.15575800
155.59999093	0.00000000	16.22785000	3.15575800
155.79999092	0.00000000	16.92298000	3.15575800
155.99999091	0.00000000	16.92298000	3.11269700
156.19999090	0.00000000	16.22785000	2.78051200
156.39999089	0.00000000	15.85261000	2.41141700
156.59999087	0.00000000	15.76649000	2.78051200
156.79999086	0.00000000	15.39124000	3.11269700
156.99999085	0.00000000	14.64690000	3.15575800
157.19999084	0.00000000	14.27165000	3.15575800
157.39999083	0.00000000	14.27165000	3.15575800
157.59999081	0.00000000	14.64690000	3.15575800
157.79999080	0.00000000	15.39124000	3.15575800
157.99999079	0.00000000	15.76649000	3.11269700
158.19999078	0.00000000	15.80955000	2.73745100
158.39999077	0.00000000	15.80955000	1.99311000
158.59999075	0.00000000	15.85261000	1.61786400
158.79999074	0.00000000	16.18479000	1.61786400
158.99999073	0.00000000	16.55389000	1.99311000
159.19999072	0.00000000	16.18479000	2.73745100
159.39999071	0.00000000	15.85261000	3.11269700
159.59999070	0.00000000	15.76649000	3.15575800
159.79999068	0.00000000	15.39124000	3.19881900
159.99999067	0.00000000	14.64690000	3.53100400
160.19999066	0.00000000	14.27165000	3.90009800
160.39999065	0.00000000	14.22859000	3.53100400
160.59999064	0.00000000	14.27165000	3.19881900
160.79999062	0.00000000	14.64690000	3.11269700
160.99999061	0.00000000	15.39124000	2.73745100
161.19999060	0.00000000	15.76649000	1.99311000
161.39999059	0.00000000	15.80955000	1.61786400
161.59999058	0.00000000	15.80955000	1.61786400
161.79999056	0.00000000	15.80955000	1.99311000
161.99999055	0.00000000	15.85261000	2.73745100
162.19999054	0.00000000	16.18479000	3.11269700
162.39999053	0.00000000	16.55389000	3.15575800
162.59999052	0.00000000	16.14173000	3.15575800
162.79999051	0.00000000	15.47736000	3.15575800
162.99999049	0.00000000	15.02214000	3.15575800
163.19999048	0.00000000	15.01599000	3.15575800
163.39999047	0.00000000	14.60384000	3.15575800
163.59999046	0.00000000	14.27165000	3.15575800
163.79999045	0.00000000	14.22859000	3.15575800
163.99999043	0.00000000	14.22859000	3.15575800
164.19999042	0.00000000	14.27165000	3.15575800
164.39999041	0.00000000	14.64690000	3.11269700
164.59999040	0.00000000	15.39124000	2.73745100
164.79999039	0.00000000	15.76649000	1.99311000
164.99999037	0.00000000	15.80955000	1.61786400
165.19999036	0.00000000	15.80955000	1.61786400
165.39999035	0.00000000	15.80955000	1.99311000
165.59999034	0.00000000	15.80955000	2.73745100
165.79999033	0.00000000	15.80955000	3.11269700
165.99999032	0.00000000	15.76649000	3.15575800
166.19999030	0.00000000	15.39124000	3.15575800
166.39999029	0.00000000	14.69611000	3.15575800
166.59999028	0.00000000	14.64690000	3.15575800
166.79999027	0.00000000	14.97293000	3.15575800
166.99999026	0.00000000	14.64690000	3.15575800
167.19999024	0.00000000	14.69611000	3.15575800
167.39999023	0.00000000	15.39124000	3.15575800
167.59999022	0.00000000	15.76649000	3.11269700
167.79999021	0.00000000	15.80955000	2.78051200
167.99999020	0.00000000	15.80955000	2.41141700
168.19999018	0.00000000	15.80955000	2.78051200
168.39999017	0.00000000	15.80955000	3.11269700
168.59999016	0.00000000	15.76649000	3.11269700
168.79999015	0.00000000	15.43430000	2.78051200
168.99999014	0.00000000	15.06521000	2.41141700
169.19999013	0.00000000	15.39124000	2.78051200
169.39999011	0.00000000	15.34203000	3.11269700
169.59999010	0.00000000	14.69611000	3.15575800
169.79999009	0.00000000	14.64690000	3.15575800
169.99999008	0.00000000	15.01599000	3.15575800
170.19999007	0.00000000	14.97908000	3.15575800
170.39999005	0.00000000	15.05905000	3.15575800
170.59999004	0.00000000	15.02214000	3.15575800
170.79999003	0.00000000	15.43430000	3.15575800
170.99999002	0.00000000	15.76649000	3.11269700
171.19999001	0.00000000	15.80955000	2.78051200
171.39998999	0.00000000	15.80955000	2.36835600
171.59998998	0.00000000	15.80955000	2.36220500
171.79998997	0.00000000	15.80955000	1.95004900
171.99998996	0.00000000	15.80955000	1.66707700
172.19998995	0.00000000	15.80955000	1.95004900
172.39998994	0.00000000	15.80955000	2.36220500
172.59998992	0.00000000	15.80955000	2.36835600
172.79998991	0.00000000	15.80955000	2.78051200
172.99998990	0.00000000	15.76649000	3.11269700
173.19998989	0.00000000	15.43430000	3.15575800
173.39998988	0.00000000	15.06521000	3.15575800
173.59998986	0.00000000	15.43430000	3.15575800
173.79998985	0.00000000	15.76649000	3.15575800
173.99998984	0.00000000	15.80955000	3.15575800
174.19998983	0.00000000	15.80955000	3.11269700
174.39998982	0.00000000	15.80955000	2.78051200
174.59998980	0.00000000	15.80955000	2.36835600
174.79998979	0.00000000	15.80955000	2.36220500
174.99998978	0.00000000	15.80955000	1.99311000
175.19998977	0.00000000	15.76649000	1.99311000
175.39998976	0.00000000	15.43430000	2.36220500
175.59998975	0.00000000	15.06521000	2.36835600
175.79998973	0.00000000	15.43430000	2.78051200
175.99998972	0.00000000	15.76649000	3.11269700
176.19998971	0.00000000	15.76649000	3.15575800
176.39998970	0.00000000	15.43430000	3.15575800
176.59998969	0.00000000	15.06521000	3.15575800
176.79998967	0.00000000	15.43430000	3.15575800
176.99998966	0.00000000	15.76649000	3.15575800
177.19998965	0.00000000	15.80955000	3.11269700
177.39998964	0.00000000	15.76649000	2.73745100
177.59998963	0.00000000	15.39124000	1.99311000
177.79998961	0.00000000	14.64690000	1.61786400
177.99998960	0.00000000	14.27165000	1.57480300
178.19998959	0.00000000	14.22859000	1.57480300
178.39998958	0.00000000	14.27165000	1.57480300
178.59998957	0.00000000	14.64690000	1.61786400
178.79998956	0.00000000	15.39124000	1.99311000
178.99998954	0.00000000	15.76649000	2.73745100
179.19998953	0.00000000	15.80955000	3.11269700
179.39998952	0.00000000	15.80955000	3.15575800
179.59998951	0.00000000	15.80955000	3.11269700
179.79998950	0.00000000	15.80955000	2.73745100
179.99998948	0.00000000	15.80955000	1.99311000
180.19998947	0.00000000	15.80955000	1.61786400
180.39998946	0.00000000	15.80955000	1.57480300
180.59998945	0.00000000	15.76649000	1.57480300
180.79998944	0.00000000	15.39124000	1.61786400
180.99998942	0.00000000	14.69611000	1.99311000
181.19998941	0.00000000	14.64690000	2.73745100
181.39998940	0.00000000	14.97293000	3.11269700
181.59998939	0.00000000	14.64690000	3.15575800
181.79998938	0.00000000	14.69611000	3.15575800
181.99998937	0.00000000	15.39124000	3.15575800
182.19998935	0.00000000	15.76649000	3.15575800
182.39998934	0.00000000	15.80955000	3.15575800
182.59998933	0.00000000	15.80955000	3.11269700
182.79998932	0.00000000	15.80955000	2.73745100
182.99998931	0.00000000	15.80955000	1.99311000
183.19998929	0.00000000	15.80955000	1.61786400
183.39998928	0.00000000	15.80955000	1.57480300
183.59998927	0.00000000	15.80955000	1.57480300
183.79998926	0.00000000	15.76649000	1.61786400
183.99998925	0.00000000	15.39124000	1.99311000
184.19998923	0.00000000	14.69611000	2.73745100
184.39998922	0.00000000	14.64690000	3.11269700
184.59998921	0.00000000	14.97293000	3.15575800
184.79998920	0.00000000	14.60384000	3.15575800
184.99998919	0.00000000	14.32087000	3.15575800
185.19998918	0.00000000	14.64690000	3.15575800
185.39998916	0.00000000	15.39124000	3.15575800
185.59998915	0.00000000	15.76649000	3.11269700
185.79998914	0.00000000	15.80955000	2.73745100
185.99998913	0.00000000	15.80955000	1.99311000
186.19998912	0.00000000	15.80955000	1.61786400
186.39998910	0.00000000	15.80955000	1.57480300
186.59998909	0.00000000	15.76649000	1.57480300
186.79998908	0.00000000	15.39124000	1.57480300
186.99998907	0.00000000	14.64690000	1.61786400
187.19998906	0.00000000	14.27165000	1.99311000
187.39998904	0.00000000	14.22859000	2.73745100
187.59998903	0.00000000	14.22859000	3.11269700
187.79998902	0.00000000	14.27165000	3.15575800
187.99998901	0.00000000	14.64690000	3.15575800
188.19998900	0.00000000	15.39124000	3.15575800
188.39998899	0.00000000	15.76649000	3.11269700
188.59998897	0.00000000	15.80955000	2.73745100
188.79998896	0.00000000	15.80955000	1.99311000
188.99998895	0.00000000	15.80955000	1.61786400
189.19998894	0.00000000	15.80955000	1.57480300
189.39998893	0.00000000	15.80955000	1.57480300
189.59998891	0.00000000	15.76649000	1.57480300
189.79998890	0.00000000	15.39124000	1.61786400
189.99998889	0.00000000	14.64690000	1.99311000
190.19998888	0.00000000	14.27165000	2.73745100
190.39998887	0.00000000	14.22859000	3.11269700
190.59998885	0.00000000	14.22859000	3.15575800
190.79998884	0.00000000	14.22859000	3.15575800
190.99998883	0.00000000	14.27165000	3.15575800
191.19998882	0.00000000	14.64690000	3.15575800
191.39998881	0.00000000	15.39124000	3.15575800
191.59998880	0.00000000	15.76649000	3.11269700
191.79998878	0.00000000	15.80955000	2.73745100
191.99998877	0.00000000	15.80955000	1.99311000
192.19998876	0.00000000	15.80955000	1.61786400
192.39998875	0.00000000	15.76649000	1.57480300
192.59998874	0.00000000	15.39124000	1.57480300
192.79998872	0.00000000	14.64690000	1.57480300
192.99998871	0.00000000	14.27165000	1.57480300
193.19998870	0.00000000	14.22859000	1.61786400
193.39998869	0.00000000	14.22859000	1.99311000
193.59998868	0.00000000	14.22859000	2.73745100
193.79998866	0.00000000	14.22859000	3.11269700
193.99998865	0.00000000	14.27165000	3.15575800
194.19998864	0.00000000	14.64690000	3.15575800
194.39998863	0.00000000	15.39124000	3.15575800
194.59998862	0.00000000	15.76649000	3.15575800
194.79998861	0.00000000	15.80955000	3.15575800
194.99998859	0.00000000	15.80955000	3.11269700
195.19998858	0.00000000	15.76649000	2.78051200
195.39998857	0.00000000	15.39124000	2.36835600
195.59998856	0.00000000	14.64690000	2.36220500
195.79998855	0.00000000	14.27165000	1.95004900
195.99998853	0.00000000	14.22859000	1.61786400
