Time	Channel A	Channel B	Channel C
(us)	(V)	(mV)	(mV)

-4.49999956	0.00000000	13.76107000	1.57480300
-4.29999957	0.00000000	13.81028000	1.57480300
-4.09999958	0.00000000	13.44119000	1.57480300
-3.89999959	0.00000000	13.43504000	1.57480300
-3.69999960	0.00000000	13.02288000	1.57480300
-3.49999962	0.00000000	12.73991000	1.57480300
-3.29999963	0.00000000	13.02288000	1.57480300
-3.09999964	0.00000000	13.39198000	1.57480300
-2.89999965	0.00000000	13.02288000	1.57480300
-2.69999966	0.00000000	12.73991000	1.57480300
-2.49999968	0.00000000	13.02288000	1.57480300
-2.29999969	0.00000000	13.39198000	1.57480300
-2.09999970	0.00000000	13.02288000	1.61786400
-1.89999971	0.00000000	12.69070000	1.95004900
-1.69999972	0.00000000	12.64764000	2.31914400
-1.49999973	0.00000000	12.69070000	1.95004900
-1.29999975	0.00000000	13.02288000	1.61786400
-1.09999976	0.00000000	13.43504000	1.57480300
-0.89999977	0.00000000	13.39813000	1.57480300
-0.69999978	0.00000000	13.43504000	1.57480300
-0.49999979	0.00000000	13.02288000	1.57480300
-0.29999981	0.31803640	12.73991000	1.57480300
-0.09999982	0.63668800	13.02288000	1.57480300
0.10000017	0.95533960	13.43504000	1.57480300
0.30000016	0.95533960	13.39813000	1.57480300
0.50000015	0.79601380	13.43504000	1.57480300
0.70000013	0.31803640	13.02288000	1.57480300
0.90000012	-0.47736220	12.69070000	1.57480300
1.10000011	-1.43331700	12.64764000	1.57480300
1.30000010	-2.38927200	12.64764000	1.57480300
1.50000009	-2.70792300	12.69070000	1.61786400
1.70000008	-2.54859700	13.02288000	1.95004900
1.90000006	-1.27399100	13.39198000	2.36220500
2.10000005	0.47736220	13.02288000	2.32529500
2.30000004	2.70792300	12.69070000	2.36220500
2.50000003	4.45989200	12.64764000	1.95004900
2.70000002	5.41584600	12.64764000	1.61786400
2.90000000	4.77854300	12.64764000	1.57480300
3.09999999	2.86724900	12.64764000	1.57480300
3.29999998	-0.15871060	12.64764000	1.57480300
3.49999997	-3.50393700	12.64764000	1.57480300
3.69999996	-6.37180100	12.64764000	1.57480300
3.89999994	-7.96444400	12.64764000	1.61786400
4.09999993	-7.48646600	12.64764000	1.99311000
4.29999992	-4.93786900	12.69070000	2.73745100
4.49999991	-1.11466500	13.02288000	3.11269700
4.69999990	3.34522600	13.39198000	3.11269700
4.89999989	7.16781500	13.02288000	2.73745100
5.09999987	9.23905000	12.69070000	1.99311000
5.29999986	9.07972400	12.64764000	1.61786400
5.49999985	6.53112700	12.64764000	1.57480300
5.69999984	2.38927200	12.64764000	1.57480300
5.89999983	-2.38927200	12.64764000	1.57480300
6.09999981	-6.53112700	12.64764000	1.57480300
6.29999980	-9.07972400	12.69070000	1.61786400
6.49999979	-9.23905000	13.02288000	1.99311000
6.69999978	-7.16781500	13.43504000	2.68823800
6.89999977	-3.50393700	13.39813000	2.73745100
7.09999975	0.95533960	13.43504000	2.36835600
7.29999974	4.77854300	13.02288000	2.36220500
7.49999973	7.32714100	12.69070000	1.95004900
7.69999972	7.64579200	12.64764000	1.61786400
7.89999971	6.37180100	12.64764000	1.57480300
8.09999970	3.34522600	12.64764000	1.57480300
8.29999968	0.15871060	12.64764000	1.57480300
8.49999967	-2.86724900	12.64764000	1.57480300
8.69999966	-4.61921700	12.64764000	1.57480300
8.89999965	-5.25652100	12.64764000	1.57480300
9.09999964	-4.30056600	12.69070000	1.57480300
9.29999962	-2.70792300	13.02288000	1.57480300
9.49999961	-0.63668800	13.39198000	1.57480300
9.69999960	1.11466500	13.06594000	1.61786400
9.89999959	2.22994600	13.06594000	1.95004900
10.09999958	2.54859700	13.39198000	2.31914400
10.29999956	2.22994600	13.02288000	1.95004900
10.49999955	1.43331700	12.69070000	1.61786400
10.69999954	0.47736220	12.64764000	1.57480300
10.89999953	-0.15871060	12.64764000	1.57480300
11.09999952	-0.79601380	12.64764000	1.57480300
11.29999951	-0.95533960	12.64764000	1.57480300
11.49999949	-0.95533960	12.64764000	1.57480300
11.69999948	-0.79601380	12.64764000	1.57480300
11.89999947	-0.47736220	12.64764000	1.57480300
12.09999946	-0.15871060	12.64764000	1.57480300
12.29999945	-0.15871060	12.64764000	1.57480300
12.49999943	-0.15871060	12.64764000	1.57480300
12.69999942	0.00000000	12.64764000	1.57480300
12.89999941	0.00000000	12.64764000	1.57480300
13.09999940	0.15871060	12.64764000	1.57480300
13.29999939	0.00000000	12.64764000	1.57480300
13.49999937	0.00000000	12.64764000	1.57480300
13.69999936	0.00000000	12.64764000	1.57480300
13.89999935	-0.15871060	12.64764000	1.57480300
14.09999934	-0.15871060	12.64764000	1.57480300
14.29999933	-0.15871060	12.64764000	1.57480300
14.49999932	-0.15871060	12.64764000	1.57480300
14.69999930	0.00000000	12.64764000	1.57480300
14.89999929	0.00000000	12.64764000	1.57480300
15.09999928	0.00000000	12.64764000	1.57480300
15.29999927	0.00000000	12.64764000	1.57480300
15.49999926	0.00000000	12.64764000	1.57480300
15.69999924	0.00000000	12.64764000	1.57480300
15.89999923	0.00000000	12.64764000	1.57480300
16.09999922	0.00000000	12.64764000	1.57480300
16.29999921	0.00000000	12.64764000	1.57480300
16.49999920	-0.15871060	12.64764000	1.57480300
16.69999919	-0.15871060	12.69070000	1.57480300
16.89999917	-0.15871060	13.06594000	1.57480300
17.09999916	0.00000000	13.81028000	1.57480300
17.29999915	0.00000000	14.18553000	1.57480300
17.49999914	0.00000000	14.22859000	1.57480300
17.69999913	0.00000000	14.22859000	1.57480300
17.89999911	0.00000000	14.18553000	1.57480300
18.09999910	0.00000000	13.76107000	1.57480300
18.29999909	0.00000000	12.60458000	1.57480300
18.49999908	0.00000000	11.06668000	1.57480300
18.69999907	0.00000000	9.52879000	1.57480300
18.89999905	0.00000000	8.37229300	1.57480300
19.09999904	0.00000000	8.04010800	1.57480300
19.29999903	0.00000000	8.87672100	1.57480300
19.49999902	0.00000000	11.57726000	1.57480300
19.69999901	0.00000000	15.43430000	1.57480300
19.89999900	0.00000000	19.30364000	1.57480300
20.09999898	0.00000000	22.78543000	1.57480300
20.29999897	0.00000000	24.64936000	1.57480300
20.49999896	0.00000000	24.23105000	1.57480300
20.69999895	0.00000000	21.06914000	1.57480300
20.89999894	0.00000000	15.25591000	1.57480300
21.09999892	0.00000000	7.90477300	1.57480300
21.29999891	0.00000000	0.55364170	1.57480300
21.49999890	0.00000000	-5.16732200	1.57480300
21.69999889	0.00000000	-7.44955700	1.57480300
21.89999888	0.00000000	-5.03198800	1.57480300
22.09999886	0.00000000	1.99311000	1.57480300
22.29999885	0.00000000	13.24434000	1.57480300
22.49999884	0.00000000	26.27953000	1.57480300
22.69999883	0.00000000	37.44463000	1.57480300
22.89999882	0.00000000	43.59005000	1.57480300
23.09999881	0.00000000	43.17175000	1.61786400
23.29999879	0.00000000	35.72834000	1.99311000
23.49999878	0.00000000	22.13952000	2.73745100
23.69999877	0.00000000	4.74286400	3.11269700
23.89999876	0.00000000	-12.51845000	3.19881900
24.09999875	0.00000000	-24.88927000	3.53100400
24.29999873	0.00000000	-29.08464000	3.85088600
24.49999872	0.00000000	-24.37869000	3.06348400
24.69999871	0.00000000	-10.38386000	1.57480300
24.89999870	0.00000000	10.03937000	0.00000000
25.09999869	0.00000000	32.09276000	-1.53174200
25.29999867	0.00000000	50.94119000	-2.68823800
25.49999866	0.00000000	61.73105000	-3.06348400
25.69999865	0.00000000	61.31889000	-2.60211600
25.89999864	0.00000000	50.09842000	-0.60285430
26.09999863	0.00000000	29.95817000	3.20497000
26.29999862	0.00000000	5.29650500	7.43110200
26.49999860	0.00000000	-17.87033000	10.91289000
26.69999859	0.00000000	-34.11048000	13.18898000
26.89999858	0.00000000	-39.92372000	13.14591000
27.09999857	0.00000000	-34.11048000	10.40846000
27.29999856	0.00000000	-17.87033000	5.33956700
27.49999854	0.00000000	5.29650500	-1.66707700
27.69999853	0.00000000	30.00123000	-9.33809000
27.89999852	0.00000000	50.47367000	-15.88336000
28.09999851	0.00000000	62.10630000	-19.24212000
28.29999850	0.00000000	62.52460000	-18.07332000
28.49999848	0.00000000	52.14690000	-11.80487000
28.69999847	0.00000000	33.63066000	-1.76550200
28.89999846	0.00000000	11.62032000	10.58686000
29.09999845	0.00000000	-8.89517700	22.10876000
29.29999844	0.00000000	-23.64050000	29.87205000
29.49999843	0.00000000	-29.91511000	32.47416000
29.69999841	0.00000000	-27.22072000	28.52485000
29.89999840	0.00000000	-16.42470000	17.70423000
30.09999839	0.00000000	0.17839570	2.69439000
30.29999838	0.00000000	18.33169000	-13.19513000
30.49999837	0.00000000	34.23966000	-26.71629000
30.69999835	0.00000000	44.75270000	-35.12549000
30.89999834	0.00000000	48.24065000	-35.86368000
31.09999833	0.00000000	44.42052000	-28.11270000
31.29999832	0.00000000	34.00591000	-13.84104000
31.49999831	0.00000000	20.09104000	4.31840500
31.69999829	0.00000000	5.33956700	22.06570000
31.89999828	0.00000000	-7.35728300	35.63607000
32.09999827	0.00000000	-14.75148000	42.55659000
32.29999826	0.00000000	-15.63730000	40.97564000
32.49999825	0.00000000	-10.98671000	30.94242000
32.69999824	0.00000000	-1.72244100	14.72687000
32.89999822	0.00000000	10.27313000	-4.18307100
33.09999821	0.00000000	21.81964000	-21.55512000
33.29999820	0.00000000	30.74557000	-33.58760000
33.49999819	0.00000000	34.61491000	-38.23819000
33.69999818	0.00000000	33.16929000	-34.75024000
33.89999816	0.00000000	27.34990000	-23.55438000
34.09999815	0.00000000	18.50394000	-7.38804100
34.29999814	0.00000000	8.87672100	10.03322000
34.49999813	0.00000000	1.15649600	25.08612000
34.69999812	0.00000000	-3.12500000	34.79330000
34.89999810	0.00000000	-3.16806100	37.08169000
35.09999809	0.00000000	0.68897630	31.72982000
35.29999808	0.00000000	7.20964500	19.79577000
35.49999807	0.00000000	14.88066000	4.78592500
35.69999806	0.00000000	21.02608000	-9.94094400
35.89999805	0.00000000	24.18799000	-21.51206000
36.09999803	0.00000000	24.18799000	-27.27608000
36.29999802	0.00000000	21.11220000	-25.78740000
36.49999801	0.00000000	15.76649000	-17.74729000
36.69999800	0.00000000	9.99630800	-5.80708600
36.89999799	0.00000000	5.38877900	7.25270600
37.09999797	0.00000000	3.06348400	17.98105000
37.29999796	0.00000000	3.80782500	23.04995000
37.49999795	0.00000000	6.83439900	21.97957000
37.69999794	0.00000000	11.10974000	15.84030000
37.89999793	0.00000000	15.71727000	6.22539300
38.09999791	0.00000000	19.58046000	-4.09694900
38.29999790	0.00000000	21.53666000	-12.13091000
38.49999789	0.00000000	21.53666000	-15.19439000
38.69999788	0.00000000	19.58046000	-12.59227000
38.89999787	0.00000000	15.71727000	-5.67175200
39.09999786	0.00000000	11.15896000	3.53100400
39.29999784	0.00000000	7.25270600	12.68455000
39.49999783	-0.15871060	4.92125900	18.35630000
39.69999782	0.00000000	4.09079700	18.44857000
39.89999781	0.00000000	4.87819900	13.42889000
40.09999780	0.00000000	6.83439900	4.97047200
40.29999778	0.00000000	9.95324800	-5.38262700
40.49999777	0.00000000	13.81028000	-14.12401000
40.69999776	0.00000000	17.25517000	-18.35630000
40.89999775	0.00000000	19.66658000	-16.86762000
41.09999774	0.00000000	20.79232000	-10.35925000
41.29999772	0.00000000	20.82923000	-1.06422200
41.49999771	0.00000000	19.25443000	9.29502900
41.69999770	0.00000000	16.97219000	18.07332000
41.89999769	0.00000000	14.18553000	21.93036000
42.09999768	0.00000000	11.10974000	20.48474000
42.29999767	0.00000000	8.41535400	14.67766000
42.49999765	0.00000000	6.83439900	5.85014700
42.69999764	0.00000000	6.41609200	-3.76476400
42.89999763	0.00000000	6.79133800	-11.47884000
43.09999762	0.00000000	7.94783400	-15.74803000
43.29999761	0.00000000	9.52879000	-15.74803000
43.49999759	0.00000000	11.44193000	-11.56496000
43.69999758	0.00000000	13.39198000	-4.64443900
43.89999757	0.00000000	14.56078000	3.02042300
44.09999756	0.00000000	15.39124000	9.61491000
44.29999755	0.00000000	15.76649000	13.47195000
44.49999753	0.00000000	15.85261000	14.30241000
44.69999752	0.00000000	16.22785000	12.03248000
44.89999751	0.00000000	16.92298000	7.84940900
45.09999750	0.00000000	16.87992000	3.20497000
45.29999749	0.00000000	15.76649000	-1.07037400
45.49999748	0.00000000	14.13632000	-4.18307100
45.69999746	0.00000000	11.76181000	-5.71481200
45.89999745	0.00000000	8.28001900	-5.38262700
46.09999744	0.00000000	4.87819900	-3.48179100
46.29999743	0.00000000	2.55290300	-1.15649600
46.49999742	0.00000000	2.17765700	1.58095500
46.69999740	0.00000000	3.75861200	4.26919300
46.89999739	0.00000000	7.29576700	6.22539300
47.09999738	0.00000000	12.73991000	7.38188900
47.29999737	0.00000000	18.87918000	7.33882900
47.49999736	0.00000000	24.32333000	5.80093500
47.69999734	0.00000000	27.72515000	3.15575800
47.89999733	0.00000000	28.08809000	0.41830710
48.09999732	0.00000000	24.56324000	-1.90698800
48.29999731	0.00000000	18.04257000	-3.80782500
48.49999730	0.00000000	9.90403500	-4.18307100
48.69999729	0.00000000	2.17765700	-3.06348400
48.89999727	0.00000000	-3.63558100	-1.11343500
49.09999726	0.00000000	-6.24384800	1.62401600
49.29999725	0.00000000	-4.28764700	4.68750000
49.49999724	0.00000000	2.22687000	7.38188900
49.69999723	0.00000000	11.10974000	8.87672100
49.89999721	0.00000000	20.37401000	8.45226300
50.09999720	0.00000000	28.04503000	5.80093500
50.29999719	0.00000000	31.48991000	1.95004900
50.49999718	0.00000000	30.00123000	-1.90698800
50.69999717	0.00000000	24.23105000	-5.38262700
50.89999715	0.00000000	15.76649000	-7.24655500
51.09999714	0.00000000	6.87746000	-6.87746000
51.29999713	0.00000000	-0.42445860	-4.18307100
51.49999712	0.00000000	-4.28764700	0.00000000
51.69999711	0.00000000	-3.54330700	4.26919300
51.89999710	0.00000000	1.06422200	7.75713500
52.09999708	0.00000000	8.37229300	10.07628000
52.29999707	0.00000000	16.46161000	10.40846000
52.49999706	0.00000000	22.98228000	8.50147600
52.69999705	0.00000000	26.42101000	4.69365100
52.89999704	0.00000000	25.30143000	0.51058070
53.09999702	0.00000000	20.37401000	-2.60211600
53.29999701	0.00000000	13.85334000	-4.18307100
53.49999700	0.00000000	7.29576700	-4.18307100
53.69999699	0.00000000	2.68823800	-2.64517700
53.89999698	0.00000000	1.10728300	0.00000000
54.09999696	0.00000000	2.64517700	2.69439000
54.29999695	0.00000000	6.87746000	4.60137700
54.49999694	0.00000000	12.64764000	5.38262700
54.69999693	0.00000000	18.37475000	4.60137700
54.89999692	0.00000000	22.18258000	2.73745100
55.09999691	0.00000000	22.60704000	0.41830710
55.29999689	0.00000000	19.95571000	-1.43946800
55.49999688	0.00000000	15.34203000	-2.18380900
55.69999687	0.00000000	9.95324800	-1.02116100
55.89999686	0.00000000	5.33956700	1.62401600
56.09999685	0.00000000	2.64517700	4.68750000
56.29999683	0.00000000	2.64517700	7.33882900
56.49999682	0.00000000	5.29650500	8.45226300
56.69999681	0.00000000	9.52879000	7.29576700
56.89999680	0.00000000	14.13632000	4.22613100
57.09999679	0.00000000	18.04257000	0.00000000
57.29999677	0.00000000	20.32480000	-4.22613100
57.49999676	0.00000000	20.73696000	-7.29576700
57.69999675	0.00000000	18.79306000	-8.40920300
57.89999674	0.00000000	15.39124000	-6.82824800
58.09999673	0.00000000	11.53420000	-2.60211600
58.29999672	0.00000000	8.45841400	3.15575800
58.49999670	0.00000000	6.87746000	8.96284400
58.69999669	0.00000000	6.83439900	13.52116000
58.89999668	0.00000000	7.99704600	15.37894000
59.09999667	0.00000000	9.90403500	13.05364000
59.29999666	0.00000000	12.22933000	7.33882900
59.49999664	0.00000000	14.13632000	0.04306102
59.69999663	0.00000000	15.29897000	-6.92052100
59.89999662	0.00000000	15.29897000	-11.89715000
60.09999661	0.00000000	14.22859000	-13.84104000
60.29999660	0.00000000	13.06594000	-11.84793000
60.49999658	0.00000000	12.27239000	-6.50221400
60.69999657	0.00000000	11.53420000	1.24877000
60.89999656	0.00000000	11.53420000	9.24581600
61.09999655	0.00000000	12.27239000	15.46506000
61.29999654	0.00000000	13.02288000	18.12254000
61.49999653	0.00000000	13.81028000	16.95374000
61.69999651	0.00000000	14.13632000	11.56496000
61.89999650	0.00000000	13.76107000	3.53100400
62.09999649	0.00000000	12.60458000	-4.55831700
62.29999648	0.00000000	11.06668000	-11.14665000
62.49999647	0.00000000	9.52879000	-14.58538000
62.69999645	0.00000000	8.37229300	-14.25935000
62.89999644	0.00000000	8.04010800	-10.35925000
63.09999643	0.00000000	8.79060000	-3.80782500
63.29999642	0.00000000	10.73450000	4.22613100
63.49999641	0.00000000	13.02288000	11.14665000
63.69999639	0.00000000	15.39124000	15.09596000
63.89999638	0.00000000	17.25517000	16.30167000
64.09999637	0.00000000	18.04257000	14.67766000
64.29999636	0.00000000	17.25517000	10.07628000
64.49999635	0.00000000	15.34203000	3.57406500
64.69999634	0.00000000	12.64764000	-2.60211600
64.89999632	0.00000000	9.95324800	-7.29576700
65.09999631	0.00000000	8.04010800	-9.98400600
65.29999630	0.00000000	7.25270600	-10.03322000
65.49999629	0.00000000	8.04010800	-7.75713500
65.69999628	0.00000000	9.90403500	-4.26919300
65.89999626	0.00000000	12.22933000	0.00000000
66.09999625	0.00000000	14.13632000	4.22613100
66.29999624	0.00000000	15.29897000	7.38188900
66.49999623	0.00000000	15.29897000	9.38115100
66.69999622	0.00000000	14.18553000	10.53765000
66.89999620	0.00000000	12.60458000	10.49459000
67.09999619	0.00000000	10.69144000	8.96284400
67.29999618	0.00000000	8.83366100	6.26845500
67.49999617	0.00000000	8.45841400	3.15575800
67.69999616	0.00000000	9.57800100	0.00000000
67.89999615	0.00000000	11.53420000	-3.11269700
68.09999613	0.00000000	14.22859000	-5.80093500
68.29999612	0.00000000	16.87992000	-7.33882900
68.49999611	0.00000000	18.37475000	-7.38188900
68.69999610	0.00000000	17.95029000	-6.17618100
68.89999609	0.00000000	15.25591000	-3.80782500
69.09999607	0.00000000	11.06668000	0.09227362
69.29999606	0.00000000	6.83439900	4.69365100
69.49999605	0.00000000	3.71555100	8.96284400
69.69999604	0.00000000	2.22687000	12.03248000
69.89999603	0.00000000	3.02042300	13.14591000
70.09999601	0.00000000	6.50221400	11.61417000
70.29999600	0.00000000	11.53420000	7.75713500
70.49999599	0.00000000	17.29823000	2.73745100
70.69999598	0.00000000	22.27485000	-2.69439000
70.89999597	0.00000000	24.60630000	-7.24655500
71.09999596	0.00000000	24.23105000	-9.61491000
71.29999594	0.00000000	21.11220000	-9.24581600
71.49999593	0.00000000	15.71727000	-6.96358300
71.69999592	0.00000000	9.52879000	-3.02042300
71.89999591	0.00000000	3.71555100	1.95004900
72.09999590	0.00000000	-0.51673230	6.92052100
72.29999588	0.00000000	-2.05462600	9.98400600
72.49999587	0.00000000	-0.47367120	10.45152000
72.69999586	0.00000000	4.13385800	8.96284400
72.89999585	0.00000000	10.64838000	6.22539300
73.09999584	0.00000000	16.87992000	2.82972400
73.29999582	0.00000000	21.90576000	-0.27682080
73.49999581	0.00000000	24.97539000	-1.81471400
73.69999580	0.00000000	24.60630000	-2.26993100
73.89999579	0.00000000	21.57972000	-1.43946800
74.09999578	0.00000000	16.87992000	0.37524600
74.29999577	0.00000000	11.10974000	2.22687000
74.49999575	0.00000000	5.71481200	2.60211600
74.69999574	0.00000000	2.26993100	1.53174200
74.89999573	0.00000000	1.43946800	-0.04306102
75.09999572	0.00000000	3.29724400	-1.95004900
75.29999571	0.00000000	6.36687900	-3.80782500
75.49999569	0.00000000	9.90403500	-4.14000900
75.69999568	0.00000000	13.76107000	-2.60211600
75.89999567	0.00000000	16.79380000	0.51058070
76.09999566	0.00000000	17.99951000	4.69365100
76.29999565	0.00000000	17.29823000	8.54453700
76.49999563	0.00000000	15.80955000	10.82677000
76.69999562	0.00000000	14.22859000	11.14665000
76.89999561	0.00000000	12.69070000	8.45226300
77.09999560	0.00000000	11.53420000	3.48794300
77.29999559	0.00000000	11.10974000	-1.95004900
77.49999558	0.00000000	11.06668000	-7.33882900
77.69999556	0.00000000	11.06668000	-11.14665000
77.89999555	0.00000000	11.02362000	-11.94021000
78.09999554	0.00000000	10.64838000	-9.98400600
78.29999553	0.00000000	9.90403500	-5.33956700
78.49999552	0.00000000	9.52879000	1.15649600
78.69999550	0.00000000	9.48572700	7.33882900
78.89999549	0.00000000	9.57800100	12.03248000
79.09999548	0.00000000	10.37155000	14.67766000
79.29999547	0.00000000	12.31545000	14.30241000
79.49999546	0.00000000	14.56078000	10.86983000
79.69999544	0.00000000	16.50467000	5.85014700
79.89999543	0.00000000	17.25517000	0.04306102
80.09999542	0.00000000	16.87992000	-5.33956700
80.29999541	0.00000000	15.34203000	-8.82750900
80.49999540	0.00000000	13.02288000	-10.03322000
80.69999539	0.00000000	10.64838000	-8.91978400
80.89999537	0.00000000	7.94783400	-6.22539300
81.09999536	0.00000000	5.71481200	-2.69439000
81.29999535	0.00000000	5.33956700	1.57480300
81.49999534	0.00000000	6.83439900	5.80093500
81.69999533	0.00000000	9.52879000	8.91978400
81.89999531	0.00000000	12.60458000	10.49459000
82.09999530	0.00000000	15.34203000	10.53765000
82.29999529	0.00000000	17.25517000	9.38115100
82.49999528	0.00000000	17.99951000	7.38188900
82.69999527	0.00000000	16.83686000	4.26919300
82.89999525	0.00000000	14.22859000	0.41830710
83.09999524	0.00000000	11.53420000	-3.06348400
83.29999523	0.00000000	9.57800100	-5.80093500
83.49999522	0.00000000	8.37229300	-7.33882900
83.69999521	0.00000000	7.99704600	-7.33882900
83.89999520	0.00000000	8.37229300	-5.80093500
84.09999518	0.00000000	9.52879000	-3.06348400
84.29999517	0.00000000	11.02362000	0.46751960
84.49999516	0.00000000	12.18012000	4.73671200
84.69999515	0.00000000	12.60458000	8.91978400
84.89999514	0.00000000	12.64764000	11.61417000
85.09999512	0.00000000	12.64764000	12.03248000
85.29999511	0.00000000	12.64764000	10.49459000
85.49999510	0.00000000	12.64764000	7.33882900
85.69999509	0.00000000	12.64764000	2.69439000
85.89999508	0.00000000	12.64764000	-2.64517700
86.09999506	0.00000000	12.64764000	-6.92052100
86.29999505	0.00000000	12.64764000	-9.24581600
86.49999504	0.00000000	12.60458000	-9.61491000
86.69999503	0.00000000	12.18012000	-7.29576700
86.89999502	0.00000000	11.06668000	-3.06963600
87.09999501	0.00000000	9.95324800	1.95004900
87.29999499	0.00000000	9.52879000	6.96358300
87.49999498	0.00000000	9.52879000	10.40846000
87.69999497	0.00000000	9.90403500	11.56496000
87.89999496	0.00000000	10.73450000	10.03322000
88.09999495	0.00000000	11.86024000	6.21924200
88.29999493	0.00000000	13.43504000	1.62401600
88.49999492	0.00000000	14.51156000	-2.64517700
88.69999491	0.00000000	14.97293000	-5.71481200
88.89999490	0.00000000	14.51156000	-6.87130900
89.09999489	0.00000000	13.39198000	-5.71481200
89.29999487	0.00000000	11.48499000	-2.64517700
89.49999486	0.00000000	9.95324800	1.57480300
89.69999485	0.00000000	9.11048200	5.80093500
89.89999484	0.00000000	8.37229300	8.87057000
90.09999483	0.00000000	8.41535400	9.99015700
90.29999482	0.00000000	9.52879000	8.50147600
90.49999480	0.00000000	11.02362000	5.06274600
90.69999479	0.00000000	12.22933000	1.20570900
90.89999478	0.00000000	13.02288000	-2.64517700
91.09999477	0.00000000	13.76107000	-5.33956700
91.29999476	0.00000000	13.76107000	-6.09005900
91.49999474	0.00000000	13.06594000	-4.92125900
91.69999473	0.00000000	12.69070000	-1.43946800
91.89999472	0.00000000	12.64764000	3.06963600
92.09999471	0.00000000	12.60458000	6.92052100
92.29999470	0.00000000	12.22933000	8.82750900
92.49999468	0.00000000	11.48499000	8.50147600
92.69999467	0.00000000	11.10974000	6.17618100
92.89999466	0.00000000	11.02362000	2.73745100
93.09999465	0.00000000	10.64838000	-1.15649600
93.29999464	0.00000000	9.90403500	-4.60137700
93.49999463	0.00000000	9.52879000	-6.87746000
93.69999461	0.00000000	9.52879000	-6.82824800
93.89999460	0.00000000	9.95324800	-4.18307100
94.09999459	0.00000000	11.10974000	0.00000000
94.29999458	0.00000000	12.64764000	4.22613100
94.49999457	0.00000000	14.22859000	7.33882900
94.69999455	0.00000000	15.71727000	8.82750900
94.89999454	0.00000000	16.46161000	8.08316900
95.09999453	0.00000000	15.71727000	5.01968500
95.29999452	0.00000000	14.18553000	1.20570900
95.49999451	0.00000000	12.18012000	-2.64517700
95.69999449	0.00000000	9.48572700	-5.33956700
95.89999448	0.00000000	6.79133800	-6.13312000
96.09999447	0.00000000	4.87819900	-5.33956700
96.29999446	0.00000000	4.13385800	-2.64517700
96.49999445	0.00000000	5.29650500	1.15649600
96.69999444	0.00000000	7.99704600	4.60137700
96.89999442	0.00000000	11.48499000	6.92052100
97.09999441	0.00000000	15.34203000	7.33882900
97.29999440	0.00000000	18.41781000	6.17618100
97.49999439	0.00000000	19.99877000	3.90009800
97.69999438	0.00000000	19.95571000	0.83661410
97.89999436	0.00000000	18.04257000	-1.43946800
98.09999435	0.00000000	14.56078000	-2.68823800
98.29999434	0.00000000	10.69144000	-3.02042300
98.49999433	0.00000000	6.83439900	-2.27608300
98.69999432	0.00000000	4.13385800	-0.37524600
98.89999430	0.00000000	3.34030500	1.48868100
99.09999429	0.00000000	4.09079700	2.68823800
99.29999428	0.00000000	6.41609200	3.11269700
99.49999427	0.00000000	9.52879000	3.15575800
99.69999426	0.00000000	13.02288000	3.11269700
99.89999425	0.00000000	16.46161000	2.73745100
100.09999423	0.00000000	18.41781000	2.04232300
100.29999422	0.00000000	18.87918000	2.04232300
100.49999421	0.00000000	18.46087000	2.73745100
100.69999420	0.00000000	16.87992000	3.11269700
100.89999419	0.00000000	14.18553000	3.11269700
101.09999417	0.00000000	11.10974000	2.68823800
101.29999416	0.00000000	8.37229300	1.53174200
101.49999415	0.00000000	6.45915300	0.00000000
101.69999414	0.00000000	5.67175200	-1.53174200
101.89999413	0.00000000	6.41609200	-2.64517700
102.09999411	0.00000000	7.94783400	-2.64517700
102.29999410	0.00000000	9.90403500	-1.48868100
102.49999409	0.00000000	12.22933000	0.46751960
102.69999408	0.00000000	14.13632000	3.15575800
102.89999407	0.00000000	15.34203000	5.80093500
103.09999406	0.00000000	15.71727000	7.33882900
103.29999404	0.00000000	15.34203000	7.33882900
103.49999403	0.00000000	14.18553000	5.80093500
103.69999402	0.00000000	12.64764000	3.11269700
103.89999401	0.00000000	11.06668000	0.04306102
104.09999400	0.00000000	9.52879000	-2.64517700
104.29999398	0.00000000	8.37229300	-4.22613100
104.49999397	0.00000000	7.99704600	-4.60137700
104.69999396	0.00000000	8.37229300	-3.80782500
104.89999395	0.00000000	9.52879000	-1.48868100
105.09999394	0.00000000	11.06668000	1.53174200
105.29999392	0.00000000	12.55536000	4.22613100
105.49999391	0.00000000	13.39198000	5.80093500
105.69999390	0.00000000	13.39813000	6.17618100
105.89999389	0.00000000	13.43504000	5.43184000
106.09999388	0.00000000	12.97982000	3.48179100
106.29999387	0.00000000	12.27239000	1.24877000
106.49999385	0.00000000	11.44193000	-0.73818890
106.69999384	0.00000000	10.69144000	-1.85777500
106.89999383	0.00000000	9.95324800	-2.26993100
107.09999382	0.00000000	9.99630800	-1.48868100
107.29999381	0.00000000	11.06668000	0.00000000
107.49999379	0.00000000	12.22933000	1.57480300
107.69999378	0.00000000	12.97982000	3.06348400
107.89999377	0.00000000	13.39198000	3.80782500
108.09999376	0.00000000	12.97982000	3.11269700
108.29999375	0.00000000	12.22933000	1.99311000
108.49999374	0.00000000	11.02362000	1.15649600
108.69999372	0.00000000	9.57800100	0.00000000
108.89999371	0.00000000	8.79060000	-1.06422200
109.09999370	0.00000000	9.11048200	-1.11343500
109.29999369	0.00000000	9.52879000	-0.32603340
109.49999368	0.00000000	10.37155000	0.83661410
109.69999366	0.00000000	12.22933000	2.73745100
109.89999365	0.00000000	13.71801000	4.22613100
110.09999364	0.00000000	14.18553000	4.64443900
110.29999363	0.00000000	14.18553000	4.26919300
110.49999362	0.00000000	13.76107000	3.11269700
110.69999360	0.00000000	12.60458000	1.57480300
110.89999359	0.00000000	11.10974000	0.04306102
111.09999358	0.00000000	9.90403500	-1.11343500
111.29999357	0.00000000	9.11048200	-1.53174200
111.49999356	0.00000000	8.37229300	-1.53174200
111.69999355	0.00000000	8.41535400	-1.11343500
111.89999353	0.00000000	9.52879000	0.00000000
112.09999352	0.00000000	11.02362000	1.15649600
112.29999351	0.00000000	12.18012000	1.95004900
112.49999350	0.00000000	12.60458000	2.73745100
112.69999349	0.00000000	12.64764000	3.06348400
112.89999347	0.00000000	12.64764000	2.73745100
113.09999346	0.00000000	12.60458000	1.99311000
113.29999345	0.00000000	12.22933000	1.57480300
113.49999344	0.00000000	11.48499000	1.19955700
113.69999343	0.00000000	11.06668000	0.79355310
113.89999341	0.00000000	10.64838000	0.83046260
114.09999340	0.00000000	9.95324800	0.74434050
114.29999339	0.00000000	9.95324800	0.78124990
114.49999338	0.00000000	10.64838000	0.37524600
114.69999337	0.00000000	11.02362000	0.04306102
114.89999336	0.00000000	11.10974000	0.00000000
115.09999334	0.00000000	11.48499000	0.00000000
115.29999333	0.00000000	12.22933000	0.00000000
115.49999332	0.00000000	12.60458000	0.04306102
115.69999331	0.00000000	12.60458000	0.41830710
115.89999330	0.00000000	12.22933000	1.15649600
116.09999328	0.00000000	11.44193000	1.57480300
116.29999327	0.00000000	10.69144000	1.99311000
116.49999326	0.00000000	9.90403500	2.73745100
116.69999325	0.00000000	9.52879000	3.11269700
116.89999324	0.00000000	9.52879000	3.11269700
117.09999322	0.00000000	9.90403500	2.68823800
117.29999321	0.00000000	10.69144000	1.57480300
117.49999320	0.00000000	11.48499000	0.46136810
117.69999319	0.00000000	12.64764000	0.04306102
117.89999318	0.00000000	13.71801000	0.00000000
118.09999317	0.00000000	13.76107000	0.00000000
118.29999315	0.00000000	13.06594000	0.00000000
118.49999314	0.00000000	12.64764000	0.04306102
118.69999313	0.00000000	12.18012000	0.41830710
118.89999312	0.00000000	11.02362000	1.19955700
119.09999311	0.00000000	9.52879000	1.95004900
119.29999309	0.00000000	8.37229300	2.73745100
119.49999308	0.00000000	7.99704600	3.11269700
119.69999307	0.00000000	8.37229300	3.11269700
119.89999306	0.00000000	9.52879000	2.73745100
120.09999305	0.00000000	11.06668000	1.99311000
120.29999303	0.00000000	12.60458000	1.61786400
120.49999302	0.00000000	13.76107000	1.53174200
120.69999301	0.00000000	14.18553000	1.15649600
120.89999300	0.00000000	14.18553000	0.41830710
121.09999299	0.00000000	13.76107000	0.04306102
121.29999298	0.00000000	12.60458000	0.00000000
121.49999296	0.00000000	11.06668000	0.00000000
121.69999295	0.00000000	9.52879000	0.00000000
121.89999294	0.00000000	8.41535400	0.04306102
122.09999293	0.00000000	8.37229300	0.41830710
122.29999292	0.00000000	9.06742000	1.19955700
122.49999290	0.00000000	9.48572700	1.95004900
122.69999289	0.00000000	9.95324800	2.73745100
122.89999288	0.00000000	11.06668000	3.11269700
123.09999287	0.00000000	12.18012000	3.11269700
123.29999286	0.00000000	12.60458000	2.73745100
123.49999284	0.00000000	12.64764000	1.95004900
123.69999283	0.00000000	12.64764000	1.19955700
123.89999282	0.00000000	12.60458000	0.41830710
124.09999281	0.00000000	12.22933000	0.04306102
124.29999280	0.00000000	11.44193000	0.00000000
124.49999279	0.00000000	10.69144000	0.00000000
124.69999277	0.00000000	9.95324800	0.00000000
124.89999276	0.00000000	9.90403500	0.04306102
125.09999275	0.00000000	10.23007000	0.41830710
125.29999274	0.00000000	9.86097400	1.19955700
125.49999273	0.00000000	9.57800100	1.90698800
125.69999271	0.00000000	9.90403500	2.36220500
125.89999270	0.00000000	10.69144000	2.32529500
126.09999269	0.00000000	11.44193000	2.36220500
126.29999268	0.00000000	12.22933000	1.95004900
126.49999267	0.00000000	12.60458000	1.61786400
126.69999265	0.00000000	12.64764000	1.57480300
126.89999264	0.00000000	12.60458000	1.53174200
127.09999263	0.00000000	12.22933000	1.15649600
127.29999262	0.00000000	11.44193000	0.41830710
127.49999261	0.00000000	10.69144000	0.04306102
127.69999260	0.00000000	9.90403500	0.00000000
127.89999258	0.00000000	9.52879000	0.04306102
128.09999257	0.00000000	9.52879000	0.41830710
128.29999256	0.00000000	9.90403500	1.15649600
128.49999255	0.00000000	10.69144000	1.53174200
128.69999254	0.00000000	11.48499000	1.57480300
128.89999252	0.00000000	12.60458000	1.57480300
129.09999251	0.00000000	13.34276000	1.53174200
129.29999250	0.00000000	12.97982000	1.15649600
129.49999249	0.00000000	12.27239000	0.41830710
129.69999248	0.00000000	11.44193000	0.04306102
129.89999246	0.00000000	10.69144000	0.00000000
130.09999245	0.00000000	9.90403500	0.04306102
130.29999244	0.00000000	9.52879000	0.41830710
130.49999243	0.00000000	9.52879000	1.15649600
130.69999242	0.00000000	9.90403500	1.53174200
130.89999241	0.00000000	10.69144000	1.57480300
131.09999239	0.00000000	11.44193000	1.57480300
131.29999238	0.00000000	12.22933000	1.57480300
131.49999237	0.00000000	12.60458000	1.53174200
131.69999236	0.00000000	12.60458000	1.15649600
131.89999235	0.00000000	12.22933000	0.41830710
132.09999233	0.00000000	11.48499000	0.04306102
132.29999232	0.00000000	11.06668000	0.00000000
132.49999231	0.00000000	10.64838000	0.00000000
132.69999230	0.00000000	9.90403500	0.04306102
132.89999229	0.00000000	9.57800100	0.41830710
133.09999227	0.00000000	9.90403500	1.19955700
133.29999226	0.00000000	10.64838000	1.95004900
133.49999225	0.00000000	11.02362000	2.73745100
133.69999224	0.00000000	11.10974000	3.11269700
133.89999223	0.00000000	11.44193000	3.11269700
134.09999222	0.00000000	11.81102000	2.68823800
134.29999220	0.00000000	11.44193000	1.57480300
134.49999219	0.00000000	11.10974000	0.41830710
134.69999218	0.00000000	11.06668000	-0.37524600
134.89999217	0.00000000	11.06668000	-1.15649600
135.09999216	0.00000000	11.06668000	-1.48253000
135.29999214	0.00000000	11.06668000	-1.15649600
135.49999213	0.00000000	11.06668000	-0.37524600
135.69999212	0.00000000	11.06668000	0.37524600
135.89999211	0.00000000	11.06668000	1.19955700
136.09999210	0.00000000	11.02362000	1.95004900
136.29999208	0.00000000	10.64838000	2.68823800
136.49999207	0.00000000	9.90403500	2.68823800
136.69999206	0.00000000	9.52879000	1.99311000
136.89999205	0.00000000	9.48572700	1.61786400
137.09999204	0.00000000	9.48572700	1.53174200
137.29999203	0.00000000	9.57800100	1.15649600
137.49999201	0.00000000	10.32234000	0.41830710
137.69999200	0.00000000	11.81102000	0.04306102
137.89999199	0.00000000	12.55536000	0.00000000
138.09999198	0.00000000	12.60458000	0.00000000
138.29999197	0.00000000	12.22933000	0.00000000
138.49999195	0.00000000	11.48499000	0.00000000
138.69999194	0.00000000	11.06668000	0.00000000
138.89999193	0.00000000	10.64838000	0.04306102
139.09999192	0.00000000	9.90403500	0.41830710
139.29999191	0.00000000	9.52879000	1.19955700
139.49999189	0.00000000	9.52879000	1.95004900
139.69999188	0.00000000	9.90403500	2.73745100
139.89999187	0.00000000	10.64838000	3.06348400
140.09999186	0.00000000	11.06668000	2.73745100
140.29999185	0.00000000	11.48499000	1.95004900
140.49999184	0.00000000	12.22933000	1.19955700
140.69999182	0.00000000	12.60458000	0.41830710
140.89999181	0.00000000	12.60458000	0.04306102
141.09999180	0.00000000	12.22933000	-0.04306102
141.29999179	0.00000000	11.44193000	-0.37524600
141.49999178	0.00000000	10.69144000	-0.69512790
141.69999176	0.00000000	9.95324800	0.04306102
141.89999175	0.00000000	9.95324800	1.15649600
142.09999174	0.00000000	10.64838000	1.95004900
142.29999173	0.00000000	11.02362000	2.73745100
142.49999172	0.00000000	11.06668000	3.11269700
142.69999170	0.00000000	11.06668000	3.11269700
142.89999169	0.00000000	11.06668000	2.68823800
143.09999168	0.00000000	11.06668000	1.57480300
143.29999167	0.00000000	11.06668000	0.41830710
143.49999166	0.00000000	11.06668000	-0.37524600
143.69999165	0.00000000	11.02362000	-1.15649600
143.89999163	0.00000000	10.69144000	-1.48253000
144.09999162	0.00000000	10.32234000	-1.11343500
144.29999161	0.00000000	10.69144000	0.00000000
144.49999160	0.00000000	11.02362000	1.11343500
144.69999159	0.00000000	11.06668000	1.53174200
144.89999157	0.00000000	11.06668000	1.57480300
145.09999156	0.00000000	11.06668000	1.57480300
145.29999155	0.00000000	11.06668000	1.57480300
145.49999154	0.00000000	11.02362000	1.57480300
145.69999153	0.00000000	10.64838000	1.53174200
145.89999151	0.00000000	9.90403500	1.15649600
146.09999150	0.00000000	9.57800100	0.41830710
146.29999149	0.00000000	9.90403500	0.04306102
146.49999148	0.00000000	10.64838000	0.00000000
146.69999147	0.00000000	11.02362000	0.00000000
146.89999146	0.00000000	11.06668000	0.04306102
147.09999144	0.00000000	11.06668000	0.41830710
147.29999143	0.00000000	11.06668000	1.15649600
147.49999142	0.00000000	11.06668000	1.53174200
147.69999141	0.00000000	11.06668000	1.57480300
147.89999140	0.00000000	11.06668000	1.57480300
148.09999138	0.00000000	11.02362000	1.57480300
148.29999137	0.00000000	10.64838000	1.57480300
148.49999136	0.00000000	9.90403500	1.57480300
148.69999135	0.00000000	9.57800100	1.53174200
148.89999134	0.00000000	9.90403500	1.15649600
149.09999132	0.00000000	10.64838000	0.41830710
149.29999131	0.00000000	11.02362000	0.04306102
149.49999130	0.00000000	11.10974000	0.00000000
149.69999129	0.00000000	11.44193000	0.00000000
149.89999128	0.00000000	11.81102000	0.00000000
150.09999127	0.00000000	11.44193000	0.04306102
150.29999125	0.00000000	11.10974000	0.41830710
150.49999124	0.00000000	11.06668000	1.15649600
150.69999123	0.00000000	11.02362000	1.53174200
150.89999122	0.00000000	10.64838000	1.57480300
151.09999121	0.00000000	9.95324800	1.57480300
151.29999119	0.00000000	9.90403500	1.57480300
151.49999118	0.00000000	10.27313000	1.57480300
151.69999117	0.00000000	10.27928000	1.53174200
151.89999116	0.00000000	10.69144000	1.15649600
152.09999115	0.00000000	11.02362000	0.41830710
152.29999113	0.00000000	11.06668000	0.04306102
152.49999112	0.00000000	11.06668000	0.00000000
152.69999111	0.00000000	11.06668000	0.04306102
152.89999110	0.00000000	11.06668000	0.41830710
153.09999109	0.00000000	11.06668000	1.15649600
153.29999108	0.00000000	11.06668000	1.53174200
153.49999106	0.00000000	11.06668000	1.57480300
153.69999105	0.00000000	11.06668000	1.57480300
153.89999104	0.00000000	11.02362000	1.57480300
154.09999103	0.00000000	10.64838000	1.57480300
154.29999102	0.00000000	9.90403500	1.57480300
154.49999100	0.00000000	9.52879000	1.57480300
154.69999099	0.00000000	9.52879000	1.57480300
154.89999098	0.00000000	9.90403500	1.57480300
155.09999097	0.00000000	10.64838000	1.53174200
155.29999096	0.00000000	11.02362000	1.19955700
155.49999094	0.00000000	11.06668000	0.79355310
155.69999093	0.00000000	11.06668000	0.78124990
155.89999092	0.00000000	11.06668000	0.37524600
156.09999091	0.00000000	11.06668000	0.04306102
156.29999090	0.00000000	11.06668000	0.04306102
156.49999089	0.00000000	11.02362000	0.41830710
156.69999087	0.00000000	10.64838000	1.15649600
156.89999086	0.00000000	9.90403500	1.57480300
157.09999085	0.00000000	9.52879000	1.95004900
157.29999084	0.00000000	9.52879000	2.36220500
157.49999083	0.00000000	9.90403500	2.32529500
157.69999081	0.00000000	10.64838000	2.36220500
157.89999080	0.00000000	11.02362000	1.90698800
158.09999079	0.00000000	11.06668000	1.19955700
158.29999078	0.00000000	11.06668000	0.41830710
158.49999077	0.00000000	11.06668000	0.04306102
158.69999075	0.00000000	11.06668000	0.00000000
158.89999074	0.00000000	11.06668000	0.00000000
159.09999073	0.00000000	11.06668000	0.00000000
159.29999072	0.00000000	11.06668000	0.04306102
159.49999071	0.00000000	11.06668000	0.41830710
159.69999070	0.00000000	11.02362000	1.19955700
159.89999068	0.00000000	10.64838000	1.90698800
160.09999067	0.00000000	9.90403500	2.31914400
160.29999066	0.00000000	9.52879000	1.95004900
160.49999065	0.00000000	9.48572700	1.61786400
160.69999064	0.00000000	9.52879000	1.53174200
160.89999062	0.00000000	9.86097400	1.15649600
161.09999061	0.00000000	10.27313000	0.41830710
161.29999060	0.00000000	10.27928000	0.04306102
161.49999059	0.00000000	10.69144000	0.00000000
161.69999058	0.00000000	11.02362000	0.00000000
161.89999056	0.00000000	11.06668000	0.00000000
162.09999055	0.00000000	11.06668000	0.00000000
162.29999054	0.00000000	11.06668000	0.04306102
162.49999053	0.00000000	11.06668000	0.41830710
162.69999052	0.00000000	11.06668000	1.15649600
162.89999051	0.00000000	11.02362000	1.53174200
163.09999049	0.00000000	10.64838000	1.57480300
163.29999048	0.00000000	9.90403500	1.57480300
163.49999047	0.00000000	9.52879000	1.57480300
163.69999046	0.00000000	9.48572700	1.57480300
163.89999045	0.00000000	9.48572700	1.53174200
164.09999043	0.00000000	9.52879000	1.15649600
164.29999042	0.00000000	9.90403500	0.41830710
164.49999041	0.00000000	10.64838000	0.04306102
164.69999040	0.00000000	11.02362000	0.00000000
164.89999039	0.00000000	11.06668000	0.00000000
165.09999037	0.00000000	11.06668000	0.00000000
165.29999036	0.00000000	11.06668000	0.00000000
165.49999035	0.00000000	11.06668000	0.04306102
165.69999034	0.00000000	11.06668000	0.41830710
165.89999033	0.00000000	11.02362000	1.15649600
166.09999032	0.00000000	10.64838000	1.53174200
166.29999030	0.00000000	9.90403500	1.53174200
166.49999029	0.00000000	9.52879000	1.19955700
166.69999028	0.00000000	9.48572700	0.83661410
166.89999027	0.00000000	9.48572700	1.15649600
167.09999026	0.00000000	9.52879000	1.11343500
167.29999024	0.00000000	9.90403500	0.41830710
167.49999023	0.00000000	10.64838000	0.04306102
167.69999022	0.00000000	11.02362000	0.04306102
167.89999021	0.00000000	11.06668000	0.41830710
168.09999020	0.00000000	11.06668000	1.11343500
168.29999018	0.00000000	11.06668000	1.15649600
168.49999017	0.00000000	11.06668000	0.79355310
168.69999016	0.00000000	11.06668000	0.78124990
168.89999015	0.00000000	11.06668000	0.37524600
169.09999014	0.00000000	11.02362000	0.04306102
169.29999013	0.00000000	10.69144000	0.04306102
169.49999011	0.00000000	10.32234000	0.37524600
169.69999010	0.00000000	10.64838000	0.73818890
169.89999009	0.00000000	10.59916000	0.37524600
170.09999008	0.00000000	9.95324800	0.09227362
170.29999007	0.00000000	9.95324800	0.37524600
170.49999005	0.00000000	10.64838000	0.78124990
170.69999004	0.00000000	11.02362000	0.79355310
170.89999003	0.00000000	11.06668000	1.15649600
171.09999002	0.00000000	11.06668000	1.11343500
171.29999001	0.00000000	11.06668000	0.41830710
171.49998999	0.00000000	11.06668000	0.04306102
171.69998998	0.00000000	11.06668000	0.00000000
171.89998997	0.00000000	11.06668000	0.00000000
172.09998996	0.00000000	11.06668000	0.00000000
172.29998995	0.00000000	11.02362000	0.00000000
172.49998994	0.00000000	10.64838000	0.04306102
172.69998992	0.00000000	9.95324800	0.37524600
172.89998991	0.00000000	9.90403500	0.78124990
173.09998990	0.00000000	10.27313000	0.79355310
173.29998989	0.00000000	10.27928000	1.19955700
173.49998988	0.00000000	10.69144000	1.53174200
173.69998986	0.00000000	10.97441000	1.53174200
173.89998985	0.00000000	10.69144000	1.19955700
174.09998984	0.00000000	10.32234000	0.79355310
174.29998983	0.00000000	10.64838000	0.78124990
174.49998982	0.00000000	10.64838000	0.37524600
174.69998980	0.00000000	10.32234000	0.04306102
174.89998979	0.00000000	10.64838000	0.00000000
175.09998978	0.00000000	10.59916000	0.00000000
175.29998977	0.00000000	9.90403500	0.00000000
175.49998976	0.00000000	9.57800100	0.00000000
175.69998975	0.00000000	9.86097400	0.00000000
175.89998973	0.00000000	10.27313000	0.04306102
176.09998972	0.00000000	10.27928000	0.41830710
176.29998971	0.00000000	10.69144000	1.15649600
176.49998970	0.00000000	11.02362000	1.53174200
176.69998969	0.00000000	11.06668000	1.57480300
176.89998967	0.00000000	11.06668000	1.53174200
177.09998966	0.00000000	11.02362000	1.15649600
177.29998965	0.00000000	10.69144000	0.41830710
177.49998964	0.00000000	10.27928000	0.04306102
177.69998963	0.00000000	10.27313000	0.00000000
177.89998961	0.00000000	9.86097400	0.00000000
178.09998960	0.00000000	9.52879000	0.00000000
178.29998959	0.00000000	9.48572700	0.04306102
178.49998958	0.00000000	9.48572700	0.41830710
178.69998957	0.00000000	9.48572700	1.15649600
178.89998956	0.00000000	9.52879000	1.53174200
179.09998954	0.00000000	9.90403500	1.57480300
179.29998953	0.00000000	10.64838000	1.57480300
179.49998952	0.00000000	11.02362000	1.53174200
179.69998951	0.00000000	11.02362000	1.15649600
179.89998950	0.00000000	10.69144000	0.41830710
180.09998948	0.00000000	10.32234000	0.04306102
180.29998947	0.00000000	10.64838000	0.00000000
180.49998946	0.00000000	10.59916000	0.00000000
180.69998945	0.00000000	9.90403500	0.00000000
180.89998944	0.00000000	9.52879000	0.00000000
181.09998942	0.00000000	9.48572700	0.04306102
181.29998941	0.00000000	9.52879000	0.41830710
181.49998940	0.00000000	9.86097400	1.15649600
181.69998939	0.00000000	10.23007000	1.53174200
181.89998938	0.00000000	9.90403500	1.57480300
182.09998937	0.00000000	9.95324800	1.57480300
182.29998935	0.00000000	10.64838000	1.57480300
182.49998934	0.00000000	11.02362000	1.53174200
182.69998933	0.00000000	11.06668000	1.15649600
182.89998932	0.00000000	11.06668000	0.41830710
183.09998931	0.00000000	11.02362000	0.04306102
183.29998929	0.00000000	10.69144000	0.00000000
183.49998928	0.00000000	10.32234000	0.00000000
183.69998927	0.00000000	10.64838000	0.00000000
183.89998926	0.00000000	10.59916000	0.00000000
184.09998925	0.00000000	9.90403500	0.04306102
184.29998923	0.00000000	9.52879000	0.41830710
184.49998922	0.00000000	9.52879000	1.15649600
184.69998921	0.00000000	9.86097400	1.53174200
184.89998920	0.00000000	10.23007000	1.57480300
185.09998919	0.00000000	9.86097400	1.57480300
185.29998918	0.00000000	9.57800100	1.57480300
185.49998916	0.00000000	9.90403500	1.53174200
185.69998915	0.00000000	10.64838000	1.15649600
185.89998914	0.00000000	11.02362000	0.41830710
186.09998913	0.00000000	11.06668000	0.04306102
186.29998912	0.00000000	11.06668000	0.00000000
186.49998910	0.00000000	11.02362000	0.00000000
186.69998909	0.00000000	10.64838000	0.00000000
186.89998908	0.00000000	9.90403500	0.00000000
187.09998907	0.00000000	9.52879000	0.04306102
187.29998906	0.00000000	9.48572700	0.41830710
187.49998904	0.00000000	9.48572700	1.15649600
187.69998903	0.00000000	9.48572700	1.53174200
187.89998902	0.00000000	9.48572700	1.57480300
188.09998901	0.00000000	9.48572700	1.57480300
188.29998900	0.00000000	9.52879000	1.57480300
188.49998899	0.00000000	9.90403500	1.53174200
188.69998897	0.00000000	10.59916000	1.15649600
188.89998896	0.00000000	10.64838000	0.41830710
189.09998895	0.00000000	10.32234000	0.04306102
189.29998894	0.00000000	10.64838000	0.00000000
189.49998893	0.00000000	10.59916000	0.00000000
189.69998891	0.00000000	9.90403500	0.00000000
189.89998890	0.00000000	9.52879000	-0.04306102
190.09998889	0.00000000	9.48572700	-0.32603340
190.29998888	0.00000000	9.48572700	-0.31988190
190.49998887	0.00000000	9.48572700	0.78124990
190.69998885	0.00000000	9.48572700	1.48253000
190.89998884	0.00000000	9.48572700	1.57480300
191.09998883	0.00000000	9.52879000	1.57480300
191.29998882	0.00000000	9.90403500	1.57480300
191.49998881	0.00000000	10.64838000	1.57480300
191.69998880	0.00000000	11.02362000	1.57480300
191.89998878	0.00000000	11.06668000	1.53174200
192.09998877	0.00000000	11.02362000	1.15649600
192.29998876	0.00000000	10.69144000	0.41830710
192.49998875	0.00000000	10.32234000	0.04306102
192.69998874	0.00000000	10.64838000	0.00000000
192.89998872	0.00000000	10.59916000	0.00000000
193.09998871	0.00000000	9.90403500	0.00000000
193.29998870	0.00000000	9.52879000	0.00000000
193.49998869	0.00000000	9.48572700	0.00000000
193.69998868	0.00000000	9.48572700	0.04306102
193.89998866	0.00000000	9.48572700	0.41830710
194.09998865	0.00000000	9.48572700	1.15649600
194.29998864	0.00000000	9.52879000	1.53174200
194.49998863	0.00000000	9.86097400	1.53174200
194.69998862	0.00000000	10.27313000	1.19955700
194.89998861	0.00000000	10.27928000	0.79355310
195.09998859	0.00000000	10.69144000	0.78124990
195.29998858	0.00000000	10.97441000	0.37524600
195.49998857	0.00000000	10.64838000	0.04306102
195.69998856	0.00000000	9.90403500	0.00000000
195.89998855	0.00000000	9.52879000	0.00000000
196.09998853	0.00000000	9.48572700	0.00000000
