Time	Channel A	Channel B	Channel C
(us)	(V)	(mV)	(mV)

-4.19999969	0.00000000	55.34264000	1.57787900
-3.99999971	0.00000000	54.55216000	1.57787900
-3.79999972	0.00000000	55.34264000	1.57787900
-3.59999973	0.00000000	55.34264000	1.57787900
-3.39999974	0.00000000	55.34264000	1.57787900
-3.19999975	0.00000000	55.34264000	1.57787900
-2.99999977	0.00000000	55.34264000	1.57787900
-2.79999978	0.00000000	55.34264000	1.57787900
-2.59999979	0.00000000	56.92360000	1.57787900
-2.39999980	0.00000000	56.13312000	1.57787900
-2.19999981	0.00000000	55.34264000	1.57787900
-1.99999982	0.00000000	56.13312000	1.57787900
-1.79999984	0.00000000	55.34264000	1.57787900
-1.59999985	0.00000000	55.34264000	1.57787900
-1.39999986	0.00000000	55.34264000	1.57787900
-1.19999987	0.00000000	54.55216000	1.57787900
-0.99999988	0.00000000	54.55216000	2.36835600
-0.79999990	0.00000000	55.34264000	1.57787900
-0.59999991	0.00000000	55.34264000	1.57787900
-0.39999992	0.15871060	54.55216000	2.36835600
-0.19999993	0.47736220	55.34264000	1.57787900
0.00000006	0.79601380	55.34264000	1.57787900
0.20000004	0.95533960	56.13312000	1.57787900
0.40000003	0.95533960	56.92360000	1.57787900
0.60000002	0.79601380	56.13312000	1.57787900
0.80000001	0.15871060	55.34264000	1.57787900
1.00000000	-0.63668800	54.55216000	1.57787900
1.19999999	-1.59264300	53.76168000	1.57787900
1.39999997	-2.38927200	53.76168000	1.57787900
1.59999996	-2.86724900	53.76168000	1.57787900
1.79999995	-2.54859700	52.97121000	1.57787900
1.99999994	-1.43331700	53.76168000	1.57787900
2.19999993	0.15871060	55.34264000	1.57787900
2.39999991	2.07062000	56.13312000	1.57787900
2.59999990	3.98191400	56.92360000	2.36835600
2.79999989	5.09719500	58.50455000	2.36835600
2.99999988	5.25652100	58.50455000	2.36835600
3.19999987	4.14124000	57.71407000	1.57787900
3.39999985	1.75196900	56.13312000	1.57787900
3.59999984	-1.27399100	53.76168000	1.57787900
3.79999983	-4.45989200	52.18073000	1.57787900
3.99999982	-7.00848900	50.59978000	1.57787900
4.19999981	-8.12377000	49.80622000	1.57787900
4.39999980	-7.32714100	49.80622000	0.78740150
4.59999978	-4.93786900	52.18073000	1.57787900
4.79999977	-1.27399100	53.76168000	1.57787900
4.99999976	3.02657500	56.92360000	2.36835600
5.19999975	6.84916400	59.29502000	2.36835600
5.39999974	9.07972400	60.08550000	2.36835600
5.59999972	9.55770200	60.08550000	2.36835600
5.79999971	7.64579200	59.29502000	2.36835600
5.99999970	4.14124000	56.92360000	1.57787900
6.19999969	-0.15871060	55.34264000	0.78740150
6.39999968	-4.61921700	52.18073000	0.78740150
6.59999967	-8.12377000	49.80622000	0.78740150
6.79999965	-9.55770200	49.01575000	0.78740150
6.99999964	-9.07972400	49.80622000	1.57787900
7.19999963	-6.53112700	51.39025000	1.57787900
7.39999962	-2.54859700	53.76168000	1.57787900
7.59999961	1.59264300	56.13312000	2.36835600
7.79999959	5.09719500	57.71407000	1.57787900
7.99999958	7.32714100	58.50455000	2.36835600
8.19999957	7.80511800	60.08550000	2.36835600
8.39999956	6.69045300	58.50455000	2.36835600
8.59999955	4.14124000	56.92360000	1.57787900
8.79999953	0.79601380	55.34264000	1.57787900
8.99999952	-2.07062000	53.76168000	0.78740150
9.19999951	-4.30056600	52.97121000	1.57787900
9.39999950	-5.25652100	52.18073000	1.57787900
9.59999949	-4.93786900	52.18073000	1.57787900
9.79999948	-3.66326300	52.97121000	1.57787900
9.99999946	-1.91129400	54.55216000	1.57787900
10.19999945	0.00000000	55.34264000	1.57787900
10.39999944	1.59264300	56.13312000	1.57787900
10.59999943	2.38927200	56.92360000	2.36835600
10.79999942	2.54859700	55.34264000	1.57787900
10.99999940	2.22994600	54.55216000	1.57787900
11.19999939	1.43331700	55.34264000	1.57787900
11.39999938	0.47736220	54.55216000	1.57787900
11.59999937	-0.31803640	54.55216000	1.57787900
11.79999936	-0.79601380	54.55216000	1.57787900
11.99999934	-0.95533960	54.55216000	1.57787900
12.19999933	-0.95533960	55.34264000	1.57787900
12.39999932	-0.79601380	54.55216000	1.57787900
12.59999931	-0.47736220	54.55216000	1.57787900
12.79999930	-0.15871060	55.34264000	1.57787900
12.99999929	0.00000000	54.55216000	1.57787900
13.19999927	-0.15871060	54.55216000	1.57787900
13.39999926	-0.15871060	53.76168000	1.57787900
13.59999925	-0.15871060	54.55216000	1.57787900
13.79999924	-0.15871060	54.55216000	1.57787900
13.99999923	0.00000000	54.55216000	1.57787900
14.19999921	0.00000000	54.55216000	1.57787900
14.39999920	0.00000000	55.34264000	1.57787900
14.59999919	0.00000000	55.34264000	1.57787900
14.79999918	0.00000000	55.34264000	1.57787900
14.99999917	0.00000000	55.34264000	1.57787900
15.19999915	0.00000000	55.34264000	1.57787900
15.39999914	0.00000000	55.34264000	1.57787900
15.59999913	0.00000000	54.55216000	1.57787900
15.79999912	0.00000000	55.34264000	1.57787900
15.99999911	0.00000000	54.55216000	1.57787900
16.19999910	0.00000000	52.97121000	1.57787900
16.39999908	0.00000000	52.97121000	1.57787900
16.59999907	0.00000000	52.18073000	1.57787900
16.79999906	0.00000000	54.55216000	1.57787900
16.99999905	0.00000000	54.55216000	1.57787900
17.19999904	0.00000000	55.34264000	1.57787900
17.39999902	0.00000000	56.92360000	1.57787900
17.59999901	0.00000000	57.71407000	1.57787900
17.79999900	0.00000000	58.50455000	1.57787900
17.99999899	0.00000000	59.29502000	1.57787900
18.19999898	0.00000000	58.50455000	1.57787900
18.39999896	0.00000000	56.92360000	1.57787900
18.59999895	0.00000000	53.76168000	1.57787900
18.79999894	0.00000000	51.39025000	1.57787900
18.99999893	0.00000000	49.80622000	1.57787900
19.19999892	0.00000000	47.43479000	1.57787900
19.39999891	0.00000000	47.43479000	1.57787900
19.59999889	0.00000000	49.01575000	1.57787900
19.79999888	0.00000000	51.39025000	1.57787900
19.99999887	0.00000000	55.34264000	1.57787900
20.19999886	0.00000000	60.08550000	1.57787900
20.39999885	0.00000000	63.24741000	1.57787900
20.59999883	0.00000000	65.61884000	1.57787900
20.79999882	0.00000000	65.61884000	1.57787900
20.99999881	0.00000000	63.24741000	1.57787900
21.19999880	0.00000000	59.29502000	1.57787900
21.39999879	0.00000000	53.76168000	2.36835600
21.59999877	0.00000000	48.22527000	1.57787900
21.79999876	0.00000000	43.48241000	1.57787900
21.99999875	0.00000000	42.69193000	1.57787900
22.19999874	0.00000000	42.69193000	2.36835600
22.39999873	0.00000000	46.64431000	2.36835600
22.59999872	0.00000000	51.39025000	3.15575800
22.79999870	0.00000000	57.71407000	3.15575800
22.99999869	0.00000000	63.24741000	3.94623500
23.19999868	0.00000000	66.40932000	3.94623500
23.39999867	0.00000000	67.99335000	3.15575800
23.59999866	0.00000000	65.61884000	1.57787900
23.79999864	0.00000000	61.66646000	0.00000000
23.99999863	0.00000000	56.13312000	-2.36835600
24.19999862	0.00000000	50.59978000	-3.94623500
24.39999861	0.00000000	47.43479000	-4.73671200
24.59999860	0.00000000	45.06336000	-3.94623500
24.79999858	0.00000000	45.85384000	-2.36835600
24.99999857	0.00000000	48.22527000	0.00000000
25.19999856	0.00000000	51.39025000	4.73671200
25.39999855	0.00000000	56.13312000	8.68294700
25.59999854	0.00000000	58.50455000	11.84178000
25.79999853	0.00000000	60.87598000	14.21014000
25.99999851	0.00000000	60.87598000	14.21014000
26.19999850	0.00000000	59.29502000	11.05130000
26.39999849	0.00000000	56.92360000	5.52411400
26.59999848	0.00000000	54.55216000	-1.57787900
26.79999847	0.00000000	52.97121000	-8.68294700
26.99999845	0.00000000	50.59978000	-15.00061000
27.19999844	0.00000000	51.39025000	-18.15637000
27.39999843	0.00000000	52.97121000	-17.36897000
27.59999842	0.00000000	55.34264000	-12.63226000
27.79999841	0.00000000	56.92360000	-3.94623500
27.99999839	0.00000000	57.71407000	5.52411400
28.19999838	0.00000000	58.50455000	15.78802000
28.39999837	0.00000000	57.71407000	23.68356000
28.59999836	0.00000000	56.13312000	27.63287000
28.79999835	0.00000000	54.55216000	26.84240000
28.99999834	0.00000000	52.97121000	20.52780000
29.19999832	0.00000000	52.97121000	10.26390000
29.39999831	0.00000000	52.18073000	-2.36835600
29.59999830	0.00000000	52.18073000	-14.21014000
29.79999829	0.00000000	54.55216000	-22.89616000
29.99999828	0.00000000	54.55216000	-26.84240000
30.19999826	0.00000000	55.34264000	-24.47404000
30.39999825	0.00000000	56.13312000	-17.36897000
30.59999824	0.00000000	56.13312000	-6.31459100
30.79999823	0.00000000	56.13312000	6.31459100
30.99999822	0.00000000	56.13312000	18.15637000
31.19999820	0.00000000	56.13312000	26.84240000
31.39999819	0.00000000	56.92360000	29.21075000
31.59999818	0.00000000	56.92360000	26.05192000
31.79999817	0.00000000	56.92360000	17.36897000
31.99999816	0.00000000	56.92360000	7.10506800
32.19999815	0.00000000	56.13312000	-4.73671200
32.39999813	0.00000000	53.76168000	-15.00061000
32.59999812	0.00000000	52.97121000	-20.52780000
32.79999811	0.00000000	50.59978000	-20.52780000
32.99999810	0.00000000	49.01575000	-15.78802000
33.19999809	0.00000000	49.01575000	-7.10506800
33.39999807	0.00000000	49.80622000	2.36835600
33.59999806	0.00000000	52.18073000	11.84178000
33.79999805	0.00000000	55.34264000	18.94685000
33.99999804	0.00000000	59.29502000	21.31520000
34.19999803	0.00000000	62.45694000	18.15637000
34.39999801	0.00000000	64.82837000	11.05130000
34.59999800	0.00000000	64.82837000	2.36835600
34.79999799	0.00000000	63.24741000	-6.31459100
34.99999798	0.00000000	59.29502000	-12.63226000
35.19999797	0.00000000	54.55216000	-15.78802000
35.39999796	0.00000000	49.01575000	-14.21014000
35.59999794	0.00000000	45.06336000	-7.89247000
35.79999793	0.00000000	42.69193000	0.00000000
35.99999792	0.00000000	41.90145000	8.68294700
36.19999791	0.00000000	45.06336000	15.78802000
36.39999790	0.00000000	49.80622000	18.94685000
36.59999788	0.00000000	55.34264000	18.94685000
36.79999787	0.00000000	61.66646000	14.21014000
36.99999786	0.00000000	66.40932000	6.31459100
37.19999785	0.00000000	69.57431000	-2.36835600
37.39999784	0.00000000	68.78383000	-10.26390000
37.59999782	0.00000000	65.61884000	-15.78802000
37.79999781	0.00000000	60.08550000	-16.57849000
37.99999780	0.00000000	55.34264000	-13.41966000
38.19999779	0.00000000	48.22527000	-7.10506800
38.39999778	0.00000000	43.48241000	0.78740150
38.59999777	0.00000000	41.90145000	9.47342500
38.79999775	0.00000000	42.69193000	15.78802000
38.99999774	0.00000000	45.06336000	18.94685000
39.19999773	0.00000000	51.39025000	18.15637000
39.39999772	0.00000000	56.92360000	14.21014000
39.59999771	0.00000000	61.66646000	7.89247000
39.79999769	0.00000000	65.61884000	0.78740150
39.99999768	0.00000000	66.40932000	-6.31459100
40.19999767	0.00000000	65.61884000	-11.05130000
40.39999766	0.00000000	61.66646000	-12.63226000
40.59999765	0.00000000	58.50455000	-11.84178000
40.79999763	0.00000000	52.97121000	-7.89247000
40.99999762	0.00000000	49.80622000	-2.36835600
41.19999761	0.00000000	47.43479000	3.94623500
41.39999760	0.00000000	47.43479000	8.68294700
41.59999759	0.00000000	49.01575000	11.05130000
41.79999758	0.00000000	52.18073000	12.63226000
41.99999756	0.00000000	55.34264000	11.84178000
42.19999755	0.00000000	57.71407000	8.68294700
42.39999754	0.00000000	59.29502000	5.52411400
42.59999753	0.00000000	59.29502000	0.78740150
42.79999752	0.00000000	57.71407000	-2.36835600
42.99999750	0.00000000	55.34264000	-5.52411400
43.19999749	0.00000000	53.76168000	-6.31459100
43.39999748	0.00000000	52.97121000	-6.31459100
43.59999747	0.00000000	52.97121000	-4.73671200
43.79999746	0.00000000	53.76168000	-2.36835600
43.99999744	0.00000000	55.34264000	0.78740150
44.19999743	0.00000000	57.71407000	3.94623500
44.39999742	0.00000000	59.29502000	6.31459100
44.59999741	0.00000000	59.29502000	7.89247000
44.79999740	0.00000000	58.50455000	8.68294700
44.99999739	0.00000000	56.92360000	7.89247000
45.19999737	0.00000000	54.55216000	6.31459100
45.39999736	0.00000000	51.39025000	3.94623500
45.59999735	0.00000000	50.59978000	0.78740150
45.79999734	0.00000000	48.22527000	-1.57787900
45.99999733	0.00000000	49.01575000	-3.94623500
46.19999731	0.00000000	51.39025000	-4.73671200
46.39999730	0.00000000	54.55216000	-3.94623500
46.59999729	0.00000000	56.92360000	-3.94623500
46.79999728	0.00000000	60.08550000	-0.78740150
46.99999727	0.00000000	61.66646000	1.57787900
47.19999725	0.00000000	61.66646000	3.94623500
47.39999724	0.00000000	60.08550000	6.31459100
47.59999723	0.00000000	57.71407000	7.10506800
47.79999722	0.00000000	54.55216000	7.10506800
47.99999721	0.00000000	52.18073000	6.31459100
48.19999720	0.00000000	51.39025000	4.73671200
48.39999718	0.00000000	50.59978000	2.36835600
48.59999717	0.00000000	50.59978000	0.78740150
48.79999716	0.00000000	52.18073000	-0.78740150
48.99999715	0.00000000	54.55216000	-2.36835600
49.19999714	0.00000000	56.92360000	-2.36835600
49.39999712	0.00000000	57.71407000	-1.57787900
49.59999711	0.00000000	58.50455000	-0.78740150
49.79999710	0.00000000	57.71407000	0.78740150
49.99999709	0.00000000	57.71407000	2.36835600
50.19999708	0.00000000	56.13312000	3.15575800
50.39999706	0.00000000	54.55216000	3.94623500
50.59999705	0.00000000	54.55216000	3.94623500
50.79999704	0.00000000	54.55216000	3.94623500
50.99999703	0.00000000	55.34264000	2.36835600
51.19999702	0.00000000	55.34264000	2.36835600
51.39999701	0.00000000	56.13312000	0.78740150
51.59999699	0.00000000	55.34264000	0.78740150
51.79999698	0.00000000	55.34264000	0.78740150
51.99999697	0.00000000	55.34264000	0.78740150
52.19999696	0.00000000	54.55216000	1.57787900
52.39999695	0.00000000	54.55216000	2.36835600
52.59999693	0.00000000	54.55216000	2.36835600
52.79999692	0.00000000	55.34264000	2.36835600
52.99999691	0.00000000	55.34264000	2.36835600
53.19999690	0.00000000	56.13312000	1.57787900
53.39999689	0.00000000	56.92360000	0.78740150
53.59999687	0.00000000	57.71407000	0.78740150
53.79999686	0.00000000	56.92360000	-0.78740150
53.99999685	0.00000000	55.34264000	0.00000000
54.19999684	0.00000000	55.34264000	0.78740150
54.39999683	0.00000000	54.55216000	2.36835600
54.59999682	0.00000000	52.97121000	3.15575800
54.79999680	0.00000000	52.97121000	4.73671200
54.99999679	0.00000000	53.76168000	4.73671200
55.19999678	0.00000000	54.55216000	4.73671200
55.39999677	0.00000000	56.92360000	3.15575800
55.59999676	0.00000000	57.71407000	1.57787900
55.79999674	0.00000000	59.29502000	0.00000000
55.99999673	0.00000000	58.50455000	-1.57787900
56.19999672	0.00000000	57.71407000	-2.36835600
56.39999671	0.00000000	56.13312000	-2.36835600
56.59999670	0.00000000	54.55216000	-0.78740150
56.79999668	0.00000000	52.97121000	0.78740150
56.99999667	0.00000000	50.59978000	3.15575800
57.19999666	0.00000000	51.39025000	4.73671200
57.39999665	0.00000000	52.97121000	5.52411400
57.59999664	0.00000000	55.34264000	7.10506800
57.79999663	0.00000000	57.71407000	5.52411400
57.99999661	0.00000000	59.29502000	3.94623500
58.19999660	0.00000000	60.08550000	1.57787900
58.39999659	0.00000000	60.08550000	-0.78740150
58.59999658	0.00000000	58.50455000	-1.57787900
58.79999657	0.00000000	56.13312000	-3.15575800
58.99999655	0.00000000	53.76168000	-2.36835600
59.19999654	0.00000000	50.59978000	-0.78740150
59.39999653	0.00000000	49.80622000	0.78740150
59.59999652	0.00000000	50.59978000	3.15575800
59.79999651	0.00000000	52.97121000	4.73671200
59.99999649	0.00000000	55.34264000	5.52411400
60.19999648	0.00000000	58.50455000	5.52411400
60.39999647	0.00000000	60.87598000	4.73671200
60.59999646	0.00000000	62.45694000	3.94623500
60.79999645	0.00000000	60.87598000	1.57787900
60.99999644	0.00000000	59.29502000	0.00000000
61.19999642	0.00000000	56.92360000	-0.78740150
61.39999641	0.00000000	52.97121000	-1.57787900
61.59999640	0.00000000	49.80622000	-1.57787900
61.79999639	0.00000000	48.22527000	0.00000000
61.99999638	0.00000000	48.22527000	0.78740150
62.19999636	0.00000000	49.01575000	2.36835600
62.39999635	0.00000000	52.18073000	3.15575800
62.59999634	0.00000000	56.13312000	4.73671200
62.79999633	0.00000000	60.87598000	4.73671200
62.99999632	0.00000000	64.03790000	3.94623500
63.19999630	0.00000000	64.82837000	3.15575800
63.39999629	0.00000000	64.03790000	2.36835600
63.59999628	0.00000000	60.08550000	0.78740150
63.79999627	0.00000000	56.13312000	0.00000000
63.99999626	0.00000000	51.39025000	-0.78740150
64.19999625	0.00000000	48.22527000	-0.78740150
64.39999623	0.00000000	46.64431000	0.00000000
64.59999622	0.00000000	45.85384000	0.78740150
64.79999621	0.00000000	48.22527000	2.36835600
64.99999620	0.00000000	52.97121000	3.94623500
65.19999619	0.00000000	56.92360000	4.73671200
65.39999617	0.00000000	60.87598000	5.52411400
65.59999616	0.00000000	63.24741000	4.73671200
65.79999615	0.00000000	64.82837000	3.94623500
65.99999614	0.00000000	63.24741000	2.36835600
66.19999613	0.00000000	60.87598000	0.00000000
66.39999611	0.00000000	56.92360000	-1.57787900
66.59999610	0.00000000	53.76168000	-2.36835600
66.79999609	0.00000000	50.59978000	-1.57787900
66.99999608	0.00000000	49.01575000	-1.57787900
67.19999607	0.00000000	49.01575000	0.00000000
67.39999606	0.00000000	50.59978000	1.57787900
67.59999604	0.00000000	52.18073000	3.15575800
67.79999603	0.00000000	55.34264000	5.52411400
67.99999602	0.00000000	57.71407000	6.31459100
68.19999601	0.00000000	59.29502000	5.52411400
68.39999600	0.00000000	59.29502000	5.52411400
68.59999598	0.00000000	59.29502000	3.15575800
68.79999597	0.00000000	58.50455000	1.57787900
68.99999596	0.00000000	56.92360000	0.00000000
69.19999595	0.00000000	55.34264000	-1.57787900
69.39999594	0.00000000	53.76168000	-2.36835600
69.59999592	0.00000000	53.76168000	-2.36835600
69.79999591	0.00000000	53.76168000	-0.78740150
69.99999590	0.00000000	55.34264000	0.00000000
70.19999589	0.00000000	55.34264000	1.57787900
70.39999588	0.00000000	55.34264000	3.15575800
70.59999587	0.00000000	56.13312000	3.94623500
70.79999585	0.00000000	56.13312000	5.52411400
70.99999584	0.00000000	56.13312000	5.52411400
71.19999583	0.00000000	55.34264000	4.73671200
71.39999582	0.00000000	55.34264000	3.94623500
71.59999581	0.00000000	55.34264000	3.15575800
71.79999579	0.00000000	55.34264000	1.57787900
71.99999578	0.00000000	56.13312000	0.78740150
72.19999577	0.00000000	56.92360000	-0.78740150
72.39999576	0.00000000	57.71407000	-0.78740150
72.59999575	0.00000000	57.71407000	-1.57787900
72.79999573	0.00000000	56.92360000	-0.78740150
72.99999572	0.00000000	56.13312000	0.00000000
73.19999571	0.00000000	54.55216000	1.57787900
73.39999570	0.00000000	53.76168000	3.15575800
73.59999569	0.00000000	53.76168000	3.94623500
73.79999568	0.00000000	52.97121000	4.73671200
73.99999566	0.00000000	53.76168000	4.73671200
74.19999565	0.00000000	54.55216000	4.73671200
74.39999564	0.00000000	55.34264000	3.15575800
74.59999563	0.00000000	56.13312000	1.57787900
74.79999562	0.00000000	56.92360000	0.00000000
74.99999560	0.00000000	57.71407000	-0.78740150
75.19999559	0.00000000	57.71407000	-1.57787900
75.39999558	0.00000000	56.92360000	-1.57787900
75.59999557	0.00000000	56.13312000	-1.57787900
75.79999556	0.00000000	55.34264000	0.78740150
75.99999554	0.00000000	55.34264000	2.36835600
76.19999553	0.00000000	54.55216000	3.94623500
76.39999552	0.00000000	54.55216000	5.52411400
76.59999551	0.00000000	54.55216000	5.52411400
76.79999550	0.00000000	55.34264000	4.73671200
76.99999549	0.00000000	56.13312000	3.15575800
77.19999547	0.00000000	56.13312000	1.57787900
77.39999546	0.00000000	56.13312000	0.00000000
77.59999545	0.00000000	56.92360000	-0.78740150
77.79999544	0.00000000	56.13312000	-1.57787900
77.99999543	0.00000000	55.34264000	-1.57787900
78.19999541	0.00000000	56.13312000	-0.78740150
78.39999540	0.00000000	56.13312000	0.78740150
78.59999539	0.00000000	56.13312000	2.36835600
78.79999538	0.00000000	56.13312000	3.15575800
78.99999537	0.00000000	56.13312000	4.73671200
79.19999535	0.00000000	56.13312000	4.73671200
79.39999534	0.00000000	56.13312000	3.94623500
79.59999533	0.00000000	55.34264000	3.94623500
79.79999532	0.00000000	55.34264000	3.15575800
79.99999531	0.00000000	54.55216000	1.57787900
80.19999530	0.00000000	55.34264000	0.78740150
80.39999528	0.00000000	55.34264000	0.78740150
80.59999527	0.00000000	55.34264000	0.00000000
80.79999526	0.00000000	55.34264000	0.00000000
80.99999525	0.00000000	56.92360000	0.78740150
81.19999524	0.00000000	56.92360000	1.57787900
81.39999522	0.00000000	56.92360000	1.57787900
81.59999521	0.00000000	56.92360000	2.36835600
81.79999520	0.00000000	56.92360000	2.36835600
81.99999519	0.00000000	55.34264000	3.15575800
82.19999518	0.00000000	54.55216000	3.15575800
82.39999516	0.00000000	53.76168000	3.15575800
82.59999515	0.00000000	52.97121000	3.15575800
82.79999514	0.00000000	53.76168000	2.36835600
82.99999513	0.00000000	53.76168000	2.36835600
83.19999512	0.00000000	55.34264000	1.57787900
83.39999511	0.00000000	56.92360000	1.57787900
83.59999509	0.00000000	58.50455000	0.78740150
83.79999508	0.00000000	59.29502000	0.78740150
83.99999507	0.00000000	59.29502000	0.78740150
84.19999506	0.00000000	58.50455000	0.78740150
84.39999505	0.00000000	57.71407000	0.78740150
84.59999503	0.00000000	56.92360000	0.78740150
84.79999502	0.00000000	54.55216000	1.57787900
84.99999501	0.00000000	52.97121000	1.57787900
85.19999500	0.00000000	52.18073000	2.36835600
85.39999499	0.00000000	52.18073000	2.36835600
85.59999497	0.00000000	52.18073000	2.36835600
85.79999496	0.00000000	53.76168000	3.15575800
85.99999495	0.00000000	55.34264000	2.36835600
86.19999494	0.00000000	56.92360000	2.36835600
86.39999493	0.00000000	58.50455000	1.57787900
86.59999492	0.00000000	58.50455000	1.57787900
86.79999490	0.00000000	59.29502000	0.78740150
86.99999489	0.00000000	58.50455000	0.78740150
87.19999488	0.00000000	57.71407000	0.78740150
87.39999487	0.00000000	56.13312000	0.78740150
87.59999486	0.00000000	54.55216000	0.78740150
87.79999484	0.00000000	53.76168000	0.78740150
87.99999483	0.00000000	53.76168000	1.57787900
88.19999482	0.00000000	53.76168000	2.36835600
88.39999481	0.00000000	53.76168000	3.15575800
88.59999480	0.00000000	54.55216000	3.15575800
88.79999478	0.00000000	56.13312000	3.94623500
88.99999477	0.00000000	56.13312000	3.94623500
89.19999476	0.00000000	56.92360000	3.15575800
89.39999475	0.00000000	57.71407000	2.36835600
89.59999474	0.00000000	57.71407000	1.57787900
89.79999473	0.00000000	57.71407000	0.00000000
89.99999471	0.00000000	56.92360000	0.00000000
90.19999470	0.00000000	56.92360000	0.00000000
90.39999469	0.00000000	56.13312000	0.00000000
90.59999468	0.00000000	55.34264000	0.78740150
90.79999467	0.00000000	55.34264000	1.57787900
90.99999465	0.00000000	54.55216000	2.36835600
91.19999464	0.00000000	55.34264000	3.15575800
91.39999463	0.00000000	55.34264000	3.94623500
91.59999462	0.00000000	55.34264000	3.94623500
91.79999461	0.00000000	55.34264000	3.94623500
91.99999459	0.00000000	56.13312000	3.15575800
92.19999458	0.00000000	56.13312000	2.36835600
92.39999457	0.00000000	56.13312000	0.78740150
92.59999456	0.00000000	56.92360000	0.00000000
92.79999455	0.00000000	56.92360000	0.00000000
92.99999454	0.00000000	56.92360000	0.00000000
93.19999452	0.00000000	56.92360000	0.78740150
93.39999451	0.00000000	56.13312000	0.78740150
93.59999450	0.00000000	56.13312000	1.57787900
93.79999449	0.00000000	55.34264000	2.36835600
93.99999448	0.00000000	55.34264000	3.15575800
94.19999446	0.00000000	54.55216000	3.15575800
94.39999445	0.00000000	54.55216000	3.15575800
94.59999444	0.00000000	55.34264000	3.15575800
94.79999443	0.00000000	56.13312000	1.57787900
94.99999442	0.00000000	56.13312000	1.57787900
95.19999440	0.00000000	56.92360000	0.78740150
95.39999439	0.00000000	56.92360000	0.78740150
95.59999438	0.00000000	56.92360000	0.78740150
95.79999437	0.00000000	56.92360000	0.78740150
95.99999436	0.00000000	56.13312000	1.57787900
96.19999435	0.00000000	56.13312000	1.57787900
96.39999433	0.00000000	55.34264000	2.36835600
96.59999432	0.00000000	55.34264000	2.36835600
96.79999431	0.00000000	54.55216000	3.15575800
96.99999430	0.00000000	55.34264000	3.15575800
97.19999429	0.00000000	55.34264000	3.15575800
97.39999427	0.00000000	56.13312000	2.36835600
97.59999426	0.00000000	56.92360000	1.57787900
97.79999425	0.00000000	56.92360000	1.57787900
97.99999424	0.00000000	56.92360000	0.78740150
98.19999423	0.00000000	56.92360000	0.78740150
98.39999422	0.00000000	56.13312000	0.78740150
98.59999420	0.00000000	56.13312000	0.78740150
98.79999419	0.00000000	55.34264000	1.57787900
98.99999418	0.00000000	55.34264000	2.36835600
99.19999417	0.00000000	55.34264000	1.57787900
99.39999416	0.00000000	55.34264000	2.36835600
99.59999414	0.00000000	56.13312000	2.36835600
99.79999413	0.00000000	56.92360000	2.36835600
99.99999412	0.00000000	56.92360000	2.36835600
100.19999411	0.00000000	57.71407000	2.36835600
100.39999410	0.00000000	57.71407000	2.36835600
100.59999408	0.00000000	57.71407000	1.57787900
100.79999407	0.00000000	56.92360000	1.57787900
100.99999406	0.00000000	56.13312000	1.57787900
101.19999405	0.00000000	56.13312000	1.57787900
101.39999404	0.00000000	55.34264000	1.57787900
101.59999403	0.00000000	54.55216000	1.57787900
101.79999401	0.00000000	54.55216000	1.57787900
101.99999400	0.00000000	55.34264000	1.57787900
102.19999399	0.00000000	55.34264000	1.57787900
102.39999398	0.00000000	56.92360000	1.57787900
102.59999397	0.00000000	56.92360000	1.57787900
102.79999395	0.00000000	57.71407000	1.57787900
102.99999394	0.00000000	56.92360000	1.57787900
103.19999393	0.00000000	56.92360000	2.36835600
103.39999392	0.00000000	56.13312000	2.36835600
103.59999391	0.00000000	55.34264000	2.36835600
103.79999389	0.00000000	55.34264000	2.36835600
103.99999388	0.00000000	54.55216000	2.36835600
104.19999387	0.00000000	54.55216000	2.36835600
104.39999386	0.00000000	54.55216000	1.57787900
104.59999385	0.00000000	54.55216000	1.57787900
104.79999384	0.00000000	55.34264000	0.78740150
104.99999382	0.00000000	56.13312000	0.78740150
105.19999381	0.00000000	56.92360000	0.78740150
105.39999380	0.00000000	56.92360000	0.78740150
105.59999379	0.00000000	56.92360000	0.78740150
105.79999378	0.00000000	56.13312000	1.57787900
105.99999376	0.00000000	56.13312000	1.57787900
106.19999375	0.00000000	55.34264000	2.36835600
106.39999374	0.00000000	55.34264000	3.15575800
106.59999373	0.00000000	55.34264000	3.15575800
106.79999372	0.00000000	56.13312000	3.15575800
106.99999370	0.00000000	56.13312000	2.36835600
107.19999369	0.00000000	56.92360000	2.36835600
107.39999368	0.00000000	57.71407000	1.57787900
107.59999367	0.00000000	56.92360000	0.78740150
107.79999366	0.00000000	56.92360000	0.78740150
107.99999365	0.00000000	56.92360000	0.78740150
108.19999363	0.00000000	56.13312000	0.78740150
108.39999362	0.00000000	56.13312000	0.78740150
108.59999361	0.00000000	55.34264000	1.57787900
108.79999360	0.00000000	55.34264000	1.57787900
108.99999359	0.00000000	55.34264000	2.36835600
109.19999357	0.00000000	54.55216000	2.36835600
109.39999356	0.00000000	55.34264000	3.15575800
109.59999355	0.00000000	56.92360000	3.15575800
109.79999354	0.00000000	56.92360000	2.36835600
109.99999353	0.00000000	56.92360000	2.36835600
110.19999351	0.00000000	57.71407000	2.36835600
110.39999350	0.00000000	56.92360000	1.57787900
110.59999349	0.00000000	56.13312000	1.57787900
110.79999348	0.00000000	56.13312000	1.57787900
110.99999347	0.00000000	55.34264000	0.78740150
111.19999346	0.00000000	55.34264000	0.78740150
111.39999344	0.00000000	55.34264000	0.78740150
111.59999343	0.00000000	55.34264000	1.57787900
111.79999342	0.00000000	56.13312000	1.57787900
111.99999341	0.00000000	56.13312000	2.36835600
112.19999340	0.00000000	57.71407000	2.36835600
112.39999338	0.00000000	57.71407000	2.36835600
112.59999337	0.00000000	58.50455000	3.15575800
112.79999336	0.00000000	57.71407000	2.36835600
112.99999335	0.00000000	56.13312000	3.15575800
113.19999334	0.00000000	56.92360000	2.36835600
113.39999332	0.00000000	56.13312000	1.57787900
113.59999331	0.00000000	55.34264000	1.57787900
113.79999330	0.00000000	55.34264000	0.78740150
113.99999329	0.00000000	55.34264000	0.78740150
114.19999328	0.00000000	55.34264000	1.57787900
114.39999327	0.00000000	56.13312000	0.78740150
114.59999325	0.00000000	56.92360000	1.57787900
114.79999324	0.00000000	56.92360000	2.36835600
114.99999323	0.00000000	57.71407000	2.36835600
115.19999322	0.00000000	56.92360000	2.36835600
115.39999321	0.00000000	56.13312000	2.36835600
115.59999319	0.00000000	56.13312000	2.36835600
115.79999318	0.00000000	56.13312000	2.36835600
115.99999317	0.00000000	56.13312000	1.57787900
116.19999316	0.00000000	55.34264000	1.57787900
116.39999315	0.00000000	55.34264000	1.57787900
116.59999313	0.00000000	55.34264000	1.57787900
116.79999312	0.00000000	56.13312000	1.57787900
116.99999311	0.00000000	56.13312000	1.57787900
117.19999310	0.00000000	56.92360000	1.57787900
117.39999309	0.00000000	56.92360000	1.57787900
117.59999308	0.00000000	56.92360000	2.36835600
117.79999306	0.00000000	56.92360000	2.36835600
117.99999305	0.00000000	57.71407000	2.36835600
118.19999304	0.00000000	56.92360000	2.36835600
118.39999303	0.00000000	56.13312000	2.36835600
118.59999302	0.00000000	56.13312000	1.57787900
118.79999300	0.00000000	56.92360000	1.57787900
118.99999299	0.00000000	56.13312000	0.78740150
119.19999298	0.00000000	56.13312000	0.78740150
119.39999297	0.00000000	56.92360000	0.78740150
119.59999296	0.00000000	56.13312000	1.57787900
119.79999294	0.00000000	56.13312000	1.57787900
119.99999293	0.00000000	56.92360000	2.36835600
120.19999292	0.00000000	56.92360000	2.36835600
120.39999291	0.00000000	56.13312000	2.36835600
120.59999290	0.00000000	56.13312000	3.15575800
120.79999289	0.00000000	55.34264000	3.15575800
120.99999287	0.00000000	55.34264000	2.36835600
121.19999286	0.00000000	56.13312000	2.36835600
121.39999285	0.00000000	56.13312000	2.36835600
121.59999284	0.00000000	56.92360000	1.57787900
121.79999283	0.00000000	55.34264000	0.78740150
121.99999281	0.00000000	56.92360000	0.78740150
122.19999280	0.00000000	56.92360000	0.78740150
122.39999279	0.00000000	56.92360000	0.78740150
122.59999278	0.00000000	56.13312000	0.78740150
122.79999277	0.00000000	56.13312000	1.57787900
122.99999275	0.00000000	55.34264000	2.36835600
123.19999274	0.00000000	56.13312000	2.36835600
123.39999273	0.00000000	56.92360000	3.15575800
123.59999272	0.00000000	56.13312000	3.15575800
123.79999271	0.00000000	56.13312000	3.15575800
123.99999270	0.00000000	56.92360000	3.15575800
124.19999268	0.00000000	56.13312000	3.94623500
124.39999267	0.00000000	56.13312000	1.57787900
124.59999266	0.00000000	56.92360000	1.57787900
124.79999265	0.00000000	56.92360000	1.57787900
124.99999264	0.00000000	56.92360000	0.78740150
125.19999262	0.00000000	56.92360000	0.78740150
125.39999261	0.00000000	56.92360000	0.78740150
125.59999260	0.00000000	56.92360000	1.57787900
125.79999259	0.00000000	56.13312000	1.57787900
125.99999258	0.00000000	56.13312000	1.57787900
126.19999256	0.00000000	55.34264000	2.36835600
126.39999255	0.00000000	56.13312000	2.36835600
126.59999254	0.00000000	56.13312000	2.36835600
126.79999253	0.00000000	56.13312000	3.15575800
126.99999252	0.00000000	56.13312000	2.36835600
127.19999251	0.00000000	56.13312000	2.36835600
127.39999249	0.00000000	56.13312000	2.36835600
127.59999248	0.00000000	56.92360000	2.36835600
127.79999247	0.00000000	56.92360000	1.57787900
127.99999246	0.00000000	56.92360000	1.57787900
128.19999245	0.00000000	56.13312000	1.57787900
128.39999243	0.00000000	56.92360000	1.57787900
128.59999242	0.00000000	56.92360000	1.57787900
128.79999241	0.00000000	57.71407000	1.57787900
128.99999240	0.00000000	56.92360000	1.57787900
129.19999239	0.00000000	56.92360000	1.57787900
129.39999237	0.00000000	56.92360000	1.57787900
129.59999236	0.00000000	56.92360000	1.57787900
129.79999235	0.00000000	56.92360000	1.57787900
129.99999234	0.00000000	56.92360000	2.36835600
130.19999233	0.00000000	56.92360000	2.36835600
130.39999232	0.00000000	56.13312000	1.57787900
130.59999230	0.00000000	56.13312000	2.36835600
130.79999229	0.00000000	56.13312000	2.36835600
130.99999228	0.00000000	56.13312000	2.36835600
131.19999227	0.00000000	56.13312000	2.36835600
131.39999226	0.00000000	55.34264000	1.57787900
131.59999224	0.00000000	56.92360000	1.57787900
131.79999223	0.00000000	56.92360000	1.57787900
131.99999222	0.00000000	56.92360000	0.78740150
132.19999221	0.00000000	56.92360000	0.78740150
132.39999220	0.00000000	56.92360000	0.78740150
132.59999218	0.00000000	56.92360000	1.57787900
132.79999217	0.00000000	56.92360000	1.57787900
132.99999216	0.00000000	56.92360000	2.36835600
133.19999215	0.00000000	56.13312000	2.36835600
133.39999214	0.00000000	56.13312000	2.36835600
133.59999213	0.00000000	56.13312000	2.36835600
133.79999211	0.00000000	56.13312000	1.57787900
133.99999210	0.00000000	56.13312000	2.36835600
134.19999209	0.00000000	56.92360000	1.57787900
134.39999208	0.00000000	56.13312000	1.57787900
134.59999207	0.00000000	56.92360000	1.57787900
134.79999205	0.00000000	56.92360000	1.57787900
134.99999204	0.00000000	56.92360000	1.57787900
135.19999203	0.00000000	56.92360000	1.57787900
135.39999202	0.00000000	56.13312000	1.57787900
135.59999201	0.00000000	56.13312000	1.57787900
135.79999199	0.00000000	56.13312000	2.36835600
135.99999198	0.00000000	56.13312000	2.36835600
136.19999197	0.00000000	55.34264000	1.57787900
136.39999196	0.00000000	56.13312000	1.57787900
136.59999195	0.00000000	56.13312000	2.36835600
136.79999194	0.00000000	56.92360000	1.57787900
136.99999192	0.00000000	56.92360000	1.57787900
137.19999191	0.00000000	56.92360000	1.57787900
137.39999190	0.00000000	56.92360000	1.57787900
137.59999189	0.00000000	56.92360000	1.57787900
137.79999188	0.00000000	56.13312000	1.57787900
137.99999186	0.00000000	56.13312000	1.57787900
138.19999185	0.00000000	56.13312000	1.57787900
138.39999184	0.00000000	56.13312000	2.36835600
138.59999183	0.00000000	56.13312000	2.36835600
138.79999182	0.00000000	56.13312000	2.36835600
138.99999180	0.00000000	56.13312000	2.36835600
139.19999179	0.00000000	56.92360000	2.36835600
139.39999178	0.00000000	57.71407000	1.57787900
139.59999177	0.00000000	56.92360000	1.57787900
139.79999176	0.00000000	56.92360000	1.57787900
139.99999175	0.00000000	56.92360000	1.57787900
140.19999173	0.00000000	56.92360000	1.57787900
140.39999172	0.00000000	56.92360000	1.57787900
140.59999171	0.00000000	56.13312000	1.57787900
140.79999170	0.00000000	57.71407000	3.94623500
140.99999169	0.00000000	55.34264000	2.36835600
141.19999167	0.00000000	56.13312000	2.36835600
141.39999166	0.00000000	56.92360000	2.36835600
141.59999165	0.00000000	56.13312000	2.36835600
141.79999164	0.00000000	56.13312000	2.36835600
141.99999163	0.00000000	56.13312000	2.36835600
142.19999161	0.00000000	56.13312000	1.57787900
142.39999160	0.00000000	56.92360000	1.57787900
142.59999159	0.00000000	57.71407000	1.57787900
142.79999158	0.00000000	57.71407000	1.57787900
142.99999157	0.00000000	56.92360000	1.57787900
143.19999156	0.00000000	56.92360000	1.57787900
143.39999154	0.00000000	56.92360000	2.36835600
143.59999153	0.00000000	56.13312000	2.36835600
143.79999152	0.00000000	56.13312000	2.36835600
143.99999151	0.00000000	56.13312000	2.36835600
144.19999150	0.00000000	56.13312000	2.36835600
144.39999148	0.00000000	56.13312000	2.36835600
144.59999147	0.00000000	56.13312000	1.57787900
144.79999146	0.00000000	56.92360000	2.36835600
144.99999145	0.00000000	56.13312000	1.57787900
145.19999144	0.00000000	56.92360000	1.57787900
145.39999142	0.00000000	56.92360000	1.57787900
145.59999141	0.00000000	56.92360000	1.57787900
145.79999140	0.00000000	56.92360000	1.57787900
145.99999139	0.00000000	56.92360000	1.57787900
146.19999138	0.00000000	56.92360000	1.57787900
146.39999137	0.00000000	56.92360000	2.36835600
146.59999135	0.00000000	56.92360000	2.36835600
146.79999134	0.00000000	56.13312000	1.57787900
146.99999133	0.00000000	56.13312000	2.36835600
147.19999132	0.00000000	56.13312000	2.36835600
147.39999131	0.00000000	56.13312000	2.36835600
147.59999129	0.00000000	56.13312000	2.36835600
147.79999128	0.00000000	56.92360000	1.57787900
147.99999127	0.00000000	56.92360000	2.36835600
148.19999126	0.00000000	56.92360000	1.57787900
148.39999125	0.00000000	56.92360000	1.57787900
148.59999123	0.00000000	57.71407000	2.36835600
148.79999122	0.00000000	56.13312000	1.57787900
148.99999121	0.00000000	56.92360000	1.57787900
149.19999120	0.00000000	56.92360000	1.57787900
149.39999119	0.00000000	56.92360000	1.57787900
149.59999118	0.00000000	56.92360000	1.57787900
149.79999116	0.00000000	56.13312000	2.36835600
149.99999115	0.00000000	56.13312000	1.57787900
150.19999114	0.00000000	56.92360000	2.36835600
150.39999113	0.00000000	57.71407000	2.36835600
150.59999112	0.00000000	56.92360000	2.36835600
150.79999110	0.00000000	57.71407000	2.36835600
150.99999109	0.00000000	57.71407000	1.57787900
151.19999108	0.00000000	57.71407000	1.57787900
151.39999107	0.00000000	57.71407000	2.36835600
151.59999106	0.00000000	56.92360000	1.57787900
151.79999104	0.00000000	56.92360000	1.57787900
151.99999103	0.00000000	56.92360000	2.36835600
152.19999102	0.00000000	56.92360000	2.36835600
152.39999101	0.00000000	56.92360000	2.36835600
152.59999100	0.00000000	56.92360000	2.36835600
152.79999099	0.00000000	56.92360000	1.57787900
152.99999097	0.00000000	56.92360000	2.36835600
153.19999096	0.00000000	56.92360000	1.57787900
153.39999095	0.00000000	56.92360000	1.57787900
153.59999094	0.00000000	56.92360000	1.57787900
153.79999093	0.00000000	57.71407000	2.36835600
153.99999091	0.00000000	57.71407000	1.57787900
154.19999090	0.00000000	56.92360000	1.57787900
154.39999089	0.00000000	57.71407000	1.57787900
154.59999088	0.00000000	56.92360000	1.57787900
154.79999087	0.00000000	56.92360000	2.36835600
154.99999085	0.00000000	56.92360000	2.36835600
155.19999084	0.00000000	56.92360000	2.36835600
155.39999083	0.00000000	56.13312000	1.57787900
155.59999082	0.00000000	56.92360000	2.36835600
155.79999081	0.00000000	56.92360000	1.57787900
155.99999080	0.00000000	56.92360000	2.36835600
156.19999078	0.00000000	56.92360000	1.57787900
156.39999077	0.00000000	56.92360000	1.57787900
156.59999076	0.00000000	56.92360000	1.57787900
156.79999075	0.00000000	56.92360000	1.57787900
156.99999074	0.00000000	56.92360000	1.57787900
157.19999072	0.00000000	56.92360000	1.57787900
157.39999071	0.00000000	56.92360000	1.57787900
157.59999070	0.00000000	57.71407000	1.57787900
157.79999069	0.00000000	56.92360000	1.57787900
157.99999068	0.00000000	56.92360000	2.36835600
158.19999066	0.00000000	57.71407000	1.57787900
158.39999065	0.00000000	56.92360000	2.36835600
158.59999064	0.00000000	57.71407000	2.36835600
158.79999063	0.00000000	57.71407000	1.57787900
158.99999062	0.00000000	56.92360000	1.57787900
159.19999061	0.00000000	56.92360000	1.57787900
159.39999059	0.00000000	56.92360000	1.57787900
159.59999058	0.00000000	56.92360000	2.36835600
159.79999057	0.00000000	56.92360000	2.36835600
159.99999056	0.00000000	56.92360000	2.36835600
160.19999055	0.00000000	56.92360000	2.36835600
160.39999053	0.00000000	56.92360000	2.36835600
160.59999052	0.00000000	56.92360000	1.57787900
160.79999051	0.00000000	56.13312000	1.57787900
160.99999050	0.00000000	56.13312000	1.57787900
161.19999049	0.00000000	56.92360000	1.57787900
161.39999047	0.00000000	56.13312000	1.57787900
161.59999046	0.00000000	56.92360000	1.57787900
161.79999045	0.00000000	56.92360000	2.36835600
161.99999044	0.00000000	56.92360000	2.36835600
162.19999043	0.00000000	57.71407000	2.36835600
162.39999042	0.00000000	57.71407000	2.36835600
162.59999040	0.00000000	57.71407000	2.36835600
162.79999039	0.00000000	56.92360000	2.36835600
162.99999038	0.00000000	56.92360000	2.36835600
163.19999037	0.00000000	56.92360000	1.57787900
163.39999036	0.00000000	57.71407000	2.36835600
163.59999034	0.00000000	56.92360000	1.57787900
163.79999033	0.00000000	56.92360000	1.57787900
163.99999032	0.00000000	56.92360000	1.57787900
164.19999031	0.00000000	57.71407000	1.57787900
164.39999030	0.00000000	57.71407000	1.57787900
164.59999028	0.00000000	57.71407000	1.57787900
164.79999027	0.00000000	56.92360000	1.57787900
164.99999026	0.00000000	56.92360000	1.57787900
165.19999025	0.00000000	56.92360000	2.36835600
165.39999024	0.00000000	56.92360000	2.36835600
165.59999023	0.00000000	56.92360000	2.36835600
165.79999021	0.00000000	56.92360000	2.36835600
165.99999020	0.00000000	56.92360000	1.57787900
166.19999019	0.00000000	56.92360000	1.57787900
166.39999018	0.00000000	56.92360000	1.57787900
166.59999017	0.00000000	56.92360000	1.57787900
166.79999015	0.00000000	56.92360000	1.57787900
166.99999014	0.00000000	56.92360000	1.57787900
167.19999013	0.00000000	56.92360000	1.57787900
167.39999012	0.00000000	57.71407000	1.57787900
167.59999011	0.00000000	57.71407000	1.57787900
167.79999009	0.00000000	56.92360000	1.57787900
167.99999008	0.00000000	56.13312000	1.57787900
168.19999007	0.00000000	56.92360000	1.57787900
168.39999006	0.00000000	56.92360000	2.36835600
168.59999005	0.00000000	56.92360000	2.36835600
168.79999004	0.00000000	56.92360000	2.36835600
168.99999002	0.00000000	56.92360000	1.57787900
169.19999001	0.00000000	56.92360000	2.36835600
169.39999000	0.00000000	56.92360000	1.57787900
169.59998999	0.00000000	56.92360000	1.57787900
169.79998998	0.00000000	56.92360000	1.57787900
169.99998996	0.00000000	56.92360000	1.57787900
170.19998995	0.00000000	56.92360000	1.57787900
170.39998994	0.00000000	56.92360000	1.57787900
170.59998993	0.00000000	56.92360000	1.57787900
170.79998992	0.00000000	56.92360000	1.57787900
170.99998990	0.00000000	56.92360000	2.36835600
171.19998989	0.00000000	56.92360000	1.57787900
171.39998988	0.00000000	56.92360000	2.36835600
171.59998987	0.00000000	56.92360000	2.36835600
171.79998986	0.00000000	56.92360000	1.57787900
171.99998985	0.00000000	56.92360000	1.57787900
172.19998983	0.00000000	56.92360000	2.36835600
172.39998982	0.00000000	56.92360000	2.36835600
172.59998981	0.00000000	56.92360000	2.36835600
172.79998980	0.00000000	56.92360000	2.36835600
172.99998979	0.00000000	56.92360000	2.36835600
173.19998977	0.00000000	56.92360000	1.57787900
173.39998976	0.00000000	56.92360000	2.36835600
173.59998975	0.00000000	56.92360000	2.36835600
173.79998974	0.00000000	56.92360000	1.57787900
173.99998973	0.00000000	56.92360000	1.57787900
174.19998971	0.00000000	56.92360000	2.36835600
174.39998970	0.00000000	56.92360000	1.57787900
174.59998969	0.00000000	56.92360000	1.57787900
174.79998968	0.00000000	56.13312000	2.36835600
174.99998967	0.00000000	57.71407000	1.57787900
175.19998966	0.00000000	56.92360000	2.36835600
175.39998964	0.00000000	56.92360000	2.36835600
175.59998963	0.00000000	56.92360000	1.57787900
175.79998962	0.00000000	56.92360000	2.36835600
175.99998961	0.00000000	56.92360000	2.36835600
176.19998960	0.00000000	56.92360000	2.36835600
176.39998958	0.00000000	56.92360000	2.36835600
176.59998957	0.00000000	56.92360000	2.36835600
176.79998956	0.00000000	56.92360000	1.57787900
176.99998955	0.00000000	56.92360000	1.57787900
177.19998954	0.00000000	56.92360000	1.57787900
177.39998952	0.00000000	57.71407000	1.57787900
177.59998951	0.00000000	56.92360000	1.57787900
177.79998950	0.00000000	57.71407000	1.57787900
177.99998949	0.00000000	57.71407000	1.57787900
178.19998948	0.00000000	56.92360000	1.57787900
178.39998947	0.00000000	56.92360000	2.36835600
178.59998945	0.00000000	56.92360000	2.36835600
178.79998944	0.00000000	56.92360000	1.57787900
178.99998943	0.00000000	56.13312000	1.57787900
179.19998942	0.00000000	56.13312000	2.36835600
179.39998941	0.00000000	56.92360000	2.36835600
179.59998939	0.00000000	57.71407000	1.57787900
179.79998938	0.00000000	57.71407000	2.36835600
179.99998937	0.00000000	57.71407000	1.57787900
180.19998936	0.00000000	56.92360000	1.57787900
180.39998935	0.00000000	57.71407000	1.57787900
180.59998933	0.00000000	57.71407000	1.57787900
180.79998932	0.00000000	56.92360000	1.57787900
180.99998931	0.00000000	57.71407000	2.36835600
181.19998930	0.00000000	56.92360000	1.57787900
181.39998929	0.00000000	56.92360000	2.36835600
181.59998928	0.00000000	56.92360000	1.57787900
181.79998926	0.00000000	56.13312000	1.57787900
181.99998925	0.00000000	56.92360000	1.57787900
182.19998924	0.00000000	56.13312000	2.36835600
182.39998923	0.00000000	56.92360000	2.36835600
182.59998922	0.00000000	56.92360000	1.57787900
182.79998920	0.00000000	56.92360000	2.36835600
182.99998919	0.00000000	56.92360000	2.36835600
183.19998918	0.00000000	56.92360000	1.57787900
183.39998917	0.00000000	56.92360000	1.57787900
183.59998916	0.00000000	57.71407000	1.57787900
183.79998914	0.00000000	56.92360000	2.36835600
183.99998913	0.00000000	56.92360000	1.57787900
184.19998912	0.00000000	57.71407000	2.36835600
184.39998911	0.00000000	57.71407000	2.36835600
184.59998910	0.00000000	57.71407000	2.36835600
184.79998909	0.00000000	57.71407000	2.36835600
184.99998907	0.00000000	57.71407000	1.57787900
185.19998906	0.00000000	57.71407000	2.36835600
185.39998905	0.00000000	57.71407000	2.36835600
185.59998904	0.00000000	57.71407000	2.36835600
185.79998903	0.00000000	57.71407000	2.36835600
185.99998901	0.00000000	58.50455000	1.57787900
186.19998900	0.00000000	57.71407000	2.36835600
186.39998899	0.00000000	57.71407000	1.57787900
186.59998898	0.00000000	57.71407000	1.57787900
186.79998897	0.00000000	56.92360000	1.57787900
186.99998895	0.00000000	56.92360000	1.57787900
187.19998894	0.00000000	57.71407000	2.36835600
187.39998893	0.00000000	56.92360000	1.57787900
187.59998892	0.00000000	56.92360000	2.36835600
187.79998891	0.00000000	58.50455000	2.36835600
187.99998890	0.00000000	58.50455000	2.36835600
188.19998888	0.00000000	57.71407000	1.57787900
188.39998887	0.00000000	57.71407000	1.57787900
188.59998886	0.00000000	57.71407000	2.36835600
188.79998885	0.00000000	57.71407000	2.36835600
188.99998884	0.00000000	57.71407000	1.57787900
189.19998882	0.00000000	58.50455000	1.57787900
189.39998881	0.00000000	56.92360000	2.36835600
189.59998880	0.00000000	57.71407000	2.36835600
189.79998879	0.00000000	56.92360000	1.57787900
189.99998878	0.00000000	56.92360000	1.57787900
190.19998877	0.00000000	56.92360000	2.36835600
190.39998875	0.00000000	58.50455000	1.57787900
190.59998874	0.00000000	57.71407000	2.36835600
190.79998873	0.00000000	57.71407000	2.36835600
190.99998872	0.00000000	57.71407000	2.36835600
191.19998871	0.00000000	56.92360000	2.36835600
191.39998869	0.00000000	57.71407000	2.36835600
191.59998868	0.00000000	57.71407000	2.36835600
191.79998867	0.00000000	57.71407000	2.36835600
191.99998866	0.00000000	57.71407000	2.36835600
192.19998865	0.00000000	57.71407000	2.36835600
192.39998863	0.00000000	56.92360000	2.36835600
192.59998862	0.00000000	56.92360000	1.57787900
192.79998861	0.00000000	57.71407000	2.36835600
192.99998860	0.00000000	56.92360000	2.36835600
193.19998859	0.00000000	56.92360000	2.36835600
193.39998858	0.00000000	56.92360000	2.36835600
193.59998856	0.00000000	56.92360000	2.36835600
193.79998855	0.00000000	56.92360000	1.57787900
193.99998854	0.00000000	56.92360000	1.57787900
194.19998853	0.00000000	57.71407000	1.57787900
194.39998852	0.00000000	57.71407000	2.36835600
194.59998850	0.00000000	57.71407000	1.57787900
194.79998849	0.00000000	56.92360000	2.36835600
194.99998848	0.00000000	56.92360000	1.57787900
195.19998847	0.00000000	57.71407000	1.57787900
195.39998846	0.00000000	57.71407000	1.57787900
195.59998844	0.00000000	56.92360000	2.36835600
195.79998843	0.00000000	58.50455000	1.57787900
195.99998842	0.00000000	57.71407000	1.57787900
196.19998841	0.00000000	57.71407000	1.57787900
196.39998840	0.00000000	57.71407000	2.36835600
