Time	Channel A	Channel B	Channel C
(us)	(V)	(mV)	(mV)

-4.49999956	0.00000000	37.20472000	12.62918000
-4.29999957	0.00000000	37.57381000	12.62918000
-4.09999958	0.00000000	37.90600000	12.62918000
-3.89999959	0.00000000	37.94907000	12.62918000
-3.69999960	0.00000000	37.94907000	12.62918000
-3.49999962	0.00000000	37.94907000	12.62918000
-3.29999963	0.00000000	37.94907000	12.62918000
-3.09999964	0.00000000	37.94907000	12.62918000
-2.89999965	0.00000000	37.94907000	12.62918000
-2.69999966	0.00000000	37.94907000	12.62918000
-2.49999968	0.00000000	37.94907000	12.62918000
-2.29999969	0.00000000	37.94907000	12.62918000
-2.09999970	0.00000000	37.94907000	12.62918000
-1.89999971	0.00000000	37.94907000	12.62918000
-1.69999972	0.00000000	37.94907000	12.62918000
-1.49999973	0.00000000	37.94907000	12.62918000
-1.29999975	0.00000000	37.94907000	12.62918000
-1.09999976	0.00000000	37.94907000	12.62918000
-0.89999977	0.00000000	37.94907000	12.62918000
-0.69999978	0.00000000	37.94907000	12.62918000
-0.49999979	0.00000000	37.94907000	12.62918000
-0.29999981	0.15871060	37.94907000	12.62918000
-0.09999982	0.63668800	37.94907000	12.62918000
0.10000017	0.95533960	37.94907000	12.62918000
0.30000016	0.95533960	37.94907000	12.62918000
0.50000015	0.95533960	37.94907000	12.62918000
0.70000013	0.47736220	37.94907000	12.62918000
0.90000012	-0.31803640	37.94907000	12.62918000
1.10000011	-1.11466500	37.94907000	12.62918000
1.30000010	-2.07062000	37.94907000	12.62918000
1.50000009	-2.70792300	37.94907000	12.62918000
1.70000008	-2.54859700	37.94907000	12.67224000
1.90000006	-1.75196900	37.94907000	13.04749000
2.10000005	0.00000000	37.94907000	13.74262000
2.30000004	2.07062000	37.94907000	13.74262000
2.50000003	3.98191400	37.94907000	13.04749000
2.70000002	5.25652100	37.94907000	12.67224000
2.90000000	5.09719500	37.94907000	12.62918000
3.09999999	3.66326300	37.94907000	12.62918000
3.29999998	0.79601380	37.94907000	12.62918000
3.49999997	-2.54859700	37.94907000	12.62918000
3.69999996	-5.73449800	37.94907000	12.62918000
3.89999994	-7.64579200	37.94907000	12.62918000
4.09999993	-7.80511800	37.94907000	12.67224000
4.29999992	-5.89382400	37.94907000	13.04749000
4.49999991	-2.38927200	37.94907000	13.74262000
4.69999990	2.07062000	37.94907000	13.74262000
4.89999989	6.21247500	37.94907000	13.04749000
5.09999987	8.92039900	37.94907000	12.62918000
5.29999986	9.39837600	37.94907000	12.25394000
5.49999985	7.48646600	37.94907000	11.84178000
5.69999984	3.66326300	37.94907000	11.87869000
5.89999983	-0.95533960	37.94907000	11.84178000
6.09999981	-5.57517200	37.94907000	12.25394000
6.29999980	-8.60174700	37.90600000	12.58612000
6.49999979	-9.39837600	37.57381000	12.62918000
6.69999978	-7.96444400	37.20472000	12.67224000
6.89999977	-4.61921700	37.57381000	13.00443000
7.09999975	-0.31803640	37.90600000	13.37352000
7.29999974	3.82258900	37.94907000	13.04749000
7.49999973	6.69045300	37.94907000	13.04749000
7.69999972	7.80511800	37.94907000	13.37352000
7.89999971	6.84916400	37.94907000	12.96137000
8.09999970	4.30056600	37.94907000	12.29700000
8.29999968	1.11466500	37.94907000	11.88484000
8.49999967	-2.07062000	37.94907000	12.25394000
8.69999966	-4.30056600	37.94907000	12.58612000
8.89999965	-5.25652100	37.94907000	12.62918000
9.09999964	-4.77854300	37.94907000	12.62918000
9.29999962	-3.18590100	37.94907000	12.62918000
9.49999961	-1.27399100	37.94907000	12.62918000
9.69999960	0.63668800	37.94907000	12.62918000
9.89999959	1.91129400	37.94907000	12.62918000
10.09999958	2.54859700	37.94907000	12.62918000
10.29999956	2.38927200	37.94907000	12.62918000
10.49999955	1.75196900	37.94907000	12.62918000
10.69999954	0.79601380	37.94907000	12.62918000
10.89999953	0.00000000	37.94907000	12.62918000
11.09999952	-0.63668800	37.94907000	12.62918000
11.29999951	-0.95533960	37.94907000	12.62918000
11.49999949	-0.95533960	37.94907000	12.62918000
11.69999948	-0.79601380	37.94907000	12.62918000
11.89999947	-0.47736220	37.94907000	12.62918000
12.09999946	-0.15871060	37.94907000	12.62918000
12.29999945	-0.15871060	37.94907000	12.62918000
12.49999943	-0.15871060	37.94907000	12.62918000
12.69999942	0.00000000	37.94907000	12.62918000
12.89999941	0.00000000	37.94907000	12.62918000
13.09999940	0.00000000	37.94907000	12.62918000
13.29999939	0.00000000	37.94907000	12.62918000
13.49999937	0.00000000	37.94907000	12.62918000
13.69999936	0.00000000	37.94907000	12.62918000
13.89999935	0.00000000	37.94907000	12.62918000
14.09999934	-0.15871060	37.94907000	12.62918000
14.29999933	-0.15871060	37.94907000	12.62918000
14.49999932	-0.15871060	37.94907000	12.62918000
14.69999930	0.00000000	37.94907000	12.62918000
14.89999929	0.00000000	37.94907000	12.62918000
15.09999928	0.00000000	37.94907000	12.62918000
15.29999927	0.00000000	37.90600000	12.62918000
15.49999926	0.00000000	37.57381000	12.62918000
15.69999924	0.00000000	37.20472000	12.62918000
15.89999923	0.00000000	37.57381000	12.62918000
16.09999922	0.00000000	37.90600000	12.62918000
16.29999921	-0.15871060	37.94907000	12.62918000
16.49999920	-0.15871060	37.99213000	12.62918000
16.69999919	0.00000000	38.36737000	12.62918000
16.89999917	-0.15871060	39.11171000	12.62918000
17.09999916	0.00000000	39.48696000	12.62918000
17.29999915	0.00000000	39.53002000	12.62918000
17.49999914	0.00000000	39.53002000	12.62918000
17.69999913	0.00000000	39.48696000	12.62918000
17.89999911	0.00000000	39.11171000	12.62918000
18.09999910	0.00000000	38.32431000	12.62918000
18.29999909	0.00000000	37.48154000	12.62918000
18.49999908	0.00000000	35.90059000	12.62918000
18.69999907	0.00000000	33.66756000	12.62918000
18.89999905	0.00000000	32.17273000	12.62918000
19.09999904	0.00000000	32.12967000	12.62918000
19.29999903	0.00000000	33.29232000	12.62918000
19.49999902	0.00000000	35.29773000	12.62918000
19.69999901	0.00000000	38.45964000	12.62918000
19.89999900	0.00000000	42.64886000	12.62918000
20.09999898	0.00000000	46.46284000	12.62918000
20.29999897	0.00000000	48.36983000	12.62918000
20.49999896	0.00000000	47.99458000	12.62918000
20.69999895	0.00000000	45.20792000	12.62918000
20.89999894	0.00000000	40.08981000	12.62918000
21.09999892	0.00000000	32.73868000	12.62918000
21.29999891	0.00000000	24.68627000	12.58612000
21.49999890	0.00000000	18.59006000	12.21087000
21.69999889	0.00000000	16.31397000	11.51575000
21.89999888	0.00000000	19.05143000	11.55881000
22.09999886	0.00000000	26.45177000	12.58612000
22.29999885	0.00000000	37.34006000	13.32431000
22.49999884	0.00000000	50.08612000	13.00443000
22.69999883	0.00000000	61.58341000	12.67224000
22.89999882	0.00000000	68.51624000	12.62918000
23.09999881	0.00000000	68.84842000	12.67224000
23.29999879	0.00000000	62.18627000	13.04749000
23.49999878	0.00000000	48.97884000	13.83489000
23.69999877	0.00000000	31.57603000	14.53617000
23.89999876	0.00000000	13.89025000	14.94833000
24.09999875	0.00000000	0.40600390	14.58538000
24.29999873	0.00000000	-4.90895600	14.21014000
24.49999872	0.00000000	-0.66437010	13.74262000
24.69999871	0.00000000	12.95522000	12.58612000
24.89999870	0.00000000	33.01550000	11.04823000
25.09999869	0.00000000	55.43799000	9.51648500
25.29999867	0.00000000	74.70472000	8.35998900
25.49999866	0.00000000	86.24507000	8.02780400
25.69999865	0.00000000	86.98941000	8.82135800
25.89999864	0.00000000	76.15034000	11.18356000
26.09999863	0.00000000	56.41609000	14.62844000
26.29999862	0.00000000	31.71137000	18.52854000
26.49999860	0.00000000	7.84325700	21.96727000
26.69999859	0.00000000	-8.76599300	24.24335000
26.89999858	0.00000000	-14.62229000	24.15723000
27.09999857	0.00000000	-8.80905400	21.08760000
27.29999856	0.00000000	7.42495000	15.60654000
27.49999854	0.00000000	30.54872000	8.63681000
27.69999853	0.00000000	54.88435000	0.92888770
27.89999852	0.00000000	74.61245000	-5.16117100
28.09999851	0.00000000	85.86983000	-7.85556000
28.29999850	0.00000000	86.24507000	-6.23154500
28.49999848	0.00000000	75.86736000	-0.04921259
28.69999847	0.00000000	57.35113000	9.65182000
28.89999846	0.00000000	35.34079000	20.85384000
29.09999845	0.00000000	14.86836000	31.67446000
29.29999844	0.00000000	0.49827750	39.30241000
29.49999843	0.00000000	-4.99507900	41.57849000
29.69999841	0.00000000	-1.59325800	37.30315000
29.89999840	0.00000000	9.61491000	27.22072000
30.09999839	0.00000000	25.84892000	13.28125000
30.29999838	0.00000000	43.62696000	-2.14074800
30.49999837	0.00000000	59.11663000	-15.24360000
30.69999835	0.00000000	68.84842000	-22.91462000
30.89999834	0.00000000	71.63509000	-23.27756000
31.09999833	0.00000000	67.39665000	-15.56963000
31.29999832	0.00000000	57.35113000	-2.04847400
31.49999831	0.00000000	43.85457000	14.62844000
31.69999829	0.00000000	29.89665000	31.58834000
31.89999828	0.00000000	18.68233000	44.69119000
32.09999827	0.00000000	12.03248000	50.91658000
32.29999826	0.00000000	11.23893000	49.37868000
32.49999825	0.00000000	15.84646000	40.41584000
32.69999824	0.00000000	24.73548000	25.35679000
32.89999822	0.00000000	35.90059000	7.24040300
33.09999821	0.00000000	46.32751000	-9.34424200
33.29999820	0.00000000	53.76476000	-21.00148000
33.49999819	0.00000000	57.25885000	-25.65207000
33.69999818	0.00000000	56.50836000	-22.53937000
33.89999816	0.00000000	51.48868000	-12.13091000
34.09999815	0.00000000	43.80536000	3.29109200
34.29999814	0.00000000	35.29773000	19.92495000
34.49999813	0.00000000	27.98966000	34.65182000
34.69999812	0.00000000	23.70817000	44.64198000
34.89999810	0.00000000	23.28986000	47.38558000
35.09999809	0.00000000	26.35950000	42.41511000
35.29999808	0.00000000	32.08661000	31.58834000
35.49999807	0.00000000	38.64419000	16.90453000
35.69999806	0.00000000	44.00221000	1.57480300
35.89999805	0.00000000	47.15797000	-10.03937000
36.09999803	0.00000000	47.16412000	-15.47736000
36.29999802	0.00000000	44.88189000	-14.35777000
36.49999801	0.00000000	40.60039000	-6.64985200
36.69999800	0.00000000	35.24852000	5.15501900
36.89999799	0.00000000	30.68405000	17.50738000
37.09999797	0.00000000	28.35876000	27.17766000
37.29999796	0.00000000	29.05389000	32.60949000
37.49999795	0.00000000	31.75443000	32.56643000
37.69999794	0.00000000	35.62377000	26.84547000
37.89999793	0.00000000	40.27436000	17.27362000
38.09999791	0.00000000	44.09449000	6.95743000
38.29999790	0.00000000	46.46284000	-1.11958700
38.49999789	0.00000000	46.78888000	-4.56446800
38.69999788	0.00000000	44.88189000	-2.65748000
38.89999787	0.00000000	41.01870000	4.21998000
39.09999786	0.00000000	36.41117000	13.74262000
39.29999784	0.00000000	32.12967000	22.57628000
39.49999783	0.00000000	29.01082000	28.34030000
39.69999782	0.00000000	27.52214000	29.45374000
39.89999781	0.00000000	28.22342000	25.22145000
40.09999780	0.00000000	30.91781000	16.81225000
40.29999778	0.00000000	34.04282000	6.86515700
40.49999777	0.00000000	37.99213000	-1.58710600
40.69999776	0.00000000	42.18134000	-6.18848400
40.89999775	0.00000000	45.30019000	-5.81323800
41.09999774	0.00000000	46.88115000	-0.42445860
41.29999772	0.00000000	46.83809000	8.40305000
41.49999771	0.00000000	44.88189000	18.39321000
41.69999770	0.00000000	41.06791000	26.80241000
41.89999769	0.00000000	36.82948000	31.02854000
42.09999768	0.00000000	33.29232000	29.95817000
42.29999767	0.00000000	30.54872000	24.61860000
42.49999765	0.00000000	29.05389000	16.90453000
42.69999764	0.00000000	29.42913000	8.44611200
42.89999763	0.00000000	31.66830000	1.52559000
43.09999762	0.00000000	34.36884000	-2.00541300
43.29999761	0.00000000	36.74335000	-2.04847400
43.49999759	0.00000000	39.06250000	1.01501000
43.69999758	0.00000000	40.60039000	6.40378900
43.89999757	0.00000000	41.06791000	12.58612000
44.09999756	0.00000000	41.06791000	18.35015000
44.29999755	0.00000000	40.69267000	22.20103000
44.49999753	0.00000000	39.94832000	22.99459000
44.69999752	0.00000000	39.57308000	21.17372000
44.89999751	0.00000000	39.53002000	17.69808000
45.09999750	0.00000000	39.53002000	13.87795000
45.29999749	0.00000000	39.43774000	10.35310000
45.49999748	0.00000000	38.64419000	8.02780400
45.69999746	0.00000000	36.70029000	6.82209600
45.89999745	0.00000000	34.36884000	6.86515700
46.09999744	0.00000000	31.61909000	8.35383800
46.29999743	0.00000000	29.01082000	10.67298000
46.49999742	0.00000000	27.89739000	13.00443000
46.69999740	0.00000000	29.05389000	15.32357000
46.89999739	0.00000000	32.17273000	16.81225000
47.09999738	0.00000000	36.87869000	16.85531000
47.29999737	0.00000000	42.64886000	15.74188000
47.49999736	0.00000000	48.04380000	14.16092000
47.69999734	0.00000000	51.48868000	12.21087000
47.89999733	0.00000000	52.18381000	9.89173200
48.09999732	0.00000000	49.02190000	7.98474400
48.29999731	0.00000000	42.08907000	6.86515700
48.49999730	0.00000000	33.29232000	7.24040300
48.69999729	0.00000000	25.19685000	9.14124000
48.89999727	0.00000000	20.17101000	11.46653000
49.09999726	0.00000000	18.96531000	14.25320000
49.29999725	0.00000000	21.75197000	17.27977000
49.49999724	0.00000000	28.31570000	19.55585000
49.69999723	0.00000000	37.57381000	19.93110000
49.89999721	0.00000000	46.78888000	18.39321000
50.09999720	0.00000000	53.72170000	15.32357000
50.29999719	0.00000000	56.41609000	11.42347000
50.49999718	0.00000000	54.14001000	7.60949800
50.69999717	0.00000000	47.95152000	4.54601300
50.89999715	0.00000000	39.06250000	3.75246000
51.09999714	0.00000000	29.52141000	4.87204700
51.29999713	0.00000000	22.58858000	7.24040300
51.49999712	0.00000000	20.21407000	11.14050000
51.69999711	0.00000000	22.12721000	15.69882000
51.89999710	0.00000000	27.89739000	19.54970000
52.09999708	0.00000000	35.99286000	21.46284000
52.29999707	0.00000000	44.04527000	21.13066000
52.49999706	0.00000000	50.18454000	18.81152000
52.69999705	0.00000000	52.09768000	15.32357000
52.89999704	0.00000000	49.48942000	11.09129000
53.09999702	0.00000000	43.71924000	7.28346400
53.29999701	0.00000000	36.41117000	5.33341500
53.49999700	0.00000000	29.47835000	5.29035400
53.69999699	0.00000000	24.87082000	6.82209600
53.89999698	0.00000000	23.70817000	9.51648500
54.09999696	0.00000000	26.40256000	12.58612000
54.29999695	0.00000000	32.12967000	15.23130000
54.49999694	0.00000000	39.01944000	16.43701000
54.69999693	0.00000000	44.78961000	16.06791000
54.89999692	0.00000000	47.90846000	14.94833000
55.09999691	0.00000000	47.90846000	13.00443000
55.29999689	0.00000000	44.83267000	11.14050000
55.49999688	0.00000000	39.48080000	9.98400600
55.69999687	0.00000000	33.71063000	9.98400600
55.89999686	0.00000000	29.10310000	11.14050000
56.09999685	0.00000000	26.77780000	13.04749000
56.29999683	0.00000000	27.52214000	15.27436000
56.49999682	0.00000000	30.54872000	16.39395000
56.69999681	0.00000000	34.83022000	15.64960000
56.89999680	0.00000000	39.43774000	13.69956000
57.09999679	0.00000000	43.30093000	10.62992000
57.29999677	0.00000000	45.20792000	7.19734200
57.49999676	0.00000000	44.88189000	4.95816900
57.69999675	0.00000000	42.55659000	4.54601300
57.89999674	0.00000000	39.11171000	6.53912400
58.09999673	0.00000000	35.24852000	10.35310000
58.29999672	0.00000000	32.17273000	15.36663000
58.49999670	0.00000000	30.63484000	19.97416000
58.69999669	0.00000000	30.96703000	23.04380000
58.89999668	0.00000000	32.87401000	23.78199000
59.09999667	0.00000000	35.16240000	21.46284000
59.29999666	0.00000000	37.53075000	16.81225000
59.49999664	0.00000000	39.39468000	10.62992000
59.69999663	0.00000000	40.22515000	4.12770700
59.89999662	0.00000000	39.90526000	-0.42445860
60.09999661	0.00000000	39.48696000	-1.63016700
60.29999660	0.00000000	38.69341000	0.68897630
60.49999658	0.00000000	37.20472000	5.75172200
60.69999657	0.00000000	36.46038000	13.04749000
60.89999656	0.00000000	36.36811000	20.71235000
61.09999655	0.00000000	36.41117000	26.10728000
61.29999654	0.00000000	36.78642000	28.42643000
61.49999653	0.00000000	37.53075000	26.84547000
61.69999651	0.00000000	37.90600000	21.50590000
61.89999650	0.00000000	37.90600000	14.16092000
62.09999649	0.00000000	37.48154000	6.44685000
62.29999648	0.00000000	36.36811000	-0.09842519
62.49999647	0.00000000	35.25467000	-3.53715500
62.69999645	0.00000000	34.83022000	-3.16190900
62.89999644	0.00000000	34.83022000	1.06422200
63.09999643	0.00000000	35.25467000	7.98474400
63.29999642	0.00000000	36.36811000	15.69882000
63.49999641	0.00000000	37.53075000	22.66240000
63.69999639	0.00000000	38.32431000	27.26993000
63.89999638	0.00000000	39.11171000	28.42643000
64.09999637	0.00000000	39.43774000	25.78125000
64.29999636	0.00000000	39.06250000	20.39247000
64.49999635	0.00000000	37.90600000	13.83489000
64.69999634	0.00000000	36.41117000	7.24040300
64.89999632	0.00000000	35.25467000	2.26377900
65.09999631	0.00000000	34.83022000	-0.14148620
65.29999630	0.00000000	34.83022000	0.22145670
65.49999629	0.00000000	35.20546000	2.50369100
65.69999628	0.00000000	35.99286000	6.40378900
65.89999626	0.00000000	36.78642000	11.04823000
66.09999625	0.00000000	37.90600000	15.69882000
66.29999624	0.00000000	38.60113000	19.54970000
66.49999623	0.00000000	37.85679000	21.54897000
66.69999622	0.00000000	36.36811000	21.96727000
66.89999620	0.00000000	34.87328000	21.17372000
67.09999619	0.00000000	34.08588000	18.85458000
67.29999618	0.00000000	34.45497000	15.78494000
67.49999617	0.00000000	35.25467000	12.62918000
67.69999616	0.00000000	36.83563000	9.51648500
67.89999615	0.00000000	39.11171000	6.77903500
68.09999613	0.00000000	41.01870000	4.82283400
68.29999612	0.00000000	42.18134000	3.66633800
68.49999611	0.00000000	42.09522000	3.70939900
68.69999610	0.00000000	40.18209000	5.29035400
68.89999609	0.00000000	36.69414000	8.40305000
69.09999607	0.00000000	32.87401000	12.67224000
69.29999606	0.00000000	29.38607000	17.27362000
69.49999605	0.00000000	27.42987000	21.08760000
69.69999604	0.00000000	27.10384000	22.71161000
69.89999603	0.00000000	28.69094000	22.34252000
70.09999601	0.00000000	32.91707000	20.75541000
70.29999600	0.00000000	37.89985000	17.18750000
70.49999599	0.00000000	42.64886000	12.25394000
70.69999598	0.00000000	46.78888000	7.19734200
70.89999597	0.00000000	48.69586000	3.33415300
71.09999596	0.00000000	47.16412000	1.01501000
71.29999594	0.00000000	43.34399000	1.06422200
71.49999593	0.00000000	37.89985000	3.70939900
71.69999592	0.00000000	32.08661000	7.93553100
71.89999591	0.00000000	27.05462000	12.58612000
72.09999590	0.00000000	23.66511000	16.85531000
72.29999588	0.00000000	23.66511000	19.92495000
72.49999587	0.00000000	27.05462000	21.08760000
72.69999586	0.00000000	32.03740000	19.97416000
72.89999585	0.00000000	37.53075000	17.32283000
73.09999584	0.00000000	42.55659000	14.21014000
73.29999582	0.00000000	46.41363000	11.14050000
73.49999581	0.00000000	47.95152000	8.82135800
73.69999580	0.00000000	46.83809000	8.02780400
73.89999579	0.00000000	43.76230000	8.35998900
74.09999578	0.00000000	39.48696000	9.51648500
74.29999577	0.00000000	34.83022000	11.00517000
74.49999575	0.00000000	30.59178000	12.16166000
74.69999574	0.00000000	27.94045000	12.53691000
74.89999573	0.00000000	27.89739000	12.16166000
75.09999572	0.00000000	30.13041000	11.04823000
75.29999571	0.00000000	33.20005000	9.98400600
75.49999569	0.00000000	36.31890000	9.98400600
75.69999568	0.00000000	39.06250000	11.14050000
75.89999567	0.00000000	40.97564000	13.04749000
76.09999566	0.00000000	41.76304000	15.36663000
76.29999565	0.00000000	41.01870000	17.27362000
76.49999563	0.00000000	39.53002000	18.43627000
76.69999562	0.00000000	37.94907000	18.35015000
76.89999561	0.00000000	36.41117000	16.39395000
77.09999560	0.00000000	35.29773000	12.53691000
77.29999559	0.00000000	35.25467000	7.98474400
77.49999558	0.00000000	35.99286000	4.12770700
77.69999556	0.00000000	36.70029000	2.22071800
77.89999555	0.00000000	37.11245000	2.54675200
78.09999554	0.00000000	36.70029000	4.91510800
78.29999553	0.00000000	35.94980000	8.77829600
78.49999552	0.00000000	34.83022000	13.79183000
78.69999550	0.00000000	34.13509000	18.39321000
78.89999549	0.00000000	34.87328000	21.50590000
79.09999548	0.00000000	36.36811000	22.66240000
79.29999547	0.00000000	37.94907000	21.50590000
79.49999546	0.00000000	39.53002000	18.43627000
79.69999544	0.00000000	41.01870000	14.16708000
79.89999543	0.00000000	41.76304000	9.51648500
80.09999542	0.00000000	41.01870000	5.29035400
80.29999541	0.00000000	39.43774000	2.59596400
80.49999540	0.00000000	37.10630000	2.17150600
80.69999539	0.00000000	34.04282000	3.66633800
80.89999537	0.00000000	31.75443000	6.40378900
81.09999536	0.00000000	30.59178000	9.89173200
81.29999535	0.00000000	30.96703000	13.74262000
81.49999534	0.00000000	32.87401000	16.85531000
81.69999533	0.00000000	35.20546000	18.85458000
81.89999531	0.00000000	37.94907000	20.01722000
82.09999530	0.00000000	40.55733000	19.97416000
82.29999529	0.00000000	41.76304000	18.43627000
82.49999528	0.00000000	41.39394000	15.78494000
82.69999527	0.00000000	40.27436000	13.04749000
82.89999525	0.00000000	38.32431000	10.62992000
83.09999524	0.00000000	36.36811000	7.93553100
83.29999523	0.00000000	34.45497000	5.66560000
83.49999522	0.00000000	32.97244000	4.87204700
83.69999521	0.00000000	33.29232000	5.24729300
83.89999520	0.00000000	34.36884000	6.82209600
84.09999518	0.00000000	35.20546000	9.51648500
84.29999517	0.00000000	36.36811000	12.62918000
84.49999516	0.00000000	37.48154000	15.78494000
84.69999515	0.00000000	37.90600000	18.85458000
84.89999514	0.00000000	37.94907000	21.13066000
85.09999512	0.00000000	37.94907000	21.50590000
85.29999511	0.00000000	37.94907000	19.97416000
85.49999510	0.00000000	37.94907000	16.85531000
85.69999509	0.00000000	37.94907000	12.58612000
85.89999508	0.00000000	37.94907000	7.98474400
86.09999506	0.00000000	37.94907000	4.17076700
86.29999505	0.00000000	37.85679000	2.59596400
86.49999504	0.00000000	37.11245000	3.33415300
86.69999503	0.00000000	35.62377000	5.70866100
86.89999502	0.00000000	34.83022000	9.93479300
87.09999501	0.00000000	34.36884000	14.90526000
87.29999499	0.00000000	33.66756000	18.76845000
87.49999498	0.00000000	33.71063000	21.13066000
87.69999497	0.00000000	34.83022000	21.46284000
87.89999496	0.00000000	36.36811000	19.50664000
88.09999495	0.00000000	37.90600000	15.28051000
88.29999493	0.00000000	39.06250000	9.93479300
88.49999492	0.00000000	39.43774000	5.33341500
88.69999491	0.00000000	39.06250000	2.59596400
88.89999490	0.00000000	37.94907000	2.22071800
89.09999489	0.00000000	36.78642000	4.12770700
89.29999487	0.00000000	35.94980000	8.02780400
89.49999486	0.00000000	34.83022000	13.00443000
89.69999485	0.00000000	34.08588000	17.97490000
89.89999484	0.00000000	34.45497000	21.03838000
90.09999483	0.00000000	35.16240000	21.46284000
90.29999482	0.00000000	35.94980000	19.50664000
90.49999480	0.00000000	36.36811000	15.28051000
90.69999479	0.00000000	36.78642000	9.93479300
90.89999478	0.00000000	37.53075000	5.33341500
91.09999477	0.00000000	37.85679000	2.59596400
91.29999476	0.00000000	37.53075000	2.22071800
91.49999474	0.00000000	36.78642000	4.17076700
91.69999473	0.00000000	36.46038000	8.40305000
91.89999472	0.00000000	36.78642000	13.74262000
92.09999471	0.00000000	37.53075000	18.35015000
92.29999470	0.00000000	37.90600000	21.08760000
92.49999468	0.00000000	37.90600000	21.41363000
92.69999467	0.00000000	37.48154000	19.13140000
92.89999466	0.00000000	36.36811000	14.54232000
93.09999465	0.00000000	35.20546000	9.56569900
93.29999464	0.00000000	34.41191000	5.33341500
93.49999463	0.00000000	33.61835000	3.05733300
93.69999461	0.00000000	33.29232000	3.79552100
93.89999460	0.00000000	33.71063000	6.82209600
94.09999459	0.00000000	35.24852000	11.04823000
94.29999458	0.00000000	37.53075000	15.27436000
94.49999457	0.00000000	39.48696000	18.39321000
94.69999455	0.00000000	41.06791000	19.93110000
94.89999454	0.00000000	42.13828000	19.50664000
95.09999453	0.00000000	41.76304000	16.81225000
95.29999452	0.00000000	39.81299000	12.62918000
95.49999451	0.00000000	37.10630000	8.44611200
95.69999449	0.00000000	33.66756000	5.75172200
95.89999448	0.00000000	30.96703000	5.29035400
96.09999447	0.00000000	29.75517000	6.44685000
96.29999446	0.00000000	29.38607000	8.77214500
96.49999445	0.00000000	30.59178000	12.21087000
96.69999444	0.00000000	33.29232000	15.27436000
96.89999442	0.00000000	36.78642000	17.23056000
97.09999441	0.00000000	40.64345000	17.97490000
97.29999440	0.00000000	43.71924000	16.85531000
97.49999439	0.00000000	45.25713000	14.58538000
97.69999438	0.00000000	44.88189000	12.25394000
97.89999436	0.00000000	42.55659000	9.93479300
98.09999435	0.00000000	39.06250000	8.44611200
98.29999434	0.00000000	34.83022000	8.35998900
98.49999433	0.00000000	30.96703000	9.09817800
98.69999432	0.00000000	28.63558000	9.89173200
98.89999430	0.00000000	27.84818000	11.04823000
99.09999429	0.00000000	29.01082000	12.16166000
99.29999428	0.00000000	31.66830000	12.58612000
99.49999427	0.00000000	34.83022000	12.67224000
99.69999426	0.00000000	38.32431000	13.04749000
99.89999425	0.00000000	41.76304000	13.79183000
100.09999423	0.00000000	43.67618000	14.16708000
100.29999422	0.00000000	43.76230000	14.25320000
100.49999421	0.00000000	42.59965000	14.58538000
100.69999420	0.00000000	40.60039000	14.90526000
100.89999419	0.00000000	37.53075000	14.11786000
101.09999417	0.00000000	34.08588000	12.62918000
101.29999416	0.00000000	31.71137000	11.04823000
101.49999415	0.00000000	30.13041000	9.47342500
101.69999414	0.00000000	29.42913000	7.98474400
101.89999413	0.00000000	30.54872000	7.24040300
102.09999411	0.00000000	32.82480000	8.02780400
102.29999410	0.00000000	35.16240000	9.93479300
102.49999409	0.00000000	37.53075000	12.67224000
102.69999408	0.00000000	39.43774000	15.69882000
102.89999407	0.00000000	40.64345000	17.97490000
103.09999406	0.00000000	41.01870000	18.39321000
103.29999404	0.00000000	40.60039000	17.27362000
103.49999403	0.00000000	39.06250000	15.32357000
103.69999402	0.00000000	36.78642000	12.58612000
103.89999401	0.00000000	34.83022000	9.51648500
104.09999400	0.00000000	33.24926000	6.86515700
104.29999398	0.00000000	32.12967000	5.66560000
104.49999397	0.00000000	32.12967000	6.07160400
104.69999396	0.00000000	33.24926000	7.61564900
104.89999395	0.00000000	34.78716000	10.67298000
105.09999394	0.00000000	36.36811000	13.69956000
105.29999392	0.00000000	37.90600000	15.69882000
105.49999391	0.00000000	39.01944000	16.85531000
105.69999390	0.00000000	39.06250000	16.81225000
105.89999389	0.00000000	38.28125000	15.32357000
106.09999388	0.00000000	37.15551000	13.00443000
106.29999387	0.00000000	35.58071000	10.72219000
106.49999385	0.00000000	34.45497000	8.77214500
106.69999384	0.00000000	33.66756000	8.02780400
106.89999383	0.00000000	33.71063000	8.35998900
107.09999382	0.00000000	34.78716000	9.55954600
107.29999381	0.00000000	35.94980000	11.42347000
107.49999379	0.00000000	36.74335000	13.32431000
107.69999378	0.00000000	37.53075000	14.16708000
107.89999377	0.00000000	37.85679000	14.58538000
108.09999376	0.00000000	37.53075000	14.90526000
108.29999375	0.00000000	36.74335000	14.07480000
108.49999374	0.00000000	35.94980000	12.21087000
108.69999372	0.00000000	34.78716000	9.93479300
108.89999371	0.00000000	33.71063000	8.44611200
109.09999370	0.00000000	33.71063000	8.40305000
109.29999369	0.00000000	34.78716000	9.51648500
109.49999368	0.00000000	35.94980000	11.04823000
109.69999366	0.00000000	36.74335000	12.62918000
109.89999365	0.00000000	37.53075000	14.16092000
110.09999364	0.00000000	37.85679000	15.27436000
110.29999363	0.00000000	37.57381000	15.32357000
110.49999362	0.00000000	37.16166000	14.58538000
110.69999360	0.00000000	37.11245000	13.74262000
110.89999359	0.00000000	36.32505000	12.21087000
111.09999358	0.00000000	35.20546000	10.35310000
111.29999357	0.00000000	34.41191000	9.51648500
111.49999356	0.00000000	33.66756000	9.09817800
111.69999355	0.00000000	33.71063000	8.77829600
111.89999353	0.00000000	34.78716000	9.51648500
112.09999352	0.00000000	35.90059000	10.62992000
112.29999351	0.00000000	36.32505000	11.46653000
112.49999350	0.00000000	36.36811000	12.62918000
112.69999349	0.00000000	36.36811000	13.69956000
112.89999347	0.00000000	36.36811000	13.74262000
113.09999346	0.00000000	36.36811000	13.04749000
113.29999345	0.00000000	36.36811000	12.67224000
113.49999344	0.00000000	36.32505000	12.58612000
113.69999343	0.00000000	35.99286000	12.21087000
113.89999341	0.00000000	35.58071000	11.46653000
114.09999340	0.00000000	35.57455000	11.09129000
114.29999339	0.00000000	35.20546000	11.04823000
114.49999338	0.00000000	35.20546000	11.04823000
114.69999337	0.00000000	35.57455000	11.00517000
114.89999336	0.00000000	35.58071000	10.62992000
115.09999334	0.00000000	35.99286000	9.93479300
115.29999333	0.00000000	36.32505000	9.93479300
115.49999332	0.00000000	36.32505000	10.62992000
115.69999331	0.00000000	35.99286000	11.09129000
115.89999330	0.00000000	35.62377000	11.88484000
116.09999328	0.00000000	35.94980000	13.37352000
116.29999327	0.00000000	35.90059000	14.11786000
116.49999326	0.00000000	35.25467000	14.21014000
116.69999325	0.00000000	35.20546000	14.16708000
116.89999324	0.00000000	35.53149000	13.74262000
117.09999322	0.00000000	35.20546000	12.62918000
117.29999321	0.00000000	35.25467000	11.46653000
117.49999320	0.00000000	35.99286000	10.67298000
117.69999319	0.00000000	36.74335000	9.89173200
117.89999318	0.00000000	37.53075000	9.51648500
118.09999317	0.00000000	37.85679000	9.51648500
118.29999315	0.00000000	37.53075000	9.89173200
118.49999314	0.00000000	36.74335000	10.67298000
118.69999313	0.00000000	35.94980000	11.42347000
118.89999312	0.00000000	34.78716000	12.25394000
119.09999311	0.00000000	33.66756000	13.00443000
119.29999309	0.00000000	33.24311000	13.79183000
119.49999308	0.00000000	33.24311000	14.11786000
119.69999307	0.00000000	33.66756000	13.79183000
119.89999306	0.00000000	34.78716000	13.04749000
120.09999305	0.00000000	35.94980000	12.62918000
120.29999303	0.00000000	36.78642000	12.21087000
120.49999302	0.00000000	37.90600000	11.46653000
120.69999301	0.00000000	38.64419000	11.09129000
120.89999300	0.00000000	38.28125000	11.00517000
121.09999299	0.00000000	37.57381000	10.67298000
121.29999298	0.00000000	36.74335000	10.31004000
121.49999296	0.00000000	35.94980000	10.67298000
121.69999295	0.00000000	34.78716000	11.00517000
121.89999294	0.00000000	33.66756000	11.09129000
122.09999293	0.00000000	33.24311000	11.46653000
122.29999292	0.00000000	33.24311000	12.21087000
122.49999290	0.00000000	33.66756000	12.62918000
122.69999289	0.00000000	34.78716000	13.04749000
122.89999288	0.00000000	35.94980000	13.74262000
123.09999287	0.00000000	36.74335000	13.74262000
123.29999286	0.00000000	37.53075000	13.04749000
123.49999284	0.00000000	37.90600000	12.62918000
123.69999283	0.00000000	37.94907000	12.21087000
123.89999282	0.00000000	37.90600000	11.46653000
124.09999281	0.00000000	37.48154000	11.09129000
124.29999280	0.00000000	36.36811000	11.04823000
124.49999279	0.00000000	35.20546000	11.04823000
124.69999277	0.00000000	34.41191000	11.04823000
124.89999276	0.00000000	33.61835000	11.09129000
125.09999275	0.00000000	33.24311000	11.46653000
125.29999274	0.00000000	33.24311000	12.21087000
125.49999273	0.00000000	33.61835000	12.58612000
125.69999271	0.00000000	34.41191000	12.62918000
125.89999270	0.00000000	35.20546000	12.62918000
126.09999269	0.00000000	36.36811000	12.62918000
126.29999268	0.00000000	37.48154000	12.62918000
126.49999267	0.00000000	37.90600000	12.62918000
126.69999265	0.00000000	37.90600000	12.58612000
126.89999264	0.00000000	37.53075000	12.21087000
127.09999263	0.00000000	36.74335000	11.46653000
127.29999262	0.00000000	35.94980000	11.09129000
127.49999261	0.00000000	34.78716000	11.04823000
127.69999260	0.00000000	33.66756000	11.04823000
127.89999258	0.00000000	33.29232000	11.04823000
128.09999257	0.00000000	33.61835000	11.09129000
128.29999256	0.00000000	34.41191000	11.46653000
128.49999255	0.00000000	35.20546000	12.21087000
128.69999254	0.00000000	36.36811000	12.58612000
128.89999252	0.00000000	37.48154000	12.62918000
129.09999251	0.00000000	37.90600000	12.58612000
129.29999250	0.00000000	37.90600000	12.21087000
129.49999249	0.00000000	37.53075000	11.46653000
129.69999248	0.00000000	36.74335000	11.09129000
129.89999246	0.00000000	35.94980000	11.04823000
130.09999245	0.00000000	34.78716000	11.04823000
130.29999244	0.00000000	33.66756000	11.04823000
130.49999243	0.00000000	33.29232000	11.09129000
130.69999242	0.00000000	33.66756000	11.46653000
130.89999241	0.00000000	34.78716000	12.21087000
131.09999239	0.00000000	35.90059000	12.58612000
131.29999238	0.00000000	36.36811000	12.58612000
131.49999237	0.00000000	36.74335000	12.21087000
131.69999236	0.00000000	37.11245000	11.46653000
131.89999235	0.00000000	36.74335000	11.09129000
132.09999233	0.00000000	36.41117000	11.04823000
132.29999232	0.00000000	36.32505000	11.04823000
132.49999231	0.00000000	35.94980000	11.04823000
132.69999230	0.00000000	35.20546000	11.09129000
132.89999229	0.00000000	34.83022000	11.46653000
133.09999227	0.00000000	34.78716000	12.21087000
133.29999226	0.00000000	34.78716000	12.58612000
133.49999225	0.00000000	34.78716000	12.62918000
133.69999224	0.00000000	34.78716000	12.62918000
133.89999223	0.00000000	34.78716000	12.62918000
134.09999222	0.00000000	34.78716000	12.58612000
134.29999220	0.00000000	34.78716000	12.21087000
134.49999219	0.00000000	34.83022000	11.46653000
134.69999218	0.00000000	35.20546000	11.04823000
134.89999217	0.00000000	35.94980000	10.62992000
135.09999216	0.00000000	36.32505000	9.93479300
135.29999214	0.00000000	36.32505000	9.93479300
135.49999213	0.00000000	35.99286000	10.67298000
135.69999212	0.00000000	35.58071000	11.42347000
135.89999211	0.00000000	35.57455000	12.21087000
136.09999210	0.00000000	35.16240000	12.58612000
136.29999208	0.00000000	34.78716000	12.67224000
136.49999207	0.00000000	34.36884000	13.04749000
136.69999206	0.00000000	33.66756000	13.74262000
136.89999205	0.00000000	33.71063000	13.74262000
137.09999204	0.00000000	34.78716000	13.00443000
137.29999203	0.00000000	35.90059000	12.25394000
137.49999201	0.00000000	36.32505000	11.42347000
137.69999200	0.00000000	36.36811000	10.67298000
137.89999199	0.00000000	36.36811000	9.89173200
138.09999198	0.00000000	36.36811000	9.51648500
138.29999197	0.00000000	36.32505000	9.51648500
138.49999195	0.00000000	35.94980000	9.89173200
138.69999194	0.00000000	35.20546000	10.62992000
138.89999193	0.00000000	34.78716000	11.04823000
139.09999192	0.00000000	34.41191000	11.46653000
139.29999191	0.00000000	34.04282000	12.21087000
139.49999189	0.00000000	34.41191000	12.58612000
139.69999188	0.00000000	34.78716000	12.62918000
139.89999187	0.00000000	35.20546000	12.62918000
140.09999186	0.00000000	35.94980000	12.58612000
140.29999185	0.00000000	36.32505000	12.21087000
140.49999184	0.00000000	36.36811000	11.42347000
140.69999182	0.00000000	36.32505000	10.67298000
140.89999181	0.00000000	35.94980000	9.89173200
141.09999180	0.00000000	35.20546000	9.56569900
141.29999179	0.00000000	34.83022000	9.89173200
141.49999178	0.00000000	34.78716000	10.67298000
141.69999176	0.00000000	34.78716000	11.42347000
141.89999175	0.00000000	34.83022000	12.25394000
142.09999174	0.00000000	35.20546000	13.00443000
142.29999173	0.00000000	35.94980000	13.79183000
142.49999172	0.00000000	36.32505000	14.11786000
142.69999170	0.00000000	36.36811000	13.79183000
142.89999169	0.00000000	36.32505000	13.00443000
143.09999168	0.00000000	35.94980000	12.25394000
143.29999167	0.00000000	35.25467000	11.46653000
143.49999166	0.00000000	35.25467000	11.04823000
143.69999165	0.00000000	35.90059000	10.67298000
143.89999163	0.00000000	35.90059000	10.31004000
144.09999162	0.00000000	35.25467000	10.72219000
144.29999161	0.00000000	35.25467000	11.42347000
144.49999160	0.00000000	35.94980000	12.25394000
144.69999159	0.00000000	36.32505000	12.96137000
144.89999157	0.00000000	36.36811000	13.37352000
145.09999156	0.00000000	36.32505000	13.00443000
145.29999155	0.00000000	35.94980000	12.67224000
145.49999154	0.00000000	35.20546000	12.58612000
145.69999153	0.00000000	34.87943000	12.21087000
145.89999151	0.00000000	35.16240000	11.46653000
146.09999150	0.00000000	35.53149000	11.04823000
146.29999149	0.00000000	35.16240000	10.67298000
146.49999148	0.00000000	34.87943000	10.31004000
146.69999147	0.00000000	35.20546000	10.67298000
146.89999146	0.00000000	35.94980000	11.00517000
147.09999144	0.00000000	36.32505000	11.09129000
147.29999143	0.00000000	36.36811000	11.46653000
147.49999142	0.00000000	36.32505000	12.21087000
147.69999141	0.00000000	35.94980000	12.58612000
147.89999140	0.00000000	35.20546000	12.58612000
148.09999138	0.00000000	34.83022000	12.21087000
148.29999137	0.00000000	34.78716000	11.46653000
148.49999136	0.00000000	34.78716000	11.09129000
148.69999135	0.00000000	34.83022000	11.04823000
148.89999134	0.00000000	35.16240000	11.00517000
149.09999132	0.00000000	35.53149000	10.67298000
149.29999131	0.00000000	35.20546000	10.31004000
149.49999130	0.00000000	35.25467000	10.67298000
149.69999129	0.00000000	35.94980000	11.00517000
149.89999128	0.00000000	36.32505000	11.09129000
150.09999127	0.00000000	36.36811000	11.46653000
150.29999125	0.00000000	36.32505000	12.21087000
150.49999124	0.00000000	35.94980000	12.53691000
150.69999123	0.00000000	35.20546000	12.25394000
150.89999122	0.00000000	34.83022000	11.84178000
151.09999121	0.00000000	34.78716000	11.83563000
151.29999119	0.00000000	34.78716000	11.46653000
151.49999118	0.00000000	34.78716000	11.51575000
151.69999117	0.00000000	34.78716000	12.16166000
151.89999116	0.00000000	34.78716000	12.16166000
152.09999115	0.00000000	34.83022000	11.46653000
152.29999113	0.00000000	35.20546000	11.09129000
152.49999112	0.00000000	35.94980000	11.04823000
152.69999111	0.00000000	36.32505000	11.04823000
152.89999110	0.00000000	36.36811000	11.09129000
153.09999109	0.00000000	36.36811000	11.46653000
153.29999108	0.00000000	36.32505000	12.16166000
153.49999106	0.00000000	35.94980000	12.21087000
153.69999105	0.00000000	35.20546000	11.88484000
153.89999104	0.00000000	34.83022000	12.25394000
154.09999103	0.00000000	34.78716000	12.58612000
154.29999102	0.00000000	34.78716000	12.62918000
154.49999100	0.00000000	34.78716000	12.58612000
154.69999099	0.00000000	34.78716000	12.21087000
154.89999098	0.00000000	34.83022000	11.46653000
155.09999097	0.00000000	35.20546000	11.09129000
155.29999096	0.00000000	35.94980000	11.04823000
155.49999094	0.00000000	36.32505000	11.04823000
155.69999093	0.00000000	36.36811000	11.09129000
155.89999092	0.00000000	36.36811000	11.42347000
156.09999091	0.00000000	36.32505000	11.83563000
156.29999090	0.00000000	35.94980000	11.84178000
156.49999089	0.00000000	35.20546000	12.25394000
156.69999087	0.00000000	34.83022000	12.58612000
156.89999086	0.00000000	34.78716000	12.62918000
157.09999085	0.00000000	34.74409000	12.62918000
157.29999084	0.00000000	34.41191000	12.62918000
157.49999083	0.00000000	34.04282000	12.58612000
157.69999081	0.00000000	34.45497000	12.21087000
157.89999080	0.00000000	35.16240000	11.46653000
158.09999079	0.00000000	35.94980000	11.09129000
158.29999078	0.00000000	36.32505000	11.04823000
158.49999077	0.00000000	36.36811000	11.04823000
158.69999075	0.00000000	36.36811000	11.04823000
158.89999074	0.00000000	36.36811000	11.04823000
159.09999073	0.00000000	36.32505000	11.09129000
159.29999072	0.00000000	35.94980000	11.46653000
159.49999071	0.00000000	35.20546000	12.21087000
159.69999070	0.00000000	34.78716000	12.58612000
159.89999068	0.00000000	34.41191000	12.62918000
160.09999067	0.00000000	34.04282000	12.62918000
160.29999066	0.00000000	34.41191000	12.58612000
160.49999065	0.00000000	34.74409000	12.21087000
160.69999064	0.00000000	34.78716000	11.46653000
160.89999062	0.00000000	34.78716000	11.09129000
161.09999061	0.00000000	34.78716000	11.04823000
161.29999060	0.00000000	34.83022000	11.00517000
161.49999059	0.00000000	35.16240000	10.67298000
161.69999058	0.00000000	35.53149000	10.31004000
161.89999056	0.00000000	35.20546000	10.67298000
162.09999055	0.00000000	35.20546000	11.00517000
162.29999054	0.00000000	35.53149000	11.09129000
162.49999053	0.00000000	35.16240000	11.42347000
162.69999052	0.00000000	34.83022000	11.79257000
162.89999051	0.00000000	34.78716000	11.42347000
163.09999049	0.00000000	34.78716000	11.09129000
163.29999048	0.00000000	34.78716000	11.04823000
163.49999047	0.00000000	34.78716000	11.04823000
163.69999046	0.00000000	34.78716000	11.04823000
163.89999045	0.00000000	34.78716000	11.04823000
164.09999043	0.00000000	34.78716000	11.04823000
164.29999042	0.00000000	34.83022000	11.04823000
164.49999041	0.00000000	35.20546000	11.04823000
164.69999040	0.00000000	35.94980000	11.04823000
164.89999039	0.00000000	36.32505000	11.04823000
165.09999037	0.00000000	36.36811000	11.04823000
165.29999036	0.00000000	36.32505000	11.09129000
165.49999035	0.00000000	35.94980000	11.42347000
165.69999034	0.00000000	35.20546000	11.83563000
165.89999033	0.00000000	34.83022000	11.84178000
166.09999032	0.00000000	34.74409000	12.25394000
166.29999030	0.00000000	34.41191000	12.53691000
166.49999029	0.00000000	33.99975000	12.21087000
166.69999028	0.00000000	34.03666000	11.46653000
166.89999027	0.00000000	33.99975000	11.09129000
167.09999026	0.00000000	34.41191000	11.04823000
167.29999024	0.00000000	34.74409000	11.04823000
167.49999023	0.00000000	34.78716000	11.04823000
167.69999022	0.00000000	34.83022000	11.04823000
167.89999021	0.00000000	35.16240000	11.04823000
168.09999020	0.00000000	35.53149000	11.04823000
168.29999018	0.00000000	35.16240000	11.04823000
168.49999017	0.00000000	34.83022000	11.09129000
168.69999016	0.00000000	34.78716000	11.42347000
168.89999015	0.00000000	34.78716000	11.79257000
169.09999014	0.00000000	34.78716000	11.46653000
169.29999013	0.00000000	34.78716000	11.46653000
169.49999011	0.00000000	34.78716000	11.79257000
169.69999010	0.00000000	34.78716000	11.42347000
169.89999009	0.00000000	34.78716000	11.09129000
170.09999008	0.00000000	34.78716000	11.04823000
170.29999007	0.00000000	34.78716000	11.04823000
170.49999005	0.00000000	34.78716000	11.04823000
170.69999004	0.00000000	34.78716000	11.04823000
170.89999003	0.00000000	34.78716000	11.04823000
171.09999002	0.00000000	34.78716000	11.04823000
171.29999001	0.00000000	34.78716000	11.04823000
171.49998999	0.00000000	34.78716000	11.04823000
171.69998998	0.00000000	34.78716000	11.04823000
171.89998997	0.00000000	34.78716000	11.04823000
172.09998996	0.00000000	34.78716000	11.04823000
172.29998995	0.00000000	34.78716000	11.04823000
172.49998994	0.00000000	34.78716000	11.04823000
172.69998992	0.00000000	34.78716000	11.04823000
172.89998991	0.00000000	34.78716000	11.04823000
173.09998990	0.00000000	34.78716000	11.04823000
173.29998989	0.00000000	34.78716000	11.04823000
173.49998988	0.00000000	34.78716000	11.04823000
173.69998986	0.00000000	34.78716000	11.04823000
173.89998985	0.00000000	34.78716000	11.04823000
174.09998984	0.00000000	34.78716000	11.04823000
174.29998983	0.00000000	34.78716000	11.04823000
174.49998982	0.00000000	34.78716000	11.04823000
174.69998980	0.00000000	34.78716000	11.04823000
174.89998979	0.00000000	34.78716000	11.04823000
175.09998978	0.00000000	34.74409000	11.04823000
175.29998977	0.00000000	34.45497000	11.09129000
175.49998976	0.00000000	34.46112000	11.42347000
175.69998975	0.00000000	35.52534000	11.79257000
175.89998973	0.00000000	35.85752000	11.42347000
176.09998972	0.00000000	35.20546000	11.09129000
176.29998971	0.00000000	34.83022000	11.04823000
176.49998970	0.00000000	34.78716000	11.04823000
176.69998969	0.00000000	34.78716000	11.04823000
176.89998967	0.00000000	34.78716000	11.04823000
177.09998966	0.00000000	34.78716000	11.04823000
177.29998965	0.00000000	34.78716000	11.04823000
177.49998964	0.00000000	34.78716000	11.04823000
177.69998963	0.00000000	34.78716000	11.04823000
177.89998961	0.00000000	34.78716000	11.04823000
178.09998960	0.00000000	34.78716000	11.04823000
178.29998959	0.00000000	34.78716000	11.04823000
178.49998958	0.00000000	34.78716000	11.09129000
178.69998957	0.00000000	34.78716000	11.42347000
178.89998956	0.00000000	34.78716000	11.83563000
179.09998954	0.00000000	34.78716000	11.79872000
179.29998953	0.00000000	34.78716000	11.83563000
179.49998952	0.00000000	34.78716000	11.42347000
179.69998951	0.00000000	34.78716000	11.09129000
179.89998950	0.00000000	34.78716000	11.04823000
180.09998948	0.00000000	34.78716000	11.04823000
180.29998947	0.00000000	34.78716000	11.04823000
180.49998946	0.00000000	34.78716000	11.04823000
180.69998945	0.00000000	34.78716000	11.04823000
180.89998944	0.00000000	34.78716000	11.04823000
181.09998942	0.00000000	34.78716000	11.04823000
181.29998941	0.00000000	34.78716000	11.09129000
181.49998940	0.00000000	34.78716000	11.46653000
181.69998939	0.00000000	34.78716000	12.16166000
181.89998938	0.00000000	34.78716000	12.21087000
182.09998937	0.00000000	34.78716000	11.84178000
182.29998935	0.00000000	34.78716000	11.83563000
182.49998934	0.00000000	34.78716000	11.42347000
182.69998933	0.00000000	34.78716000	11.09129000
182.89998932	0.00000000	34.78716000	11.04823000
183.09998931	0.00000000	34.78716000	11.04823000
183.29998929	0.00000000	34.78716000	11.04823000
183.49998928	0.00000000	34.78716000	11.04823000
183.69998927	0.00000000	34.78716000	11.04823000
183.89998926	0.00000000	34.78716000	11.04823000
184.09998925	0.00000000	34.78716000	11.04823000
184.29998923	0.00000000	34.78716000	11.09129000
184.49998922	0.00000000	34.78716000	11.46653000
184.69998921	0.00000000	34.78716000	12.21087000
184.89998920	0.00000000	34.78716000	12.53691000
185.09998919	0.00000000	34.78716000	12.21087000
185.29998918	0.00000000	34.78716000	11.46653000
185.49998916	0.00000000	34.78716000	11.09129000
185.69998915	0.00000000	34.78716000	11.04823000
185.89998914	0.00000000	34.78716000	11.00517000
186.09998913	0.00000000	34.78716000	10.67298000
186.29998912	0.00000000	34.78716000	10.31004000
186.49998910	0.00000000	34.78716000	10.67298000
186.69998909	0.00000000	34.78716000	11.00517000
186.89998908	0.00000000	34.78716000	11.04823000
187.09998907	0.00000000	34.78716000	11.09129000
187.29998906	0.00000000	34.74409000	11.46653000
187.49998904	0.00000000	34.41191000	12.21087000
187.69998903	0.00000000	34.04282000	12.58612000
187.89998902	0.00000000	34.41191000	12.58612000
188.09998901	0.00000000	34.74409000	12.21087000
188.29998900	0.00000000	34.78716000	11.46653000
188.49998899	0.00000000	34.78716000	11.09129000
188.69998897	0.00000000	34.78716000	11.04823000
188.89998896	0.00000000	34.78716000	11.04823000
189.09998895	0.00000000	34.78716000	11.04823000
189.29998894	0.00000000	34.78716000	11.04823000
189.49998893	0.00000000	34.78716000	11.04823000
189.69998891	0.00000000	34.74409000	11.04823000
189.89998890	0.00000000	34.41191000	11.04823000
190.09998889	0.00000000	33.99975000	11.09129000
190.29998888	0.00000000	34.03666000	11.42347000
190.49998887	0.00000000	33.99975000	11.79257000
190.69998885	0.00000000	34.41191000	11.46653000
190.89998884	0.00000000	34.74409000	11.46653000
191.09998883	0.00000000	34.78716000	11.79257000
191.29998882	0.00000000	34.78716000	11.46653000
191.49998881	0.00000000	34.78716000	11.46653000
191.69998880	0.00000000	34.78716000	11.79257000
191.89998878	0.00000000	34.78716000	11.42347000
192.09998877	0.00000000	34.78716000	11.09129000
192.29998876	0.00000000	34.78716000	11.04823000
192.49998875	0.00000000	34.74409000	11.04823000
192.69998874	0.00000000	34.41191000	11.04823000
192.89998872	0.00000000	34.04282000	11.04823000
193.09998871	0.00000000	34.41191000	11.04823000
193.29998870	0.00000000	34.74409000	11.04823000
193.49998869	0.00000000	34.78716000	11.04823000
193.69998868	0.00000000	34.78716000	11.04823000
193.89998866	0.00000000	34.78716000	11.04823000
194.09998865	0.00000000	34.78716000	11.04823000
194.29998864	0.00000000	34.78716000	11.04823000
194.49998863	0.00000000	34.78716000	11.04823000
194.69998862	0.00000000	34.78716000	11.04823000
194.89998861	0.00000000	34.78716000	11.04823000
195.09998859	0.00000000	34.78716000	11.04823000
195.29998858	0.00000000	34.78716000	11.04823000
195.49998857	0.00000000	34.78716000	11.04823000
195.69998856	0.00000000	34.78716000	11.04823000
195.89998855	0.00000000	34.74409000	11.04823000
196.09998853	0.00000000	34.41191000	11.04823000
