Time	Channel A	Channel B	Channel C
(us)	(V)	(mV)	(mV)

-4.59999956	0.00000000	33.24311000	10.67298000
-4.39999957	0.00000000	33.57529000	11.00517000
-4.19999958	0.00000000	33.94439000	11.00517000
-3.99999959	0.00000000	33.57529000	10.67298000
-3.79999960	0.00000000	33.24311000	10.31004000
-3.59999962	0.00000000	33.20005000	10.67298000
-3.39999963	0.00000000	33.20005000	11.00517000
-3.19999964	0.00000000	33.20005000	11.04823000
-2.99999965	0.00000000	33.20005000	11.04823000
-2.79999966	0.00000000	33.20005000	11.04823000
-2.59999968	0.00000000	33.20005000	11.04823000
-2.39999969	0.00000000	33.20005000	11.04823000
-2.19999970	0.00000000	33.20005000	11.04823000
-1.99999971	0.00000000	33.24311000	11.04823000
-1.79999972	0.00000000	33.57529000	11.04823000
-1.59999973	0.00000000	33.98745000	11.04823000
-1.39999975	0.00000000	33.99975000	11.04823000
-1.19999976	0.00000000	34.36884000	11.04823000
-0.99999977	0.00000000	34.36884000	11.04823000
-0.79999978	0.00000000	33.95054000	11.04823000
-0.59999979	0.00000000	33.66142000	11.04823000
-0.39999981	0.15871060	33.21235000	11.04823000
-0.19999982	0.63668800	33.61220000	11.04823000
0.00000017	0.79601380	33.57529000	11.04823000
0.20000016	1.11466500	33.61835000	11.04823000
0.40000015	0.95533960	33.94439000	11.04823000
0.60000013	0.47736220	33.57529000	11.04823000
0.80000012	-0.15871060	33.29232000	11.04823000
1.00000011	-1.11466500	33.61835000	11.04823000
1.20000010	-2.07062000	34.36884000	11.04823000
1.40000009	-2.70792300	34.74409000	11.09129000
1.60000008	-2.70792300	34.78716000	11.42347000
1.80000006	-1.75196900	34.74409000	11.79257000
2.00000005	0.00000000	34.41191000	11.42347000
2.20000004	2.07062000	33.99975000	11.09129000
2.40000003	3.98191400	34.03666000	11.04823000
2.60000002	5.09719500	33.95054000	11.04823000
2.80000000	5.09719500	33.98745000	11.00517000
2.99999999	3.66326300	33.57529000	10.62992000
3.19999998	0.95533960	33.24311000	9.93479300
3.39999997	-2.38927200	33.20005000	9.93479300
3.59999996	-5.57517200	33.20005000	10.62992000
3.79999994	-7.64579200	33.24311000	11.00517000
3.99999993	-7.80511800	33.61835000	11.09129000
4.19999992	-5.89382400	34.36884000	11.42347000
4.39999991	-2.38927200	34.74409000	11.79257000
4.59999990	1.91129400	34.78716000	11.42347000
4.79999989	6.05315000	34.74409000	11.09129000
4.99999987	8.92039900	34.36884000	11.00517000
5.19999986	9.39837600	33.61835000	10.62992000
5.39999985	7.64579200	33.24311000	9.93479300
5.59999984	3.82258900	33.20005000	9.89173200
5.79999983	-0.95533960	33.20005000	10.25467000
5.99999981	-5.41584600	33.24311000	10.26698000
6.19999980	-8.60174700	33.57529000	10.67298000
6.39999979	-9.55770200	33.94439000	11.00517000
6.59999978	-8.12377000	33.61835000	11.04823000
6.79999977	-4.77854300	33.66756000	11.04823000
6.99999975	-0.31803640	34.31963000	11.04823000
7.19999974	3.66326300	34.36884000	11.04823000
7.39999973	6.69045300	33.99975000	11.04823000
7.59999972	7.80511800	33.98745000	11.04823000
7.79999971	6.84916400	33.57529000	11.00517000
7.99999970	4.30056600	33.29232000	10.67298000
8.19999968	1.11466500	33.53223000	10.26698000
8.39999967	-1.91129400	33.56914000	10.30389000
8.59999966	-4.30056600	32.83710000	10.26698000
8.79999965	-5.25652100	32.86786000	10.67298000
8.99999964	-4.77854300	33.15699000	11.00517000
9.19999962	-3.34522600	33.20005000	11.04823000
9.39999961	-1.27399100	33.20005000	11.04823000
9.59999960	0.63668800	33.24311000	11.04823000
9.79999959	1.91129400	33.61835000	11.04823000
9.99999958	2.54859700	34.36884000	11.04823000
10.19999956	2.38927200	34.69488000	11.04823000
10.39999955	1.75196900	34.36884000	11.04823000
10.59999954	0.79601380	33.61835000	11.04823000
10.79999953	0.00000000	33.24311000	11.04823000
10.99999952	-0.63668800	33.20005000	11.04823000
11.19999951	-0.95533960	33.20005000	11.04823000
11.39999949	-0.95533960	33.24311000	11.04823000
11.59999948	-0.79601380	33.57529000	11.04823000
11.79999947	-0.47736220	33.94439000	11.04823000
11.99999946	-0.15871060	33.57529000	11.04823000
12.19999945	-0.15871060	33.24311000	11.04823000
12.39999943	-0.15871060	33.20005000	11.04823000
12.59999942	0.00000000	33.20005000	11.04823000
12.79999941	0.00000000	33.20005000	11.04823000
12.99999940	0.00000000	33.24311000	11.04823000
13.19999939	0.00000000	33.57529000	11.04823000
13.39999937	0.00000000	33.94439000	11.04823000
13.59999936	0.00000000	33.57529000	11.04823000
13.79999935	0.00000000	33.24311000	11.04823000
13.99999934	-0.15871060	33.20005000	11.04823000
14.19999933	-0.15871060	33.20005000	11.00517000
14.39999932	-0.15871060	33.20005000	10.67298000
14.59999930	0.00000000	33.20005000	10.31004000
14.79999929	0.00000000	33.20005000	10.67298000
14.99999928	0.00000000	33.20005000	11.00517000
15.19999927	0.00000000	33.20005000	11.04823000
15.39999926	0.15871060	33.20005000	11.04823000
15.59999924	0.00000000	33.20005000	11.00517000
15.79999923	0.00000000	33.20005000	10.67298000
15.99999922	0.00000000	33.20005000	10.31004000
16.19999921	0.00000000	33.20005000	10.67298000
16.39999920	-0.15871060	33.24311000	11.00517000
16.59999919	0.00000000	33.61835000	11.04823000
16.79999917	-0.15871060	34.36884000	11.04823000
16.99999916	0.00000000	34.74409000	11.04823000
17.19999915	0.00000000	34.78716000	11.04823000
17.39999914	0.00000000	34.78716000	11.04823000
17.59999913	0.00000000	34.78716000	11.04823000
17.79999911	0.00000000	34.74409000	11.04823000
17.99999910	0.00000000	34.31963000	11.04823000
18.19999909	0.00000000	33.11393000	11.04823000
18.39999908	0.00000000	31.24384000	11.04823000
18.59999907	0.00000000	29.29380000	11.04823000
18.79999905	0.00000000	28.17421000	11.04823000
18.99999904	0.00000000	27.80512000	11.04823000
19.19999903	0.00000000	29.01082000	11.04823000
19.39999902	0.00000000	31.71137000	11.04823000
19.59999901	0.00000000	35.20546000	11.04823000
19.79999900	0.00000000	39.11171000	11.04823000
19.99999898	0.00000000	42.55659000	11.04823000
20.19999897	0.00000000	44.83267000	11.04823000
20.39999896	0.00000000	44.74655000	11.04823000
20.59999895	0.00000000	41.62770000	11.04823000
20.79999894	0.00000000	35.81446000	11.04823000
20.99999892	0.00000000	28.45718000	11.04823000
21.19999891	0.00000000	21.10605000	11.04823000
21.39999890	0.00000000	15.33587000	11.00517000
21.59999889	0.00000000	12.68455000	10.67298000
21.79999888	0.00000000	14.35777000	10.26698000
21.99999886	0.00000000	21.00763000	10.25467000
22.19999885	0.00000000	32.22195000	9.89173200
22.39999884	0.00000000	45.30019000	9.93479300
22.59999883	0.00000000	56.88361000	10.62992000
22.79999882	0.00000000	64.14247000	11.00517000
22.99999881	0.00000000	64.84375000	11.04823000
23.19999879	0.00000000	57.81865000	11.09129000
23.39999878	0.00000000	44.27903000	11.46653000
23.59999877	0.00000000	26.87623000	12.21087000
23.79999876	0.00000000	9.52263600	12.58612000
23.99999875	0.00000000	-3.54945900	12.58612000
24.19999873	0.00000000	-8.94438800	12.16166000
24.39999872	0.00000000	-4.99507900	11.00517000
24.59999871	0.00000000	7.84325700	9.47342500
24.79999870	0.00000000	27.94045000	7.93553100
24.99999869	0.00000000	50.69513000	6.72982200
25.19999867	0.00000000	70.33710000	5.98548200
25.39999866	0.00000000	82.28961000	5.61638700
25.59999865	0.00000000	82.99089000	6.48991100
25.79999864	0.00000000	72.19488000	8.77214500
25.99999863	0.00000000	52.09768000	12.29700000
26.19999862	0.00000000	27.38681000	16.11712000
26.39999860	0.00000000	3.84473400	19.64198000
26.59999859	0.00000000	-13.13361000	21.88115000
26.79999858	0.00000000	-19.32210000	22.20103000
26.99999857	0.00000000	-13.60113000	19.42052000
27.19999856	0.00000000	2.26377900	13.65650000
27.39999854	0.00000000	24.69242000	6.31766700
27.59999853	0.00000000	49.02190000	-1.02116100
27.79999852	0.00000000	69.45128000	-6.78518600
27.99999851	0.00000000	81.08390000	-9.43036400
28.19999850	0.00000000	81.54527000	-7.85556000
28.39999848	0.00000000	71.54281000	-2.00541300
28.59999847	0.00000000	53.76476000	7.33267600
28.79999846	0.00000000	32.12967000	18.89764000
28.99999845	0.00000000	11.65723000	30.05044000
29.19999844	0.00000000	-3.08809000	37.72145000
29.39999843	0.00000000	-9.31963500	40.04060000
29.59999841	0.00000000	-6.29306100	36.09744000
29.79999840	0.00000000	4.87204700	26.42716000
29.99999839	0.00000000	21.10605000	12.49385000
30.19999838	0.00000000	38.88410000	-2.55905500
30.39999837	0.00000000	54.37377000	-15.66191000
30.59999835	0.00000000	64.09940000	-23.73892000
30.79999834	0.00000000	66.93528000	-24.48942000
30.99999833	0.00000000	63.02903000	-17.88878000
31.19999832	0.00000000	53.38951000	-4.69980300
31.39999831	0.00000000	39.85605000	12.58612000
31.59999829	0.00000000	25.98425000	29.58907000
31.79999828	0.00000000	14.68381000	42.36589000
31.99999827	0.00000000	8.07701800	48.96038000
32.19999826	0.00000000	6.87130900	47.71161000
32.39999825	0.00000000	11.10359000	38.46580000
32.59999824	0.00000000	19.61737000	23.04380000
32.79999822	0.00000000	30.41338000	5.29035400
32.99999821	0.00000000	41.20940000	-10.96826000
33.19999820	0.00000000	48.93578000	-22.63164000
33.39999819	0.00000000	52.14074000	-27.60827000
33.59999818	0.00000000	51.02116000	-24.90157000
33.79999816	0.00000000	46.37057000	-14.49926000
33.99999815	0.00000000	39.01944000	0.51058070
34.19999814	0.00000000	30.59178000	16.81225000
34.39999813	0.00000000	23.61589000	31.49606000
34.59999812	0.00000000	19.75271000	41.52928000
34.79999810	0.00000000	19.29134000	44.59892000
34.99999809	0.00000000	22.40403000	39.99754000
35.19999808	0.00000000	27.71899000	28.84473000
35.39999807	0.00000000	33.94439000	14.21014000
35.59999806	0.00000000	39.30241000	-0.46751960
35.79999805	0.00000000	42.79035000	-11.99557000
35.99999803	0.00000000	43.16560000	-17.47047000
36.19999802	0.00000000	40.51427000	-15.98794000
36.39999801	0.00000000	35.90059000	-9.06126900
36.59999800	0.00000000	30.54872000	2.17765700
36.79999799	0.00000000	26.31643000	15.14518000
36.99999797	0.00000000	24.36024000	25.91658000
37.19999796	0.00000000	24.73548000	31.36073000
37.39999795	0.00000000	27.42987000	31.02854000
37.59999794	0.00000000	31.66830000	25.27067000
37.79999793	0.00000000	36.31890000	15.69882000
37.99999791	0.00000000	40.55733000	5.37647600
38.19999790	0.00000000	43.20866000	-2.65748000
38.39999789	0.00000000	43.25172000	-5.77017700
38.59999788	0.00000000	40.93258000	-3.49409400
38.79999787	0.00000000	37.06324000	3.01427100
38.99999786	0.00000000	32.03740000	12.21087000
39.19999784	0.00000000	27.42987000	20.99532000
39.39999783	0.00000000	24.31102000	26.75935000
39.59999782	0.00000000	23.10531000	27.87278000
39.79999781	0.00000000	23.89271000	23.64665000
39.99999780	0.00000000	26.22416000	15.28051000
40.19999778	0.00000000	30.08735000	5.66560000
40.39999777	0.00000000	34.36884000	-2.42372000
40.59999776	0.00000000	38.28125000	-7.39419200
40.79999775	0.00000000	41.71998000	-7.34498000
40.99999774	0.00000000	43.25172000	-2.00541300
41.19999772	0.00000000	42.55659000	6.77903500
41.39999771	0.00000000	40.60039000	16.39395000
41.59999770	0.00000000	37.43848000	24.10802000
41.79999769	0.00000000	33.20005000	28.38337000
41.99999768	0.00000000	28.96776000	28.34030000
42.19999767	0.00000000	25.84892000	23.73892000
42.39999765	0.00000000	24.31102000	15.69882000
42.59999764	0.00000000	24.64321000	6.86515700
42.79999763	0.00000000	26.54404000	-0.46751960
42.99999762	0.00000000	28.87549000	-4.69365100
43.19999761	0.00000000	31.61909000	-4.74286400
43.39999759	0.00000000	34.31963000	-0.97810030
43.59999758	0.00000000	36.23277000	4.77977300
43.79999757	0.00000000	37.06324000	10.96211000
43.99999756	0.00000000	36.70029000	16.35089000
44.19999755	0.00000000	35.99286000	19.46358000
44.39999753	0.00000000	35.20546000	19.93110000
44.59999752	0.00000000	34.83022000	18.39321000
44.79999751	0.00000000	34.78716000	15.32357000
44.99999750	0.00000000	34.78716000	11.46653000
45.19999749	0.00000000	34.74409000	7.98474400
45.39999748	0.00000000	34.27657000	5.29035400
45.59999746	0.00000000	32.68946000	4.08464600
45.79999745	0.00000000	29.99508000	4.45374000
45.99999744	0.00000000	26.91929000	5.61638700
46.19999743	0.00000000	24.31102000	7.98474400
46.39999742	0.00000000	23.52977000	10.96211000
46.59999740	0.00000000	25.05536000	13.32431000
46.79999739	0.00000000	27.84818000	14.49311000
46.99999738	0.00000000	32.59719000	14.90526000
47.19999737	0.00000000	39.06250000	14.11786000
47.39999736	0.00000000	44.78961000	12.58612000
47.59999734	0.00000000	47.90846000	10.62992000
47.79999733	0.00000000	47.85925000	8.31077700
47.99999732	0.00000000	44.32209000	6.40378900
48.19999731	0.00000000	37.39542000	5.24729300
48.39999730	0.00000000	28.92470000	5.29035400
48.59999729	0.00000000	21.19833000	6.82209600
48.79999727	0.00000000	15.80339000	9.51648500
48.99999726	0.00000000	14.26550000	12.58612000
49.19999725	0.00000000	17.00910000	15.32357000
49.39999724	0.00000000	23.61589000	17.23056000
49.59999723	0.00000000	33.20005000	17.97490000
49.79999721	0.00000000	42.79035000	16.76919000
49.99999720	0.00000000	49.39714000	13.69956000
50.19999719	0.00000000	52.09768000	9.51648500
50.39999718	0.00000000	50.14148000	5.66560000
50.59999717	0.00000000	43.62696000	3.29109200
50.79999715	0.00000000	34.78716000	2.12844500
50.99999714	0.00000000	25.84892000	2.54675200
51.19999713	0.00000000	18.59006000	4.91510800
51.39999712	0.00000000	15.19439000	8.72908400
51.59999711	0.00000000	17.42741000	13.37352000
51.79999710	0.00000000	23.89271000	17.18750000
51.99999708	0.00000000	31.99434000	19.50664000
52.19999707	0.00000000	40.08981000	19.50664000
52.39999706	0.00000000	45.85999000	17.23056000
52.59999705	0.00000000	47.81619000	13.79183000
52.79999704	0.00000000	45.85999000	9.89173200
52.99999702	0.00000000	40.13287000	6.44685000
53.19999701	0.00000000	32.46186000	4.12770700
53.39999700	0.00000000	25.56594000	3.70939900
53.59999699	0.00000000	20.92150000	4.87204700
53.79999698	0.00000000	20.17101000	7.19734200
53.99999696	0.00000000	23.15453000	10.58686000
54.19999695	0.00000000	28.54946000	13.23819000
54.39999694	0.00000000	34.73794000	14.07480000
54.59999693	0.00000000	40.51427000	13.74262000
54.79999692	0.00000000	44.32209000	12.58612000
54.99999691	0.00000000	44.69734000	11.04823000
55.19999689	0.00000000	41.67076000	9.51648500
55.39999688	0.00000000	36.27584000	8.40305000
55.59999687	0.00000000	30.17347000	8.40305000
55.79999686	0.00000000	25.15379000	9.55954600
55.99999685	0.00000000	22.82234000	11.42347000
56.19999683	0.00000000	23.15453000	13.32431000
56.39999682	0.00000000	25.84892000	14.07480000
56.59999681	0.00000000	30.08735000	13.69956000
56.79999680	0.00000000	34.69488000	12.11860000
56.99999679	0.00000000	38.55807000	9.42421200
57.19999677	0.00000000	40.51427000	6.36072800
57.39999676	0.00000000	40.55733000	3.70939900
57.59999675	0.00000000	38.97638000	2.63902500
57.79999674	0.00000000	35.90059000	4.17076700
57.99999673	0.00000000	32.08661000	7.98474400
58.19999672	0.00000000	29.01082000	12.62918000
58.39999670	0.00000000	27.42987000	17.23056000
58.59999669	0.00000000	27.42987000	20.66314000
58.79999668	0.00000000	28.92470000	21.41363000
58.99999667	0.00000000	31.24384000	19.46358000
59.19999666	0.00000000	33.53223000	14.81299000
59.39999664	0.00000000	35.48228000	8.31077700
59.59999663	0.00000000	36.23277000	2.17765700
59.79999662	0.00000000	35.94980000	-2.04847400
59.99999661	0.00000000	35.16240000	-3.21112200
60.19999660	0.00000000	34.36884000	-0.89197830
60.39999658	0.00000000	33.20005000	4.12770700
60.59999657	0.00000000	32.08661000	11.04823000
60.79999656	0.00000000	31.66215000	17.97490000
60.99999655	0.00000000	31.66215000	22.99459000
61.19999654	0.00000000	32.03740000	25.31373000
61.39999653	0.00000000	32.78174000	24.10802000
61.59999651	0.00000000	33.15699000	19.46358000
61.79999650	0.00000000	33.15699000	12.16781000
61.99999649	0.00000000	32.78174000	4.08464600
62.19999648	0.00000000	31.99434000	-2.46678100
62.39999647	0.00000000	31.24384000	-6.32381900
62.59999645	0.00000000	30.45644000	-6.27460600
62.79999644	0.00000000	30.13041000	-2.09153500
62.99999643	0.00000000	30.50566000	4.82898600
63.19999642	0.00000000	31.66215000	12.54306000
63.39999641	0.00000000	33.15699000	19.50664000
63.59999639	0.00000000	34.41191000	24.10802000
63.79999638	0.00000000	35.48843000	25.31373000
63.99999637	0.00000000	36.22662000	22.99459000
64.19999636	0.00000000	35.11319000	18.01796000
64.39999635	0.00000000	33.61835000	11.46653000
64.59999634	0.00000000	32.40649000	5.24729300
64.79999632	0.00000000	30.87475000	0.22145670
64.99999631	0.00000000	30.17347000	-2.79281500
65.19999630	0.00000000	30.45644000	-2.14074800
65.39999629	0.00000000	31.24384000	0.87352360
65.59999628	0.00000000	31.99434000	4.45989200
65.79999626	0.00000000	32.82480000	9.47342500
65.99999625	0.00000000	33.57529000	14.43775000
66.19999624	0.00000000	34.27657000	17.60581000
66.39999623	0.00000000	33.90133000	19.59892000
66.59999622	0.00000000	32.41265000	19.97416000
66.79999620	0.00000000	31.28691000	18.85458000
66.99999619	0.00000000	30.45644000	16.90453000
67.19999618	0.00000000	30.13041000	14.16092000
67.39999617	0.00000000	30.54872000	11.00517000
67.59999616	0.00000000	32.12967000	7.51722400
67.79999615	0.00000000	34.73794000	4.08464600
67.99999613	0.00000000	37.02018000	2.12844500
68.19999612	0.00000000	37.81373000	1.66707700
68.39999611	0.00000000	37.43848000	2.08538400
68.59999610	0.00000000	35.81446000	3.70939900
68.79999609	0.00000000	32.73868000	6.82209600
68.99999607	0.00000000	28.87549000	11.04823000
69.19999606	0.00000000	25.43061000	15.32357000
69.39999605	0.00000000	23.15453000	18.81152000
69.59999604	0.00000000	23.15453000	21.13066000
69.79999603	0.00000000	25.47367000	21.46284000
69.99999601	0.00000000	29.34301000	19.54970000
70.19999600	0.00000000	34.41191000	15.69882000
70.39999599	0.00000000	39.35162000	11.04823000
70.59999598	0.00000000	42.87647000	6.35457700
70.79999597	0.00000000	44.04527000	2.12844500
70.99999596	0.00000000	43.25172000	-0.51673230
71.19999594	0.00000000	40.08981000	-0.51673230
71.39999593	0.00000000	34.69488000	2.12844500
71.59999592	0.00000000	28.54946000	6.35457700
71.79999591	0.00000000	23.15453000	11.00517000
71.99999590	0.00000000	20.03568000	15.27436000
72.19999588	0.00000000	19.66043000	18.39321000
72.39999587	0.00000000	21.94882000	19.88189000
72.59999586	0.00000000	26.59326000	19.08834000
72.79999585	0.00000000	32.03740000	15.74188000
72.99999584	0.00000000	37.81373000	11.93405000
73.19999582	0.00000000	42.41511000	9.18430000
73.39999581	0.00000000	43.95915000	7.19734200
73.59999580	0.00000000	42.87647000	6.44685000
73.79999579	0.00000000	39.39468000	6.77903500
73.99999578	0.00000000	34.78716000	7.93553100
74.19999577	0.00000000	30.13041000	9.42421200
74.39999575	0.00000000	26.26722000	10.53765000
74.59999574	0.00000000	24.31102000	10.58686000
74.79999573	0.00000000	24.26796000	9.84867000
74.99999572	0.00000000	25.80585000	9.09817800
75.19999571	0.00000000	28.50024000	8.31077700
75.39999569	0.00000000	31.61909000	8.02780400
75.59999568	0.00000000	34.69488000	8.77214500
75.79999567	0.00000000	36.97712000	10.72219000
75.99999566	0.00000000	37.39542000	13.00443000
76.19999565	0.00000000	36.32505000	15.32357000
76.39999563	0.00000000	34.78716000	16.81225000
76.59999562	0.00000000	33.24926000	16.76919000
76.79999561	0.00000000	32.08661000	14.81299000
76.99999560	0.00000000	31.66215000	10.95595000
77.19999559	0.00000000	31.61909000	6.40378900
77.39999558	0.00000000	31.61909000	2.54675200
77.59999556	0.00000000	31.61909000	0.59670270
77.79999555	0.00000000	31.57603000	0.55364170
77.99999554	0.00000000	31.20078000	2.17765700
78.19999553	0.00000000	30.41338000	5.66560000
78.39999552	0.00000000	29.66289000	10.62992000
78.59999550	0.00000000	28.96776000	15.27436000
78.79999549	0.00000000	29.34301000	18.76845000
78.99999548	0.00000000	30.86860000	20.66929000
79.19999547	0.00000000	32.41265000	19.88189000
79.39999546	0.00000000	34.36884000	16.85531000
79.59999544	0.00000000	35.85752000	12.58612000
79.79999543	0.00000000	36.27584000	7.93553100
79.99999542	0.00000000	35.90059000	3.66633800
80.19999541	0.00000000	34.69488000	0.64591530
80.39999540	0.00000000	32.73868000	-0.14148620
80.59999539	0.00000000	30.08120000	1.71013800
80.79999537	0.00000000	27.80512000	4.73671200
80.99999536	0.00000000	27.01156000	7.89247000
81.19999535	0.00000000	27.34375000	11.04823000
81.39999534	0.00000000	28.59252000	14.16092000
81.59999533	0.00000000	30.88090000	16.81225000
81.79999531	0.00000000	33.94439000	18.01796000
81.99999530	0.00000000	36.23277000	17.64887000
82.19999529	0.00000000	37.43848000	16.48622000
82.39999528	0.00000000	37.43848000	14.11786000
82.59999527	0.00000000	36.27584000	11.09744000
82.79999525	0.00000000	34.36884000	8.31077700
82.99999524	0.00000000	32.03740000	5.98548200
83.19999523	0.00000000	30.13041000	4.03543200
83.39999522	0.00000000	28.92470000	3.24803100
83.59999521	0.00000000	28.59252000	3.24803100
83.79999520	0.00000000	29.34301000	4.08464600
83.99999518	0.00000000	31.20078000	6.44685000
84.19999517	0.00000000	32.68946000	9.89173200
84.39999516	0.00000000	33.15699000	13.74262000
84.59999515	0.00000000	33.20005000	16.85531000
84.79999514	0.00000000	33.20005000	18.81152000
84.99999512	0.00000000	33.20005000	19.50664000
85.19999511	0.00000000	33.20005000	17.93184000
85.39999510	0.00000000	33.20005000	14.16708000
85.59999509	0.00000000	33.20005000	9.89173200
85.79999508	0.00000000	33.20005000	5.98548200
85.99999506	0.00000000	33.20005000	2.50369100
86.19999505	0.00000000	33.15699000	0.63976370
86.39999504	0.00000000	32.73252000	1.01501000
86.59999503	0.00000000	31.61909000	3.70939900
86.79999502	0.00000000	30.45644000	7.93553100
86.99999501	0.00000000	29.70595000	12.58612000
87.19999499	0.00000000	29.29380000	16.81225000
87.39999498	0.00000000	29.70595000	19.46358000
87.59999497	0.00000000	30.45644000	19.50664000
87.79999496	0.00000000	31.66215000	17.18750000
87.99999495	0.00000000	33.15699000	13.32431000
88.19999493	0.00000000	34.31963000	8.31077700
88.39999492	0.00000000	34.74409000	3.75246000
88.59999491	0.00000000	34.74409000	1.01501000
88.79999490	0.00000000	34.31963000	0.63976370
88.99999489	0.00000000	33.15699000	2.54675200
89.19999487	0.00000000	31.61909000	6.40378900
89.39999486	0.00000000	30.13041000	11.04823000
89.59999485	0.00000000	29.34301000	15.64960000
89.79999484	0.00000000	29.70595000	19.04527000
89.99999483	0.00000000	30.41338000	19.46358000
90.19999482	0.00000000	31.24384000	17.18750000
90.39999480	0.00000000	31.99434000	13.32431000
90.59999479	0.00000000	32.78174000	8.31077700
90.79999478	0.00000000	33.15699000	3.75246000
90.99999477	0.00000000	33.15699000	1.01501000
91.19999476	0.00000000	32.82480000	0.63976370
91.39999474	0.00000000	32.45571000	2.59596400
91.59999473	0.00000000	32.78174000	6.82209600
91.79999472	0.00000000	32.78174000	12.16166000
91.99999471	0.00000000	32.45571000	16.76919000
92.19999470	0.00000000	32.82480000	19.46358000
92.39999468	0.00000000	33.10777000	19.46358000
92.59999467	0.00000000	32.73252000	16.81225000
92.79999466	0.00000000	31.61909000	12.58612000
92.99999465	0.00000000	30.45644000	7.93553100
93.19999464	0.00000000	29.66289000	3.70939900
93.39999463	0.00000000	28.87549000	1.06422200
93.59999461	0.00000000	28.54946000	1.06422200
93.79999460	0.00000000	28.96776000	3.70939900
93.99999459	0.00000000	30.54872000	7.93553100
94.19999458	0.00000000	33.20005000	12.53691000
94.39999457	0.00000000	35.81446000	16.30167000
94.59999455	0.00000000	37.06324000	17.55044000
94.79999454	0.00000000	37.11860000	16.40010000
94.99999453	0.00000000	37.02018000	14.11171000
95.19999452	0.00000000	35.39001000	10.26698000
95.39999451	0.00000000	32.03740000	6.86515700
95.59999449	0.00000000	28.92470000	4.82283400
95.79999448	0.00000000	26.54404000	3.70939900
95.99999447	0.00000000	24.64321000	4.17076700
96.19999446	0.00000000	24.31102000	6.82209600
96.39999445	0.00000000	25.84892000	10.58686000
96.59999444	0.00000000	28.92470000	13.65650000
96.79999442	0.00000000	32.82480000	15.27436000
96.99999441	0.00000000	36.65108000	15.64960000
97.19999440	0.00000000	39.76377000	14.85605000
97.39999439	0.00000000	40.93258000	12.58612000
97.59999438	0.00000000	40.55733000	9.93479300
97.79999436	0.00000000	38.55807000	7.98474400
97.99999435	0.00000000	34.73794000	6.77903500
98.19999434	0.00000000	30.50566000	6.40378900
98.39999433	0.00000000	27.01156000	6.77903500
98.59999432	0.00000000	24.64321000	7.93553100
98.79999430	0.00000000	23.89271000	9.42421200
98.99999429	0.00000000	24.64321000	10.58686000
99.19999428	0.00000000	27.01156000	11.00517000
99.39999427	0.00000000	30.45644000	11.04823000
99.59999426	0.00000000	34.31963000	11.09129000
99.79999425	0.00000000	37.39542000	11.46653000
99.99999423	0.00000000	39.01944000	12.21087000
100.19999422	0.00000000	39.39468000	12.58612000
100.39999421	0.00000000	38.60113000	12.62918000
100.59999420	0.00000000	36.27584000	12.58612000
100.79999419	0.00000000	33.20005000	12.16166000
100.99999417	0.00000000	30.08120000	10.96211000
101.19999416	0.00000000	27.38681000	9.09817800
101.39999415	0.00000000	25.80585000	7.19734200
101.59999414	0.00000000	25.43061000	6.40378900
101.79999413	0.00000000	26.18110000	6.35457700
101.99999411	0.00000000	28.12500000	6.82209600
102.19999410	0.00000000	30.41338000	8.40305000
102.39999409	0.00000000	32.78174000	11.04823000
102.59999408	0.00000000	34.73794000	13.74262000
102.79999407	0.00000000	36.27584000	15.64960000
102.99999406	0.00000000	37.02018000	16.43701000
103.19999404	0.00000000	36.27584000	15.64960000
103.39999403	0.00000000	34.73794000	13.69956000
103.59999402	0.00000000	32.78174000	10.62992000
103.79999401	0.00000000	30.45644000	7.19734200
103.99999400	0.00000000	28.54946000	4.87204700
104.19999398	0.00000000	27.38681000	3.66633800
104.39999397	0.00000000	27.34375000	3.66633800
104.59999396	0.00000000	28.12500000	4.87204700
104.79999395	0.00000000	29.29380000	7.19734200
104.99999394	0.00000000	31.24384000	10.62992000
105.19999392	0.00000000	33.11393000	13.65650000
105.39999391	0.00000000	34.31963000	15.23130000
105.59999390	0.00000000	34.69488000	15.23130000
105.79999389	0.00000000	34.31963000	13.69956000
105.99999388	0.00000000	33.15699000	11.04823000
106.19999387	0.00000000	31.66215000	8.35383800
106.39999385	0.00000000	30.50566000	6.40378900
106.59999384	0.00000000	30.08120000	5.24729300
106.79999383	0.00000000	30.08120000	5.29035400
106.99999382	0.00000000	30.50566000	6.77903500
107.19999381	0.00000000	31.61909000	9.05511800
107.39999379	0.00000000	32.78174000	10.96211000
107.59999378	0.00000000	33.53223000	12.16166000
107.79999377	0.00000000	33.94439000	12.53691000
107.99999376	0.00000000	33.53223000	12.16166000
108.19999375	0.00000000	32.78174000	11.00517000
108.39999374	0.00000000	31.61909000	9.47342500
108.59999372	0.00000000	30.45644000	7.93553100
108.79999371	0.00000000	29.70595000	6.82209600
108.99999370	0.00000000	29.29380000	6.77903500
109.19999369	0.00000000	29.70595000	7.51722400
109.39999368	0.00000000	30.45644000	8.35998900
109.59999366	0.00000000	31.66215000	9.89173200
109.79999365	0.00000000	33.15699000	11.74951000
109.99999364	0.00000000	34.27657000	12.53691000
110.19999363	0.00000000	34.31963000	12.62918000
110.39999362	0.00000000	33.57529000	12.53691000
110.59999360	0.00000000	32.78174000	11.74951000
110.79999359	0.00000000	31.61909000	9.84867000
110.99999358	0.00000000	30.45644000	7.98474400
111.19999357	0.00000000	29.70595000	6.77903500
111.39999356	0.00000000	29.29380000	6.40378900
111.59999355	0.00000000	29.70595000	6.77903500
111.79999353	0.00000000	30.41338000	7.89247000
111.99999352	0.00000000	31.20078000	9.05511800
112.19999351	0.00000000	31.61909000	9.84867000
112.39999350	0.00000000	32.03740000	10.62992000
112.59999349	0.00000000	32.78174000	11.00517000
112.79999347	0.00000000	33.10777000	11.04823000
112.99999346	0.00000000	32.82480000	11.04823000
113.19999345	0.00000000	32.41265000	11.00517000
113.39999344	0.00000000	32.40649000	10.62992000
113.59999343	0.00000000	31.99434000	9.89173200
113.79999341	0.00000000	31.66215000	9.51648500
113.99999340	0.00000000	31.61909000	9.47342500
114.19999339	0.00000000	31.57603000	9.43036400
114.39999338	0.00000000	31.24384000	9.05511800
114.59999337	0.00000000	30.87475000	8.31077700
114.79999336	0.00000000	31.24384000	7.93553100
114.99999334	0.00000000	31.57603000	7.89247000
115.19999333	0.00000000	31.61909000	7.93553100
115.39999332	0.00000000	31.61909000	8.31077700
115.59999331	0.00000000	31.66215000	9.09817800
115.79999330	0.00000000	31.99434000	9.84867000
115.99999328	0.00000000	32.36343000	10.67298000
116.19999327	0.00000000	31.99434000	11.42347000
116.39999326	0.00000000	31.61909000	12.16166000
116.59999325	0.00000000	31.24384000	12.16166000
116.79999324	0.00000000	30.87475000	11.42347000
116.99999322	0.00000000	31.24384000	10.67298000
117.19999321	0.00000000	31.57603000	9.84867000
117.39999320	0.00000000	31.66215000	9.09817800
117.59999319	0.00000000	32.03740000	8.31077700
117.79999318	0.00000000	32.78174000	7.93553100
117.99999317	0.00000000	33.15699000	7.93553100
118.19999315	0.00000000	33.15699000	8.31077700
118.39999314	0.00000000	32.78174000	9.05511800
118.59999313	0.00000000	31.99434000	9.47342500
118.79999312	0.00000000	31.20078000	9.93479300
118.99999311	0.00000000	30.08120000	11.04823000
119.19999309	0.00000000	29.29380000	12.11860000
119.39999308	0.00000000	29.28765000	12.16166000
119.59999307	0.00000000	29.29380000	11.46653000
119.79999306	0.00000000	30.13041000	11.04823000
119.99999305	0.00000000	31.61909000	10.62992000
120.19999303	0.00000000	33.15699000	9.84867000
120.39999302	0.00000000	34.31963000	9.09817800
120.59999301	0.00000000	34.69488000	8.31077700
120.79999300	0.00000000	34.36884000	7.93553100
120.99999299	0.00000000	33.57529000	7.93553100
121.19999298	0.00000000	32.78174000	8.31077700
121.39999296	0.00000000	31.57603000	9.05511800
121.59999295	0.00000000	30.08120000	9.43036400
121.79999294	0.00000000	28.92470000	9.51648500
121.99999293	0.00000000	28.50024000	9.89173200
122.19999292	0.00000000	28.50024000	10.62992000
122.39999290	0.00000000	28.92470000	11.00517000
122.59999289	0.00000000	30.03814000	11.04823000
122.79999288	0.00000000	31.20078000	11.04823000
122.99999287	0.00000000	31.99434000	11.04823000
123.19999286	0.00000000	32.78174000	11.00517000
123.39999284	0.00000000	33.15699000	10.62992000
123.59999283	0.00000000	33.20005000	9.89173200
123.79999282	0.00000000	33.15699000	9.51648500
123.99999281	0.00000000	32.73252000	9.43036400
124.19999280	0.00000000	31.61909000	9.05511800
124.39999279	0.00000000	30.50566000	8.35998900
124.59999277	0.00000000	30.08120000	8.31077700
124.79999276	0.00000000	29.99508000	8.67987200
124.99999275	0.00000000	29.61983000	8.72908400
125.19999274	0.00000000	28.92470000	9.51648500
125.39999273	0.00000000	28.96776000	10.58686000
125.59999271	0.00000000	30.03814000	11.00517000
125.79999270	0.00000000	31.15157000	11.04823000
125.99999269	0.00000000	31.61909000	11.00517000
126.19999268	0.00000000	32.08661000	10.67298000
126.39999267	0.00000000	33.15699000	10.26698000
126.59999265	0.00000000	33.85211000	10.21161000
126.79999264	0.00000000	33.15699000	9.47342500
126.99999263	0.00000000	32.03740000	8.72908400
127.19999262	0.00000000	31.24384000	8.67987200
127.39999261	0.00000000	30.41338000	8.31077700
127.59999260	0.00000000	29.61983000	8.31077700
127.79999258	0.00000000	28.54946000	8.67987200
127.99999257	0.00000000	28.18036000	8.68602300
128.19999256	0.00000000	29.28765000	9.14124000
128.39999255	0.00000000	30.41338000	9.84867000
128.59999254	0.00000000	31.61909000	10.62992000
128.79999252	0.00000000	32.73252000	10.95595000
128.99999251	0.00000000	33.15699000	10.62992000
129.19999250	0.00000000	33.15699000	9.89173200
129.39999249	0.00000000	32.78174000	9.51648500
129.59999248	0.00000000	31.99434000	9.47342500
129.79999246	0.00000000	31.24384000	9.47342500
129.99999245	0.00000000	30.45644000	9.47342500
130.19999244	0.00000000	30.08120000	9.51648500
130.39999243	0.00000000	30.03814000	9.89173200
130.59999242	0.00000000	30.08120000	10.62992000
130.79999241	0.00000000	30.45644000	11.00517000
130.99999239	0.00000000	31.24384000	11.04823000
131.19999238	0.00000000	31.99434000	11.00517000
131.39999237	0.00000000	32.78174000	10.62992000
131.59999236	0.00000000	33.10777000	9.84867000
131.79999235	0.00000000	32.78174000	9.09817800
131.99999233	0.00000000	31.99434000	8.31077700
132.19999232	0.00000000	31.24384000	7.93553100
132.39999231	0.00000000	30.45644000	7.93553100
132.59999230	0.00000000	30.08120000	8.31077700
132.79999229	0.00000000	30.08120000	9.05511800
132.99999227	0.00000000	30.41338000	9.47342500
133.19999226	0.00000000	30.82554000	9.89173200
133.39999225	0.00000000	30.83169000	10.62992000
133.59999224	0.00000000	31.24384000	11.00517000
133.79999223	0.00000000	31.57603000	11.00517000
133.99999222	0.00000000	31.61909000	10.62992000
134.19999220	0.00000000	31.61909000	9.84867000
134.39999219	0.00000000	31.61909000	9.09817800
134.59999218	0.00000000	31.61909000	8.31077700
134.79999217	0.00000000	31.61909000	7.93553100
134.99999216	0.00000000	31.61909000	7.89247000
135.19999214	0.00000000	31.61909000	7.93553100
135.39999213	0.00000000	31.61909000	8.31077700
135.59999212	0.00000000	31.61909000	9.09817800
135.79999211	0.00000000	31.57603000	9.84867000
135.99999210	0.00000000	31.20078000	10.62992000
136.19999208	0.00000000	30.45644000	11.00517000
136.39999207	0.00000000	30.08120000	11.04823000
136.59999206	0.00000000	29.99508000	11.00517000
136.79999205	0.00000000	29.70595000	10.62992000
136.99999204	0.00000000	29.71826000	9.89173200
137.19999203	0.00000000	30.82554000	9.47342500
137.39999201	0.00000000	31.57603000	9.05511800
137.59999200	0.00000000	32.03740000	8.31077700
137.79999199	0.00000000	32.73252000	7.93553100
137.99999198	0.00000000	32.73252000	7.89247000
138.19999197	0.00000000	31.99434000	7.93553100
138.39999195	0.00000000	31.24384000	8.31077700
138.59999194	0.00000000	30.45644000	9.09817800
138.79999193	0.00000000	30.08120000	9.79945900
138.99999192	0.00000000	30.03814000	10.25467000
139.19999191	0.00000000	30.03814000	10.26698000
139.39999189	0.00000000	30.03814000	10.62992000
139.59999188	-0.15871060	30.08120000	10.62992000
139.79999187	0.00000000	30.45644000	10.31004000
139.99999186	0.00000000	31.20078000	10.62992000
140.19999185	0.00000000	31.61909000	10.53765000
140.39999184	0.00000000	31.99434000	9.47342500
140.59999182	0.00000000	32.36343000	8.35998900
140.79999181	0.00000000	31.95128000	7.93553100
140.99999180	0.00000000	31.24384000	7.89247000
141.19999179	0.00000000	30.45644000	7.93553100
141.39999178	0.00000000	30.08120000	8.31077700
141.59999176	0.00000000	30.08120000	9.05511800
141.79999175	0.00000000	30.45644000	9.47342500
141.99999174	0.00000000	31.20078000	9.93479300
142.19999173	0.00000000	31.57603000	11.00517000
142.39999172	0.00000000	31.61909000	11.74336000
142.59999170	0.00000000	31.61909000	11.38041000
142.79999169	0.00000000	31.57603000	10.67298000
142.99999168	0.00000000	31.20078000	9.84867000
143.19999167	0.00000000	30.45644000	9.09817800
143.39999166	0.00000000	30.08120000	8.31077700
143.59999165	0.00000000	30.03814000	7.93553100
143.79999163	0.00000000	30.03814000	7.93553100
143.99999162	0.00000000	30.08120000	8.31077700
144.19999161	0.00000000	30.45644000	9.05511800
144.39999160	0.00000000	31.15157000	9.47342500
144.59999159	0.00000000	31.20078000	9.89173200
144.79999157	0.00000000	30.87475000	10.62992000
144.99999156	0.00000000	31.24384000	11.00517000
145.19999155	0.00000000	31.52682000	11.00517000
145.39999154	0.00000000	31.20078000	10.62992000
145.59999153	0.00000000	30.45644000	9.89173200
145.79999151	0.00000000	30.08120000	9.47342500
145.99999150	0.00000000	30.03814000	9.05511800
146.19999149	0.00000000	30.03814000	8.31077700
146.39999148	0.00000000	30.08120000	7.98474400
146.59999147	0.00000000	30.45644000	8.31077700
146.79999146	0.00000000	31.20078000	9.05511800
146.99999144	0.00000000	31.57603000	9.43036400
147.19999143	0.00000000	31.61909000	9.51648500
147.39999142	0.00000000	31.57603000	9.89173200
147.59999141	0.00000000	31.20078000	10.62992000
147.79999140	0.00000000	30.45644000	10.95595000
147.99999138	0.00000000	30.08120000	10.62992000
148.19999137	0.00000000	30.03814000	9.89173200
148.39999136	0.00000000	30.03814000	9.51648500
148.59999135	0.00000000	30.03814000	9.47342500
148.79999134	0.00000000	30.08120000	9.43036400
148.99999132	0.00000000	30.45644000	9.05511800
149.19999131	0.00000000	31.20078000	8.35998900
149.39999130	0.00000000	31.57603000	8.35998900
149.59999129	0.00000000	31.61909000	9.05511800
149.79999128	0.00000000	31.61909000	9.43036400
149.99999127	0.00000000	31.61909000	9.51648500
150.19999125	0.00000000	31.57603000	9.84867000
150.39999124	0.00000000	31.20078000	10.21161000
150.59999123	0.00000000	30.45644000	9.84867000
150.79999122	0.00000000	30.08120000	9.51648500
150.99999121	0.00000000	30.03814000	9.47342500
151.19999119	0.00000000	30.03814000	9.47342500
151.39999118	0.00000000	30.03814000	9.47342500
151.59999117	0.00000000	30.03814000	9.47342500
151.79999116	0.00000000	30.03814000	9.47342500
151.99999115	0.00000000	30.08120000	9.47342500
152.19999113	0.00000000	30.45644000	9.47342500
152.39999112	0.00000000	31.20078000	9.47342500
152.59999111	0.00000000	31.57603000	9.47342500
152.79999110	0.00000000	31.61909000	9.47342500
152.99999109	0.00000000	31.57603000	9.47342500
153.19999108	0.00000000	31.20078000	9.47342500
153.39999106	0.00000000	30.45644000	9.51648500
153.59999105	0.00000000	30.08120000	9.84867000
153.79999104	0.00000000	30.03814000	10.21161000
153.99999103	0.00000000	30.03814000	9.84867000
154.19999102	0.00000000	30.03814000	9.51648500
154.39999100	0.00000000	30.03814000	9.47342500
154.59999099	0.00000000	30.03814000	9.47342500
154.79999098	0.00000000	30.03814000	9.47342500
154.99999097	0.00000000	30.08120000	9.43036400
155.19999096	0.00000000	30.45644000	9.05511800
155.39999094	0.00000000	31.20078000	8.35998900
155.59999093	0.00000000	31.57603000	8.35998900
155.79999092	0.00000000	31.61909000	9.05511800
155.99999091	0.00000000	31.61909000	9.43036400
156.19999090	0.00000000	31.57603000	9.47342500
156.39999089	0.00000000	31.20078000	9.47342500
156.59999087	0.00000000	30.45644000	9.47342500
156.79999086	0.00000000	30.08120000	9.51648500
156.99999085	0.00000000	30.03814000	9.84867000
157.19999084	0.00000000	30.03814000	10.21161000
157.39999083	0.00000000	30.03814000	9.84867000
157.59999081	0.00000000	30.08120000	9.51648500
157.79999080	0.00000000	30.45644000	9.47342500
157.99999079	0.00000000	31.20078000	9.43036400
158.19999078	0.00000000	31.57603000	9.05511800
158.39999077	0.00000000	31.61909000	8.31077700
158.59999075	0.00000000	31.61909000	7.98474400
158.79999074	0.00000000	31.61909000	8.31077700
158.99999073	0.00000000	31.57603000	9.05511800
159.19999072	0.00000000	31.20078000	9.43036400
159.39999071	0.00000000	30.45644000	9.47342500
159.59999070	0.00000000	30.08120000	9.47342500
159.79999068	0.00000000	30.03814000	9.51648500
159.99999067	0.00000000	30.03814000	9.84867000
160.19999066	0.00000000	30.03814000	10.21161000
160.39999065	0.00000000	30.03814000	9.79945900
160.59999064	0.00000000	30.03814000	9.09817800
160.79999062	0.00000000	30.03814000	8.31077700
160.99999061	0.00000000	30.03814000	7.93553100
161.19999060	0.00000000	30.03814000	7.93553100
161.39999059	0.00000000	30.08120000	8.31077700
161.59999058	0.00000000	30.45644000	9.05511800
161.79999056	0.00000000	31.20078000	9.43036400
161.99999055	0.00000000	31.52682000	9.47342500
162.19999054	0.00000000	31.20078000	9.47342500
162.39999053	0.00000000	30.45644000	9.47342500
162.59999052	0.00000000	30.08120000	9.47342500
162.79999051	0.00000000	30.03814000	9.47342500
162.99999049	0.00000000	30.08120000	9.47342500
163.19999048	0.00000000	30.41338000	9.47342500
163.39999047	0.00000000	30.78248000	9.47342500
163.59999046	0.00000000	30.41338000	9.47342500
163.79999045	0.00000000	30.08120000	9.47342500
163.99999043	0.00000000	30.03814000	9.47342500
164.19999042	0.00000000	30.03814000	9.47342500
164.39999041	0.00000000	30.03814000	9.47342500
164.59999040	0.00000000	30.08120000	9.47342500
164.79999039	0.00000000	30.45644000	9.47342500
164.99999037	0.00000000	31.20078000	9.47342500
165.19999036	0.00000000	31.52682000	9.47342500
165.39999035	0.00000000	31.20078000	9.47342500
165.59999034	0.00000000	30.45644000	9.47342500
165.79999033	0.00000000	30.13041000	9.47342500
165.99999032	0.00000000	30.41338000	9.47342500
166.19999030	0.00000000	30.73326000	9.47342500
166.39999029	0.00000000	30.03814000	9.47342500
166.59999028	0.00000000	29.34301000	9.47342500
166.79999027	0.00000000	29.66289000	9.47342500
166.99999026	0.00000000	29.99508000	9.47342500
167.19999024	0.00000000	30.03814000	9.43036400
167.39999023	0.00000000	30.08120000	9.09817800
167.59999022	0.00000000	30.41338000	8.68602300
167.79999021	0.00000000	30.78248000	8.72293300
167.99999020	0.00000000	30.41338000	8.68602300
168.19999018	0.00000000	30.08120000	9.09817800
168.39999017	0.00000000	30.03814000	9.43036400
168.59999016	0.00000000	29.99508000	9.43036400
168.79999015	0.00000000	29.66289000	9.09817800
168.99999014	0.00000000	29.29380000	8.68602300
169.19999013	0.00000000	29.66289000	8.72293300
169.39999011	0.00000000	29.99508000	8.68602300
169.59999010	0.00000000	30.03814000	9.09817800
169.79999009	0.00000000	30.03814000	9.43036400
169.99999008	0.00000000	30.03814000	9.43036400
170.19999007	0.00000000	30.03814000	9.09817800
170.39999005	0.00000000	30.03814000	8.72908400
170.59999004	0.00000000	30.03814000	9.09817800
170.79999003	0.00000000	30.03814000	9.43036400
170.99999002	0.00000000	30.03814000	9.47342500
171.19999001	0.00000000	30.03814000	9.47342500
171.39998999	0.00000000	30.03814000	9.47342500
171.59998998	0.00000000	30.03814000	9.47342500
171.79998997	0.00000000	30.03814000	9.47342500
171.99998996	0.00000000	30.03814000	9.47342500
172.19998995	0.00000000	30.03814000	9.47342500
172.39998994	0.00000000	30.03814000	9.47342500
172.59998992	0.00000000	30.03814000	9.47342500
172.79998991	0.00000000	30.03814000	9.47342500
172.99998990	0.00000000	30.03814000	9.47342500
173.19998989	0.00000000	30.03814000	9.47342500
173.39998988	0.00000000	30.03814000	9.47342500
173.59998986	0.00000000	30.03814000	9.47342500
173.79998985	0.00000000	30.03814000	9.47342500
173.99998984	0.00000000	30.03814000	9.43036400
174.19998983	0.00000000	30.03814000	9.09817800
174.39998982	0.00000000	30.03814000	8.72908400
174.59998980	0.00000000	30.03814000	9.09817800
174.79998979	0.00000000	29.99508000	9.38115100
174.99998978	0.00000000	29.66289000	9.09817800
175.19998977	0.00000000	29.29380000	8.68602300
175.39998976	0.00000000	29.66289000	8.72293300
175.59998975	0.00000000	29.99508000	8.68602300
175.79998973	0.00000000	30.03814000	9.05511800
175.99998972	0.00000000	30.03814000	9.05511800
176.19998971	0.00000000	30.03814000	8.72908400
176.39998970	0.00000000	30.03814000	9.05511800
176.59998969	0.00000000	30.03814000	9.05511800
176.79998967	0.00000000	30.03814000	8.72908400
176.99998966	0.00000000	30.03814000	9.09817800
177.19998965	0.00000000	30.03814000	9.43036400
177.39998964	0.00000000	30.03814000	9.47342500
177.59998963	0.00000000	30.03814000	9.43036400
177.79998961	0.00000000	30.03814000	9.09817800
177.99998960	0.00000000	30.03814000	8.68602300
178.19998959	0.00000000	30.03814000	8.72293300
178.39998958	0.00000000	30.03814000	8.68602300
178.59998957	0.00000000	30.03814000	9.09817800
178.79998956	0.00000000	30.03814000	9.43036400
178.99998954	0.00000000	30.03814000	9.47342500
179.19998953	0.00000000	30.03814000	9.47342500
179.39998952	0.00000000	30.03814000	9.47342500
179.59998951	0.00000000	30.03814000	9.43036400
179.79998950	0.00000000	30.03814000	9.09817800
179.99998948	0.00000000	30.03814000	8.68602300
180.19998947	0.00000000	30.03814000	8.67987200
180.39998946	0.00000000	30.03814000	8.31077700
180.59998945	0.00000000	30.03814000	8.31077700
180.79998944	0.00000000	30.03814000	8.67987200
180.99998942	0.00000000	30.03814000	8.68602300
181.19998941	0.00000000	30.03814000	9.09817800
181.39998940	0.00000000	30.03814000	9.43036400
181.59998939	0.00000000	30.03814000	9.47342500
181.79998938	0.00000000	30.03814000	9.47342500
181.99998937	0.00000000	30.03814000	9.47342500
182.19998935	0.00000000	30.03814000	9.47342500
182.39998934	0.00000000	30.03814000	9.43036400
182.59998933	0.00000000	30.03814000	9.05511800
182.79998932	0.00000000	30.03814000	8.31077700
182.99998931	0.00000000	30.03814000	7.98474400
183.19998929	0.00000000	30.03814000	8.26771600
183.39998928	0.00000000	30.08120000	8.67987200
183.59998927	0.00000000	30.41338000	8.68602300
183.79998926	0.00000000	30.78248000	9.09817800
183.99998925	0.00000000	30.37032000	9.43036400
184.19998923	0.00000000	29.70595000	9.47342500
184.39998922	0.00000000	29.29380000	9.47342500
184.59998921	0.00000000	29.66289000	9.47342500
184.79998920	0.00000000	29.99508000	9.47342500
184.99998919	0.00000000	30.03814000	9.47342500
185.19998918	0.00000000	30.03814000	9.47342500
185.39998916	0.00000000	30.03814000	9.43036400
185.59998915	0.00000000	30.03814000	9.05511800
185.79998914	0.00000000	30.03814000	8.31077700
185.99998913	0.00000000	30.03814000	7.93553100
186.19998912	0.00000000	30.03814000	7.89247000
186.39998910	0.00000000	30.03814000	7.89247000
186.59998909	0.00000000	30.03814000	7.93553100
186.79998908	0.00000000	29.99508000	8.31077700
186.99998907	0.00000000	29.66289000	9.05511800
187.19998906	0.00000000	29.29380000	9.43036400
187.39998904	0.00000000	29.66289000	9.47342500
187.59998903	0.00000000	29.99508000	9.47342500
187.79998902	0.00000000	30.03814000	9.47342500
187.99998901	0.00000000	30.03814000	9.47342500
188.19998900	0.00000000	30.03814000	9.43036400
188.39998899	0.00000000	30.03814000	9.05511800
188.59998897	0.00000000	30.03814000	8.31077700
188.79998896	0.00000000	30.03814000	7.93553100
188.99998895	0.00000000	30.03814000	7.89247000
189.19998894	0.00000000	30.03814000	7.89247000
189.39998893	0.00000000	30.03814000	7.89247000
189.59998891	0.00000000	29.99508000	7.93553100
189.79998890	0.00000000	29.66289000	8.31077700
189.99998889	0.00000000	29.25074000	9.05511800
190.19998888	0.00000000	29.28765000	9.43036400
190.39998887	0.00000000	29.25074000	9.47342500
190.59998885	0.00000000	29.66289000	9.47342500
190.79998884	0.00000000	29.99508000	9.47342500
190.99998883	0.00000000	30.03814000	9.47342500
191.19998882	0.00000000	29.99508000	9.47342500
191.39998881	0.00000000	29.66289000	9.43036400
191.59998880	0.00000000	29.29380000	9.09817800
191.79998878	0.00000000	29.66289000	8.72908400
191.99998877	0.00000000	29.94586000	9.05511800
192.19998876	0.00000000	29.66289000	9.00590400
192.39998875	0.00000000	29.29380000	8.31077700
192.59998874	0.00000000	29.66289000	7.98474400
192.79998872	0.00000000	29.94586000	8.26771600
192.99998871	0.00000000	29.61983000	8.63681000
193.19998870	0.00000000	28.92470000	8.31077700
193.39998869	0.00000000	28.92470000	8.35998900
193.59998868	0.00000000	29.61983000	9.05511800
193.79998866	0.00000000	29.99508000	9.43036400
193.99998865	0.00000000	30.03814000	9.47342500
194.19998864	0.00000000	30.03814000	9.47342500
194.39998863	0.00000000	30.03814000	9.47342500
194.59998862	0.00000000	30.03814000	9.47342500
194.79998861	0.00000000	30.03814000	9.43036400
194.99998859	0.00000000	30.03814000	9.09817800
195.19998858	0.00000000	30.03814000	8.68602300
195.39998857	0.00000000	30.03814000	8.67987200
195.59998856	0.00000000	29.99508000	8.26771600
195.79998855	0.00000000	29.66289000	7.93553100
195.99998853	0.00000000	29.25074000	7.89247000
