Time	Channel A	Channel B	Channel C
(us)	(V)	(mV)	(mV)

-4.49999956	0.00000000	36.36811000	12.62918000
-4.29999957	0.00000000	36.36811000	12.62918000
-4.09999958	0.00000000	36.36811000	12.58612000
-3.89999959	0.00000000	36.36811000	12.21087000
-3.69999960	0.00000000	36.36811000	11.51575000
-3.49999962	0.00000000	36.36811000	11.51575000
-3.29999963	0.00000000	36.36811000	12.21087000
-3.09999964	0.00000000	36.36811000	12.58612000
-2.89999965	0.00000000	36.36811000	12.62918000
-2.69999966	0.00000000	36.36811000	12.58612000
-2.49999968	0.00000000	36.36811000	12.21087000
-2.29999969	0.00000000	36.36811000	11.51575000
-2.09999970	0.00000000	36.36811000	11.46653000
-1.89999971	0.00000000	36.36811000	11.83563000
-1.69999972	0.00000000	36.36811000	11.84178000
-1.49999973	0.00000000	36.36811000	12.25394000
-1.29999975	0.00000000	36.36811000	12.58612000
-1.09999976	0.00000000	36.36811000	12.62918000
-0.89999977	0.00000000	36.36811000	12.62918000
-0.69999978	0.00000000	36.36811000	12.62918000
-0.49999979	0.00000000	36.36811000	12.62918000
-0.29999981	0.31803640	36.36811000	12.62918000
-0.09999982	0.63668800	36.36811000	12.62918000
0.10000017	0.95533960	36.36811000	12.62918000
0.30000016	0.95533960	36.36811000	12.58612000
0.50000015	0.79601380	36.36811000	12.25394000
0.70000013	0.31803640	36.36811000	11.88484000
0.90000012	-0.47736220	36.36811000	12.25394000
1.10000011	-1.59264300	36.36811000	12.58612000
1.30000010	-2.38927200	36.36811000	12.62918000
1.50000009	-2.70792300	36.41117000	12.62918000
1.70000008	-2.38927200	36.74335000	12.67224000
1.90000006	-1.27399100	37.11245000	13.00443000
2.10000005	0.63668800	36.74335000	13.37352000
2.30000004	2.70792300	36.41117000	12.96137000
2.50000003	4.45989200	36.36811000	12.29700000
2.70000002	5.41584600	36.41117000	11.84178000
2.90000000	4.77854300	36.74335000	11.87869000
3.09999999	2.86724900	37.15551000	11.79872000
3.29999998	-0.15871060	37.11860000	11.87869000
3.49999997	-3.50393700	37.15551000	11.84178000
3.69999996	-6.37180100	36.78642000	12.25394000
3.89999994	-7.96444400	36.78642000	12.58612000
4.09999993	-7.48646600	37.11245000	12.62918000
4.29999992	-4.93786900	36.78642000	12.67224000
4.49999991	-1.11466500	36.83563000	13.00443000
4.69999990	3.34522600	37.48154000	13.37352000
4.89999989	7.16781500	37.48154000	13.00443000
5.09999987	9.23905000	36.78642000	12.62918000
5.29999986	9.07972400	36.41117000	12.21087000
5.49999985	6.53112700	36.36811000	11.46653000
5.69999984	2.38927200	36.36811000	11.09129000
5.89999983	-2.54859700	36.36811000	11.04823000
6.09999981	-6.69045300	36.36811000	11.09129000
6.29999980	-9.07972400	36.36811000	11.46653000
6.49999979	-9.23905000	36.36811000	12.21087000
6.69999978	-7.16781500	36.36811000	12.58612000
6.89999977	-3.34522600	36.36811000	12.62918000
7.09999975	1.11466500	36.36811000	12.62918000
7.29999974	4.93786900	36.36811000	12.62918000
7.49999973	7.32714100	36.36811000	12.58612000
7.69999972	7.64579200	36.36811000	12.21087000
7.89999971	6.21247500	36.36811000	11.46653000
8.09999970	3.34522600	36.36811000	11.09129000
8.29999968	0.00000000	36.36811000	11.04823000
8.49999967	-2.86724900	36.36811000	11.09129000
8.69999966	-4.77854300	36.36811000	11.46653000
8.89999965	-5.25652100	36.36811000	12.21087000
9.09999964	-4.30056600	36.36811000	12.58612000
9.29999962	-2.70792300	36.36811000	12.62918000
9.49999961	-0.63668800	36.36811000	12.62918000
9.69999960	1.11466500	36.36811000	12.62918000
9.89999959	2.22994600	36.36811000	12.58612000
10.09999958	2.54859700	36.32505000	12.21087000
10.29999956	2.22994600	35.99286000	11.51575000
10.49999955	1.43331700	35.62377000	11.51575000
10.69999954	0.47736220	35.99286000	12.16166000
10.89999953	-0.31803640	36.32505000	12.16166000
11.09999952	-0.79601380	36.36811000	11.51575000
11.29999951	-0.95533960	36.36811000	11.46653000
11.49999949	-0.95533960	36.36811000	11.83563000
11.69999948	-0.63668800	36.36811000	11.84178000
11.89999947	-0.47736220	36.36811000	12.25394000
12.09999946	-0.15871060	36.36811000	12.58612000
12.29999945	-0.15871060	36.36811000	12.62918000
12.49999943	0.00000000	36.36811000	12.62918000
12.69999942	0.00000000	36.36811000	12.62918000
12.89999941	0.00000000	36.36811000	12.62918000
13.09999940	0.00000000	36.36811000	12.62918000
13.29999939	0.00000000	36.36811000	12.62918000
13.49999937	0.00000000	36.36811000	12.62918000
13.69999936	0.00000000	36.36811000	12.62918000
13.89999935	0.00000000	36.36811000	12.62918000
14.09999934	-0.15871060	36.41117000	12.62918000
14.29999933	-0.15871060	36.74335000	12.62918000
14.49999932	-0.15871060	37.11245000	12.62918000
14.69999930	0.00000000	36.74335000	12.62918000
14.89999929	0.00000000	36.41117000	12.62918000
15.09999928	0.00000000	36.36811000	12.62918000
15.29999927	0.00000000	36.36811000	12.62918000
15.49999926	0.00000000	36.36811000	12.62918000
15.69999924	0.00000000	36.36811000	12.62918000
15.89999923	0.00000000	36.36811000	12.62918000
16.09999922	0.00000000	36.36811000	12.62918000
16.29999921	0.00000000	36.36811000	12.62918000
16.49999920	-0.15871060	36.36811000	12.58612000
16.69999919	-0.15871060	36.36811000	12.25394000
16.89999917	-0.15871060	36.41117000	11.88484000
17.09999916	0.00000000	36.78642000	12.25394000
17.29999915	0.00000000	37.53075000	12.53691000
17.49999914	0.00000000	37.85679000	12.21087000
17.69999913	0.00000000	37.57381000	11.51575000
17.89999911	0.00000000	37.11860000	11.51575000
18.09999910	0.00000000	36.68799000	12.16166000
18.29999909	0.00000000	35.11319000	12.16166000
18.49999908	0.00000000	33.29232000	11.51575000
18.69999907	-0.15871060	32.08661000	11.51575000
18.89999905	0.00000000	31.66215000	12.16166000
19.09999904	0.00000000	31.75443000	12.21087000
19.29999903	0.00000000	32.97244000	11.88484000
19.49999902	0.00000000	36.03592000	12.25394000
19.69999901	0.00000000	39.53002000	12.58612000
19.89999900	0.00000000	43.06717000	12.58612000
20.09999898	0.00000000	46.46284000	12.25394000
20.29999897	0.00000000	47.95152000	11.88484000
20.49999896	0.00000000	46.74582000	12.25394000
20.69999895	0.00000000	42.83341000	12.58612000
20.89999894	0.00000000	36.23277000	12.62918000
21.09999892	0.00000000	28.54946000	12.62918000
21.29999891	0.00000000	21.52436000	12.58612000
21.49999890	0.00000000	16.59080000	12.21087000
21.69999889	0.00000000	15.15133000	11.51575000
21.89999888	0.00000000	19.10064000	11.51575000
22.09999886	0.00000000	27.94045000	12.16166000
22.29999885	0.00000000	39.61614000	12.21087000
22.49999884	0.00000000	51.99926000	11.88484000
22.69999883	0.00000000	62.74606000	12.25394000
22.89999882	0.00000000	68.38091000	12.58612000
23.09999881	0.00000000	66.42470000	12.62918000
23.29999879	0.00000000	56.74828000	12.67224000
23.49999878	0.00000000	41.67076000	13.04749000
23.69999877	0.00000000	24.22490000	13.79183000
23.89999876	0.00000000	7.98474400	14.11786000
24.09999875	0.00000000	-3.50639700	13.79183000
24.29999873	0.00000000	-6.85285400	13.00443000
24.49999872	0.00000000	0.16609250	12.25394000
24.69999871	0.00000000	16.35704000	11.38041000
24.89999870	0.00000000	38.03519000	10.21161000
25.09999869	0.00000000	60.37770000	8.31077700
25.29999867	0.00000000	78.10039000	6.86515700
25.49999866	0.00000000	86.20201000	6.86515700
25.69999865	0.00000000	83.12623000	8.40305000
25.89999864	0.00000000	69.49433000	11.14050000
26.09999863	0.00000000	47.48400000	14.62844000
26.29999862	0.00000000	22.08415000	18.47933000
26.49999860	0.00000000	0.07381889	21.54897000
26.69999859	0.00000000	-13.50886000	23.08686000
26.89999858	0.00000000	-16.20325000	22.61934000
27.09999857	0.00000000	-7.27731300	19.42052000
27.29999856	0.00000000	11.61417000	13.28125000
27.49999854	0.00000000	35.90059000	5.57332700
27.69999853	0.00000000	59.49188000	-1.35334600
27.89999852	0.00000000	77.31299000	-6.40994000
28.09999851	0.00000000	85.77755000	-8.23080600
28.29999850	0.00000000	82.75098000	-5.85629900
28.49999848	0.00000000	69.30979000	1.15034400
28.69999847	0.00000000	49.62475000	11.60187000
28.89999846	0.00000000	27.94045000	23.54823000
29.09999845	0.00000000	9.00590400	34.27657000
29.29999844	0.00000000	-3.03887800	40.41584000
29.49999843	0.00000000	-6.20078700	40.41584000
29.69999841	0.00000000	-0.43676180	34.19045000
29.89999840	0.00000000	12.68455000	22.57628000
30.09999839	0.00000000	30.03814000	7.89247000
30.29999838	0.00000000	47.44094000	-6.74212600
30.49999837	0.00000000	61.07283000	-17.98105000
30.69999835	0.00000000	68.84842000	-23.37598000
30.89999834	0.00000000	69.62967000	-22.12106000
31.09999833	0.00000000	63.12131000	-13.15207000
31.29999832	0.00000000	51.58095000	2.22071800
31.49999831	0.00000000	38.03519000	19.92495000
31.69999829	0.00000000	25.15379000	35.81446000
31.89999828	0.00000000	15.14518000	46.69045000
32.09999827	0.00000000	9.71333600	50.91658000
32.29999826	0.00000000	10.82062000	47.33637000
32.49999825	0.00000000	16.91683000	35.77140000
32.69999824	0.00000000	26.27337000	18.85458000
32.89999822	0.00000000	37.43848000	1.06422200
33.09999821	0.00000000	47.44094000	-14.03789000
33.29999820	0.00000000	53.72170000	-23.73892000
33.49999819	0.00000000	55.72096000	-26.02731000
33.69999818	0.00000000	53.76476000	-20.63238000
33.89999816	0.00000000	47.95152000	-8.27386800
34.09999815	0.00000000	39.53002000	7.89247000
34.29999814	0.00000000	31.05930000	24.20029000
34.49999813	0.00000000	24.87082000	37.67839000
34.69999812	0.00000000	22.08415000	45.42937000
34.89999810	0.00000000	22.86540000	45.43553000
35.09999809	0.00000000	26.69168000	38.55192000
35.29999808	0.00000000	32.82480000	26.15034000
35.49999807	0.00000000	38.97638000	11.18356000
35.69999806	0.00000000	43.62696000	-2.74975400
35.89999805	0.00000000	45.95226000	-12.41388000
36.09999803	0.00000000	45.20792000	-16.26476000
36.29999802	0.00000000	42.13828000	-13.19513000
36.49999801	0.00000000	37.48154000	-4.00467500
36.69999800	0.00000000	32.12967000	8.26771600
36.89999799	0.00000000	27.94045000	20.57702000
37.09999797	0.00000000	26.35950000	29.45374000
37.29999796	0.00000000	27.52214000	32.98474000
37.49999795	0.00000000	30.96703000	31.07775000
37.69999794	0.00000000	35.94980000	24.15723000
37.89999793	0.00000000	40.55733000	14.21014000
38.09999791	0.00000000	43.71924000	4.26304100
38.29999790	0.00000000	45.25713000	-2.65748000
38.49999789	0.00000000	44.83267000	-4.56446800
38.69999788	0.00000000	42.13828000	-1.16879900
38.89999787	0.00000000	37.89985000	6.48991100
39.09999786	0.00000000	33.29232000	15.64960000
39.29999784	0.00000000	29.38607000	23.73892000
39.49999783	0.00000000	27.05462000	28.29724000
39.69999782	0.00000000	26.26722000	27.92200000
39.89999781	0.00000000	27.42987000	22.53322000
40.09999780	0.00000000	30.13041000	13.74262000
40.29999778	0.00000000	33.66756000	4.17691900
40.49999777	0.00000000	37.94907000	-3.11884800
40.69999776	0.00000000	42.13828000	-6.23154500
40.89999775	0.00000000	44.88189000	-4.65059000
41.09999774	0.00000000	45.67544000	1.52559000
41.29999772	0.00000000	44.88189000	11.09744000
41.49999771	0.00000000	42.18134000	21.03838000
41.69999770	0.00000000	38.32431000	28.34030000
41.89999769	0.00000000	34.41191000	31.07775000
42.09999768	0.00000000	30.54872000	28.80167000
42.29999767	0.00000000	27.89739000	22.66855000
42.49999765	0.00000000	27.42987000	14.21014000
42.69999764	0.00000000	28.54946000	5.75787400
42.89999763	0.00000000	30.50566000	-0.42445860
43.09999762	0.00000000	33.20005000	-3.16190900
43.29999761	0.00000000	35.90059000	-2.04847400
43.49999759	0.00000000	37.90600000	2.17765700
43.69999758	0.00000000	39.43774000	8.31077700
43.89999757	0.00000000	40.22515000	14.85605000
44.09999756	0.00000000	39.86220000	19.88189000
44.29999755	0.00000000	39.15477000	22.61934000
44.49999753	0.00000000	38.36737000	22.66855000
44.69999752	0.00000000	37.99213000	20.39247000
44.89999751	0.00000000	37.94907000	16.90453000
45.09999750	0.00000000	37.90600000	12.62918000
45.29999749	0.00000000	37.48154000	8.44611200
45.49999748	0.00000000	36.27584000	5.75172200
45.69999746	0.00000000	34.31963000	5.24729300
45.89999745	0.00000000	31.57603000	5.98548200
46.09999744	0.00000000	28.59252000	7.24040300
46.29999743	0.00000000	26.64247000	9.93479300
46.49999742	0.00000000	26.67938000	13.28125000
46.69999740	0.00000000	28.27264000	15.23130000
46.89999739	0.00000000	32.22195000	15.74188000
47.09999738	0.00000000	37.94907000	15.74188000
47.29999737	0.00000000	43.76230000	15.27436000
47.49999736	0.00000000	48.36983000	13.69956000
47.69999734	0.00000000	50.69513000	11.04823000
47.89999733	0.00000000	49.86466000	8.40305000
48.09999732	0.00000000	45.95226000	6.82209600
48.29999731	0.00000000	38.97638000	6.44685000
48.49999730	0.00000000	30.50566000	7.24040300
48.69999729	0.00000000	22.82234000	9.55954600
48.89999727	0.00000000	17.84572000	12.62918000
49.09999726	0.00000000	17.47047000	15.69882000
49.29999725	0.00000000	21.70891000	18.01796000
49.49999724	0.00000000	29.43528000	18.81152000
49.69999723	0.00000000	39.06250000	18.43627000
49.89999721	0.00000000	47.90846000	16.85531000
50.09999720	0.00000000	53.67864000	14.11786000
50.29999719	0.00000000	54.83513000	10.62992000
50.49999718	0.00000000	51.02116000	6.82209600
50.69999717	0.00000000	43.67618000	4.17076700
50.89999715	0.00000000	34.45497000	3.75246000
51.09999714	0.00000000	25.62131000	5.29035400
51.29999713	0.00000000	20.21407000	8.40305000
51.49999712	0.00000000	19.00837000	12.62918000
51.69999711	0.00000000	22.12721000	16.85531000
51.89999710	0.00000000	29.01082000	19.92495000
52.09999708	0.00000000	37.48154000	21.13066000
52.29999707	0.00000000	45.16486000	20.34941000
52.49999706	0.00000000	50.14148000	18.01796000
52.69999705	0.00000000	50.55979000	14.16708000
52.89999704	0.00000000	46.74582000	9.93479300
53.09999702	0.00000000	40.22515000	6.48991100
53.29999701	0.00000000	32.54798000	4.54601300
53.49999700	0.00000000	26.40256000	4.91510800
53.69999699	0.00000000	23.28986000	6.77903500
53.89999698	0.00000000	23.66511000	9.51648500
54.09999696	0.00000000	27.47293000	12.58612000
54.29999695	0.00000000	33.24926000	15.23130000
54.49999694	0.00000000	39.39468000	16.39395000
54.69999693	0.00000000	44.41437000	15.64960000
54.89999692	0.00000000	46.70275000	13.79183000
55.09999691	0.00000000	45.95226000	11.51575000
55.29999689	0.00000000	42.09522000	9.98400600
55.49999688	0.00000000	36.36811000	9.56569900
55.69999687	0.00000000	30.59178000	9.93479300
55.89999686	0.00000000	26.35950000	11.14050000
56.09999685	0.00000000	24.82160000	13.00443000
56.29999683	0.00000000	26.31643000	14.90526000
56.49999682	0.00000000	30.13041000	15.60654000
56.69999681	0.00000000	34.73794000	14.85605000
56.89999680	0.00000000	39.01944000	12.49385000
57.09999679	0.00000000	42.09522000	9.09817800
57.29999677	0.00000000	43.30093000	5.66560000
57.49999676	0.00000000	42.51353000	3.80167300
57.69999675	0.00000000	40.22515000	4.17076700
57.89999674	0.00000000	36.74335000	6.86515700
58.09999673	0.00000000	33.29232000	11.09129000
58.29999672	0.00000000	30.59178000	15.74188000
58.49999670	0.00000000	29.42913000	19.97416000
58.69999669	0.00000000	30.17347000	22.61934000
58.89999668	0.00000000	32.03740000	22.61934000
59.09999667	0.00000000	34.36884000	19.88189000
59.29999666	0.00000000	36.32505000	14.81299000
59.49999664	0.00000000	37.85679000	7.93553100
59.69999663	0.00000000	38.64419000	1.48253000
59.89999662	0.00000000	38.28125000	-2.04847400
60.09999661	0.00000000	37.48154000	-2.42372000
60.29999660	0.00000000	35.99286000	0.36909450
60.49999658	0.00000000	34.51033000	6.86515700
60.69999657	0.00000000	34.45497000	14.90526000
60.89999656	0.00000000	34.74409000	21.83194000
61.09999655	0.00000000	34.83022000	26.47638000
61.29999654	0.00000000	35.20546000	27.22072000
61.49999653	0.00000000	35.94980000	24.20029000
61.69999651	0.00000000	36.27584000	18.39321000
61.89999650	0.00000000	35.94980000	11.04823000
62.09999649	0.00000000	35.20546000	3.70939900
62.29999648	0.00000000	34.78716000	-2.04847400
62.49999647	0.00000000	34.36884000	-4.69980300
62.69999645	0.00000000	33.66756000	-3.16190900
62.89999644	0.00000000	33.66756000	2.17765700
63.09999643	0.00000000	34.41191000	9.47342500
63.29999642	0.00000000	35.20546000	16.85531000
63.49999641	0.00000000	36.36811000	23.03765000
63.69999639	0.00000000	37.48154000	26.89468000
63.89999638	0.00000000	37.90600000	27.26993000
64.09999637	0.00000000	37.90600000	24.20029000
64.29999636	0.00000000	37.48154000	18.43627000
64.49999635	0.00000000	36.32505000	11.47269000
64.69999634	0.00000000	34.83022000	4.91510800
64.89999632	0.00000000	33.66756000	-0.09227362
65.09999631	0.00000000	33.29232000	-2.00541300
65.29999630	0.00000000	33.66756000	-0.55979330
65.49999629	0.00000000	34.78716000	3.24803100
65.69999628	0.00000000	35.94980000	7.89247000
65.89999626	0.00000000	36.74335000	12.58612000
66.09999625	0.00000000	37.48154000	16.85531000
66.29999624	0.00000000	37.43848000	19.97416000
66.49999623	0.00000000	36.32505000	21.54897000
66.69999622	0.00000000	34.78716000	21.54897000
66.89999620	0.00000000	33.24926000	20.01722000
67.09999619	0.00000000	32.12967000	17.32283000
67.29999618	0.00000000	32.17273000	14.21014000
67.49999617	0.00000000	33.71063000	11.04823000
67.69999616	0.00000000	36.36811000	7.93553100
67.89999615	0.00000000	39.01944000	5.19808000
68.09999613	0.00000000	40.60039000	3.29109200
68.29999612	0.00000000	40.97564000	2.50369100
68.49999611	0.00000000	40.22515000	3.33415300
68.69999610	0.00000000	38.18897000	5.61638700
68.89999609	0.00000000	35.10704000	9.14124000
69.09999607	0.00000000	30.88090000	13.00443000
69.29999606	0.00000000	27.47293000	16.94759000
69.49999605	0.00000000	25.89198000	20.39247000
69.69999604	0.00000000	26.31643000	22.66855000
69.89999603	0.00000000	29.05389000	22.61934000
70.09999601	0.00000000	33.66756000	19.97416000
70.29999600	0.00000000	39.06250000	15.69882000
70.49999599	0.00000000	43.67618000	10.67298000
70.69999598	0.00000000	46.41363000	5.66560000
70.89999597	0.00000000	46.78888000	2.17765700
71.09999596	0.00000000	44.83267000	0.59670270
71.29999594	0.00000000	40.55733000	1.06422200
71.49999593	0.00000000	34.83022000	4.12770700
71.69999592	0.00000000	29.38607000	9.09817800
71.89999591	0.00000000	25.52288000	14.07480000
72.09999590	0.00000000	23.52977000	17.97490000
72.29999588	0.00000000	23.98499000	19.93110000
72.49999587	0.00000000	26.69168000	19.97416000
72.69999586	0.00000000	31.71137000	18.43627000
72.89999585	0.00000000	37.48154000	15.74188000
73.09999584	0.00000000	42.51353000	12.67224000
73.29999582	0.00000000	45.99532000	9.98400600
73.49999581	0.00000000	46.74582000	8.40305000
73.69999580	0.00000000	44.88189000	7.98474400
73.89999579	0.00000000	41.01870000	8.35998900
74.09999578	0.00000000	36.36811000	9.51648500
74.29999577	0.00000000	31.71137000	11.00517000
74.49999575	0.00000000	27.89739000	12.11860000
74.69999574	0.00000000	26.31643000	12.16166000
74.89999573	0.00000000	27.05462000	11.42347000
75.09999572	0.00000000	29.34301000	10.62992000
75.29999571	0.00000000	32.82480000	9.51648500
75.49999569	0.00000000	36.27584000	8.86441900
75.69999568	0.00000000	39.01944000	10.02707000
75.89999567	0.00000000	40.55733000	12.62918000
76.09999566	0.00000000	40.60039000	15.32357000
76.29999565	0.00000000	39.48696000	17.27362000
76.49999563	0.00000000	37.94907000	18.39321000
76.69999562	0.00000000	36.41117000	17.92569000
76.89999561	0.00000000	35.25467000	15.23130000
77.09999560	0.00000000	34.83022000	11.04823000
77.29999559	0.00000000	34.78716000	6.82209600
77.49999558	0.00000000	34.78716000	3.70939900
77.69999556	0.00000000	34.78716000	2.12844500
77.89999555	0.00000000	34.74409000	2.22071800
78.09999554	0.00000000	34.31963000	4.54601300
78.29999553	0.00000000	33.24926000	9.14124000
78.49999552	0.00000000	32.50492000	14.11786000
78.69999550	0.00000000	32.86786000	18.43627000
78.89999549	0.00000000	33.61835000	21.50590000
79.09999548	0.00000000	34.83022000	22.61934000
79.29999547	0.00000000	36.41117000	21.08760000
79.49999546	0.00000000	38.32431000	17.27362000
79.69999544	0.00000000	40.18209000	12.62918000
79.89999543	0.00000000	40.55733000	7.98474400
80.09999542	0.00000000	39.43774000	4.12770700
80.29999541	0.00000000	37.48154000	2.17150600
80.49999540	0.00000000	34.78716000	2.12844500
80.69999539	0.00000000	32.12967000	3.70939900
80.89999537	0.00000000	30.54872000	6.77903500
81.09999536	0.00000000	30.13041000	10.62992000
81.29999535	0.00000000	30.54872000	14.11786000
81.49999534	0.00000000	32.12967000	16.85531000
81.69999533	0.00000000	34.78716000	18.43627000
81.89999531	0.00000000	37.48154000	18.85458000
82.09999530	0.00000000	39.39468000	18.47933000
82.29999529	0.00000000	40.18209000	17.23056000
82.49999528	0.00000000	39.43774000	14.94833000
82.69999527	0.00000000	37.90600000	11.84178000
82.89999525	0.00000000	35.94980000	9.14124000
83.09999524	0.00000000	33.66756000	6.72982200
83.29999523	0.00000000	32.12967000	4.82283400
83.49999522	0.00000000	31.71137000	3.70939900
83.69999521	0.00000000	32.03740000	4.12770700
83.89999520	0.00000000	32.82480000	6.40378900
84.09999518	0.00000000	33.61835000	9.47342500
84.29999517	0.00000000	34.78716000	12.62918000
84.49999516	0.00000000	35.90059000	15.74188000
84.69999515	0.00000000	36.32505000	18.43627000
84.89999514	0.00000000	36.36811000	19.93110000
85.09999512	0.00000000	36.36811000	19.55585000
85.29999511	0.00000000	36.36811000	17.23056000
85.49999510	0.00000000	36.36811000	13.74262000
85.69999509	0.00000000	36.36811000	9.47342500
85.89999508	0.00000000	36.36811000	5.29035400
86.09999506	0.00000000	36.36811000	2.59596400
86.29999505	0.00000000	36.32505000	2.17150600
86.49999504	0.00000000	35.90059000	3.70939900
86.69999503	0.00000000	34.78716000	6.82209600
86.89999502	0.00000000	33.61835000	11.09129000
87.09999501	0.00000000	32.86786000	15.69882000
87.29999499	0.00000000	32.45571000	19.54970000
87.49999498	0.00000000	32.86786000	21.46284000
87.69999497	0.00000000	33.61835000	21.08760000
87.89999496	0.00000000	34.83022000	18.35015000
88.09999495	0.00000000	36.32505000	13.74262000
88.29999493	0.00000000	37.48154000	8.40305000
88.49999492	0.00000000	37.85679000	4.17076700
88.69999491	0.00000000	37.53075000	2.22071800
88.89999490	0.00000000	36.70029000	2.59596400
89.09999489	0.00000000	35.57455000	5.29035400
89.29999487	0.00000000	34.04282000	9.51648500
89.49999486	0.00000000	33.29232000	14.16708000
89.69999485	0.00000000	33.20005000	18.39321000
89.89999484	0.00000000	33.24311000	21.03838000
90.09999483	0.00000000	33.61835000	20.99532000
90.29999482	0.00000000	34.41191000	17.97490000
90.49999480	0.00000000	35.16240000	13.00443000
90.69999479	0.00000000	35.94980000	8.02780400
90.89999478	0.00000000	36.32505000	4.12770700
91.09999477	0.00000000	36.36811000	2.22071800
91.29999476	0.00000000	36.32505000	2.59596400
91.49999474	0.00000000	35.99286000	5.33341500
91.69999473	0.00000000	35.58071000	9.93479300
91.89999472	0.00000000	35.61762000	15.28051000
92.09999471	0.00000000	35.53765000	19.46358000
92.29999470	0.00000000	35.57455000	21.08760000
92.49999468	0.00000000	35.11934000	20.30020000
92.69999467	0.00000000	34.41191000	17.55659000
92.89999466	0.00000000	33.57529000	12.58612000
93.09999465	0.00000000	32.82480000	7.28346400
93.29999464	0.00000000	32.03740000	3.79552100
93.49999463	0.00000000	31.71137000	2.59596400
93.69999461	0.00000000	32.08661000	3.75246000
93.89999460	0.00000000	33.24926000	6.82209600
94.09999459	0.00000000	34.83022000	11.04823000
94.29999458	0.00000000	36.78642000	15.27436000
94.49999457	0.00000000	39.06250000	18.30093000
94.69999455	0.00000000	40.55733000	19.13140000
94.89999454	0.00000000	40.60039000	17.56274000
95.09999453	0.00000000	39.39468000	14.53002000
95.29999452	0.00000000	37.10630000	10.31004000
95.49999451	0.00000000	33.99360000	6.86515700
95.69999449	0.00000000	31.28691000	4.87204700
95.89999448	0.00000000	28.92470000	4.17691900
96.09999447	0.00000000	27.47293000	5.70866100
96.29999446	0.00000000	27.84818000	9.09817800
96.49999445	0.00000000	30.13041000	12.53691000
96.69999444	0.00000000	33.24926000	15.27436000
96.89999442	0.00000000	36.78642000	16.81225000
97.09999441	0.00000000	40.60039000	16.81225000
97.29999440	0.00000000	43.25172000	15.32357000
97.49999439	0.00000000	43.71924000	13.04749000
97.69999438	0.00000000	42.55659000	11.09744000
97.89999436	0.00000000	40.18209000	9.51648500
98.09999435	0.00000000	36.31890000	8.40305000
98.29999434	0.00000000	32.08661000	8.35998900
98.49999433	0.00000000	28.59252000	9.09817800
98.69999432	0.00000000	26.26722000	9.89173200
98.89999430	0.00000000	25.89198000	11.04823000
99.09999429	0.00000000	27.42987000	12.16166000
99.29999428	0.00000000	30.50566000	12.58612000
99.49999427	0.00000000	34.41191000	12.62918000
99.69999426	0.00000000	38.23203000	12.62918000
99.89999425	0.00000000	41.34473000	12.67224000
100.09999423	0.00000000	42.51353000	13.04749000
100.29999422	0.00000000	42.18134000	13.79183000
100.49999421	0.00000000	40.60039000	14.11786000
100.69999420	0.00000000	37.90600000	13.74262000
100.89999419	0.00000000	34.83022000	12.58612000
101.09999417	0.00000000	32.08661000	11.04823000
101.29999416	0.00000000	30.13041000	9.47342500
101.49999415	0.00000000	28.96776000	7.93553100
101.69999414	0.00000000	28.96776000	6.82209600
101.89999413	0.00000000	30.13041000	6.86515700
102.09999411	0.00000000	32.03740000	8.35383800
102.29999410	0.00000000	34.41191000	10.67298000
102.49999409	0.00000000	36.70029000	13.00443000
102.69999408	0.00000000	38.64419000	15.32357000
102.89999407	0.00000000	39.43774000	16.81225000
103.09999406	0.00000000	39.48696000	16.85531000
103.29999404	0.00000000	39.01944000	15.69882000
103.49999403	0.00000000	37.48154000	13.74262000
103.69999402	0.00000000	35.20546000	11.00517000
103.89999401	0.00000000	33.24926000	7.98474400
104.09999400	0.00000000	31.66215000	5.66560000
104.29999398	0.00000000	30.50566000	4.91510800
104.49999397	0.00000000	30.17347000	5.66560000
104.69999396	0.00000000	30.92396000	7.98474400
104.89999395	0.00000000	32.87401000	11.04823000
105.09999394	0.00000000	35.11319000	14.11786000
105.29999392	0.00000000	37.06324000	16.43701000
105.49999391	0.00000000	37.81373000	17.23056000
105.69999390	0.00000000	37.53075000	16.85531000
105.89999389	0.00000000	36.74335000	15.27436000
106.09999388	0.00000000	35.94980000	12.58612000
106.29999387	0.00000000	34.73794000	9.55954600
106.49999385	0.00000000	33.29232000	7.24040300
106.69999384	0.00000000	32.50492000	6.44685000
106.89999383	0.00000000	32.91707000	6.82209600
107.09999382	0.00000000	33.99360000	8.40305000
107.29999381	0.00000000	35.52534000	11.00517000
107.49999379	0.00000000	36.27584000	13.28125000
107.69999378	0.00000000	36.36811000	14.11786000
107.89999377	0.00000000	36.32505000	14.16708000
108.09999376	0.00000000	35.94980000	13.74262000
108.29999375	0.00000000	35.16240000	12.58612000
108.49999374	0.00000000	34.36884000	11.04823000
108.69999372	0.00000000	33.20005000	9.51648500
108.89999371	0.00000000	32.12967000	8.40305000
109.09999370	0.00000000	32.08661000	8.40305000
109.29999369	0.00000000	32.82480000	9.51648500
109.49999368	0.00000000	33.61835000	11.04823000
109.69999366	0.00000000	34.78716000	12.62918000
109.89999365	0.00000000	35.90059000	14.16092000
110.09999364	0.00000000	36.32505000	15.27436000
110.29999363	0.00000000	36.32505000	15.27436000
110.49999362	0.00000000	35.94980000	14.16092000
110.69999360	0.00000000	35.16240000	12.62918000
110.89999359	0.00000000	34.41191000	11.04823000
111.09999358	0.00000000	33.61835000	9.51648500
111.29999357	0.00000000	33.24311000	8.40305000
111.49999356	0.00000000	33.20005000	8.35998900
111.69999355	0.00000000	33.24311000	9.09817800
111.89999353	0.00000000	33.61835000	9.89173200
112.09999352	0.00000000	34.41191000	11.04823000
112.29999351	0.00000000	35.16240000	12.16166000
112.49999350	0.00000000	35.94980000	12.62918000
112.69999349	0.00000000	36.32505000	13.04749000
112.89999347	0.00000000	36.32505000	13.74262000
113.09999346	0.00000000	35.94980000	13.74262000
113.29999345	0.00000000	35.20546000	13.04749000
113.49999344	0.00000000	34.83022000	12.62918000
113.69999343	0.00000000	34.78716000	12.21087000
113.89999341	0.00000000	34.74409000	11.42347000
114.09999340	0.00000000	34.41191000	10.72219000
114.29999339	0.00000000	34.04282000	10.26698000
114.49999338	0.00000000	34.41191000	10.25467000
114.69999337	0.00000000	34.74409000	9.84867000
114.89999336	0.00000000	34.78716000	9.51648500
115.09999334	0.00000000	34.78716000	9.51648500
115.29999333	0.00000000	34.78716000	9.89173200
115.49999332	0.00000000	34.78716000	10.62992000
115.69999331	0.00000000	34.74409000	11.04823000
115.89999330	0.00000000	34.41191000	11.46653000
116.09999328	0.00000000	33.99975000	12.21087000
116.29999327	0.00000000	34.03666000	12.58612000
116.49999326	0.00000000	33.95054000	12.62918000
116.69999325	0.00000000	34.03666000	12.62918000
116.89999324	0.00000000	33.99975000	12.58612000
117.09999322	0.00000000	34.41191000	12.16166000
117.29999321	0.00000000	34.74409000	11.04823000
117.49999320	0.00000000	34.83022000	9.89173200
117.69999319	0.00000000	35.20546000	9.09817800
117.89999318	0.00000000	35.94980000	8.35998900
118.09999317	0.00000000	36.27584000	8.35998900
118.29999315	0.00000000	35.94980000	9.09817800
118.49999314	0.00000000	35.16240000	9.89173200
118.69999313	0.00000000	34.41191000	11.04823000
118.89999312	0.00000000	33.57529000	12.16166000
119.09999311	0.00000000	32.82480000	12.58612000
119.29999309	0.00000000	32.03740000	12.62918000
119.49999308	0.00000000	31.71137000	12.62918000
119.69999307	0.00000000	32.08661000	12.62918000
119.89999306	0.00000000	33.24926000	12.58612000
120.09999305	0.00000000	34.73794000	12.21087000
120.29999303	0.00000000	35.94980000	11.42347000
120.49999302	0.00000000	36.74335000	10.67298000
120.69999301	0.00000000	37.53075000	9.89173200
120.89999300	0.00000000	37.85679000	9.51648500
121.09999299	0.00000000	37.43848000	9.51648500
121.29999298	0.00000000	35.94980000	9.89173200
121.49999296	0.00000000	34.04282000	10.62992000
121.69999295	0.00000000	32.86786000	11.00517000
121.89999294	0.00000000	32.03740000	11.09129000
122.09999293	0.00000000	31.71137000	11.46653000
122.29999292	0.00000000	32.03740000	12.21087000
122.49999290	0.00000000	32.82480000	12.58612000
122.69999289	0.00000000	33.61835000	12.62918000
122.89999288	0.00000000	34.78716000	12.58612000
123.09999287	0.00000000	35.90059000	12.21087000
123.29999286	0.00000000	36.32505000	11.51575000
123.49999284	0.00000000	36.36811000	11.46653000
123.69999283	0.00000000	36.36811000	11.79257000
123.89999282	0.00000000	36.32505000	11.38041000
124.09999281	0.00000000	35.94980000	10.67298000
124.29999280	0.00000000	35.16240000	9.93479300
124.49999279	0.00000000	34.41191000	9.93479300
124.69999277	0.00000000	33.61835000	10.62992000
124.89999276	0.00000000	33.20005000	11.04823000
125.09999275	0.00000000	32.82480000	11.46653000
125.29999274	0.00000000	32.41265000	12.16166000
125.49999273	0.00000000	32.49877000	12.21087000
125.69999271	0.00000000	32.83710000	11.88484000
125.89999270	0.00000000	34.03666000	12.25394000
126.09999269	0.00000000	35.11934000	12.58612000
126.29999268	0.00000000	35.94980000	12.62918000
126.49999267	0.00000000	36.32505000	12.58612000
126.69999265	0.00000000	36.32505000	12.21087000
126.89999264	0.00000000	35.94980000	11.42347000
127.09999263	0.00000000	35.16240000	10.72219000
127.29999262	0.00000000	34.36884000	10.31004000
127.49999261	0.00000000	33.20005000	10.67298000
127.69999260	0.00000000	32.08661000	11.00517000
127.89999258	0.00000000	31.71137000	11.04823000
128.09999257	0.00000000	32.03740000	11.09129000
128.29999256	0.00000000	32.82480000	11.46653000
128.49999255	0.00000000	33.61835000	12.21087000
128.69999254	0.00000000	34.78716000	12.53691000
128.89999252	0.00000000	35.90059000	12.21087000
129.09999251	0.00000000	36.32505000	11.46653000
129.29999250	0.00000000	36.32505000	11.09129000
129.49999249	0.00000000	35.90059000	11.04823000
129.69999248	0.00000000	34.73794000	11.00517000
129.89999246	0.00000000	33.24926000	10.67298000
130.09999245	0.00000000	32.08661000	10.31004000
130.29999244	0.00000000	31.71137000	10.67298000
130.49999243	0.00000000	32.03740000	11.00517000
130.69999242	0.00000000	32.82480000	11.04823000
130.89999241	0.00000000	33.57529000	11.04823000
131.09999239	0.00000000	34.41191000	11.04823000
131.29999238	0.00000000	35.16240000	11.04823000
131.49999237	0.00000000	35.90059000	11.04823000
131.69999236	0.00000000	35.90059000	11.00517000
131.89999235	0.00000000	35.20546000	10.62992000
132.09999233	0.00000000	34.78716000	9.89173200
132.29999232	0.00000000	34.36884000	9.56569900
132.49999231	0.00000000	33.61835000	9.89173200
132.69999230	0.00000000	33.24311000	10.62992000
132.89999229	0.00000000	33.20005000	11.00517000
133.09999227	0.00000000	33.24311000	11.09129000
133.29999226	0.00000000	33.57529000	11.46653000
133.49999225	0.00000000	33.98745000	12.21087000
133.69999224	0.00000000	33.95054000	12.58612000
133.89999223	0.00000000	34.03666000	12.58612000
134.09999222	0.00000000	33.99975000	12.21087000
134.29999220	0.00000000	34.41191000	11.42347000
134.49999219	0.00000000	34.74409000	10.67298000
134.69999218	0.00000000	34.78716000	9.89173200
134.89999217	0.00000000	34.78716000	9.51648500
135.09999216	0.00000000	34.78716000	9.47342500
135.29999214	0.00000000	34.78716000	9.51648500
135.49999213	0.00000000	34.78716000	9.89173200
135.69999212	0.00000000	34.74409000	10.67298000
135.89999211	0.00000000	34.36884000	11.42347000
136.09999210	0.00000000	33.61835000	12.21087000
136.29999208	0.00000000	33.20005000	12.58612000
136.49999207	0.00000000	32.82480000	12.62918000
136.69999206	0.00000000	32.45571000	12.62918000
136.89999205	0.00000000	32.86786000	12.58612000
137.09999204	0.00000000	33.57529000	12.21087000
137.29999203	0.00000000	34.41191000	11.42347000
137.49999201	0.00000000	35.16240000	10.67298000
137.69999200	0.00000000	35.94980000	9.89173200
137.89999199	0.00000000	36.27584000	9.51648500
138.09999198	0.00000000	35.94980000	9.47342500
138.29999197	0.00000000	35.16240000	9.51648500
138.49999195	0.00000000	34.41191000	9.89173200
138.69999194	0.00000000	33.61835000	10.62992000
138.89999193	0.00000000	33.24311000	11.04823000
139.09999192	0.00000000	33.20005000	11.46653000
139.29999191	0.00000000	33.20005000	12.21087000
139.49999189	0.00000000	33.24311000	12.58612000
139.69999188	0.00000000	33.61835000	12.58612000
139.89999187	0.00000000	34.36884000	12.21087000
140.09999186	0.00000000	34.74409000	11.46653000
140.29999185	0.00000000	34.78716000	11.04823000
140.49999184	0.00000000	34.78716000	10.62992000
140.69999182	0.00000000	34.78716000	9.93479300
140.89999181	0.00000000	34.74409000	9.89173200
141.09999180	0.00000000	34.36884000	10.21161000
141.29999179	0.00000000	33.61835000	9.89173200
141.49999178	0.00000000	33.24311000	9.93479300
141.69999176	0.00000000	33.24311000	10.67298000
141.89999175	0.00000000	33.61835000	11.42347000
142.09999174	0.00000000	34.36884000	12.21087000
142.29999173	0.00000000	34.74409000	12.58612000
142.49999172	0.00000000	34.78716000	12.62918000
142.69999170	0.00000000	34.74409000	12.58612000
142.89999169	0.00000000	34.36884000	12.21087000
143.09999168	0.00000000	33.61835000	11.42347000
143.29999167	0.00000000	33.24311000	10.67298000
143.49999166	0.00000000	33.20005000	9.89173200
143.69999165	0.00000000	33.24311000	9.51648500
143.89999163	0.00000000	33.61835000	9.51648500
144.09999162	0.00000000	34.41191000	9.89173200
144.29999161	0.00000000	35.11934000	10.67298000
144.49999160	0.00000000	35.53149000	11.42347000
144.69999159	0.00000000	35.16240000	12.21087000
144.89999157	0.00000000	34.83022000	12.58612000
145.09999156	0.00000000	34.74409000	12.62918000
145.29999155	0.00000000	34.36884000	12.58612000
145.49999154	0.00000000	33.61835000	12.21087000
145.69999153	0.00000000	33.24311000	11.42347000
145.89999151	0.00000000	33.20005000	10.67298000
146.09999150	0.00000000	33.20005000	9.89173200
146.29999149	0.00000000	33.24311000	9.51648500
146.49999148	0.00000000	33.61835000	9.47342500
146.69999147	0.00000000	34.36884000	9.51648500
146.89999146	0.00000000	34.74409000	9.89173200
147.09999144	0.00000000	34.74409000	10.62992000
147.29999143	0.00000000	34.41191000	11.04823000
147.49999142	0.00000000	34.04282000	11.46653000
147.69999141	0.00000000	34.36884000	12.21087000
147.89999140	0.00000000	34.31963000	12.58612000
148.09999138	0.00000000	33.66756000	12.58612000
148.29999137	0.00000000	33.61835000	12.21087000
148.49999136	0.00000000	33.94439000	11.46653000
148.69999135	0.00000000	33.57529000	11.04823000
148.89999134	0.00000000	33.29232000	10.62992000
149.09999132	0.00000000	33.61835000	9.89173200
149.29999131	0.00000000	34.36884000	9.56569900
149.49999130	0.00000000	34.74409000	9.89173200
149.69999129	0.00000000	34.74409000	10.62992000
149.89999128	0.00000000	34.41191000	11.00517000
150.09999127	0.00000000	34.04282000	11.09129000
150.29999125	0.00000000	34.36884000	11.42347000
150.49999124	0.00000000	34.31963000	11.79257000
150.69999123	0.00000000	33.61835000	11.42347000
150.89999122	0.00000000	33.24311000	11.09129000
151.09999121	0.00000000	33.20005000	11.04823000
151.29999119	0.00000000	33.20005000	11.04823000
151.49999118	0.00000000	33.20005000	11.04823000
151.69999117	0.00000000	33.20005000	11.04823000
151.89999116	0.00000000	33.24311000	11.04823000
152.09999115	0.00000000	33.61835000	11.04823000
152.29999113	0.00000000	34.36884000	11.04823000
152.49999112	0.00000000	34.74409000	11.04823000
152.69999111	0.00000000	34.83022000	11.04823000
152.89999110	0.00000000	35.11934000	11.04823000
153.09999109	0.00000000	35.10704000	11.04823000
153.29999108	0.00000000	34.04282000	11.04823000
153.49999106	0.00000000	33.66756000	11.04823000
153.69999105	0.00000000	33.94439000	11.04823000
153.89999104	0.00000000	33.53223000	11.04823000
154.09999103	0.00000000	32.86786000	11.04823000
154.29999102	0.00000000	32.45571000	11.04823000
154.49999100	0.00000000	32.82480000	11.04823000
154.69999099	0.00000000	33.15699000	11.04823000
154.89999098	0.00000000	33.24311000	11.04823000
155.09999097	0.00000000	33.61835000	11.04823000
155.29999096	0.00000000	34.36884000	11.04823000
155.49999094	0.00000000	34.74409000	11.04823000
155.69999093	0.00000000	34.78716000	11.04823000
155.89999092	0.00000000	34.78716000	11.04823000
156.09999091	0.00000000	34.74409000	11.04823000
156.29999090	0.00000000	34.41191000	11.09129000
156.49999089	0.00000000	33.99975000	11.42347000
156.69999087	0.00000000	33.98745000	11.79257000
156.89999086	0.00000000	33.57529000	11.42347000
157.09999085	0.00000000	33.24311000	11.09129000
157.29999084	0.00000000	33.24311000	11.04823000
157.49999083	0.00000000	33.57529000	11.04823000
157.69999081	0.00000000	33.94439000	11.04823000
157.89999080	0.00000000	33.61835000	11.00517000
158.09999079	0.00000000	33.66756000	10.62992000
158.29999078	0.00000000	34.36884000	9.89173200
158.49999077	0.00000000	34.74409000	9.56569900
158.69999075	0.00000000	34.78716000	9.89173200
158.89999074	0.00000000	34.78716000	10.62992000
159.09999073	0.00000000	34.74409000	11.00517000
159.29999072	0.00000000	34.36884000	11.09129000
159.49999071	0.00000000	33.61835000	11.46653000
159.69999070	0.00000000	33.24311000	12.16166000
159.89999068	0.00000000	33.20005000	12.21087000
160.09999067	0.00000000	33.20005000	11.84178000
160.29999066	0.00000000	33.20005000	11.83563000
160.49999065	0.00000000	33.20005000	11.42347000
160.69999064	0.00000000	33.20005000	11.09129000
160.89999062	0.00000000	33.24311000	11.00517000
161.09999061	0.00000000	33.61835000	10.67298000
161.29999060	0.00000000	34.36884000	10.31004000
161.49999059	0.00000000	34.74409000	10.67298000
161.69999058	0.00000000	34.78716000	11.00517000
161.89999056	0.00000000	34.78716000	11.04823000
162.09999055	0.00000000	34.78716000	11.09129000
162.29999054	0.00000000	34.78716000	11.46653000
162.49999053	0.00000000	34.74409000	12.21087000
162.69999052	0.00000000	34.36884000	12.53691000
162.89999051	0.00000000	33.66756000	12.21087000
163.09999049	0.00000000	33.61835000	11.46653000
163.29999048	0.00000000	33.94439000	11.09129000
163.49999047	0.00000000	33.57529000	11.04823000
163.69999046	0.00000000	33.24311000	11.04823000
163.89999045	0.00000000	33.20005000	11.04823000
164.09999043	0.00000000	33.24311000	11.04823000
164.29999042	0.00000000	33.61835000	11.04823000
164.49999041	0.00000000	34.36884000	11.04823000
164.69999040	0.00000000	34.74409000	11.04823000
164.89999039	0.00000000	34.78716000	11.04823000
165.09999037	0.00000000	34.78716000	11.04823000
165.29999036	0.00000000	34.78716000	11.04823000
165.49999035	0.00000000	34.74409000	11.04823000
165.69999034	0.00000000	34.36884000	11.04823000
165.89999033	0.00000000	33.61835000	11.04823000
166.09999032	0.00000000	33.24311000	11.04823000
166.29999030	0.00000000	33.20005000	11.04823000
166.49999029	0.00000000	33.20005000	11.04823000
166.69999028	0.00000000	33.20005000	11.00517000
166.89999027	0.00000000	33.20005000	10.62992000
167.09999026	0.00000000	33.20005000	9.93479300
167.29999024	0.00000000	33.24311000	9.93479300
167.49999023	0.00000000	33.61835000	10.62992000
167.69999022	0.00000000	34.36884000	10.95595000
167.89999021	0.00000000	34.69488000	10.62992000
168.09999020	0.00000000	34.36884000	9.93479300
168.29999018	0.00000000	33.61835000	9.93479300
168.49999017	0.00000000	33.24311000	10.62992000
168.69999016	0.00000000	33.20005000	11.00517000
168.89999015	0.00000000	33.20005000	11.04823000
169.09999014	0.00000000	33.20005000	11.04823000
169.29999013	0.00000000	33.20005000	11.04823000
169.49999011	0.00000000	33.20005000	11.04823000
169.69999010	0.00000000	33.20005000	11.04823000
169.89999009	0.00000000	33.20005000	11.04823000
170.09999008	0.00000000	33.24311000	11.04823000
170.29999007	0.00000000	33.57529000	11.04823000
170.49999005	0.00000000	33.98745000	11.04823000
170.69999004	0.00000000	33.95054000	11.04823000
170.89999003	0.00000000	33.98745000	11.04823000
171.09999002	0.00000000	33.57529000	11.04823000
171.29999001	0.00000000	33.29232000	11.04823000
171.49998999	0.00000000	33.57529000	11.04823000
171.69998998	0.00000000	33.94439000	11.04823000
171.89998997	0.00000000	33.57529000	11.04823000
172.09998996	0.00000000	33.24311000	11.04823000
172.29998995	0.00000000	33.20005000	11.04823000
172.49998994	0.00000000	33.20005000	11.04823000
172.69998992	0.00000000	33.20005000	11.04823000
172.89998991	0.00000000	33.20005000	11.04823000
173.09998990	0.00000000	33.20005000	11.04823000
173.29998989	0.00000000	33.20005000	11.04823000
173.49998988	0.00000000	33.20005000	11.04823000
173.69998986	0.00000000	33.20005000	11.04823000
173.89998985	0.00000000	33.20005000	11.04823000
174.09998984	0.00000000	33.24311000	11.04823000
174.29998983	0.00000000	33.57529000	11.04823000
174.49998982	0.00000000	33.94439000	11.04823000
174.69998980	0.00000000	33.57529000	11.04823000
174.89998979	0.00000000	33.24311000	11.04823000
175.09998978	0.00000000	33.24311000	11.04823000
175.29998977	0.00000000	33.57529000	11.04823000
175.49998976	0.00000000	33.94439000	11.04823000
175.69998975	0.00000000	33.57529000	11.04823000
175.89998973	0.00000000	33.24311000	11.04823000
176.09998972	0.00000000	33.20005000	11.04823000
176.29998971	0.00000000	33.20005000	11.04823000
176.49998970	0.00000000	33.20005000	11.04823000
176.69998969	0.00000000	33.20005000	11.04823000
176.89998967	0.00000000	33.20005000	11.04823000
177.09998966	0.00000000	33.20005000	11.04823000
177.29998965	0.00000000	33.20005000	11.04823000
177.49998964	0.00000000	33.15699000	11.00517000
177.69998963	0.00000000	32.82480000	10.67298000
177.89998961	0.00000000	32.45571000	10.31004000
178.09998960	0.00000000	32.82480000	10.67298000
178.29998959	0.00000000	33.15699000	11.00517000
178.49998958	0.00000000	33.20005000	11.04823000
178.69998957	0.00000000	33.20005000	11.04823000
178.89998956	0.00000000	33.20005000	11.04823000
179.09998954	0.00000000	33.20005000	11.04823000
179.29998953	0.00000000	33.20005000	11.04823000
179.49998952	0.00000000	33.20005000	11.04823000
179.69998951	0.00000000	33.20005000	11.04823000
179.89998950	0.00000000	33.20005000	11.04823000
180.09998948	0.00000000	33.20005000	11.04823000
180.29998947	0.00000000	33.20005000	11.00517000
180.49998946	0.00000000	33.20005000	10.67298000
180.69998945	0.00000000	33.20005000	10.31004000
180.89998944	0.00000000	33.15699000	10.62992000
181.09998942	0.00000000	32.82480000	10.62992000
181.29998941	0.00000000	32.45571000	10.31004000
181.49998940	0.00000000	32.82480000	10.67298000
181.69998939	0.00000000	33.15699000	11.00517000
181.89998938	0.00000000	33.20005000	11.04823000
182.09998937	0.00000000	33.20005000	11.04823000
182.29998935	0.00000000	33.20005000	11.04823000
182.49998934	0.00000000	33.20005000	11.04823000
182.69998933	0.00000000	33.20005000	11.04823000
182.89998932	0.00000000	33.20005000	11.00517000
183.09998931	0.00000000	33.20005000	10.67298000
183.29998929	0.00000000	33.20005000	10.31004000
183.49998928	0.00000000	33.20005000	10.67298000
183.69998927	0.00000000	33.20005000	11.00517000
183.89998926	0.00000000	33.20005000	11.04823000
184.09998925	0.00000000	33.20005000	11.04823000
184.29998923	0.00000000	33.20005000	11.04823000
184.49998922	0.00000000	33.20005000	11.04823000
184.69998921	0.00000000	33.20005000	11.04823000
184.89998920	0.00000000	33.20005000	11.04823000
185.09998919	0.00000000	33.24311000	11.04823000
185.29998918	0.00000000	33.57529000	11.04823000
185.49998916	0.00000000	33.94439000	11.00517000
185.69998915	0.00000000	33.57529000	10.67298000
185.89998914	0.00000000	33.24311000	10.26698000
186.09998913	0.00000000	33.20005000	10.25467000
186.29998912	0.00000000	33.20005000	9.89173200
186.49998910	0.00000000	33.20005000	9.93479300
186.69998909	0.00000000	33.20005000	10.62992000
186.89998908	0.00000000	33.20005000	11.00517000
187.09998907	0.00000000	33.20005000	11.04823000
187.29998906	0.00000000	33.20005000	11.04823000
187.49998904	0.00000000	33.20005000	11.09129000
187.69998903	0.00000000	33.20005000	11.42347000
187.89998902	0.00000000	33.20005000	11.79257000
188.09998901	0.00000000	33.20005000	11.42347000
188.29998900	0.00000000	33.20005000	11.09129000
188.49998899	0.00000000	33.20005000	11.04823000
188.69998897	0.00000000	33.20005000	11.04823000
188.89998896	0.00000000	33.20005000	11.00517000
189.09998895	0.00000000	33.20005000	10.67298000
189.29998894	0.00000000	33.20005000	10.26698000
189.49998893	0.00000000	33.20005000	10.30389000
189.69998891	0.00000000	33.15699000	10.26698000
189.89998890	0.00000000	32.82480000	10.67298000
190.09998889	0.00000000	32.45571000	11.00517000
190.29998888	0.00000000	32.82480000	11.04823000
190.49998887	0.00000000	33.15699000	11.04823000
190.69998885	0.00000000	33.20005000	11.04823000
190.89998884	0.00000000	33.20005000	11.04823000
191.09998883	0.00000000	33.20005000	11.04823000
191.29998882	0.00000000	33.20005000	11.04823000
191.49998881	0.00000000	33.20005000	11.04823000
191.69998880	0.00000000	33.20005000	11.04823000
191.89998878	0.00000000	33.20005000	11.00517000
192.09998877	0.00000000	33.20005000	10.62992000
192.29998876	0.00000000	33.20005000	9.89173200
192.49998875	0.00000000	33.20005000	9.56569900
192.69998874	0.00000000	33.20005000	9.89173200
192.89998872	0.00000000	33.20005000	10.62992000
193.09998871	0.00000000	33.20005000	11.00517000
193.29998870	0.00000000	33.20005000	11.04823000
193.49998869	0.00000000	33.20005000	11.04823000
193.69998868	0.00000000	33.24311000	11.04823000
193.89998866	0.00000000	33.57529000	11.04823000
194.09998865	0.00000000	33.94439000	11.04823000
194.29998864	0.00000000	33.57529000	11.04823000
194.49998863	0.00000000	33.24311000	11.04823000
194.69998862	0.00000000	33.20005000	11.04823000
194.89998861	0.00000000	33.20005000	11.04823000
195.09998859	0.00000000	33.20005000	11.04823000
195.29998858	0.00000000	33.20005000	11.04823000
195.49998857	0.00000000	33.24311000	11.04823000
195.69998856	0.00000000	33.57529000	11.00517000
195.89998855	0.00000000	33.94439000	10.67298000
196.09998853	0.00000000	33.57529000	10.31004000
