Time	Channel A	Channel B	Channel C
(us)	(V)	(mV)	(mV)

-4.49999956	0.00000000	8.74138700	-0.73818890
-4.29999957	0.00000000	9.06742000	-0.37524600
-4.09999958	0.00000000	9.01820900	-0.04306102
-3.89999959	0.00000000	8.37229300	0.00000000
-3.69999960	0.00000000	8.37229300	0.00000000
-3.49999962	0.00000000	9.06742000	0.00000000
-3.29999963	0.00000000	9.44266700	0.00000000
-3.09999964	0.00000000	9.44266700	0.00000000
-2.89999965	0.00000000	9.11048200	0.00000000
-2.69999966	0.00000000	8.74138700	0.00000000
-2.49999968	0.00000000	9.11048200	0.00000000
-2.29999969	0.00000000	9.44266700	0.00000000
-2.09999970	0.00000000	9.48572700	0.00000000
-1.89999971	0.00000000	9.48572700	0.00000000
-1.69999972	0.00000000	9.44266700	0.00000000
-1.49999973	0.00000000	9.11048200	0.00000000
-1.29999975	0.00000000	8.74138700	0.00000000
-1.09999976	0.00000000	9.11048200	0.00000000
-0.89999977	0.00000000	9.44266700	0.00000000
-0.69999978	0.00000000	9.48572700	0.00000000
-0.49999979	0.00000000	9.48572700	0.00000000
-0.29999981	0.31803640	9.44266700	0.00000000
-0.09999982	0.63668800	9.11048200	0.00000000
0.10000017	0.95533960	8.74138700	0.00000000
0.30000016	0.95533960	9.06742000	0.00000000
0.50000015	0.79601380	9.06742000	0.00000000
0.70000013	0.31803640	8.74138700	0.00000000
0.90000012	-0.63668800	9.11048200	0.00000000
1.10000011	-1.59264300	9.44266700	0.00000000
1.30000010	-2.38927200	9.48572700	0.00000000
1.50000009	-2.86724900	9.48572700	0.00000000
1.70000008	-2.38927200	9.48572700	0.00000000
1.90000006	-1.11466500	9.48572700	0.00000000
2.10000005	0.79601380	9.48572700	0.00000000
2.30000004	2.86724900	9.48572700	0.00000000
2.50000003	4.61921700	9.48572700	0.00000000
2.70000002	5.41584600	9.44266700	0.00000000
2.90000000	4.77854300	9.06742000	-0.04306102
3.09999999	2.70792300	8.32308000	-0.37524600
3.29999998	-0.31803640	7.99704600	-0.78124990
3.49999997	-3.82258900	8.32308000	-0.74434050
3.69999996	-6.53112700	9.01820900	-0.78124990
3.89999994	-7.96444400	9.06742000	-0.32603340
4.09999993	-7.32714100	8.74138700	0.37524600
4.29999992	-4.77854300	9.11048200	1.11343500
4.49999991	-0.79601380	9.44266700	1.11343500
4.69999990	3.66326300	9.44266700	0.41830710
4.89999989	7.32714100	9.06742000	0.04306102
5.09999987	9.39837600	8.32308000	-0.04306102
5.29999986	8.92039900	7.94783400	-0.41830710
5.49999985	6.37180100	7.94783400	-1.15649600
5.69999984	2.07062000	8.28001900	-1.53174200
5.89999983	-2.70792300	8.64911400	-1.53174200
6.09999981	-6.84916400	8.32308000	-1.15649600
6.29999980	-9.23905000	8.37229300	-0.41830710
6.49999979	-9.23905000	9.01820900	-0.04306102
6.69999978	-7.00848900	9.06742000	0.00000000
6.89999977	-3.02657500	8.74138700	0.00000000
7.09999975	1.27399100	9.11048200	0.00000000
7.29999974	5.09719500	9.44266700	0.00000000
7.49999973	7.32714100	9.44266700	0.00000000
7.69999972	7.64579200	9.11048200	0.00000000
7.89999971	6.05315000	8.74138700	0.00000000
8.09999970	3.18590100	9.06742000	0.00000000
8.29999968	-0.15871060	9.06742000	0.00000000
8.49999967	-3.02657500	8.69832600	0.00000000
8.69999966	-4.77854300	8.73523500	0.00000000
8.89999965	-5.09719500	8.65526600	0.00000000
9.09999964	-4.30056600	8.73523500	0.00000000
9.29999962	-2.54859700	8.69832600	0.00000000
9.49999961	-0.47736220	9.06742000	0.00000000
9.69999960	1.11466500	9.06742000	0.00000000
9.89999959	2.22994600	8.69832600	0.00000000
10.09999958	2.54859700	8.69217500	0.00000000
10.29999956	2.07062000	8.28001900	0.00000000
10.49999955	1.43331700	7.94783400	0.00000000
10.69999954	0.47736220	7.94783400	0.00000000
10.89999953	-0.31803640	8.32308000	0.00000000
11.09999952	-0.79601380	9.06742000	0.00000000
11.29999951	-0.95533960	9.39345400	0.00000000
11.49999949	-0.95533960	9.06742000	0.00000000
11.69999948	-0.63668800	8.37229300	0.00000000
11.89999947	-0.47736220	8.37229300	0.00000000
12.09999946	-0.15871060	9.06742000	0.00000000
12.29999945	-0.15871060	9.39345400	0.00000000
12.49999943	0.00000000	9.11048200	0.00000000
12.69999942	0.00000000	8.74138700	0.00000000
12.89999941	0.00000000	9.06742000	0.00000000
13.09999940	0.00000000	9.06742000	0.00000000
13.29999939	0.00000000	8.69832600	0.00000000
13.49999937	0.00000000	8.69217500	0.00000000
13.69999936	0.00000000	8.32308000	0.00000000
13.89999935	0.00000000	8.32308000	0.00000000
14.09999934	-0.15871060	8.69217500	0.00000000
14.29999933	-0.15871060	8.69832600	0.00000000
14.49999932	-0.15871060	9.06742000	0.00000000
14.69999930	-0.15871060	9.06742000	0.00000000
14.89999929	0.00000000	8.69832600	0.00000000
15.09999928	0.00000000	8.69217500	0.00000000
15.29999927	0.00000000	8.28001900	0.00000000
15.49999926	0.00000000	7.94783400	0.00000000
15.69999924	0.00000000	7.90477300	0.00000000
15.89999923	0.00000000	7.90477300	0.00000000
16.09999922	0.00000000	7.90477300	0.00000000
16.29999921	-0.15871060	7.90477300	0.00000000
16.49999920	0.00000000	7.90477300	0.00000000
16.69999919	-0.15871060	7.94783400	0.00000000
16.89999917	-0.15871060	8.32308000	0.00000000
17.09999916	0.00000000	9.11048200	0.00000000
17.29999915	0.00000000	9.81791200	0.00000000
17.49999914	0.00000000	10.23007000	0.00000000
17.69999913	0.00000000	9.86097400	0.00000000
17.89999911	0.00000000	9.48572700	0.00000000
18.09999910	0.00000000	8.97514600	0.00000000
18.29999909	0.00000000	7.48646600	0.00000000
18.49999908	0.00000000	5.57947800	0.00000000
18.69999907	0.00000000	4.41067900	0.00000000
18.89999905	-0.15871060	3.62942900	0.00000000
19.09999904	0.00000000	3.71555100	0.00000000
19.29999903	0.00000000	5.25344500	0.00000000
19.49999902	0.00000000	7.99704600	0.00000000
19.69999901	0.00000000	11.48499000	0.00000000
19.89999900	0.00000000	15.39124000	0.00000000
20.09999898	0.00000000	18.79306000	0.00000000
20.29999897	0.00000000	20.65084000	0.00000000
20.49999896	0.00000000	19.44513000	0.00000000
20.69999895	0.00000000	15.16363000	0.00000000
20.89999894	0.00000000	8.55684000	0.00000000
21.09999892	0.00000000	0.46751960	0.00000000
21.29999891	0.00000000	-6.84055100	0.00000000
21.49999890	0.00000000	-11.44808000	0.00000000
21.69999889	0.00000000	-12.14321000	0.00000000
21.89999888	0.00000000	-7.82480200	0.00000000
22.09999886	0.00000000	1.06422200	0.00000000
22.29999885	0.00000000	12.69070000	-0.04306102
22.49999884	0.00000000	24.69857000	-0.37524600
22.69999883	0.00000000	34.70103000	-0.73818890
22.89999882	0.00000000	40.00984000	-0.37524600
23.09999881	-0.15871060	38.33661000	0.00000000
23.29999879	0.00000000	29.02928000	0.41830710
23.49999878	0.00000000	13.53962000	1.15649600
23.69999877	0.00000000	-4.56446800	1.53174200
23.89999876	0.00000000	-21.16757000	1.53174200
24.09999875	0.00000000	-31.92052000	1.15649600
24.29999873	0.00000000	-34.15354000	0.37524600
24.49999872	0.00000000	-26.33489000	-0.41830710
24.69999871	0.00000000	-9.35654400	-1.62401600
24.89999870	0.00000000	12.64764000	-3.15575800
25.09999869	0.00000000	34.65797000	-4.68750000
25.29999867	0.00000000	51.63632000	-5.80093500
25.49999866	0.00000000	59.27042000	-5.75787400
25.69999865	0.00000000	55.40723000	-4.18307100
25.89999864	0.00000000	40.33587000	-1.11343500
26.09999863	0.00000000	17.95645000	2.78051200
26.29999862	0.00000000	-6.79749000	6.64370100
26.49999860	0.00000000	-28.38337000	10.11934000
26.69999859	0.00000000	-41.50467000	11.94021000
26.89999858	0.00000000	-43.08563000	11.14665000
27.09999857	0.00000000	-33.04010000	7.24655500
27.29999856	0.00000000	-13.73031000	1.07037400
27.49999854	0.00000000	10.60531000	-6.26845500
27.69999853	0.00000000	34.10433000	-13.23819000
27.89999852	0.00000000	51.17495000	-18.21481000
28.09999851	0.00000000	58.15699000	-20.11565000
28.29999850	0.00000000	54.33686000	-17.66117000
28.49999848	0.00000000	40.42815000	-10.68528000
28.69999847	0.00000000	20.04183000	0.13533460
28.89999846	0.00000000	-1.63016700	12.03248000
29.09999845	0.00000000	-19.86959000	22.06570000
29.29999844	0.00000000	-31.50221000	27.82972000
29.49999843	0.00000000	-34.24581000	27.78666000
29.69999841	0.00000000	-27.73130000	21.55512000
29.89999840	0.00000000	-14.23474000	9.89788300
30.09999839	0.00000000	3.16190900	-5.11195900
30.29999838	0.00000000	20.55856000	-20.15871000
30.49999837	0.00000000	34.14739000	-31.31767000
30.69999835	0.00000000	41.54773000	-36.37426000
30.89999834	0.00000000	41.59080000	-33.96284000
31.09999833	0.00000000	34.70103000	-24.29257000
31.29999832	0.00000000	23.11762000	-8.82750900
31.49999831	0.00000000	9.52879000	8.87672100
31.69999829	0.00000000	-3.63558100	24.76009000
31.89999828	0.00000000	-13.68110000	35.58686000
32.09999827	0.00000000	-18.33169000	39.44390000
32.29999826	0.00000000	-16.88607000	35.12549000
32.49999825	0.00000000	-10.33464000	23.17913000
32.69999824	0.00000000	-0.65206690	6.22539300
32.89999822	0.00000000	10.55610000	-11.52190000
33.09999821	0.00000000	20.55856000	-26.29183000
33.29999820	0.00000000	26.79626000	-35.58686000
33.49999819	0.00000000	28.42027000	-37.91216000
33.69999818	0.00000000	25.71973000	-32.43110000
33.89999816	0.00000000	19.53125000	-20.11565000
34.09999815	0.00000000	11.06668000	-3.53100400
34.29999814	0.00000000	2.64517700	13.05979000
34.49999813	0.00000000	-3.21112200	26.24877000
34.69999812	0.00000000	-5.59178100	33.54453000
34.89999810	0.00000000	-4.84128900	33.21235000
35.09999809	0.00000000	-0.93503930	25.51058000
35.29999808	0.00000000	5.16117100	12.81988000
35.49999807	0.00000000	11.67569000	-2.27608300
35.69999806	0.00000000	16.32628000	-16.12328000
35.89999805	0.00000000	18.28248000	-25.78740000
36.09999803	0.00000000	17.48893000	-28.90010000
36.29999802	0.00000000	13.67495000	-25.08612000
36.49999801	0.00000000	8.37229300	-15.88336000
36.69999800	0.00000000	3.71555100	-3.57406500
36.89999799	0.00000000	0.55364170	8.36614100
37.09999797	0.00000000	-0.93503930	17.24286000
37.29999796	0.00000000	-0.14148620	21.09375000
37.49999795	0.00000000	3.29724400	18.77460000
37.69999794	0.00000000	7.90477300	11.14665000
37.89999793	0.00000000	12.55536000	0.46751960
38.09999791	0.00000000	16.36934000	-9.47957600
38.29999790	0.00000000	17.95029000	-15.66191000
38.49999789	0.00000000	17.21210000	-16.81841000
38.69999788	0.00000000	14.88066000	-12.63533000
38.89999787	0.00000000	10.97441000	-4.60137700
39.09999786	0.00000000	6.36687900	4.60137700
39.29999784	0.00000000	2.13459600	12.63533000
39.49999783	0.00000000	-0.60900590	16.81841000
39.69999782	0.00000000	-1.40255900	15.66191000
39.89999781	0.00000000	-0.60900590	9.56569900
40.09999780	0.00000000	2.13459600	0.37524600
40.29999778	0.00000000	6.36687900	-8.82750900
40.49999777	0.00000000	10.97441000	-15.79724000
40.69999776	0.00000000	14.88066000	-18.81767000
40.89999775	0.00000000	17.25517000	-16.86762000
41.09999774	0.00000000	18.41781000	-9.99015700
41.29999772	0.00000000	17.95029000	-0.41830710
41.49999771	0.00000000	15.25591000	8.82750900
41.69999770	0.00000000	11.06668000	15.74803000
41.89999769	0.00000000	6.79133800	18.44242000
42.09999768	0.00000000	3.29724400	16.16634000
42.29999767	0.00000000	0.92888770	10.03322000
42.49999765	0.00000000	0.13533460	1.57480300
42.69999764	0.00000000	0.51058070	-6.87746000
42.89999763	0.00000000	2.13459600	-13.05364000
43.09999762	0.00000000	5.16117100	-15.79109000
43.29999761	0.00000000	8.59990100	-14.63459000
43.49999759	0.00000000	10.93135000	-10.07628000
43.69999758	0.00000000	12.22933000	-3.53100400
43.89999757	0.00000000	12.93061000	2.93430100
44.09999756	0.00000000	12.92446000	7.65871000
44.29999755	0.00000000	11.44193000	9.62106200
44.49999753	0.00000000	9.99630800	9.65797200
44.69999752	0.00000000	9.57800100	7.33882900
44.89999751	0.00000000	9.86097400	3.53100400
45.09999750	0.00000000	10.23007000	-0.33218500
45.29999749	0.00000000	9.76870100	-3.80782500
45.49999748	0.00000000	8.59990100	-5.75787400
45.69999746	0.00000000	6.28075700	-6.21924200
45.89999745	0.00000000	3.58021600	-5.80093500
46.09999744	0.00000000	1.24877000	-4.22613100
46.29999743	0.00000000	-0.65206690	-1.58095500
46.49999742	0.00000000	-0.93503930	1.11343500
46.69999740	0.00000000	1.02116100	3.06348400
46.89999739	0.00000000	5.29650500	4.22613100
47.09999738	0.00000000	11.06668000	4.22613100
47.29999737	0.00000000	16.87992000	3.06348400
47.49999736	0.00000000	21.48745000	1.15649600
47.69999734	0.00000000	23.76353000	-1.20570900
47.89999733	0.00000000	22.55782000	-3.48179100
48.09999732	0.00000000	17.90723000	-5.38262700
48.29999731	0.00000000	10.51304000	-5.75787400
48.49999730	0.00000000	1.67322800	-4.64443900
48.69999729	0.00000000	-6.37303100	-2.69439000
48.89999727	0.00000000	-10.93750000	0.04306102
49.09999726	0.00000000	-10.61147000	3.11269700
49.29999725	0.00000000	-5.59178100	5.75787400
49.49999724	0.00000000	2.50984200	6.92052100
49.69999723	0.00000000	12.18012000	6.13312000
49.89999721	0.00000000	21.02608000	3.85088600
50.09999720	0.00000000	26.79626000	0.37524600
50.29999719	0.00000000	27.90969000	-3.11269700
50.49999718	0.00000000	23.72047000	-6.22539300
50.69999717	0.00000000	15.67421000	-8.50147600
50.89999715	0.00000000	6.41609200	-8.87672100
51.09999714	0.00000000	-2.09768700	-7.33882900
51.29999713	0.00000000	-7.82480200	-4.22613100
51.49999712	0.00000000	-8.98129900	0.00000000
51.69999711	0.00000000	-5.16732200	4.22613100
51.89999710	0.00000000	2.09153500	7.29576700
52.09999708	0.00000000	10.55610000	8.45226300
52.29999707	0.00000000	17.86417000	7.33882900
52.49999706	0.00000000	22.13952000	4.64443900
52.69999705	0.00000000	22.51476000	1.15649600
52.89999704	0.00000000	19.06988000	-2.69439000
53.09999702	0.00000000	12.55536000	-5.75787400
53.29999701	0.00000000	5.25344500	-7.33882900
53.49999700	0.00000000	-0.89197830	-7.33882900
53.69999699	0.00000000	-4.37376900	-5.75787400
53.89999698	0.00000000	-3.96161400	-2.73745100
54.09999696	0.00000000	-0.18454720	0.69512790
54.29999695	0.00000000	5.99163300	2.97736200
54.49999694	0.00000000	12.46924000	3.85088600
54.69999693	0.00000000	17.48893000	3.43873000
54.89999692	0.00000000	19.44513000	2.31914400
55.09999691	0.00000000	18.32554000	0.37524600
55.29999689	0.00000000	14.83760000	-1.48868100
55.49999688	0.00000000	9.44266700	-2.60211600
55.69999687	0.00000000	3.71555100	-2.22687000
55.89999686	0.00000000	-0.51673230	-0.37524600
56.09999685	0.00000000	-2.09768700	1.48868100
56.29999683	0.00000000	-0.93503930	2.68823800
56.49999682	0.00000000	2.50984200	3.02042300
56.69999681	0.00000000	7.48646600	2.22687000
56.89999680	0.00000000	12.09400000	-0.09227362
57.09999679	0.00000000	15.25591000	-3.11269700
57.29999677	0.00000000	16.74459000	-5.80093500
57.49999676	0.00000000	15.99409000	-7.33882900
57.69999675	0.00000000	12.93061000	-7.29576700
57.89999674	0.00000000	9.15354300	-5.29650500
58.09999673	0.00000000	5.62869100	-1.06422200
58.29999672	0.00000000	3.34030500	4.27534400
58.49999670	0.00000000	2.50984200	8.82750900
58.69999669	0.00000000	3.25418300	11.14665000
58.89999668	0.00000000	4.78592500	10.35925000
59.09999667	0.00000000	6.74212600	6.92052100
59.29999666	0.00000000	9.01820900	1.48868100
59.49999664	0.00000000	10.55610000	-4.64443900
59.69999663	0.00000000	10.97441000	-10.07628000
59.89999662	0.00000000	10.59916000	-13.52116000
60.09999661	0.00000000	9.48572700	-14.21629000
60.29999660	0.00000000	8.32308000	-11.10359000
60.49999658	0.00000000	7.52952700	-4.60137700
60.69999657	0.00000000	6.79133800	3.06348400
60.89999656	0.00000000	6.79133800	9.98400600
61.09999655	0.00000000	7.52952700	14.21629000
61.29999654	0.00000000	8.28001900	14.63459000
61.49999653	0.00000000	9.01820900	11.56496000
61.69999651	0.00000000	9.01820900	5.71481200
61.89999650	0.00000000	8.28001900	-1.95004900
62.09999649	0.00000000	7.52952700	-9.65797200
62.29999648	0.00000000	6.74212600	-15.00984000
62.49999647	0.00000000	6.36687900	-16.99680000
62.69999645	0.00000000	6.32381900	-15.05290000
62.89999644	0.00000000	6.36687900	-10.03322000
63.09999643	0.00000000	6.79133800	-2.69439000
63.29999642	0.00000000	7.94783400	5.33956700
63.49999641	0.00000000	9.44266700	11.52190000
63.69999639	0.00000000	10.59916000	14.63459000
63.89999638	0.00000000	10.97441000	14.25935000
64.09999637	0.00000000	10.59916000	10.45152000
64.29999636	0.00000000	9.44266700	4.64443900
64.49999635	0.00000000	7.90477300	-1.90698800
64.69999634	0.00000000	6.36687900	-8.07701800
64.89999632	0.00000000	5.21038300	-11.98942000
65.09999631	0.00000000	4.83513700	-13.56422000
65.29999630	0.00000000	5.21038300	-12.77067000
65.49999629	0.00000000	6.36687900	-9.29502900
65.69999628	0.00000000	7.86171200	-4.31840500
65.89999626	0.00000000	9.01820900	1.06422200
66.09999625	0.00000000	9.44266700	5.33956700
66.29999624	0.00000000	9.44266700	7.75713500
66.49999623	0.00000000	8.97514600	8.96284400
66.69999622	0.00000000	7.48646600	8.91978400
66.89999620	0.00000000	5.62869100	7.38188900
67.09999619	0.00000000	4.87819900	4.68750000
67.29999618	0.00000000	5.21038300	1.58095500
67.49999617	0.00000000	6.41609200	-1.58095500
67.69999616	0.00000000	8.32308000	-4.68750000
67.89999615	0.00000000	10.64838000	-7.38188900
68.09999613	0.00000000	12.51230000	-8.96284400
68.29999612	0.00000000	13.29970000	-9.33809000
68.49999611	0.00000000	12.51230000	-8.54453700
68.69999610	0.00000000	10.55610000	-6.17618100
68.89999609	0.00000000	7.43725300	-2.69439000
69.09999607	0.00000000	3.62942900	1.57480300
69.29999606	0.00000000	0.55364170	5.80093500
69.49999605	0.00000000	-0.98425190	8.91978400
69.69999604	0.00000000	-0.55979330	10.45152000
69.89999603	0.00000000	2.13459600	10.03322000
70.09999601	0.00000000	6.41609200	7.33882900
70.29999600	0.00000000	11.39887000	3.06963600
70.49999599	0.00000000	16.04331000	-1.95004900
70.69999598	0.00000000	18.74385000	-6.96358300
70.89999597	0.00000000	19.48819000	-10.40846000
71.09999596	0.00000000	17.53199000	-11.60802000
71.29999594	0.00000000	12.88755000	-10.45152000
71.49999593	0.00000000	7.15428100	-7.38188900
71.69999592	0.00000000	1.30413400	-3.06963600
71.89999591	0.00000000	-2.89124000	1.90698800
72.09999590	0.00000000	-4.88435000	6.50221400
72.29999588	0.00000000	-4.05388800	8.82750900
72.49999587	0.00000000	-0.60900590	8.87672100
72.69999586	0.00000000	4.78592500	6.96358300
72.89999585	0.00000000	10.59916000	3.53100400
73.09999584	0.00000000	15.58194000	0.04306102
73.29999582	0.00000000	18.69463000	-3.02042300
73.49999581	0.00000000	18.74385000	-4.96432100
73.69999580	0.00000000	16.83686000	-5.01968500
73.89999579	0.00000000	13.29970000	-4.31840500
74.09999578	0.00000000	8.32308000	-3.11269700
74.29999577	0.00000000	3.71555100	-1.62401600
74.49999575	0.00000000	0.55364170	-0.51058070
74.69999574	0.00000000	-0.98425190	-0.51058070
74.89999573	0.00000000	-0.60900590	-1.57480300
75.09999572	0.00000000	1.71628900	-2.68823800
75.29999571	0.00000000	5.11811000	-3.06348400
75.49999569	0.00000000	8.59990100	-2.64517700
75.69999568	0.00000000	10.93135000	-1.11343500
75.89999567	0.00000000	12.18012000	1.20570900
76.09999566	0.00000000	12.51230000	3.48179100
76.29999565	0.00000000	11.76181000	5.43184000
76.49999563	0.00000000	9.90403500	6.13312000
76.69999562	0.00000000	8.37229300	5.33956700
76.89999561	0.00000000	7.52952700	2.60211600
77.09999560	0.00000000	6.74212600	-1.57480300
77.29999559	0.00000000	6.41609200	-5.80093500
77.49999558	0.00000000	6.74212600	-8.91978400
77.69999556	0.00000000	7.43725300	-10.45152000
77.89999555	0.00000000	7.43725300	-10.03322000
78.09999554	0.00000000	6.69906400	-7.29576700
78.29999553	0.00000000	5.94857300	-2.69439000
78.49999552	0.00000000	5.21038300	2.69439000
78.69999550	0.00000000	5.21038300	7.29576700
78.89999549	0.00000000	5.99163300	10.03322000
79.09999548	0.00000000	7.16043300	10.40846000
79.29999547	0.00000000	9.11048200	8.50147600
79.49999546	0.00000000	10.97441000	4.64443900
79.69999544	0.00000000	12.18012000	0.04306102
79.89999543	0.00000000	12.51230000	-4.26919300
80.09999542	0.00000000	11.71875000	-7.75713500
80.29999541	0.00000000	9.39345400	-10.03322000
80.49999540	0.00000000	6.36687900	-10.03322000
80.69999539	0.00000000	3.67249000	-7.80019600
80.89999537	0.00000000	2.13459600	-4.73671200
81.09999536	0.00000000	2.09153500	-1.58095500
81.29999535	0.00000000	3.25418300	1.53174200
81.49999534	0.00000000	5.21038300	4.26919300
81.69999533	0.00000000	7.90477300	6.17618100
81.89999531	0.00000000	10.55610000	6.96358300
82.09999530	0.00000000	12.13706000	6.17618100
82.29999529	0.00000000	12.55536000	4.31840500
82.49999528	0.00000000	12.13706000	1.95004900
82.69999527	0.00000000	10.59916000	-0.41830710
82.89999525	0.00000000	8.32308000	-3.15575800
83.09999524	0.00000000	6.41609200	-5.80093500
83.29999523	0.00000000	5.21038300	-7.38188900
83.49999522	0.00000000	4.83513700	-7.80019600
83.69999521	0.00000000	5.16117100	-7.38188900
83.89999520	0.00000000	5.94857300	-5.80093500
84.09999518	0.00000000	6.74212600	-3.06348400
84.29999517	0.00000000	7.90477300	0.41830710
84.49999516	0.00000000	8.97514600	4.26919300
84.69999515	0.00000000	9.01820900	7.29576700
84.89999514	0.00000000	8.32308000	8.50147600
85.09999512	0.00000000	7.94783400	7.71407400
85.29999511	0.00000000	7.90477300	5.38262700
85.49999510	0.00000000	7.94783400	1.48868100
85.69999509	0.00000000	8.32308000	-3.06963600
85.89999508	0.00000000	9.01820900	-6.96358300
86.09999506	0.00000000	9.01820900	-9.29502900
86.29999505	0.00000000	8.32308000	-10.03322000
86.49999504	0.00000000	7.86171200	-8.50147600
86.69999503	0.00000000	7.06815900	-5.01968500
86.89999502	0.00000000	5.57947800	-0.78124990
87.09999501	0.00000000	4.83513700	3.85703700
87.29999499	0.00000000	4.78592500	7.29576700
87.49999498	0.00000000	5.21038300	8.87672100
87.69999497	0.00000000	6.36687900	8.45226300
87.89999496	0.00000000	7.90477300	5.71481200
88.09999495	0.00000000	9.44266700	1.15649600
88.29999493	0.00000000	10.59916000	-3.85703700
88.49999492	0.00000000	10.97441000	-7.67101300
88.69999491	0.00000000	10.59916000	-9.65797200
88.89999490	0.00000000	9.44266700	-9.24581600
89.09999489	0.00000000	7.90477300	-6.92052100
89.29999487	0.00000000	6.36687900	-2.64517700
89.49999486	0.00000000	5.21038300	2.64517700
89.69999485	0.00000000	4.83513700	6.87746000
89.89999484	0.00000000	5.16117100	8.82750900
90.09999483	0.00000000	5.94857300	8.45226300
90.29999482	0.00000000	6.69906400	5.71481200
90.49999480	0.00000000	7.48646600	1.11343500
90.69999479	0.00000000	7.90477300	-4.22613100
90.89999478	0.00000000	8.32308000	-8.45226300
91.09999477	0.00000000	9.01820900	-10.35925000
91.29999476	0.00000000	9.01820900	-9.60875900
91.49999474	0.00000000	8.32308000	-6.17618100
91.69999473	0.00000000	7.94783400	-1.57480300
91.89999472	0.00000000	7.90477300	3.06963600
92.09999471	0.00000000	7.94783400	6.92052100
92.29999470	0.00000000	8.28001900	8.78444900
92.49999468	0.00000000	8.64911400	8.03395600
92.69999467	0.00000000	8.23695900	4.60137700
92.89999466	0.00000000	7.48646600	0.00000000
93.09999465	0.00000000	6.32381900	-4.64443900
93.29999464	0.00000000	5.21038300	-8.45226300
93.49999463	0.00000000	4.83513700	-9.94094400
93.69999461	0.00000000	5.16117100	-8.45226300
93.89999460	0.00000000	5.99163300	-4.69365100
94.09999459	0.00000000	7.16043300	-0.41830710
94.29999458	0.00000000	9.11048200	3.43873000
94.49999457	0.00000000	11.02362000	6.50221400
94.69999455	0.00000000	12.55536000	7.24655500
94.89999454	0.00000000	13.25664000	5.75787400
95.09999453	0.00000000	12.09400000	2.64517700
95.29999452	0.00000000	9.44266700	-1.53174200
95.49999451	0.00000000	6.36687900	-5.33956700
95.69999449	0.00000000	3.62942900	-7.29576700
95.89999448	0.00000000	1.67322800	-7.33882900
96.09999447	0.00000000	0.51058070	-5.80093500
96.29999446	0.00000000	0.55364170	-3.11269700
96.49999445	0.00000000	2.13459600	-0.04306102
96.69999444	0.00000000	5.25344500	2.64517700
96.89999442	0.00000000	9.44266700	4.18307100
97.09999441	0.00000000	13.29970000	4.22613100
97.29999440	0.00000000	15.63115000	3.06348400
97.49999439	0.00000000	16.41855000	1.15649600
97.69999438	0.00000000	15.21284000	-1.15649600
97.89999436	0.00000000	12.13706000	-3.06348400
98.09999435	0.00000000	7.90477300	-4.22613100
98.29999434	0.00000000	3.67249000	-4.22613100
98.49999433	0.00000000	0.55364170	-3.11269700
98.69999432	0.00000000	-1.02731300	-1.62401600
98.89999430	0.00000000	-1.02731300	-0.46136810
99.09999429	0.00000000	0.55364170	0.00000000
99.29999428	0.00000000	3.62942900	0.37524600
99.49999427	0.00000000	7.48646600	0.78124990
99.69999426	0.00000000	10.97441000	0.79355310
99.89999425	0.00000000	13.71801000	1.19955700
100.09999423	0.00000000	15.25591000	1.53174200
100.29999422	0.00000000	15.25591000	1.57480300
100.49999421	0.00000000	13.67495000	1.53174200
100.69999420	0.00000000	10.64838000	1.11343500
100.89999419	0.00000000	7.16043300	-0.04306102
101.09999417	0.00000000	4.45989200	-1.57480300
101.29999416	0.00000000	2.46678100	-3.11269700
101.49999415	0.00000000	1.71628900	-4.26919300
101.69999414	0.00000000	2.04847400	-4.64443900
101.89999413	0.00000000	3.25418300	-4.26919300
102.09999411	0.00000000	5.16117100	-3.06348400
102.29999410	0.00000000	7.48646600	-1.15649600
102.49999409	0.00000000	9.44266700	1.20570900
102.69999408	0.00000000	11.02362000	3.48179100
102.89999407	0.00000000	12.13706000	5.38262700
103.09999406	0.00000000	12.13706000	5.71481200
103.29999404	0.00000000	11.02362000	4.22613100
103.49999403	0.00000000	9.44266700	1.53174200
103.69999402	0.00000000	7.48646600	-1.53174200
103.89999401	0.00000000	5.21038300	-4.26919300
104.09999400	0.00000000	3.67249000	-6.17618100
104.29999398	0.00000000	3.25418300	-6.96358300
104.49999397	0.00000000	3.62942900	-6.13312000
104.69999396	0.00000000	4.78592500	-3.90009800
104.89999395	0.00000000	6.32381900	-0.79355310
105.09999394	0.00000000	7.86171200	1.86392700
105.29999392	0.00000000	9.06742000	3.85088600
105.49999391	0.00000000	9.81791200	4.55831700
105.69999390	0.00000000	10.18086000	3.85088600
105.89999389	0.00000000	9.39345400	1.90698800
106.09999388	0.00000000	7.90477300	-0.37524600
106.29999387	0.00000000	6.36687900	-2.69439000
106.49999385	0.00000000	5.21038300	-4.22613100
106.69999384	0.00000000	4.83513700	-4.64443900
106.89999383	0.00000000	5.21038300	-4.22613100
107.09999382	0.00000000	6.32381900	-2.69439000
107.29999381	0.00000000	7.48646600	-0.41830710
107.49999379	0.00000000	8.28001900	1.48868100
107.69999378	0.00000000	9.06742000	2.64517700
107.89999377	0.00000000	9.39345400	2.64517700
108.09999376	0.00000000	9.01820900	1.53174200
108.29999375	0.00000000	7.90477300	0.00000000
108.49999374	0.00000000	6.74212600	-1.57480300
108.69999372	0.00000000	5.94857300	-3.06348400
108.89999371	0.00000000	5.21038300	-3.85088600
109.09999370	0.00000000	5.21038300	-3.43873000
109.29999369	0.00000000	5.94857300	-2.36220500
109.49999368	0.00000000	6.74212600	-0.79355310
109.69999366	0.00000000	7.90477300	0.37524600
109.89999365	0.00000000	9.01820900	1.57480300
110.09999364	0.00000000	9.39345400	2.64517700
110.29999363	0.00000000	9.06742000	2.64517700
110.49999362	0.00000000	8.32308000	1.53174200
110.69999360	0.00000000	7.90477300	0.00000000
110.89999359	0.00000000	7.43725300	-1.53174200
111.09999358	0.00000000	6.32381900	-2.73745100
111.29999357	0.00000000	5.25344500	-3.48794300
111.49999356	0.00000000	5.16117100	-3.90009800
111.69999355	0.00000000	5.53026500	-3.48794300
111.89999353	0.00000000	5.57947800	-2.73745100
112.09999352	0.00000000	6.36687900	-1.57480300
112.29999351	0.00000000	7.43725300	-0.41830710
112.49999350	0.00000000	7.86171200	0.37524600
112.69999349	0.00000000	7.90477300	1.15649600
112.89999347	0.00000000	7.90477300	1.48253000
113.09999346	0.00000000	7.90477300	1.15649600
113.29999345	0.00000000	7.86171200	0.41830710
113.49999344	0.00000000	7.52952700	0.04306102
113.69999343	0.00000000	7.11737200	-0.04306102
113.89999341	0.00000000	7.11122000	-0.41830710
114.09999340	0.00000000	6.69906400	-1.15649600
114.29999339	0.00000000	6.41609200	-1.53174200
114.49999338	0.00000000	6.74212600	-1.61786400
114.69999337	0.00000000	7.48646600	-1.99311000
114.89999336	0.00000000	7.86171200	-2.73745100
115.09999334	0.00000000	7.94783400	-3.06348400
115.29999333	0.00000000	8.28001900	-2.73745100
115.49999332	0.00000000	8.59990100	-1.95004900
115.69999331	0.00000000	7.90477300	-1.19955700
115.89999330	0.00000000	7.20964500	-0.37524600
116.09999328	0.00000000	7.48646600	0.37524600
116.29999327	0.00000000	7.43725300	1.15649600
116.49999326	0.00000000	6.74212600	1.48253000
116.69999325	0.00000000	6.41609200	1.15649600
116.89999324	0.00000000	6.74212600	0.37524600
117.09999322	0.00000000	7.48646600	-0.37524600
117.29999321	0.00000000	7.90477300	-1.19955700
117.49999320	0.00000000	8.32308000	-1.95004900
117.69999319	0.00000000	9.06742000	-2.73745100
117.89999318	0.00000000	9.44266700	-3.11269700
118.09999317	0.00000000	9.44266700	-3.11269700
118.29999315	0.00000000	9.06742000	-2.68823800
118.49999314	0.00000000	8.28001900	-1.57480300
118.69999313	0.00000000	7.48646600	-0.46136810
118.89999312	0.00000000	6.32381900	0.00000000
119.09999311	0.00000000	5.21038300	0.41830710
119.29999309	0.00000000	4.78592500	1.15649600
119.49999308	0.00000000	4.78592500	1.48253000
119.69999307	0.00000000	5.21038300	1.15649600
119.89999306	0.00000000	6.36687900	0.41830710
120.09999305	0.00000000	7.86171200	0.00000000
120.29999303	0.00000000	9.06742000	-0.41830710
120.49999302	0.00000000	9.81791200	-1.19955700
120.69999301	0.00000000	10.23007000	-1.90698800
120.89999300	0.00000000	9.81791200	-2.31914400
121.09999299	0.00000000	9.06742000	-1.95004900
121.29999298	0.00000000	7.90477300	-1.61786400
121.49999296	0.00000000	6.74212600	-1.57480300
121.69999295	0.00000000	5.94857300	-1.53174200
121.89999294	0.00000000	5.16117100	-1.15649600
122.09999293	0.00000000	4.78592500	-0.41830710
122.29999292	0.00000000	4.78592500	-0.04306102
122.49999290	0.00000000	5.21038300	0.00000000
122.69999289	0.00000000	6.32381900	0.00000000
122.89999288	0.00000000	7.48646600	0.00000000
123.09999287	0.00000000	8.28001900	0.00000000
123.29999286	0.00000000	9.06742000	-0.04306102
123.49999284	0.00000000	9.44266700	-0.41830710
123.69999283	0.00000000	9.44266700	-1.15649600
123.89999282	0.00000000	9.06742000	-1.53174200
124.09999281	0.00000000	8.28001900	-1.57480300
124.29999280	0.00000000	7.52952700	-1.57480300
124.49999279	0.00000000	6.69906400	-1.57480300
124.69999277	0.00000000	5.94857300	-1.57480300
124.89999276	0.00000000	5.16117100	-1.53174200
125.09999275	0.00000000	4.78592500	-1.15649600
125.29999274	0.00000000	4.74286400	-0.41830710
125.49999273	0.00000000	4.78592500	-0.04306102
125.69999271	0.00000000	5.21038300	0.00000000
125.89999270	0.00000000	6.36687900	0.00000000
126.09999269	0.00000000	7.86171200	0.00000000
126.29999268	0.00000000	9.01820900	0.00000000
126.49999267	0.00000000	9.44266700	0.00000000
126.69999265	0.00000000	9.48572700	-0.04306102
126.89999264	0.00000000	9.39345400	-0.41830710
127.09999263	0.00000000	8.64911400	-1.15649600
127.29999262	0.00000000	7.11737200	-1.53174200
127.49999261	0.00000000	5.99163300	-1.57480300
127.69999260	0.00000000	5.16117100	-1.57480300
127.89999258	0.00000000	4.83513700	-1.53174200
128.09999257	0.00000000	5.16117100	-1.15649600
128.29999256	0.00000000	5.94857300	-0.41830710
128.49999255	0.00000000	6.74212600	-0.04306102
128.69999254	0.00000000	7.90477300	0.00000000
128.89999252	0.00000000	9.01820900	0.00000000
129.09999251	0.00000000	9.39345400	-0.04306102
129.29999250	0.00000000	9.06742000	-0.41830710
129.49999249	0.00000000	8.28001900	-1.15649600
129.69999248	0.00000000	7.48646600	-1.53174200
129.89999246	0.00000000	6.32381900	-1.57480300
130.09999245	0.00000000	5.21038300	-1.57480300
130.29999244	0.00000000	4.83513700	-1.53174200
130.49999243	0.00000000	5.16117100	-1.15649600
130.69999242	0.00000000	5.94857300	-0.41830710
130.89999241	0.00000000	6.69906400	-0.04306102
131.09999239	0.00000000	7.48646600	0.00000000
131.29999238	0.00000000	7.90477300	0.00000000
131.49999237	0.00000000	8.28001900	-0.04306102
131.69999236	0.00000000	8.64911400	-0.41830710
131.89999235	0.00000000	8.28001900	-1.15649600
132.09999233	0.00000000	7.90477300	-1.53174200
132.29999232	0.00000000	7.48646600	-1.57480300
132.49999231	0.00000000	6.69906400	-1.57480300
132.69999230	0.00000000	5.99163300	-1.53174200
132.89999229	0.00000000	5.57947800	-1.15649600
133.09999227	0.00000000	5.94857300	-0.37524600
133.29999226	0.00000000	6.28075700	0.32603340
133.49999225	0.00000000	6.32381900	0.73818890
133.69999224	0.00000000	6.32381900	0.37524600
133.89999223	0.00000000	6.32381900	0.00000000
134.09999222	0.00000000	6.32381900	-0.41830710
134.29999220	0.00000000	6.32381900	-1.15649600
134.49999219	0.00000000	6.36687900	-1.57480300
134.69999218	0.00000000	6.74212600	-1.99311000
134.89999217	0.00000000	7.48646600	-2.73745100
135.09999216	0.00000000	7.86171200	-3.06348400
135.29999214	0.00000000	7.90477300	-2.73745100
135.49999213	0.00000000	7.90477300	-1.95004900
135.69999212	0.00000000	7.90477300	-1.19955700
135.89999211	0.00000000	7.86171200	-0.41830710
136.09999210	0.00000000	7.43725300	0.00000000
136.29999208	0.00000000	6.32381900	0.37524600
136.49999207	0.00000000	5.25344500	0.73818890
136.69999206	0.00000000	5.21038300	0.37524600
136.89999205	0.00000000	5.94857300	0.00000000
137.09999204	0.00000000	6.69906400	-0.41830710
137.29999203	0.00000000	7.52952700	-1.15649600
137.49999201	0.00000000	8.28001900	-1.53174200
137.69999200	0.00000000	9.01820900	-1.57480300
137.89999199	0.00000000	9.01820900	-1.61786400
138.09999198	0.00000000	8.28001900	-1.95004900
138.29999197	0.00000000	7.52952700	-2.31914400
138.49999195	0.00000000	6.69906400	-1.90698800
138.69999194	0.00000000	5.94857300	-1.19955700
138.89999193	0.00000000	5.21038300	-0.41830710
139.09999192	0.00000000	5.21038300	-0.04306102
139.29999191	0.00000000	5.90551100	0.00000000
139.49999189	0.00000000	6.32381900	0.00000000
139.69999188	0.00000000	6.74212600	0.00000000
139.89999187	0.00000000	7.48646600	0.00000000
140.09999186	0.00000000	7.86171200	-0.04306102
140.29999185	0.00000000	7.90477300	-0.41830710
140.49999184	0.00000000	7.86171200	-1.19955700
140.69999182	0.00000000	7.48646600	-1.95004900
140.89999181	0.00000000	6.74212600	-2.68823800
141.09999180	0.00000000	6.41609200	-2.68823800
141.29999179	0.00000000	6.69906400	-1.99311000
141.49999178	0.00000000	7.06815900	-1.57480300
141.69999176	0.00000000	6.69906400	-1.15649600
141.89999175	0.00000000	6.41609200	-0.37524600
142.09999174	0.00000000	6.74212600	0.37524600
142.29999173	0.00000000	7.48646600	1.11343500
142.49999172	0.00000000	7.86171200	1.11343500
142.69999170	0.00000000	7.90477300	0.37524600
142.89999169	0.00000000	7.86171200	-0.37524600
143.09999168	0.00000000	7.48646600	-1.19955700
143.29999167	0.00000000	6.74212600	-1.95004900
143.49999166	0.00000000	6.36687900	-2.73745100
143.69999165	0.00000000	6.32381900	-3.06348400
143.89999163	0.00000000	6.32381900	-2.73745100
144.09999162	0.00000000	6.32381900	-1.95004900
144.29999161	0.00000000	6.36687900	-1.19955700
144.49999160	0.00000000	6.74212600	-0.41830710
144.69999159	0.00000000	7.48646600	-0.04306102
144.89999157	0.00000000	7.81250000	0.00000000
145.09999156	0.00000000	7.48646600	0.00000000
145.29999155	0.00000000	6.74212600	-0.04306102
145.49999154	0.00000000	6.36687900	-0.41830710
145.69999153	0.00000000	6.32381900	-1.15649600
145.89999151	0.00000000	6.32381900	-1.57480300
146.09999150	0.00000000	6.32381900	-1.99311000
146.29999149	0.00000000	6.32381900	-2.68823800
146.49999148	0.00000000	6.36687900	-2.68823800
146.69999147	0.00000000	6.74212600	-1.99311000
146.89999146	0.00000000	7.43725300	-1.57480300
147.09999144	0.00000000	7.48646600	-1.15649600
147.29999143	0.00000000	7.16043300	-0.41830710
147.49999142	0.00000000	7.48646600	-0.04306102
147.69999141	0.00000000	7.43725300	0.00000000
147.89999140	0.00000000	6.74212600	0.00000000
148.09999138	0.00000000	6.36687900	0.00000000
148.29999137	0.00000000	6.32381900	-0.04306102
148.49999136	0.00000000	6.32381900	-0.41830710
148.69999135	0.00000000	6.32381900	-1.15649600
148.89999134	0.00000000	6.32381900	-1.53174200
149.09999132	0.00000000	6.32381900	-1.57480300
149.29999131	0.00000000	6.36687900	-1.57480300
149.49999130	0.00000000	6.74212600	-1.57480300
149.69999129	0.00000000	7.48646600	-1.53174200
149.89999128	0.00000000	7.86171200	-1.15649600
150.09999127	0.00000000	7.86171200	-0.41830710
150.29999125	0.00000000	7.48646600	-0.04306102
150.49999124	0.00000000	6.74212600	0.00000000
150.69999123	0.00000000	6.36687900	0.00000000
150.89999122	0.00000000	6.32381900	0.00000000
151.09999121	0.00000000	6.32381900	-0.04306102
151.29999119	0.00000000	6.32381900	-0.41830710
151.49999118	0.00000000	6.32381900	-1.15649600
151.69999117	0.00000000	6.32381900	-1.53174200
151.89999116	0.00000000	6.32381900	-1.57480300
152.09999115	0.00000000	6.36687900	-1.57480300
152.29999113	0.00000000	6.74212600	-1.53174200
152.49999112	0.00000000	7.48646600	-1.15649600
152.69999111	0.00000000	7.86171200	-0.41830710
152.89999110	0.00000000	7.90477300	-0.04306102
153.09999109	0.00000000	7.90477300	0.00000000
153.29999108	0.00000000	7.86171200	0.00000000
153.49999106	0.00000000	7.48646600	0.00000000
153.69999105	0.00000000	6.69906400	-0.04306102
153.89999104	0.00000000	5.99163300	-0.41830710
154.09999103	0.00000000	5.57947800	-1.15649600
154.29999102	0.00000000	5.94857300	-1.53174200
154.49999100	0.00000000	6.28075700	-1.57480300
154.69999099	0.00000000	6.32381900	-1.57480300
154.89999098	0.00000000	6.36687900	-1.57480300
155.09999097	0.00000000	6.74212600	-1.57480300
155.29999096	0.00000000	7.48646600	-1.57480300
155.49999094	0.00000000	7.86171200	-1.57480300
155.69999093	0.00000000	7.86171200	-1.57480300
155.89999092	0.00000000	7.48646600	-1.53174200
156.09999091	0.00000000	6.74212600	-1.15649600
156.29999090	0.00000000	6.36687900	-0.41830710
156.49999089	0.00000000	6.28075700	-0.04306102
156.69999087	0.00000000	5.90551100	0.00000000
156.89999086	0.00000000	5.21038300	0.00000000
157.09999085	0.00000000	5.16117100	0.00000000
157.29999084	0.00000000	5.53026500	-0.04306102
157.49999083	0.00000000	5.53641700	-0.41830710
157.69999081	0.00000000	5.94857300	-1.15649600
157.89999080	0.00000000	6.32381900	-1.53174200
158.09999079	0.00000000	6.74212600	-1.57480300
158.29999078	0.00000000	7.48646600	-1.57480300
158.49999077	0.00000000	7.86171200	-1.57480300
158.69999075	0.00000000	7.90477300	-1.57480300
158.89999074	0.00000000	7.90477300	-1.53174200
159.09999073	0.00000000	7.86171200	-1.15649600
159.29999072	0.00000000	7.48646600	-0.41830710
159.49999071	0.00000000	6.74212600	-0.04306102
159.69999070	0.00000000	6.36687900	0.00000000
159.89999068	0.00000000	6.32381900	0.00000000
160.09999067	0.00000000	6.32381900	0.00000000
160.29999066	0.00000000	6.32381900	-0.04306102
160.49999065	0.00000000	6.32381900	-0.41830710
160.69999064	0.00000000	6.32381900	-1.15649600
160.89999062	0.00000000	6.32381900	-1.53174200
161.09999061	0.00000000	6.32381900	-1.57480300
161.29999060	0.00000000	6.36687900	-1.57480300
161.49999059	0.00000000	6.69906400	-1.57480300
161.69999058	0.00000000	7.11122000	-1.57480300
161.89999056	0.00000000	7.07431000	-1.57480300
162.09999055	0.00000000	7.15428100	-1.53174200
162.29999054	0.00000000	7.07431000	-1.15649600
162.49999053	0.00000000	7.11122000	-0.41830710
162.69999052	0.00000000	6.69906400	-0.04306102
162.89999051	0.00000000	6.36687900	0.00000000
163.09999049	0.00000000	6.32381900	-0.04306102
163.29999048	0.00000000	6.28075700	-0.37524600
163.49999047	0.00000000	5.94857300	-0.78124990
163.69999046	0.00000000	5.57947800	-0.79355310
163.89999045	0.00000000	5.94857300	-1.19955700
164.09999043	0.00000000	6.28075700	-1.53174200
164.29999042	0.00000000	6.32381900	-1.57480300
164.49999041	0.00000000	6.36687900	-1.57480300
164.69999040	0.00000000	6.74212600	-1.57480300
164.89999039	0.00000000	7.48646600	-1.53174200
165.09999037	0.00000000	7.86171200	-1.19955700
165.29999036	0.00000000	7.86171200	-0.83661410
165.49999035	0.00000000	7.48646600	-1.19955700
165.69999034	0.00000000	6.74212600	-1.48253000
165.89999033	0.00000000	6.36687900	-1.15649600
166.09999032	0.00000000	6.32381900	-0.46136810
166.29999030	0.00000000	6.32381900	-0.41830710
166.49999029	0.00000000	6.32381900	-0.78124990
166.69999028	0.00000000	6.32381900	-0.79355310
166.89999027	0.00000000	6.32381900	-1.19955700
167.09999026	0.00000000	6.32381900	-1.53174200
167.29999024	0.00000000	6.32381900	-1.57480300
167.49999023	0.00000000	6.32381900	-1.57480300
167.69999022	0.00000000	6.32381900	-1.57480300
167.89999021	0.00000000	6.36687900	-1.57480300
168.09999020	0.00000000	6.74212600	-1.57480300
168.29999018	0.00000000	7.43725300	-1.57480300
168.49999017	0.00000000	7.43725300	-1.53174200
168.69999016	0.00000000	6.74212600	-1.19955700
168.89999015	0.00000000	6.36687900	-0.83661410
169.09999014	0.00000000	6.32381900	-1.19955700
169.29999013	0.00000000	6.32381900	-1.53174200
169.49999011	0.00000000	6.32381900	-1.57480300
169.69999010	0.00000000	6.32381900	-1.57480300
169.89999009	0.00000000	6.36687900	-1.53174200
170.09999008	0.00000000	6.69906400	-1.15649600
170.29999007	0.00000000	7.06815900	-0.46136810
170.49999005	0.00000000	6.69906400	-0.46136810
170.69999004	0.00000000	6.36687900	-1.15649600
170.89999003	0.00000000	6.32381900	-1.53174200
171.09999002	0.00000000	6.32381900	-1.57480300
171.29999001	0.00000000	6.32381900	-1.57480300
171.49998999	0.00000000	6.32381900	-1.57480300
171.69998998	0.00000000	6.32381900	-1.57480300
171.89998997	0.00000000	6.32381900	-1.57480300
172.09998996	0.00000000	6.32381900	-1.57480300
172.29998995	0.00000000	6.32381900	-1.57480300
172.49998994	0.00000000	6.32381900	-1.53174200
172.69998992	0.00000000	6.32381900	-1.19955700
172.89998991	0.00000000	6.32381900	-0.83661410
173.09998990	0.00000000	6.32381900	-1.19955700
173.29998989	0.00000000	6.32381900	-1.53174200
173.49998988	0.00000000	6.36687900	-1.53174200
173.69998986	0.00000000	6.69906400	-1.19955700
173.89998985	0.00000000	7.06815900	-0.83661410
174.09998984	0.00000000	6.69906400	-1.19955700
174.29998983	0.00000000	6.36687900	-1.53174200
174.49998982	0.00000000	6.32381900	-1.57480300
174.69998980	0.00000000	6.32381900	-1.57480300
174.89998979	0.00000000	6.32381900	-1.57480300
175.09998978	0.00000000	6.32381900	-1.57480300
175.29998977	0.00000000	6.32381900	-1.57480300
175.49998976	0.00000000	6.32381900	-1.53174200
175.69998975	0.00000000	6.32381900	-1.15649600
175.89998973	0.00000000	6.32381900	-0.46136810
176.09998972	0.00000000	6.32381900	-0.46136810
176.29998971	0.00000000	6.36687900	-1.11343500
176.49998970	0.00000000	6.69906400	-1.15649600
176.69998969	0.00000000	7.01894700	-0.83661410
176.89998967	0.00000000	6.32381900	-1.19955700
177.09998966	0.00000000	5.62869100	-1.53174200
177.29998965	0.00000000	5.94857300	-1.57480300
177.49998964	0.00000000	6.28075700	-1.57480300
177.69998963	0.00000000	6.32381900	-1.57480300
177.89998961	0.00000000	6.32381900	-1.57480300
178.09998960	0.00000000	6.32381900	-1.57480300
178.29998959	0.00000000	6.32381900	-1.57480300
178.49998958	0.00000000	6.32381900	-1.53174200
178.69998957	0.00000000	6.32381900	-1.19955700
178.89998956	0.00000000	6.32381900	-0.83661410
179.09998954	0.00000000	6.32381900	-1.19955700
179.29998953	0.00000000	6.32381900	-1.53174200
179.49998952	0.00000000	6.32381900	-1.57480300
179.69998951	0.00000000	6.32381900	-1.57480300
179.89998950	0.00000000	6.32381900	-1.57480300
180.09998948	0.00000000	6.32381900	-1.57480300
180.29998947	0.00000000	6.32381900	-1.57480300
180.49998946	0.00000000	6.32381900	-1.53174200
180.69998945	0.00000000	6.32381900	-1.19955700
180.89998944	0.00000000	6.32381900	-0.83661410
181.09998942	0.00000000	6.32381900	-1.15649600
181.29998941	0.00000000	6.32381900	-1.11343500
181.49998940	0.00000000	6.36687900	-0.41830710
181.69998939	0.00000000	6.69906400	-0.04306102
181.89998938	0.00000000	7.06815900	0.00000000
182.09998937	0.00000000	6.69906400	-0.04306102
182.29998935	0.00000000	6.36687900	-0.41830710
182.49998934	0.00000000	6.32381900	-1.15649600
182.69998933	0.00000000	6.36687900	-1.53174200
182.89998932	0.00000000	6.69906400	-1.57480300
183.09998931	0.00000000	7.06815900	-1.57480300
183.29998929	0.00000000	6.69906400	-1.57480300
183.49998928	0.00000000	6.36687900	-1.57480300
183.69998927	0.00000000	6.32381900	-1.57480300
183.89998926	0.00000000	6.32381900	-1.53174200
184.09998925	0.00000000	6.32381900	-1.15649600
184.29998923	0.00000000	6.32381900	-0.41830710
184.49998922	0.00000000	6.32381900	-0.04306102
184.69998921	0.00000000	6.32381900	0.00000000
184.89998920	0.00000000	6.32381900	0.00000000
185.09998919	0.00000000	6.32381900	-0.04306102
185.29998918	0.00000000	6.32381900	-0.41830710
185.49998916	0.00000000	6.32381900	-1.15649600
185.69998915	0.00000000	6.32381900	-1.53174200
185.89998914	0.00000000	6.32381900	-1.57480300
186.09998913	0.00000000	6.32381900	-1.57480300
186.29998912	0.00000000	6.32381900	-1.57480300
186.49998910	0.00000000	6.32381900	-1.57480300
186.69998909	0.00000000	6.32381900	-1.53174200
186.89998908	0.00000000	6.32381900	-1.19955700
187.09998907	0.00000000	6.32381900	-0.79355310
187.29998906	0.00000000	6.32381900	-0.78124990
187.49998904	0.00000000	6.28075700	-0.37524600
187.69998903	0.00000000	5.94857300	-0.04306102
187.89998902	0.00000000	5.57947800	0.00000000
188.09998901	0.00000000	5.94857300	-0.04306102
188.29998900	0.00000000	6.28075700	-0.41830710
188.49998899	0.00000000	6.32381900	-1.15649600
188.69998897	0.00000000	6.32381900	-1.53174200
188.89998896	0.00000000	6.32381900	-1.57480300
189.09998895	0.00000000	6.32381900	-1.57480300
189.29998894	0.00000000	6.32381900	-1.57480300
189.49998893	0.00000000	6.32381900	-1.57480300
189.69998891	0.00000000	6.32381900	-1.57480300
189.89998890	0.00000000	6.32381900	-1.57480300
190.09998889	0.00000000	6.32381900	-1.53174200
190.29998888	0.00000000	6.32381900	-1.19955700
190.49998887	0.00000000	6.32381900	-0.83661410
190.69998885	0.00000000	6.32381900	-1.15649600
190.89998884	0.00000000	6.32381900	-1.15649600
191.09998883	0.00000000	6.32381900	-0.79355310
191.29998882	0.00000000	6.36687900	-0.83046260
191.49998881	0.00000000	6.69906400	-0.79355310
191.69998880	0.00000000	7.06815900	-1.19955700
191.89998878	0.00000000	6.69906400	-1.53174200
192.09998877	0.00000000	6.36687900	-1.57480300
192.29998876	0.00000000	6.32381900	-1.57480300
192.49998875	0.00000000	6.32381900	-1.57480300
192.69998874	0.00000000	6.32381900	-1.53174200
192.89998872	0.00000000	6.28075700	-1.19955700
193.09998871	0.00000000	5.90551100	-0.83661410
193.29998870	0.00000000	5.21038300	-1.15649600
193.49998869	0.00000000	5.21038300	-1.11343500
193.69998868	0.00000000	5.90551100	-0.41830710
193.89998866	0.00000000	6.28075700	-0.09227362
194.09998865	0.00000000	6.36687900	-0.37524600
194.29998864	0.00000000	6.69906400	-0.73818890
194.49998863	0.00000000	7.11122000	-0.41830710
194.69998862	0.00000000	7.07431000	-0.46136810
194.89998861	0.00000000	7.11122000	-1.15649600
195.09998859	0.00000000	6.69906400	-1.53174200
195.29998858	0.00000000	6.36687900	-1.57480300
195.49998857	0.00000000	6.32381900	-1.57480300
195.69998856	0.00000000	6.32381900	-1.53174200
195.89998855	0.00000000	6.32381900	-1.15649600
196.09998853	0.00000000	6.32381900	-0.41830710
