Time	Channel A	Channel B	Channel C
(us)	(V)	(mV)	(mV)

-4.49999956	0.00000000	17.39050000	3.15575800
-4.29999957	0.00000000	17.34744000	3.15575800
-4.09999958	0.00000000	17.01525000	3.15575800
-3.89999959	0.00000000	16.64616000	3.15575800
-3.69999960	0.00000000	17.01525000	3.15575800
-3.49999962	0.00000000	17.34744000	3.15575800
-3.29999963	0.00000000	17.39050000	3.15575800
-3.09999964	0.00000000	17.39050000	3.15575800
-2.89999965	0.00000000	17.39050000	3.15575800
-2.69999966	0.00000000	17.39050000	3.15575800
-2.49999968	0.00000000	17.39050000	3.15575800
-2.29999969	0.00000000	17.39050000	3.15575800
-2.09999970	0.00000000	17.39050000	3.15575800
-1.89999971	0.00000000	17.39050000	3.15575800
-1.69999972	0.00000000	17.39050000	3.15575800
-1.49999973	0.00000000	17.39050000	3.15575800
-1.29999975	0.00000000	17.39050000	3.15575800
-1.09999976	0.00000000	17.39050000	3.15575800
-0.89999977	0.00000000	17.39050000	3.15575800
-0.69999978	0.00000000	17.39050000	3.15575800
-0.49999979	0.00000000	17.39050000	3.15575800
-0.29999981	0.31803640	17.34744000	3.15575800
-0.09999982	0.63668800	17.01525000	3.15575800
0.10000017	0.95533960	16.64616000	3.15575800
0.30000016	0.95533960	17.01525000	3.15575800
0.50000015	0.79601380	17.34744000	3.15575800
0.70000013	0.31803640	17.39050000	3.15575800
0.90000012	-0.47736220	17.34744000	3.15575800
1.10000011	-1.59264300	17.01525000	3.15575800
1.30000010	-2.38927200	16.60310000	3.15575800
1.50000009	-2.70792300	16.64001000	3.15575800
1.70000008	-2.38927200	16.60310000	3.15575800
1.90000006	-1.27399100	17.01525000	3.15575800
2.10000005	0.63668800	17.34744000	3.15575800
2.30000004	2.70792300	17.39050000	3.15575800
2.50000003	4.45989200	17.39050000	3.15575800
2.70000002	5.41584600	17.39050000	3.11269700
2.90000000	4.77854300	17.34744000	2.73745100
3.09999999	2.86724900	17.01525000	1.99311000
3.29999998	-0.15871060	16.64616000	1.66707700
3.49999997	-3.66326300	17.01525000	1.99311000
3.69999996	-6.53112700	17.34744000	2.73745100
3.89999994	-7.96444400	17.39050000	3.11269700
4.09999993	-7.48646600	17.39050000	3.19881900
4.29999992	-4.93786900	17.34744000	3.57406500
4.49999991	-0.79601380	17.01525000	4.31840500
4.69999990	3.66326300	16.64616000	4.64443900
4.89999989	7.32714100	17.01525000	4.31840500
5.09999987	9.39837600	17.34744000	3.57406500
5.29999986	9.07972400	17.34744000	3.19881900
5.49999985	6.37180100	17.01525000	3.11269700
5.69999984	2.07062000	16.64616000	2.78051200
5.89999983	-2.54859700	17.01525000	2.41141700
6.09999981	-6.69045300	17.34744000	2.78051200
6.29999980	-9.07972400	17.39050000	3.11269700
6.49999979	-9.23905000	17.39050000	3.15575800
6.69999978	-7.00848900	17.39050000	3.15575800
6.89999977	-3.18590100	17.34744000	3.15575800
7.09999975	1.11466500	17.01525000	3.15575800
7.29999974	4.93786900	16.64616000	3.15575800
7.49999973	7.32714100	16.97219000	3.15575800
7.69999972	7.64579200	16.92298000	3.11269700
7.89999971	6.05315000	16.22785000	2.78051200
8.09999970	3.34522600	15.85261000	2.41141700
8.29999968	0.00000000	15.85261000	2.78051200
8.49999967	-3.02657500	16.22785000	3.11269700
8.69999966	-4.77854300	16.97219000	3.15575800
8.89999965	-5.25652100	17.34744000	3.15575800
9.09999964	-4.45989200	17.39050000	3.15575800
9.29999962	-2.54859700	17.39050000	3.15575800
9.49999961	-0.63668800	17.39050000	3.15575800
9.69999960	1.11466500	17.39050000	3.15575800
9.89999959	2.22994600	17.39050000	3.15575800
10.09999958	2.54859700	17.39050000	3.15575800
10.29999956	2.22994600	17.39050000	3.15575800
10.49999955	1.43331700	17.39050000	3.15575800
10.69999954	0.47736220	17.34744000	3.15575800
10.89999953	-0.31803640	16.97219000	3.15575800
11.09999952	-0.79601380	16.27707000	3.15575800
11.29999951	-0.95533960	16.22785000	3.15575800
11.49999949	-0.95533960	16.55389000	3.15575800
11.69999948	-0.79601380	16.18479000	3.15575800
11.89999947	-0.47736220	15.85261000	3.15575800
12.09999946	-0.15871060	15.85261000	3.15575800
12.29999945	-0.15871060	16.18479000	3.15575800
12.49999943	0.00000000	16.55389000	3.15575800
12.69999942	0.00000000	16.18479000	3.15575800
12.89999941	0.00000000	15.90182000	3.15575800
13.09999940	0.00000000	16.18479000	3.15575800
13.29999939	0.00000000	16.59695000	3.15575800
13.49999937	0.00000000	16.56004000	3.15575800
13.69999936	0.00000000	16.64001000	3.15575800
13.89999935	-0.15871060	16.56004000	3.15575800
14.09999934	-0.15871060	16.64001000	3.15575800
14.29999933	-0.15871060	16.56004000	3.15575800
14.49999932	-0.15871060	16.59695000	3.15575800
14.69999930	0.00000000	16.18479000	3.15575800
14.89999929	0.00000000	15.90182000	3.15575800
15.09999928	0.00000000	16.18479000	3.15575800
15.29999927	0.00000000	16.59695000	3.15575800
15.49999926	0.00000000	16.56004000	3.15575800
15.69999924	0.00000000	16.59695000	3.15575800
15.89999923	0.00000000	16.18479000	3.15575800
16.09999922	0.00000000	15.90182000	3.15575800
16.29999921	-0.15871060	16.18479000	3.15575800
16.49999920	-0.15871060	16.59695000	3.15575800
16.69999919	-0.15871060	16.60310000	3.15575800
16.89999917	0.00000000	17.01525000	3.15575800
17.09999916	0.00000000	17.39050000	3.15575800
17.29999915	0.00000000	17.80881000	3.15575800
17.49999914	0.00000000	18.50394000	3.15575800
17.69999913	0.00000000	18.50394000	3.15575800
17.89999911	0.00000000	17.76575000	3.15575800
18.09999910	0.00000000	16.97219000	3.15575800
18.29999909	0.00000000	15.76649000	3.15575800
18.49999908	0.00000000	14.22859000	3.15575800
18.69999907	0.00000000	12.69070000	3.15575800
18.89999905	-0.15871060	11.57726000	3.15575800
19.09999904	-0.15871060	11.62032000	3.15575800
19.29999903	0.00000000	13.15822000	3.15575800
19.49999902	0.00000000	15.90182000	3.15575800
19.69999901	0.00000000	19.38976000	3.15575800
19.89999900	0.00000000	23.24680000	3.15575800
20.09999898	0.00000000	26.32259000	3.15575800
20.29999897	0.00000000	27.81127000	3.15575800
20.49999896	0.00000000	26.97465000	3.15575800
20.69999895	0.00000000	23.02534000	3.15575800
20.89999894	0.00000000	16.46161000	3.11269700
21.09999892	0.00000000	8.37229300	2.78051200
21.29999891	0.00000000	1.06422200	2.41141700
21.49999890	0.00000000	-3.58636800	2.78051200
21.69999889	0.00000000	-4.66289300	3.11269700
21.89999888	0.00000000	-1.07652500	3.15575800
22.09999886	0.00000000	7.48031400	3.15575800
22.29999885	0.00000000	19.43897000	3.11269700
22.49999884	0.00000000	32.13582000	2.73745100
22.69999883	0.00000000	42.18750000	2.04232300
22.89999882	0.00000000	47.17027000	2.08538400
23.09999881	0.00000000	45.86614000	3.15575800
23.29999879	0.00000000	36.89099000	4.26919300
23.49999878	0.00000000	21.49360000	4.69365100
23.69999877	0.00000000	3.71555100	4.73671200
23.89999876	0.00000000	-12.47539000	4.73671200
24.09999875	0.00000000	-23.26525000	4.69365100
24.29999873	0.00000000	-25.46137000	4.26919300
24.49999872	0.00000000	-18.10408000	3.11269700
24.69999871	0.00000000	-1.82701800	1.57480300
24.89999870	0.00000000	19.38976000	0.00000000
25.09999869	0.00000000	41.07406000	-1.53174200
25.29999867	0.00000000	58.38459000	-2.64517700
25.49999866	-0.15871060	66.80610000	-2.60211600
25.69999865	0.00000000	63.64419000	-1.02116100
25.89999864	0.00000000	48.98499000	2.04232300
26.09999863	0.00000000	26.23647000	5.93626900
26.29999862	0.00000000	1.15649600	9.79945900
26.49999860	0.00000000	-20.52165000	13.23819000
26.69999859	0.00000000	-34.01820000	14.72687000
26.89999858	0.00000000	-36.34350000	13.56422000
27.09999857	0.00000000	-26.66708000	10.03322000
27.29999856	0.00000000	-7.40034400	4.18307100
27.49999854	0.00000000	16.92913000	-3.15575800
27.69999853	0.00000000	40.47121000	-10.45152000
27.89999852	0.00000000	57.91707000	-15.79109000
28.09999851	0.00000000	65.68652000	-17.28592000
28.29999850	0.00000000	62.61687000	-14.16708000
28.49999848	0.00000000	49.49557000	-6.78518600
28.69999847	0.00000000	29.44143000	3.66633800
28.89999846	0.00000000	7.43110200	15.23130000
29.09999845	0.00000000	-11.54650000	25.27067000
29.29999844	0.00000000	-23.54823000	31.36073000
29.49999843	0.00000000	-26.33489000	31.68061000
29.69999841	0.00000000	-19.82652000	25.09227000
29.89999840	0.00000000	-6.37303100	13.14591000
30.09999839	0.00000000	10.69144000	-1.57480300
30.29999838	0.00000000	27.72515000	-16.25861000
30.49999837	0.00000000	41.67692000	-27.78666000
30.69999835	0.00000000	49.40330000	-33.16929000
30.89999834	0.00000000	49.49557000	-30.80709000
31.09999833	0.00000000	42.60580000	-21.13681000
31.29999832	0.00000000	31.02239000	-5.71481200
31.49999831	0.00000000	17.48277000	11.65723000
31.69999829	0.00000000	4.64443900	27.17766000
31.89999828	0.00000000	-5.03198800	38.37352000
32.09999827	0.00000000	-10.05167000	42.55659000
32.29999826	0.00000000	-8.93823700	38.33046000
32.49999825	0.00000000	-2.42987200	26.71629000
32.69999824	0.00000000	7.20964500	10.11934000
32.89999822	0.00000000	18.08563000	-8.04010800
33.09999821	0.00000000	27.72515000	-23.46826000
33.29999820	0.00000000	34.32578000	-33.16929000
33.49999819	0.00000000	36.28814000	-35.12549000
33.69999818	0.00000000	33.63066000	-29.36146000
33.89999816	0.00000000	27.48524000	-17.32899000
34.09999815	0.00000000	19.34670000	-1.11343500
34.29999814	0.00000000	11.29429000	15.84030000
34.49999813	0.00000000	5.06274600	29.36146000
34.69999812	0.00000000	2.36220500	36.74950000
34.89999810	0.00000000	3.06348400	36.74950000
35.09999809	0.00000000	6.96973400	29.45374000
35.29999808	0.00000000	13.06594000	16.71998000
35.49999807	0.00000000	19.58046000	1.66707700
35.69999806	0.00000000	24.23105000	-12.59227000
35.89999805	0.00000000	26.18725000	-22.58243000
36.09999803	0.00000000	25.39370000	-25.74434000
36.29999802	0.00000000	21.62278000	-21.93036000
36.49999801	0.00000000	16.64616000	-12.72761000
36.69999800	0.00000000	12.36466000	-0.41830710
36.89999799	0.00000000	8.87672100	11.52190000
37.09999797	0.00000000	7.38804100	20.39862000
37.29999796	0.00000000	8.50147600	24.24951000
37.49999795	0.00000000	11.57726000	21.97342000
37.69999794	0.00000000	15.85261000	14.72687000
37.89999793	0.00000000	20.46014000	4.73671200
38.09999791	0.00000000	24.27411000	-5.20423200
38.29999790	0.00000000	25.81201000	-12.08169000
38.49999789	0.00000000	24.74163000	-13.66265000
38.69999788	0.00000000	21.99803000	-9.84867000
38.89999787	0.00000000	18.08563000	-2.18380900
39.09999786	0.00000000	13.11516000	7.38188900
39.29999784	0.00000000	8.87672100	15.74803000
39.49999783	0.00000000	6.50221400	19.98031000
39.69999782	0.00000000	5.71481200	18.86688000
39.89999781	0.00000000	6.92052100	13.10285000
40.09999780	0.00000000	9.99630800	4.27534400
40.29999778	0.00000000	14.27165000	-5.29650500
40.49999777	0.00000000	18.87918000	-12.59227000
40.69999776	0.00000000	22.78543000	-15.66191000
40.89999775	0.00000000	25.11688000	-13.70571000
41.09999774	0.00000000	25.94734000	-6.82824800
41.29999772	0.00000000	25.11688000	2.73745100
41.49999771	0.00000000	22.78543000	11.98942000
41.69999770	0.00000000	18.92839000	18.90994000
41.89999769	0.00000000	14.69611000	21.60433000
42.09999768	0.00000000	11.15896000	19.32825000
42.29999767	0.00000000	8.45841400	13.19513000
42.49999765	0.00000000	7.29576700	4.73671200
42.69999764	0.00000000	8.04010800	-3.71555100
42.89999763	0.00000000	9.95324800	-9.89788300
43.09999762	0.00000000	12.69070000	-12.63533000
43.29999761	0.00000000	15.76649000	-11.47884000
43.49999759	0.00000000	18.46087000	-6.92052100
43.69999758	0.00000000	20.04183000	-0.41830710
43.89999757	0.00000000	20.46014000	5.75787400
44.09999756	0.00000000	20.13410000	10.45152000
44.29999755	0.00000000	19.34670000	13.14591000
44.49999753	0.00000000	18.59621000	13.14591000
44.69999752	0.00000000	17.85802000	10.53765000
44.89999751	0.00000000	17.80881000	6.68676100
45.09999750	0.00000000	18.13484000	2.82972400
45.29999749	0.00000000	17.72268000	-0.69512790
45.49999748	0.00000000	16.87992000	-2.97736200
45.69999746	0.00000000	14.92372000	-3.76476400
45.89999745	0.00000000	11.86024000	-2.64517700
46.09999744	0.00000000	9.20275500	-0.37524600
46.29999743	0.00000000	7.25270600	1.95004900
46.49999742	0.00000000	6.96973400	4.31840500
46.69999740	0.00000000	8.87672100	6.22539300
46.89999739	0.00000000	12.82603000	7.38188900
47.09999738	0.00000000	18.22711000	7.38188900
47.29999737	0.00000000	24.40945000	6.22539300
47.49999736	0.00000000	29.34916000	4.31840500
47.69999734	0.00000000	31.66830000	1.99311000
47.89999733	0.00000000	30.46260000	0.04306102
48.09999732	0.00000000	25.81201000	-1.48868100
48.29999731	0.00000000	18.46087000	-2.22687000
48.49999730	0.00000000	9.95324800	-1.43946800
48.69999729	0.00000000	2.31299200	0.46751960
48.89999727	0.00000000	-2.33144700	3.15575800
49.09999726	0.00000000	-2.29453700	5.85014700
49.29999725	0.00000000	1.95004900	7.84940900
49.49999724	0.00000000	10.08243000	9.33809000
49.69999723	0.00000000	20.04183000	9.65797200
49.89999721	0.00000000	28.88779000	7.71407400
50.09999720	0.00000000	34.32578000	4.31840500
50.29999719	0.00000000	35.11934000	0.41830710
50.49999718	0.00000000	31.62524000	-3.02042300
50.69999717	0.00000000	24.27411000	-5.33956700
50.89999715	0.00000000	14.69611000	-5.71481200
51.09999714	0.00000000	5.85014700	-4.18307100
51.29999713	0.00000000	0.03690945	-1.07037400
51.49999712	0.00000000	-1.50098400	3.15575800
51.69999711	0.00000000	1.61786400	7.38188900
51.89999710	0.00000000	8.87672100	10.45152000
52.09999708	0.00000000	18.04257000	11.65723000
52.29999707	0.00000000	25.71973000	10.86983000
52.49999706	0.00000000	30.04429000	8.54453700
52.69999705	0.00000000	30.41954000	4.69365100
52.89999704	0.00000000	26.97465000	0.51058070
53.09999702	0.00000000	20.46014000	-2.60211600
53.29999701	0.00000000	13.15822000	-4.18307100
53.49999700	0.00000000	7.01279500	-4.18307100
53.69999699	0.00000000	3.53100400	-2.64517700
53.89999698	0.00000000	3.89394600	0.04306102
54.09999696	0.00000000	7.34498000	3.11269700
54.29999695	0.00000000	13.15822000	5.75787400
54.49999694	0.00000000	19.99877000	6.92052100
54.69999693	0.00000000	25.34449000	6.22539300
54.89999692	0.00000000	27.30069000	4.73671200
55.09999691	0.00000000	25.85507000	3.15575800
55.29999689	0.00000000	21.99803000	1.62401600
55.49999688	0.00000000	16.97219000	0.55364170
55.69999687	0.00000000	11.57726000	0.92888770
55.89999686	0.00000000	7.38804100	2.78051200
56.09999685	0.00000000	5.85014700	4.68750000
56.29999683	0.00000000	7.34498000	6.22539300
56.49999682	0.00000000	11.15896000	6.92052100
56.69999681	0.00000000	15.76649000	5.75787400
56.89999680	0.00000000	20.04183000	3.11269700
57.09999679	0.00000000	23.11762000	0.04306102
57.29999677	0.00000000	24.27411000	-2.64517700
57.49999676	0.00000000	23.16068000	-4.14000900
57.69999675	0.00000000	20.46014000	-3.76476400
57.89999674	0.00000000	16.97219000	-1.39640700
58.09999673	0.00000000	13.15822000	2.46063000
58.29999672	0.00000000	10.45768000	7.47416300
58.49999670	0.00000000	9.66412400	11.98327000
58.69999669	0.00000000	10.37155000	14.30241000
58.89999668	0.00000000	12.31545000	13.52116000
59.09999667	0.00000000	14.56078000	10.07628000
59.29999666	0.00000000	16.55389000	4.64443900
59.49999664	0.00000000	17.72268000	-1.53174200
59.69999663	0.00000000	18.50394000	-7.29576700
59.89999662	0.00000000	18.46087000	-11.05438000
60.09999661	0.00000000	17.39050000	-11.05438000
60.29999660	0.00000000	16.22785000	-7.24655500
60.49999658	0.00000000	15.43430000	-1.07037400
60.69999657	0.00000000	14.64690000	6.26845500
60.89999656	0.00000000	14.32087000	13.14591000
61.09999655	0.00000000	14.64690000	17.37205000
61.29999654	0.00000000	15.43430000	17.79035000
61.49999653	0.00000000	16.14173000	14.72687000
61.69999651	0.00000000	16.55389000	8.87057000
61.89999650	0.00000000	16.14173000	1.20570900
62.09999649	0.00000000	15.43430000	-6.50221400
62.29999648	0.00000000	14.60384000	-11.84793000
62.49999647	0.00000000	13.89641000	-13.84104000
62.69999645	0.00000000	13.48425000	-11.89715000
62.89999644	0.00000000	13.89641000	-6.87746000
63.09999643	0.00000000	14.64690000	0.46751960
63.29999642	0.00000000	15.80955000	8.50147600
63.49999641	0.00000000	16.97219000	14.67766000
63.69999639	0.00000000	17.76575000	17.83957000
63.89999638	0.00000000	18.50394000	17.83957000
64.09999637	0.00000000	18.46087000	14.72687000
64.29999636	0.00000000	17.34744000	8.96284400
64.49999635	0.00000000	15.85261000	2.04232300
64.69999634	0.00000000	14.64690000	-4.14000900
64.89999632	0.00000000	13.85334000	-8.40920300
65.09999631	0.00000000	13.11516000	-9.99015700
65.29999630	0.00000000	13.11516000	-8.87057000
65.49999629	0.00000000	13.89641000	-5.75787400
65.69999628	0.00000000	15.02214000	-1.15649600
65.89999626	0.00000000	16.55389000	3.85703700
66.09999625	0.00000000	17.25517000	7.75713500
66.29999624	0.00000000	16.97219000	10.53765000
66.49999623	0.00000000	16.14173000	12.07554000
66.69999622	0.00000000	15.01599000	12.07554000
66.89999620	0.00000000	13.48425000	10.53765000
67.09999619	0.00000000	12.78297000	7.84940900
67.29999618	0.00000000	13.11516000	4.73671200
67.49999617	0.00000000	14.32087000	1.58095500
67.69999616	0.00000000	16.22785000	-1.53174200
67.89999615	0.00000000	18.55315000	-4.22613100
68.09999613	0.00000000	20.46014000	-5.80093500
68.29999612	0.00000000	21.57972000	-6.17618100
68.49999611	0.00000000	21.11220000	-5.38262700
68.69999610	0.00000000	18.46087000	-3.02042300
68.89999609	0.00000000	14.64690000	0.46751960
69.09999607	0.00000000	11.15896000	4.73671200
69.29999606	0.00000000	8.41535400	8.96284400
69.49999605	0.00000000	6.92052100	12.07554000
69.69999604	0.00000000	7.34498000	13.61343000
69.89999603	0.00000000	10.03937000	13.18898000
70.09999601	0.00000000	14.27165000	10.49459000
70.29999600	0.00000000	18.92839000	6.21924200
70.49999599	0.00000000	23.20374000	1.19955700
70.69999598	0.00000000	26.27953000	-3.80782500
70.89999597	0.00000000	27.34990000	-7.25270600
71.09999596	0.00000000	25.39370000	-8.45226300
71.29999594	0.00000000	20.46014000	-7.29576700
71.49999593	0.00000000	14.69611000	-4.22613100
71.69999592	0.00000000	9.57800100	0.04306102
71.89999591	0.00000000	5.33956700	4.69365100
72.09999590	0.00000000	3.06348400	8.91978400
72.29999588	0.00000000	3.80782500	11.56496000
72.49999587	0.00000000	6.87746000	11.61417000
72.69999586	0.00000000	11.57726000	9.38115100
72.89999585	0.00000000	17.34744000	6.31151500
73.09999584	0.00000000	22.74237000	3.19881900
73.29999582	0.00000000	26.18725000	0.51058070
73.49999581	0.00000000	27.01772000	-1.06422200
73.69999580	0.00000000	25.06767000	-1.48253000
73.89999579	0.00000000	21.24754000	-1.11343500
74.09999578	0.00000000	16.22785000	0.04306102
74.29999577	0.00000000	11.62032000	1.53174200
74.49999575	0.00000000	8.45841400	2.64517700
74.69999574	0.00000000	6.92052100	2.68823800
74.89999573	0.00000000	7.29576700	1.95004900
75.09999572	0.00000000	9.57800100	1.19955700
75.29999571	0.00000000	12.64764000	0.46136810
75.49999569	0.00000000	15.76649000	0.55364170
75.69999568	0.00000000	18.46087000	2.04232300
75.89999567	0.00000000	19.99877000	4.36146600
76.09999566	0.00000000	20.04183000	6.64370100
76.29999565	0.00000000	18.97145000	8.58759800
76.49999563	0.00000000	17.76575000	9.29502900
76.69999562	0.00000000	16.59695000	8.50147600
76.89999561	0.00000000	15.06521000	5.75787400
77.09999560	0.00000000	14.36393000	1.57480300
77.29999559	0.00000000	14.64690000	-2.64517700
77.49999558	0.00000000	15.34203000	-5.75787400
77.69999556	0.00000000	15.34203000	-7.29576700
77.89999555	0.00000000	14.64690000	-6.87746000
78.09999554	0.00000000	14.22859000	-4.14000900
78.29999553	0.00000000	13.81028000	0.46136810
78.49999552	0.00000000	13.06594000	5.85014700
78.69999550	0.00000000	12.73991000	10.45152000
78.89999549	0.00000000	13.15822000	13.18898000
79.09999548	0.00000000	14.69611000	13.61343000
79.29999547	0.00000000	16.97219000	12.03248000
79.49999546	0.00000000	18.92839000	8.54453700
79.69999544	0.00000000	20.46014000	3.57406500
79.89999543	0.00000000	21.16142000	-1.02116100
80.09999542	0.00000000	19.99877000	-4.22613100
80.29999541	0.00000000	17.34744000	-6.17618100
80.49999540	0.00000000	14.27165000	-6.92052100
80.69999539	0.00000000	11.57726000	-5.71481200
80.89999537	0.00000000	9.99630800	-2.69439000
81.09999536	0.00000000	9.62106200	1.15649600
81.29999535	0.00000000	10.37155000	4.64443900
81.49999534	0.00000000	12.31545000	7.38188900
81.69999533	0.00000000	14.64690000	8.96284400
81.89999531	0.00000000	17.34744000	9.38115100
82.09999530	0.00000000	19.62352000	8.96284400
82.29999529	0.00000000	20.41708000	7.38188900
82.49999528	0.00000000	20.04183000	4.73671200
82.69999527	0.00000000	18.50394000	1.99311000
82.89999525	0.00000000	16.22785000	-0.37524600
83.09999524	0.00000000	14.32087000	-2.69439000
83.29999523	0.00000000	13.11516000	-4.22613100
83.49999522	0.00000000	12.69070000	-4.64443900
83.69999521	0.00000000	12.69070000	-4.22613100
83.89999520	0.00000000	13.11516000	-2.64517700
84.09999518	0.00000000	14.22859000	0.09227362
84.29999517	0.00000000	15.34203000	3.57406500
84.49999516	0.00000000	15.76649000	7.42495000
84.69999515	0.00000000	15.80955000	10.45152000
84.89999514	0.00000000	15.80955000	11.65723000
85.09999512	0.00000000	15.80955000	10.86983000
85.29999511	0.00000000	15.80955000	8.58759800
85.49999510	0.00000000	15.80955000	5.01968500
85.69999509	0.00000000	15.85261000	0.83046260
85.89999508	0.00000000	16.18479000	-3.43257800
86.09999506	0.00000000	16.55389000	-6.09005900
86.29999505	0.00000000	16.14173000	-6.92052100
86.49999504	0.00000000	15.39124000	-5.71481200
86.69999503	0.00000000	14.22859000	-2.60211600
86.89999502	0.00000000	13.11516000	1.99311000
87.09999501	0.00000000	12.69070000	6.96358300
87.29999499	0.00000000	12.69070000	10.45152000
87.49999498	0.00000000	13.11516000	12.03248000
87.69999497	0.00000000	14.27165000	11.61417000
87.89999496	0.00000000	15.80955000	8.87672100
88.09999495	0.00000000	17.34744000	4.31840500
88.29999493	0.00000000	18.46087000	-0.69512790
88.49999492	0.00000000	18.46087000	-4.55831700
88.69999491	0.00000000	17.39050000	-6.87746000
88.89999490	0.00000000	16.22785000	-6.82824800
89.09999489	0.00000000	15.39124000	-4.14000900
89.29999487	0.00000000	14.22859000	0.46136810
89.49999486	0.00000000	13.11516000	5.80093500
89.69999485	0.00000000	12.69070000	10.03322000
89.89999484	0.00000000	12.69070000	11.98327000
90.09999483	0.00000000	13.11516000	11.61417000
90.29999482	0.00000000	14.22859000	8.87672100
90.49999480	0.00000000	15.34203000	4.27534400
90.69999479	0.00000000	15.76649000	-1.06422200
90.89999478	0.00000000	15.80955000	-5.29650500
91.09999477	0.00000000	15.80955000	-7.20349400
91.29999476	0.00000000	15.80955000	-6.45300100
91.49999474	0.00000000	15.85261000	-2.97736200
91.69999473	0.00000000	16.18479000	1.95004900
91.89999472	0.00000000	16.55389000	7.00664300
92.09999471	0.00000000	16.18479000	10.82677000
92.29999470	0.00000000	15.85261000	12.72761000
92.49999468	0.00000000	15.76649000	11.56496000
92.69999467	0.00000000	15.39124000	7.80019600
92.89999466	0.00000000	14.60384000	3.15575800
93.09999465	0.00000000	13.81028000	-1.48868100
93.29999464	0.00000000	12.69070000	-5.29650500
93.49999463	0.00000000	11.95251000	-6.78518600
93.69999461	0.00000000	12.31545000	-5.29650500
93.89999460	0.00000000	13.11516000	-1.53174200
94.09999459	0.00000000	14.69611000	2.73745100
94.29999458	0.00000000	16.97219000	6.59448800
94.49999457	0.00000000	18.87918000	9.65797200
94.69999455	0.00000000	20.08489000	10.40846000
94.89999454	0.00000000	20.41708000	8.91978400
95.09999453	0.00000000	19.62352000	5.80093500
95.29999452	0.00000000	17.29823000	1.62401600
95.49999451	0.00000000	14.22859000	-2.18380900
95.69999449	0.00000000	11.15896000	-4.14000900
95.89999448	0.00000000	8.83366100	-4.18307100
96.09999447	0.00000000	8.04010800	-2.64517700
96.29999446	0.00000000	8.41535400	0.04306102
96.49999445	0.00000000	10.03937000	3.11269700
96.69999444	0.00000000	13.11516000	5.80093500
96.89999442	0.00000000	16.97219000	7.33882900
97.09999441	0.00000000	20.46014000	7.33882900
97.29999440	0.00000000	23.16068000	5.85014700
97.49999439	0.00000000	24.27411000	3.57406500
97.69999438	0.00000000	23.11762000	1.62401600
97.89999436	0.00000000	20.08489000	0.04306102
98.09999435	0.00000000	16.18479000	-1.06422200
98.29999434	0.00000000	12.31545000	-1.06422200
98.49999433	0.00000000	8.83366100	0.00000000
98.69999432	0.00000000	6.92052100	1.15649600
98.89999430	0.00000000	6.87746000	1.95004900
99.09999429	0.00000000	8.41535400	2.73745100
99.29999428	0.00000000	11.15896000	3.15575800
99.49999427	0.00000000	14.64690000	3.53100400
99.69999426	0.00000000	18.46087000	3.94315900
99.89999425	0.00000000	21.20448000	3.94931100
100.09999423	0.00000000	22.37328000	4.36146600
100.29999422	0.00000000	22.41018000	4.69365100
100.49999421	0.00000000	20.83538000	4.69365100
100.69999420	0.00000000	18.50394000	4.31840500
100.89999419	0.00000000	15.39124000	3.48794300
101.09999417	0.00000000	11.95251000	2.31914400
101.29999416	0.00000000	9.62106200	0.37524600
101.49999415	0.00000000	8.41535400	-1.48868100
101.69999414	0.00000000	8.45841400	-2.64517700
101.89999413	0.00000000	9.95324800	-2.60211600
102.09999411	0.00000000	12.27239000	-1.07037400
102.29999410	0.00000000	14.60384000	1.62401600
102.49999409	0.00000000	16.97219000	4.68750000
102.69999408	0.00000000	18.87918000	7.38188900
102.89999407	0.00000000	20.04183000	8.91978400
103.09999406	0.00000000	20.04183000	8.91978400
103.29999404	0.00000000	18.92839000	7.38188900
103.49999403	0.00000000	17.34744000	4.68750000
103.69999402	0.00000000	15.43430000	1.62401600
103.89999401	0.00000000	13.48425000	-1.11343500
104.09999400	0.00000000	12.31545000	-3.02042300
104.29999398	0.00000000	11.53420000	-3.80782500
104.49999397	0.00000000	11.57726000	-3.02042300
104.69999396	0.00000000	12.69070000	-1.11343500
104.89999395	0.00000000	14.22859000	1.62401600
105.09999394	0.00000000	15.76649000	4.64443900
105.29999392	0.00000000	16.97219000	6.96358300
105.49999391	0.00000000	17.72268000	7.75713500
105.69999390	0.00000000	18.08563000	7.38188900
105.89999389	0.00000000	17.29823000	5.80093500
106.09999388	0.00000000	15.80955000	3.15575800
106.29999387	0.00000000	14.27165000	0.46751960
106.49999385	0.00000000	13.11516000	-1.43946800
106.69999384	0.00000000	12.69070000	-2.22687000
106.89999383	0.00000000	12.69070000	-1.43946800
107.09999382	0.00000000	13.11516000	0.41830710
107.29999381	0.00000000	14.27165000	2.73745100
107.49999379	0.00000000	15.76649000	4.64443900
107.69999378	0.00000000	16.87992000	5.80093500
107.89999377	0.00000000	16.87992000	5.80093500
108.09999376	0.00000000	15.80955000	4.68750000
108.29999375	0.00000000	14.64690000	3.15575800
108.49999374	0.00000000	13.85334000	1.57480300
108.69999372	0.00000000	13.06594000	0.04306102
108.89999371	0.00000000	12.69070000	-1.06422200
109.09999370	0.00000000	12.69070000	-1.06422200
109.29999369	0.00000000	13.06594000	0.04306102
109.49999368	0.00000000	13.89641000	1.57480300
109.69999366	0.00000000	14.97908000	3.15575800
109.89999365	0.00000000	16.12943000	4.68750000
110.09999364	0.00000000	16.18479000	5.80093500
110.29999363	0.00000000	16.22785000	5.80093500
110.49999362	0.00000000	16.50467000	4.68750000
110.69999360	0.00000000	15.76649000	3.15575800
110.89999359	0.00000000	14.64690000	1.62401600
111.09999358	0.00000000	13.85334000	0.46136810
111.29999357	0.00000000	13.06594000	0.04306102
111.49999356	0.00000000	12.73991000	0.00000000
111.69999355	0.00000000	13.06594000	0.04306102
111.89999353	0.00000000	13.81028000	0.46136810
112.09999352	0.00000000	14.22859000	1.57480300
112.29999351	0.00000000	14.64690000	2.68823800
112.49999350	0.00000000	15.39124000	3.11269700
112.69999349	0.00000000	15.76649000	3.15575800
112.89999347	0.00000000	15.76649000	3.15575800
113.09999346	0.00000000	15.43430000	3.15575800
113.29999345	0.00000000	15.02214000	3.11269700
113.49999344	0.00000000	15.01599000	2.73745100
113.69999343	0.00000000	14.60384000	1.99311000
113.89999341	0.00000000	14.27165000	1.61786400
114.09999340	0.00000000	14.27165000	1.57480300
114.29999339	0.00000000	14.60384000	1.57480300
114.49999338	0.00000000	14.97293000	1.53174200
114.69999337	0.00000000	14.60384000	1.15649600
114.89999336	0.00000000	14.27165000	0.46136810
115.09999334	0.00000000	14.22859000	0.41830710
115.29999333	0.00000000	14.22859000	0.78124990
115.49999332	0.00000000	14.22859000	0.83661410
115.69999331	0.00000000	14.22859000	1.62401600
115.89999330	0.00000000	14.22859000	2.73745100
116.09999328	0.00000000	14.22859000	3.53100400
116.29999327	0.00000000	14.22859000	4.31840500
116.49999326	0.00000000	14.22859000	4.64443900
116.69999325	0.00000000	14.22859000	4.31840500
116.89999324	0.00000000	14.22859000	3.53100400
117.09999322	0.00000000	14.22859000	2.78051200
117.29999321	0.00000000	14.27165000	1.95004900
117.49999320	0.00000000	14.64690000	1.19955700
117.69999319	0.00000000	15.39124000	0.41830710
117.89999318	0.00000000	15.76649000	0.04306102
118.09999317	0.00000000	15.80955000	0.04306102
118.29999315	0.00000000	15.76649000	0.41830710
118.49999314	0.00000000	15.39124000	1.19955700
118.69999313	0.00000000	14.60384000	1.99311000
118.89999312	0.00000000	13.85334000	3.15575800
119.09999311	0.00000000	13.02288000	4.26919300
119.29999309	0.00000000	12.31545000	4.69365100
119.49999308	0.00000000	11.95251000	4.69365100
119.69999307	0.00000000	12.69070000	4.31840500
119.89999306	0.00000000	13.81028000	3.53100400
120.09999305	0.00000000	14.64690000	2.78051200
120.29999303	0.00000000	15.80955000	1.99311000
120.49999302	0.00000000	16.92298000	1.61786400
120.69999301	0.00000000	17.34744000	1.57480300
120.89999300	0.00000000	17.34744000	1.57480300
121.09999299	0.00000000	16.92298000	1.57480300
121.29999298	0.00000000	15.76649000	1.57480300
121.49999296	0.00000000	14.22859000	1.57480300
121.69999295	0.00000000	12.69070000	1.61786400
121.89999294	0.00000000	11.53420000	1.99311000
122.09999293	0.00000000	11.15896000	2.73745100
122.29999292	0.00000000	11.48499000	3.11269700
122.49999290	0.00000000	12.27239000	3.15575800
122.69999289	0.00000000	13.06594000	3.15575800
122.89999288	0.00000000	14.22859000	3.15575800
123.09999287	0.00000000	15.39124000	3.15575800
123.29999286	0.00000000	16.18479000	3.11269700
123.49999284	0.00000000	16.97219000	2.73745100
123.69999283	0.00000000	17.29823000	1.99311000
123.89999282	0.00000000	16.97219000	1.57480300
124.09999281	0.00000000	16.18479000	1.19955700
124.29999280	0.00000000	15.39124000	0.83661410
124.49999279	0.00000000	14.22859000	1.19955700
124.69999277	0.00000000	13.11516000	1.53174200
124.89999276	0.00000000	12.69070000	1.61786400
125.09999275	0.00000000	12.64764000	1.99311000
125.29999274	0.00000000	12.69070000	2.73745100
125.49999273	0.00000000	13.06594000	3.11269700
125.69999271	0.00000000	13.81028000	3.15575800
125.89999270	0.00000000	14.22859000	3.15575800
126.09999269	0.00000000	14.69611000	3.15575800
126.29999268	0.00000000	15.80955000	3.15575800
126.49999267	0.00000000	16.87992000	3.11269700
126.69999265	0.00000000	16.92298000	2.73745100
126.89999264	0.00000000	16.18479000	1.99311000
127.09999263	0.00000000	15.39124000	1.61786400
127.29999262	0.00000000	14.22859000	1.57480300
127.49999261	0.00000000	13.11516000	1.57480300
127.69999260	0.00000000	12.69070000	1.57480300
127.89999258	0.00000000	12.64764000	1.57480300
128.09999257	0.00000000	12.69070000	1.61786400
128.29999256	0.00000000	13.06594000	1.99311000
128.49999255	0.00000000	13.85334000	2.73745100
128.69999254	0.00000000	14.64690000	3.11269700
128.89999252	0.00000000	15.76649000	3.11269700
129.09999251	0.00000000	16.50467000	2.73745100
129.29999250	0.00000000	16.14173000	1.99311000
129.49999249	0.00000000	15.43430000	1.61786400
129.69999248	0.00000000	14.60384000	1.57480300
129.89999246	0.00000000	13.85334000	1.57480300
130.09999245	0.00000000	13.06594000	1.57480300
130.29999244	0.00000000	12.69070000	1.61786400
130.49999243	0.00000000	12.69070000	1.99311000
130.69999242	0.00000000	13.06594000	2.73745100
130.89999241	0.00000000	13.85334000	3.11269700
131.09999239	0.00000000	14.60384000	3.15575800
131.29999238	0.00000000	15.39124000	3.11269700
131.49999237	0.00000000	15.71727000	2.73745100
131.69999236	0.00000000	15.39124000	1.99311000
131.89999235	0.00000000	14.64690000	1.61786400
132.09999233	0.00000000	14.27165000	1.53174200
132.29999232	0.00000000	14.22859000	1.19955700
132.49999231	0.00000000	14.22859000	0.83661410
132.69999230	0.00000000	14.22859000	1.24877000
132.89999229	0.00000000	14.22859000	1.95004900
133.09999227	0.00000000	14.22859000	2.73745100
133.29999226	0.00000000	14.22859000	3.11269700
133.49999225	0.00000000	14.22859000	3.15575800
133.69999224	0.00000000	14.22859000	3.15575800
133.89999223	0.00000000	14.22859000	3.11269700
134.09999222	0.00000000	14.22859000	2.73745100
134.29999220	0.00000000	14.22859000	1.99311000
134.49999219	0.00000000	14.27165000	1.57480300
134.69999218	0.00000000	14.64690000	1.15649600
134.89999217	0.00000000	15.39124000	0.41830710
135.09999216	0.00000000	15.76649000	0.09227362
135.29999214	0.00000000	15.76649000	0.41830710
135.49999213	0.00000000	15.39124000	1.19955700
135.69999212	0.00000000	14.60384000	1.95004900
135.89999211	0.00000000	13.85334000	2.73745100
136.09999210	0.00000000	13.06594000	3.11269700
136.29999208	0.00000000	12.69070000	3.15575800
136.49999207	0.00000000	12.64764000	3.15575800
136.69999206	0.00000000	12.69070000	3.15575800
136.89999205	0.00000000	13.06594000	3.11269700
137.09999204	0.00000000	13.85334000	2.73745100
137.29999203	0.00000000	14.60384000	1.99311000
137.49999201	0.00000000	15.39124000	1.57480300
137.69999200	0.00000000	15.76649000	1.15649600
137.89999199	0.00000000	15.76649000	0.41830710
138.09999198	0.00000000	15.39124000	0.09227362
138.29999197	0.00000000	14.64690000	0.41830710
138.49999195	0.00000000	14.22859000	1.15649600
138.69999194	0.00000000	13.81028000	1.57480300
138.89999193	0.00000000	13.11516000	1.99311000
139.09999192	0.00000000	13.11516000	2.73745100
139.29999191	0.00000000	13.81028000	3.15575800
139.49999189	0.00000000	14.18553000	3.53100400
139.69999188	0.00000000	14.22859000	3.90009800
139.89999187	0.00000000	14.27165000	3.48794300
140.09999186	0.00000000	14.60384000	2.78051200
140.29999185	0.00000000	14.97293000	1.95004900
140.49999184	0.00000000	14.60384000	1.19955700
140.69999182	0.00000000	14.27165000	0.41830710
140.89999181	0.00000000	14.18553000	0.04306102
141.09999180	0.00000000	13.85334000	0.04306102
141.29999179	0.00000000	13.48425000	0.41830710
141.49999178	0.00000000	13.81028000	1.19955700
141.69999176	0.00000000	13.81028000	1.95004900
141.89999175	0.00000000	13.48425000	2.73745100
142.09999174	0.00000000	13.85334000	3.15575800
142.29999173	0.00000000	14.22859000	3.53100400
142.49999172	0.00000000	14.60384000	3.90009800
142.69999170	0.00000000	14.97293000	3.48794300
142.89999169	0.00000000	14.60384000	2.78051200
143.09999168	0.00000000	14.27165000	1.95004900
143.29999167	0.00000000	14.22859000	1.19955700
143.49999166	0.00000000	14.22859000	0.41830710
143.69999165	0.00000000	14.22859000	0.09227362
143.89999163	0.00000000	14.22859000	0.41830710
144.09999162	0.00000000	14.22859000	1.15649600
144.29999161	0.00000000	14.22859000	1.57480300
144.49999160	0.00000000	14.27165000	2.04232300
144.69999159	0.00000000	14.60384000	3.11269700
144.89999157	0.00000000	14.97293000	3.85088600
145.09999156	0.00000000	14.60384000	3.53100400
145.29999155	0.00000000	14.27165000	3.19881900
145.49999154	0.00000000	14.22859000	3.11269700
145.69999153	0.00000000	14.22859000	2.73745100
145.89999151	0.00000000	14.22859000	1.99311000
146.09999150	0.00000000	14.22859000	1.57480300
146.29999149	0.00000000	14.22859000	1.15649600
146.49999148	0.00000000	14.22859000	0.46136810
146.69999147	0.00000000	14.22859000	0.46136810
146.89999146	0.00000000	14.22859000	1.19955700
147.09999144	0.00000000	14.27165000	1.95004900
147.29999143	0.00000000	14.60384000	2.73745100
147.49999142	0.00000000	14.97293000	3.11269700
147.69999141	0.00000000	14.60384000	3.15575800
147.89999140	0.00000000	14.27165000	3.15575800
148.09999138	0.00000000	14.18553000	3.15575800
148.29999137	0.00000000	13.81028000	3.11269700
148.49999136	0.00000000	13.11516000	2.73745100
148.69999135	0.00000000	13.11516000	1.99311000
148.89999134	0.00000000	13.81028000	1.61786400
149.09999132	0.00000000	14.18553000	1.57480300
149.29999131	0.00000000	14.22859000	1.57480300
149.49999130	0.00000000	14.22859000	1.57480300
149.69999129	0.00000000	14.22859000	1.57480300
149.89999128	0.00000000	14.22859000	1.61786400
150.09999127	0.00000000	14.22859000	1.99311000
150.29999125	0.00000000	14.22859000	2.73745100
150.49999124	0.00000000	14.22859000	3.06348400
150.69999123	0.00000000	14.22859000	2.78051200
150.89999122	0.00000000	14.18553000	2.36835600
151.09999121	0.00000000	13.85334000	2.36220500
151.29999119	0.00000000	13.44119000	1.95004900
151.49999118	0.00000000	13.43504000	1.61786400
151.69999117	0.00000000	13.02288000	1.57480300
151.89999116	0.00000000	12.73991000	1.57480300
152.09999115	0.00000000	13.06594000	1.57480300
152.29999113	0.00000000	13.81028000	1.57480300
152.49999112	0.00000000	14.18553000	1.57480300
152.69999111	0.00000000	14.27165000	1.61786400
152.89999110	0.00000000	14.60384000	1.95004900
153.09999109	0.00000000	14.97293000	2.31914400
153.29999108	0.00000000	14.60384000	1.99311000
153.49999106	0.00000000	14.22859000	2.04232300
153.69999105	0.00000000	13.81028000	2.68823800
153.89999104	0.00000000	13.11516000	2.73745100
154.09999103	0.00000000	13.06594000	2.36835600
154.29999102	0.00000000	13.39198000	2.36220500
154.49999100	0.00000000	13.06594000	1.95004900
154.69999099	0.00000000	13.11516000	1.61786400
154.89999098	0.00000000	13.81028000	1.57480300
155.09999097	0.00000000	14.18553000	1.57480300
155.29999096	0.00000000	14.27165000	1.57480300
155.49999094	0.00000000	14.64690000	1.57480300
155.69999093	0.00000000	15.39124000	1.57480300
155.89999092	0.00000000	15.71727000	1.57480300
156.09999091	0.00000000	15.39124000	1.61786400
156.29999090	0.00000000	14.60384000	1.99311000
156.49999089	0.00000000	13.85334000	2.73745100
156.69999087	0.00000000	13.11516000	3.11269700
156.89999086	0.00000000	13.06594000	3.15575800
157.09999085	0.00000000	13.39198000	3.15575800
157.29999084	0.00000000	13.02288000	3.11269700
157.49999083	0.00000000	12.73991000	2.73745100
157.69999081	0.00000000	13.06594000	1.99311000
157.89999080	0.00000000	13.81028000	1.61786400
158.09999079	0.00000000	14.18553000	1.57480300
158.29999078	0.00000000	14.22859000	1.57480300
158.49999077	0.00000000	14.22859000	1.57480300
158.69999075	0.00000000	14.22859000	1.57480300
158.89999074	0.00000000	14.22859000	1.57480300
159.09999073	0.00000000	14.22859000	1.61786400
159.29999072	0.00000000	14.22859000	1.99311000
159.49999071	0.00000000	14.22859000	2.73745100
159.69999070	0.00000000	14.18553000	3.06348400
159.89999068	0.00000000	13.81028000	2.78051200
160.09999067	0.00000000	13.06594000	2.41141700
160.29999066	0.00000000	12.73991000	2.73745100
160.49999065	0.00000000	13.02288000	2.68823800
160.69999064	0.00000000	13.43504000	1.99311000
160.89999062	0.00000000	13.44119000	1.61786400
161.09999061	0.00000000	13.85334000	1.57480300
161.29999060	0.00000000	14.18553000	1.57480300
161.49999059	0.00000000	14.22859000	1.57480300
161.69999058	0.00000000	14.22859000	1.57480300
161.89999056	0.00000000	14.22859000	1.57480300
162.09999055	0.00000000	14.22859000	1.61786400
162.29999054	0.00000000	14.22859000	1.95004900
162.49999053	0.00000000	14.22859000	2.31914400
162.69999052	0.00000000	14.18553000	1.95004900
162.89999051	0.00000000	13.81028000	1.61786400
163.09999049	0.00000000	13.06594000	1.57480300
163.29999048	0.00000000	12.73991000	1.57480300
163.49999047	0.00000000	13.02288000	1.57480300
163.69999046	0.00000000	13.39198000	1.57480300
163.89999045	0.00000000	13.06594000	1.57480300
164.09999043	0.00000000	13.11516000	1.57480300
164.29999042	0.00000000	13.81028000	1.57480300
164.49999041	0.00000000	14.18553000	1.57480300
164.69999040	0.00000000	14.22859000	1.57480300
164.89999039	0.00000000	14.22859000	1.57480300
165.09999037	0.00000000	14.22859000	1.57480300
165.29999036	0.00000000	14.22859000	1.57480300
165.49999035	0.00000000	14.22859000	1.57480300
165.69999034	0.00000000	14.22859000	1.57480300
165.89999033	0.00000000	14.22859000	1.57480300
166.09999032	0.00000000	14.18553000	1.57480300
166.29999030	0.00000000	13.85334000	1.57480300
166.49999029	0.00000000	13.44119000	1.57480300
166.69999028	0.00000000	13.43504000	1.57480300
166.89999027	0.00000000	13.06594000	1.57480300
167.09999026	0.00000000	13.11516000	1.57480300
167.29999024	0.00000000	13.81028000	1.57480300
167.49999023	0.00000000	14.18553000	1.57480300
167.69999022	0.00000000	14.22859000	1.57480300
167.89999021	0.00000000	14.22859000	1.57480300
168.09999020	0.00000000	14.22859000	1.57480300
168.29999018	0.00000000	14.22859000	1.57480300
168.49999017	0.00000000	14.22859000	1.57480300
168.69999016	0.00000000	14.22859000	1.57480300
168.89999015	0.00000000	14.22859000	1.57480300
169.09999014	0.00000000	14.22859000	1.57480300
169.29999013	0.00000000	14.18553000	1.57480300
169.49999011	0.00000000	13.81028000	1.57480300
169.69999010	0.00000000	13.11516000	1.57480300
169.89999009	0.00000000	13.06594000	1.57480300
170.09999008	0.00000000	13.43504000	1.57480300
170.29999007	0.00000000	13.44119000	1.57480300
170.49999005	0.00000000	13.85334000	1.57480300
170.69999004	0.00000000	14.18553000	1.57480300
170.89999003	0.00000000	14.22859000	1.57480300
171.09999002	0.00000000	14.22859000	1.57480300
171.29999001	0.00000000	14.22859000	1.57480300
171.49998999	0.00000000	14.18553000	1.57480300
171.69998998	0.00000000	13.85334000	1.57480300
171.89998997	0.00000000	13.48425000	1.57480300
172.09998996	0.00000000	13.85334000	1.57480300
172.29998995	0.00000000	14.18553000	1.61786400
172.49998994	0.00000000	14.22859000	1.95004900
172.69998992	0.00000000	14.22859000	2.31914400
172.89998991	0.00000000	14.22859000	1.95004900
173.09998990	0.00000000	14.22859000	1.61786400
173.29998989	0.00000000	14.22859000	1.57480300
173.49998988	0.00000000	14.18553000	1.57480300
173.69998986	0.00000000	13.85334000	1.57480300
173.89998985	0.00000000	13.48425000	1.57480300
174.09998984	0.00000000	13.85334000	1.57480300
174.29998983	0.00000000	14.18553000	1.57480300
174.49998982	0.00000000	14.22859000	1.57480300
174.69998980	0.00000000	14.22859000	1.57480300
174.89998979	0.00000000	14.22859000	1.57480300
175.09998978	0.00000000	14.22859000	1.57480300
175.29998977	0.00000000	14.22859000	1.57480300
175.49998976	0.00000000	14.18553000	1.57480300
175.69998975	0.00000000	13.81028000	1.53174200
175.89998973	0.00000000	13.06594000	1.19955700
176.09998972	0.00000000	12.73991000	0.83661410
176.29998971	0.00000000	13.06594000	1.19955700
176.49998970	0.00000000	13.81028000	1.53174200
176.69998969	0.00000000	14.18553000	1.57480300
176.89998967	0.00000000	14.22859000	1.57480300
177.09998966	0.00000000	14.22859000	1.57480300
177.29998965	0.00000000	14.22859000	1.57480300
177.49998964	0.00000000	14.22859000	1.57480300
177.69998963	0.00000000	14.18553000	1.57480300
177.89998961	0.00000000	13.81028000	1.57480300
178.09998960	0.00000000	13.11516000	1.57480300
178.29998959	0.00000000	13.11516000	1.57480300
178.49998958	0.00000000	13.76107000	1.57480300
178.69998957	0.00000000	13.81028000	1.57480300
178.89998956	0.00000000	13.48425000	1.57480300
179.09998954	0.00000000	13.85334000	1.57480300
179.29998953	0.00000000	14.18553000	1.57480300
179.49998952	0.00000000	14.22859000	1.57480300
179.69998951	0.00000000	14.22859000	1.57480300
179.89998950	0.00000000	14.22859000	1.57480300
180.09998948	0.00000000	14.22859000	1.57480300
180.29998947	0.00000000	14.22859000	1.57480300
180.49998946	0.00000000	14.18553000	1.57480300
180.69998945	0.00000000	13.81028000	1.57480300
180.89998944	0.00000000	13.06594000	1.57480300
181.09998942	0.00000000	12.69070000	1.57480300
181.29998941	0.00000000	12.64764000	1.57480300
181.49998940	0.00000000	12.64764000	1.57480300
181.69998939	0.00000000	12.69070000	1.57480300
181.89998938	0.00000000	13.06594000	1.57480300
182.09998937	0.00000000	13.81028000	1.57480300
182.29998935	0.00000000	14.18553000	1.57480300
182.49998934	0.00000000	14.22859000	1.57480300
182.69998933	0.00000000	14.22859000	1.57480300
182.89998932	0.00000000	14.22859000	1.57480300
183.09998931	0.00000000	14.18553000	1.57480300
183.29998929	0.00000000	13.85334000	1.57480300
183.49998928	0.00000000	13.44119000	1.57480300
183.69998927	0.00000000	13.43504000	1.57480300
183.89998926	0.00000000	13.02288000	1.57480300
184.09998925	0.00000000	12.69070000	1.61786400
184.29998923	0.00000000	12.64764000	1.99311000
184.49998922	0.00000000	12.69070000	2.73745100
184.69998921	0.00000000	13.06594000	3.11269700
184.89998920	0.00000000	13.81028000	3.15575800
185.09998919	0.00000000	14.18553000	3.11269700
185.29998918	0.00000000	14.22859000	2.73745100
185.49998916	0.00000000	14.22859000	1.95004900
185.69998915	0.00000000	14.22859000	1.24877000
185.89998914	0.00000000	14.18553000	0.83661410
186.09998913	0.00000000	13.81028000	1.19955700
186.29998912	0.00000000	13.11516000	1.53174200
186.49998910	0.00000000	13.06594000	1.57480300
186.69998909	0.00000000	13.39198000	1.57480300
186.89998908	0.00000000	13.02288000	1.57480300
187.09998907	0.00000000	12.69070000	1.61786400
187.29998906	0.00000000	12.64764000	1.99311000
187.49998904	0.00000000	12.64764000	2.68823800
187.69998903	0.00000000	12.64764000	2.73745100
187.89998902	0.00000000	12.64764000	2.36835600
188.09998901	0.00000000	12.69070000	2.36220500
188.29998900	0.00000000	13.06594000	1.95004900
188.49998899	0.00000000	13.81028000	1.61786400
188.69998897	0.00000000	14.18553000	1.53174200
188.89998896	0.00000000	14.18553000	1.19955700
189.09998895	0.00000000	13.81028000	0.83661410
189.29998894	0.00000000	13.06594000	1.19955700
189.49998893	0.00000000	12.69070000	1.53174200
189.69998891	0.00000000	12.64764000	1.57480300
189.89998890	0.00000000	12.64764000	1.57480300
190.09998889	0.00000000	12.64764000	1.57480300
190.29998888	0.00000000	12.64764000	1.57480300
190.49998887	0.00000000	12.64764000	1.57480300
190.69998885	0.00000000	12.64764000	1.57480300
190.89998884	0.00000000	12.69070000	1.57480300
191.09998883	0.00000000	13.06594000	1.57480300
191.29998882	0.00000000	13.81028000	1.57480300
191.49998881	0.00000000	14.18553000	1.53174200
191.69998880	0.00000000	14.18553000	1.19955700
191.89998878	0.00000000	13.85334000	0.83661410
192.09998877	0.00000000	13.44119000	1.19955700
192.29998876	0.00000000	13.43504000	1.53174200
192.49998875	0.00000000	13.02288000	1.57480300
192.69998874	0.00000000	12.69070000	1.57480300
192.89998872	0.00000000	12.64764000	1.57480300
193.09998871	0.00000000	12.64764000	1.57480300
193.29998870	0.00000000	12.64764000	1.57480300
193.49998869	0.00000000	12.64764000	1.57480300
193.69998868	0.00000000	12.64764000	1.57480300
193.89998866	0.00000000	12.69070000	1.57480300
194.09998865	0.00000000	13.06594000	1.61786400
194.29998864	0.00000000	13.81028000	1.95004900
194.49998863	0.00000000	14.18553000	2.31914400
194.69998862	0.00000000	14.18553000	1.95004900
194.89998861	0.00000000	13.81028000	1.61786400
195.09998859	0.00000000	13.11516000	1.57480300
195.29998858	0.00000000	13.06594000	1.57480300
195.49998857	0.00000000	13.39198000	1.57480300
195.69998856	0.00000000	13.02288000	1.57480300
195.89998855	0.00000000	12.69070000	1.57480300
196.09998853	0.00000000	12.64764000	1.57480300
