Time	Channel A	Channel B	Channel C
(us)	(V)	(mV)	(mV)

-4.59999956	0.00000000	34.78716000	3.15575800
-4.39999957	0.00000000	34.78716000	3.15575800
-4.19999958	0.00000000	34.78716000	3.15575800
-3.99999959	0.00000000	34.78716000	3.15575800
-3.79999960	0.00000000	34.78716000	3.15575800
-3.59999962	0.00000000	34.78716000	3.15575800
-3.39999963	0.00000000	34.83022000	3.15575800
-3.19999964	0.00000000	35.16240000	3.15575800
-2.99999965	0.00000000	35.53149000	3.15575800
-2.79999966	0.00000000	35.16240000	3.15575800
-2.59999968	0.00000000	34.83022000	3.15575800
-2.39999969	0.00000000	34.78716000	3.15575800
-2.19999970	0.00000000	34.83022000	3.15575800
-1.99999971	0.00000000	35.16240000	3.15575800
-1.79999972	0.00000000	35.53149000	3.15575800
-1.59999973	0.00000000	35.16240000	3.15575800
-1.39999975	0.00000000	34.83022000	3.15575800
-1.19999976	0.00000000	34.78716000	3.15575800
-0.99999977	0.00000000	34.78716000	3.15575800
-0.79999978	0.00000000	34.78716000	3.15575800
-0.59999979	0.00000000	34.78716000	3.15575800
-0.39999981	0.00000000	34.78716000	3.15575800
-0.19999982	0.47736220	34.78716000	3.15575800
0.00000017	0.79601380	34.78716000	3.15575800
0.20000016	0.95533960	34.78716000	3.15575800
0.40000015	0.95533960	34.78716000	3.15575800
0.60000013	0.63668800	34.78716000	3.15575800
0.80000012	0.00000000	34.78716000	3.15575800
1.00000011	-0.95533960	34.78716000	3.15575800
1.20000010	-1.91129400	34.78716000	3.15575800
1.40000009	-2.70792300	34.78716000	3.15575800
1.60000008	-2.70792300	34.78716000	3.15575800
1.80000006	-2.07062000	34.78716000	3.15575800
2.00000005	-0.63668800	34.78716000	3.15575800
2.20000004	1.43331700	34.78716000	3.15575800
2.40000003	3.50393700	34.78716000	3.15575800
2.60000002	4.93786900	34.78716000	3.15575800
2.80000000	5.25652100	34.78716000	3.15575800
2.99999999	4.14124000	34.78716000	3.15575800
3.19999998	1.75196900	34.78716000	3.15575800
3.39999997	-1.59264300	34.78716000	3.15575800
3.59999996	-4.93786900	34.78716000	3.15575800
3.79999994	-7.32714100	34.78716000	3.15575800
3.99999993	-7.96444400	34.78716000	3.19881900
4.19999992	-6.69045300	34.83022000	3.57406500
4.39999991	-3.34522600	35.16240000	4.31840500
4.59999990	0.95533960	35.53149000	4.64443900
4.79999989	5.25652100	35.16240000	4.31840500
4.99999987	8.28309500	34.83022000	3.57406500
5.19999986	9.55770200	34.78716000	3.19881900
5.39999985	8.28309500	34.78716000	3.15575800
5.59999984	4.93786900	34.78716000	3.15575800
5.79999983	0.15871060	34.78716000	3.15575800
5.99999981	-4.30056600	34.78716000	3.15575800
6.19999980	-7.96444400	34.78716000	3.15575800
6.39999979	-9.39837600	34.78716000	3.15575800
6.59999978	-8.60174700	34.78716000	3.19881900
6.79999977	-5.57517200	34.78716000	3.53100400
6.99999975	-1.43331700	34.78716000	3.90009800
7.19999974	2.70792300	34.78716000	3.53100400
7.39999973	6.05315000	34.78716000	3.19881900
7.59999972	7.64579200	34.78716000	3.15575800
7.79999971	7.16781500	34.78716000	3.15575800
7.99999970	5.09719500	34.78716000	3.15575800
8.19999968	2.07062000	34.78716000	3.15575800
8.39999967	-1.27399100	34.78716000	3.15575800
8.59999966	-3.82258900	34.78716000	3.15575800
8.79999965	-5.09719500	34.78716000	3.15575800
8.99999964	-4.93786900	34.78716000	3.15575800
9.19999962	-3.66326300	34.78716000	3.15575800
9.39999961	-1.75196900	34.78716000	3.15575800
9.59999960	0.15871060	34.78716000	3.15575800
9.79999959	1.59264300	34.83022000	3.15575800
9.99999958	2.38927200	35.16240000	3.15575800
10.19999956	2.38927200	35.53149000	3.15575800
10.39999955	1.91129400	35.16240000	3.15575800
10.59999954	0.95533960	34.83022000	3.15575800
10.79999953	0.15871060	34.78716000	3.15575800
10.99999952	-0.47736220	34.78716000	3.15575800
11.19999951	-0.79601380	34.78716000	3.15575800
11.39999949	-0.95533960	34.78716000	3.15575800
11.59999948	-0.79601380	34.78716000	3.15575800
11.79999947	-0.63668800	34.78716000	3.15575800
11.99999946	-0.31803640	34.78716000	3.15575800
12.19999945	-0.15871060	34.78716000	3.15575800
12.39999943	-0.15871060	34.78716000	3.15575800
12.59999942	0.00000000	34.78716000	3.15575800
12.79999941	0.00000000	34.83022000	3.15575800
12.99999940	0.00000000	35.16240000	3.15575800
13.19999939	0.00000000	35.53149000	3.15575800
13.39999937	0.00000000	35.16240000	3.15575800
13.59999936	0.00000000	34.83022000	3.15575800
13.79999935	0.00000000	34.78716000	3.15575800
13.99999934	-0.15871060	34.78716000	3.15575800
14.19999933	-0.15871060	34.78716000	3.15575800
14.39999932	-0.15871060	34.78716000	3.15575800
14.59999930	-0.15871060	34.78716000	3.15575800
14.79999929	0.00000000	34.78716000	3.15575800
14.99999928	0.00000000	34.78716000	3.15575800
15.19999927	0.00000000	34.78716000	3.15575800
15.39999926	0.00000000	34.78716000	3.15575800
15.59999924	0.00000000	34.78716000	3.15575800
15.79999923	0.00000000	34.78716000	3.15575800
15.99999922	0.00000000	34.78716000	3.15575800
16.19999921	0.00000000	34.78716000	3.15575800
16.39999920	-0.15871060	34.78716000	3.15575800
16.59999919	-0.15871060	34.78716000	3.15575800
16.79999917	-0.15871060	34.83022000	3.11269700
16.99999916	0.00000000	35.20546000	2.78051200
17.19999915	0.00000000	35.94980000	2.41141700
17.39999914	0.00000000	36.32505000	2.78051200
17.59999913	0.00000000	36.36811000	3.11269700
17.79999911	0.00000000	36.32505000	3.15575800
17.99999910	0.00000000	35.90059000	3.15575800
18.19999909	0.00000000	34.73794000	3.15575800
18.39999908	0.00000000	33.20005000	3.15575800
18.59999907	0.00000000	31.61909000	3.15575800
18.79999905	0.00000000	30.13041000	3.15575800
18.99999904	0.00000000	29.38607000	3.15575800
19.19999903	0.00000000	30.17347000	3.15575800
19.39999902	0.00000000	32.12967000	3.15575800
19.59999901	0.00000000	35.24852000	3.15575800
19.79999900	0.00000000	39.15477000	3.15575800
19.99999898	0.00000000	42.97490000	3.15575800
20.19999897	0.00000000	46.03838000	3.15575800
20.39999896	0.00000000	46.70275000	3.15575800
20.59999895	0.00000000	44.41437000	3.15575800
20.79999894	0.00000000	39.30241000	3.15575800
20.99999892	0.00000000	32.36343000	3.15575800
21.19999891	0.00000000	24.60015000	3.15575800
21.39999890	0.00000000	18.07948000	3.15575800
21.59999889	0.00000000	14.26550000	3.15575800
21.79999888	0.00000000	14.77608000	3.15575800
21.99999886	0.00000000	20.58932000	3.11269700
22.19999885	0.00000000	30.68405000	2.78051200
22.39999884	0.00000000	43.06717000	2.41141700
22.59999883	0.00000000	55.38877000	2.78051200
22.79999882	0.00000000	64.19168000	3.11269700
22.99999881	0.00000000	66.84301000	3.19881900
23.19999879	0.00000000	62.14320000	3.57406500
23.39999878	0.00000000	50.46752000	4.31840500
23.59999877	0.00000000	33.85827000	4.69365100
23.79999876	0.00000000	15.71112000	4.73671200
23.99999875	0.00000000	0.72588580	4.73671200
24.19999873	0.00000000	-7.36343400	4.69365100
24.39999872	0.00000000	-6.11466500	4.22613100
24.59999871	0.00000000	4.77362200	2.73745100
24.79999870	0.00000000	23.70817000	0.83661410
24.99999869	0.00000000	46.46284000	-0.32603340
25.19999867	0.00000000	67.31053000	-1.15649600
25.39999866	0.00000000	81.54527000	-1.48253000
25.59999865	0.00000000	85.35925000	-1.06422200
25.79999864	0.00000000	77.26993000	0.55364170
25.99999863	0.00000000	59.49188000	3.62327700
26.19999862	0.00000000	35.85752000	7.47416300
26.39999860	0.00000000	11.19587000	10.96211000
26.59999859	0.00000000	-8.48302100	13.65650000
26.79999858	0.00000000	-18.11639000	14.72687000
26.99999857	0.00000000	-15.83415000	13.10285000
27.19999856	0.00000000	-1.96850400	8.45226300
27.39999854	0.00000000	19.66043000	1.48868100
27.59999853	0.00000000	44.04527000	-6.22539300
27.79999852	0.00000000	66.42470000	-13.14591000
27.99999851	0.00000000	81.08390000	-17.32899000
28.19999850	0.00000000	84.62106000	-17.24286000
28.39999848	0.00000000	76.98080000	-12.21703000
28.59999847	0.00000000	60.37770000	-2.93430100
28.79999846	0.00000000	39.15477000	8.26771600
28.99999845	0.00000000	17.85187000	19.50664000
29.19999844	0.00000000	1.23646700	28.34030000
29.39999843	0.00000000	-7.36343400	32.52337000
29.59999841	0.00000000	-6.62524600	30.52411000
29.79999840	0.00000000	2.59596400	21.97957000
29.99999839	0.00000000	18.03642000	8.50147600
30.19999838	0.00000000	35.76525000	-6.96358300
30.39999837	0.00000000	51.72244000	-20.85999000
30.59999835	0.00000000	62.98597000	-30.47490000
30.79999834	0.00000000	68.09793000	-33.12623000
30.99999833	0.00000000	66.14788000	-27.73745000
31.19999832	0.00000000	58.04626000	-15.74803000
31.39999831	0.00000000	45.30019000	0.51058070
31.59999829	0.00000000	31.05930000	17.88263000
31.79999828	0.00000000	19.00837000	32.52337000
31.99999827	0.00000000	11.19587000	41.02485000
32.19999826	0.00000000	8.45226300	41.44316000
32.39999825	0.00000000	11.14665000	34.09818000
32.59999824	0.00000000	18.49778000	20.53395000
32.79999822	0.00000000	28.87549000	3.15575800
32.99999821	0.00000000	39.71457000	-14.21629000
33.19999820	0.00000000	48.23449000	-27.73745000
33.39999819	0.00000000	53.34645000	-34.70718000
33.59999818	0.00000000	54.09695000	-33.58760000
33.79999816	0.00000000	50.64591000	-25.08612000
33.99999815	0.00000000	43.71924000	-11.19587000
34.19999814	0.00000000	35.24852000	5.43184000
34.39999813	0.00000000	27.52214000	20.85999000
34.59999812	0.00000000	22.08415000	32.10507000
34.79999810	0.00000000	20.17101000	36.74950000
34.99999809	0.00000000	22.03494000	34.05511000
35.19999808	0.00000000	27.01156000	24.80315000
35.39999807	0.00000000	33.15699000	10.91289000
35.59999806	0.00000000	38.97638000	-4.09694900
35.79999805	0.00000000	43.20866000	-16.81841000
35.99999803	0.00000000	44.74655000	-24.16338000
36.19999802	0.00000000	43.20866000	-24.62475000
36.39999801	0.00000000	39.01944000	-18.86688000
36.59999800	0.00000000	33.66756000	-8.45841400
36.79999799	0.00000000	29.01082000	4.22613100
36.99999797	0.00000000	25.89198000	15.70497000
37.19999796	0.00000000	24.77854000	22.67470000
37.39999795	0.00000000	26.31643000	23.51132000
37.59999794	0.00000000	30.13041000	18.95300000
37.79999793	0.00000000	34.73794000	10.49459000
37.99999791	0.00000000	39.01944000	0.51058070
38.19999790	0.00000000	42.09522000	-8.27386800
38.39999789	0.00000000	43.25172000	-13.24434000
38.59999788	0.00000000	42.13828000	-12.50000000
38.79999787	0.00000000	39.39468000	-6.83439900
38.99999786	0.00000000	35.52534000	1.62401600
39.19999784	0.00000000	30.88090000	10.45152000
39.39999783	0.00000000	27.05462000	17.32899000
39.59999782	0.00000000	24.68627000	19.98031000
39.79999781	0.00000000	24.31102000	17.28592000
39.99999780	0.00000000	25.84892000	10.03322000
40.19999778	0.00000000	28.96776000	0.46136810
40.39999777	0.00000000	33.20005000	-8.36614100
40.59999776	0.00000000	37.48154000	-14.12401000
40.79999775	0.00000000	40.97564000	-15.28666000
40.99999774	0.00000000	43.34399000	-11.42962000
41.19999772	0.00000000	44.09449000	-3.76476400
41.39999771	0.00000000	43.30093000	5.85014700
41.59999770	0.00000000	40.55733000	14.67766000
41.79999769	0.00000000	36.31890000	20.44168000
41.99999768	0.00000000	31.71137000	21.60433000
42.19999767	0.00000000	27.84818000	17.79035000
42.39999765	0.00000000	25.89198000	10.53765000
42.59999764	0.00000000	25.80585000	2.04232300
42.79999763	0.00000000	26.96850000	-5.62869100
42.99999762	0.00000000	28.92470000	-10.68528000
43.19999761	0.00000000	31.66830000	-11.84793000
43.39999759	0.00000000	34.73794000	-9.61491000
43.59999758	0.00000000	37.43848000	-4.60137700
43.79999757	0.00000000	38.97638000	1.53174200
43.99999756	0.00000000	39.06250000	7.33882900
44.19999755	0.00000000	38.32431000	11.56496000
44.39999753	0.00000000	37.57381000	13.14591000
44.59999752	0.00000000	36.78642000	12.07554000
44.79999751	0.00000000	36.41117000	9.38115100
44.99999750	0.00000000	36.36811000	5.89320800
45.19999749	0.00000000	36.32505000	2.04232300
45.39999748	0.00000000	35.85752000	-1.02116100
45.59999746	0.00000000	34.27657000	-2.60211600
45.79999745	0.00000000	31.57603000	-2.64517700
45.99999744	0.00000000	28.50024000	-1.48868100
46.19999743	0.00000000	25.84892000	0.41830710
46.39999742	0.00000000	24.68627000	2.73745100
46.59999740	0.00000000	25.47367000	4.68750000
46.79999739	0.00000000	27.84818000	6.26845500
46.99999738	0.00000000	32.17273000	7.38188900
47.19999737	0.00000000	37.99213000	7.38188900
47.39999736	0.00000000	44.09449000	6.22539300
47.59999734	0.00000000	48.69586000	4.31840500
47.79999733	0.00000000	49.81545000	1.99311000
47.99999732	0.00000000	47.48400000	0.09227362
48.19999731	0.00000000	41.67076000	-1.11343500
48.39999730	0.00000000	33.57529000	-1.48253000
48.59999729	0.00000000	25.47367000	-1.02116100
48.79999727	0.00000000	18.92224000	0.88582670
48.99999726	0.00000000	15.88952000	3.94315900
49.19999725	0.00000000	17.38435000	6.60063900
49.39999724	0.00000000	22.82234000	8.58759800
49.59999723	0.00000000	30.96703000	9.33809000
49.79999721	0.00000000	40.60039000	8.91978400
49.99999720	0.00000000	48.97884000	6.96358300
50.19999719	0.00000000	53.25418000	3.48794300
50.39999718	0.00000000	52.51599000	-0.33218500
50.59999717	0.00000000	47.48400000	-3.80782500
50.79999715	0.00000000	39.01944000	-5.67175200
50.99999714	0.00000000	29.43528000	-5.33956700
51.19999713	0.00000000	21.70891000	-3.02042300
51.39999712	0.00000000	17.42741000	0.46751960
51.59999711	0.00000000	17.42741000	4.69365100
51.79999710	0.00000000	21.65969000	8.54453700
51.99999708	0.00000000	28.96776000	10.86983000
52.19999707	0.00000000	37.43848000	11.65723000
52.39999706	0.00000000	44.69734000	10.45152000
52.59999705	0.00000000	48.56053000	7.42495000
52.79999704	0.00000000	47.81619000	3.53100400
52.99999702	0.00000000	43.25172000	-0.28297240
53.19999701	0.00000000	36.31890000	-3.34645700
53.39999700	0.00000000	29.06004000	-4.14000900
53.59999699	0.00000000	23.66511000	-3.06348400
53.79999698	0.00000000	21.70891000	-1.11343500
53.99999696	0.00000000	23.19759000	1.58095500
54.19999695	0.00000000	27.47293000	4.26919300
54.39999694	0.00000000	33.57529000	6.17618100
54.59999693	0.00000000	39.71457000	6.92052100
54.79999692	0.00000000	43.58390000	5.80093500
54.99999691	0.00000000	44.78961000	3.61712600
55.19999689	0.00000000	43.20866000	2.04232300
55.39999688	0.00000000	38.97638000	1.24877000
55.59999687	0.00000000	33.24926000	0.87967510
55.79999686	0.00000000	27.89739000	1.71013800
55.99999685	0.00000000	24.77854000	3.53100400
56.19999683	0.00000000	24.36024000	5.47490100
56.39999682	0.00000000	26.26722000	6.55142700
56.59999681	0.00000000	30.13041000	6.54527500
56.79999680	0.00000000	34.73794000	4.60137700
56.99999679	0.00000000	38.97638000	1.58095500
57.19999677	0.00000000	41.67076000	-1.53174200
57.39999676	0.00000000	42.09522000	-4.18307100
57.59999675	0.00000000	40.60039000	-5.29650500
57.79999674	0.00000000	37.85679000	-4.13385800
57.99999673	0.00000000	34.41191000	-1.02116100
58.19999672	0.00000000	30.92396000	3.62327700
58.39999670	0.00000000	28.63558000	8.96284400
58.59999669	0.00000000	27.84818000	13.14591000
58.79999668	0.00000000	28.96776000	14.67766000
58.99999667	0.00000000	31.24384000	13.14591000
59.19999666	0.00000000	33.57529000	8.91978400
59.39999664	0.00000000	35.90059000	3.11269700
59.59999663	0.00000000	37.39542000	-3.06963600
59.79999662	0.00000000	37.43848000	-8.40920300
59.99999661	0.00000000	36.36811000	-11.05438000
60.19999660	0.00000000	35.20546000	-9.89788300
60.39999658	0.00000000	34.36884000	-5.33956700
60.59999657	0.00000000	33.24926000	1.24877000
60.79999656	0.00000000	32.50492000	8.21850300
60.99999655	0.00000000	32.86786000	14.72687000
61.19999654	0.00000000	33.57529000	18.53469000
61.39999653	0.00000000	34.36884000	18.16560000
61.59999651	0.00000000	34.74409000	14.30241000
61.79999650	0.00000000	34.78716000	7.33882900
61.99999649	0.00000000	34.74409000	-1.02116100
62.19999648	0.00000000	34.31963000	-7.99089500
62.39999647	0.00000000	33.20005000	-11.89715000
62.59999645	0.00000000	32.08661000	-12.68455000
62.79999644	0.00000000	31.71137000	-9.94094400
62.99999643	0.00000000	32.03740000	-4.18307100
63.19999642	0.00000000	32.86786000	3.15575800
63.39999641	0.00000000	33.99360000	10.49459000
63.59999639	0.00000000	35.52534000	16.25861000
63.79999638	0.00000000	36.32505000	18.95300000
63.99999637	0.00000000	36.74335000	17.79650000
64.19999636	0.00000000	37.06324000	13.23819000
64.39999635	0.00000000	36.27584000	6.68676100
64.59999634	0.00000000	34.78716000	0.13533460
64.79999632	0.00000000	33.20005000	-5.33956700
64.99999631	0.00000000	31.66215000	-8.82750900
65.19999630	0.00000000	30.54872000	-9.99015700
65.39999629	0.00000000	30.54872000	-8.45226300
65.59999628	0.00000000	31.66215000	-4.60137700
65.79999626	0.00000000	33.20005000	0.37524600
65.99999625	0.00000000	34.73794000	5.43184000
66.19999624	0.00000000	35.85752000	9.29502900
66.39999623	0.00000000	35.85752000	11.70029000
66.59999622	0.00000000	34.73794000	12.45079000
66.79999620	0.00000000	33.20005000	11.74951000
66.99999619	0.00000000	31.66215000	9.79945900
67.19999618	0.00000000	30.54872000	7.43110200
67.39999617	0.00000000	30.59178000	4.31840500
67.59999616	0.00000000	32.08661000	0.83661410
67.79999615	0.00000000	34.41191000	-1.90698800
67.99999613	0.00000000	36.70029000	-4.26919300
68.19999612	0.00000000	38.64419000	-5.75787400
68.39999611	0.00000000	39.35162000	-5.80093500
68.59999610	0.00000000	38.60113000	-4.60137700
68.79999609	0.00000000	36.23277000	-2.27608300
68.99999607	0.00000000	32.73868000	1.24877000
69.19999606	0.00000000	28.54946000	5.15501900
69.39999605	0.00000000	25.15379000	9.38115100
69.59999604	0.00000000	24.31102000	12.81988000
69.79999603	0.00000000	25.43061000	13.98253000
69.99999601	0.00000000	27.84818000	13.18898000
70.19999600	0.00000000	32.12967000	10.07628000
70.39999599	0.00000000	37.48154000	5.11195900
70.59999598	0.00000000	42.09522000	0.09227362
70.79999597	0.00000000	44.83267000	-4.22613100
70.99999596	0.00000000	45.16486000	-7.29576700
71.19999594	0.00000000	42.83341000	-8.40920300
71.39999593	0.00000000	37.81373000	-6.87746000
71.59999592	0.00000000	31.66830000	-3.06963600
71.79999591	0.00000000	25.84892000	1.57480300
71.99999590	0.00000000	21.65969000	6.21924200
72.19999588	0.00000000	20.45399000	10.03322000
72.39999587	0.00000000	22.36097000	11.60802000
72.59999586	0.00000000	26.22416000	10.91289000
72.79999585	0.00000000	31.66830000	8.96284400
72.99999584	0.00000000	37.43848000	5.89320800
73.19999582	0.00000000	42.09522000	2.46063000
73.39999581	0.00000000	44.78961000	0.13533460
73.59999580	0.00000000	44.78961000	-1.06422200
73.79999579	0.00000000	42.13828000	-1.06422200
73.99999578	0.00000000	37.89985000	0.04306102
74.19999577	0.00000000	33.24926000	1.53174200
74.39999575	0.00000000	28.96776000	2.68823800
74.59999574	0.00000000	25.89198000	3.06348400
74.79999573	0.00000000	24.73548000	2.68823800
74.99999572	0.00000000	25.84892000	1.57480300
75.19999571	0.00000000	28.50024000	0.46136810
75.39999569	0.00000000	31.61909000	0.13533460
75.59999568	0.00000000	34.73794000	0.87967510
75.79999567	0.00000000	37.43848000	2.82972400
75.99999566	0.00000000	38.97638000	5.15501900
76.19999565	0.00000000	39.01944000	7.84940900
76.39999563	0.00000000	37.90600000	10.07628000
76.59999562	0.00000000	36.36811000	10.45152000
76.79999561	0.00000000	34.83022000	8.87057000
76.99999560	0.00000000	33.66756000	5.38262700
77.19999559	0.00000000	33.24311000	0.41830710
77.39999558	0.00000000	33.20005000	-4.18307100
77.59999556	0.00000000	33.20005000	-7.29576700
77.79999555	0.00000000	33.15699000	-8.40920300
77.99999554	0.00000000	32.78174000	-6.87746000
78.19999553	0.00000000	32.03740000	-3.02042300
78.39999552	0.00000000	31.61909000	1.99311000
78.59999550	0.00000000	31.24384000	7.38188900
78.79999549	0.00000000	30.92396000	11.61417000
78.99999548	0.00000000	31.71137000	13.61343000
79.19999547	0.00000000	33.24926000	13.61343000
79.39999546	0.00000000	35.20546000	11.61417000
79.59999544	0.00000000	37.48154000	7.38188900
79.79999543	0.00000000	38.97638000	2.04232300
79.99999542	0.00000000	38.97638000	-2.60211600
80.19999541	0.00000000	37.43848000	-5.75787400
80.39999540	0.00000000	34.78716000	-7.29576700
80.59999539	0.00000000	32.03740000	-6.92052100
80.79999537	0.00000000	29.70595000	-4.60137700
80.99999536	0.00000000	27.80512000	-1.15649600
81.19999535	0.00000000	27.42987000	2.73745100
81.39999534	0.00000000	28.54946000	6.22539300
81.59999533	0.00000000	30.50566000	8.96284400
81.79999531	0.00000000	33.20005000	10.49459000
81.99999530	0.00000000	35.90059000	10.53765000
82.19999529	0.00000000	37.81373000	9.38115100
82.39999528	0.00000000	38.60113000	7.43110200
82.59999527	0.00000000	37.85679000	4.68750000
82.79999525	0.00000000	36.32505000	1.62401600
82.99999524	0.00000000	34.36884000	-1.11343500
83.19999523	0.00000000	32.08661000	-3.06348400
83.39999522	0.00000000	30.54872000	-4.26919300
83.59999521	0.00000000	30.13041000	-4.60137700
83.79999520	0.00000000	30.50566000	-3.80782500
83.99999518	0.00000000	31.61909000	-1.48868100
84.19999517	0.00000000	32.73252000	1.58095500
84.39999516	0.00000000	33.20005000	4.73671200
84.59999515	0.00000000	33.61835000	7.84940900
84.79999514	0.00000000	34.31963000	10.49459000
84.99999512	0.00000000	34.36884000	11.60802000
85.19999511	0.00000000	33.99975000	10.45152000
85.39999510	0.00000000	34.03666000	7.42495000
85.59999509	0.00000000	33.99975000	3.53100400
85.79999508	0.00000000	34.41191000	-0.37524600
85.99999506	0.00000000	34.74409000	-4.22613100
86.19999505	0.00000000	34.74409000	-6.87746000
86.39999504	0.00000000	34.31963000	-7.24655500
86.59999503	0.00000000	33.15699000	-5.33956700
86.79999502	0.00000000	31.66215000	-1.48868100
86.99999501	0.00000000	30.50566000	3.11269700
87.19999499	0.00000000	30.08120000	7.43110200
87.39999498	0.00000000	30.13041000	10.86983000
87.59999497	0.00000000	30.92396000	12.72761000
87.79999496	0.00000000	32.82480000	11.56496000
87.99999495	0.00000000	34.69488000	7.80019600
88.19999493	0.00000000	35.90059000	3.15575800
88.39999492	0.00000000	36.32505000	-1.48868100
88.59999491	0.00000000	36.32505000	-5.29650500
88.79999490	0.00000000	35.90059000	-6.82824800
88.99999489	0.00000000	34.73794000	-5.71481200
89.19999487	0.00000000	33.20005000	-2.60211600
89.39999486	0.00000000	31.66215000	1.99311000
89.59999485	0.00000000	30.54872000	6.96358300
89.79999484	0.00000000	30.50566000	10.45152000
89.99999483	0.00000000	31.24384000	12.03248000
90.19999482	0.00000000	32.03740000	11.56496000
90.39999480	0.00000000	33.20005000	8.50147600
90.59999479	0.00000000	34.31963000	3.53100400
90.79999478	0.00000000	34.74409000	-1.43946800
90.99999477	0.00000000	34.74409000	-5.29650500
91.19999476	0.00000000	34.36884000	-6.82824800
91.39999474	0.00000000	33.61835000	-5.67175200
91.59999473	0.00000000	33.24311000	-2.22687000
91.79999472	0.00000000	33.20005000	2.78051200
91.99999471	0.00000000	33.24311000	7.71407400
92.19999470	0.00000000	33.61835000	11.18971000
92.39999468	0.00000000	34.31963000	11.98327000
92.59999467	0.00000000	34.31963000	10.45152000
92.79999466	0.00000000	33.57529000	6.96358300
92.99999465	0.00000000	32.78174000	1.99311000
93.19999464	0.00000000	31.61909000	-2.60211600
93.39999463	0.00000000	30.50566000	-5.67175200
93.59999461	0.00000000	30.13041000	-6.40994000
93.79999460	0.00000000	30.50566000	-4.14000900
93.99999459	0.00000000	31.71137000	0.00000000
94.19999458	0.00000000	33.61835000	4.26919300
94.39999457	0.00000000	35.90059000	7.75713500
94.59999455	0.00000000	37.48154000	10.07628000
94.79999454	0.00000000	38.28125000	10.40846000
94.99999453	0.00000000	38.60113000	8.50147600
95.19999452	0.00000000	37.39542000	4.69365100
95.39999451	0.00000000	34.73794000	0.51058070
95.59999449	0.00000000	31.66830000	-2.60211600
95.79999448	0.00000000	28.92470000	-4.14000900
95.99999447	0.00000000	26.96850000	-3.76476400
96.19999446	0.00000000	25.84892000	-1.48868100
96.39999445	0.00000000	26.26722000	1.58095500
96.59999444	0.00000000	28.59252000	4.64443900
96.79999442	0.00000000	32.03740000	6.96358300
96.99999441	0.00000000	35.94980000	7.75713500
97.19999440	0.00000000	39.39468000	7.38188900
97.39999439	0.00000000	41.71998000	5.85014700
97.59999438	0.00000000	42.09522000	3.57406500
97.79999436	0.00000000	40.55733000	1.62401600
97.99999435	0.00000000	37.48154000	0.09227362
98.19999434	0.00000000	33.57529000	-0.69512790
98.39999433	0.00000000	29.70595000	-0.32603340
98.59999432	0.00000000	26.26722000	0.41830710
98.79999430	0.00000000	24.73548000	1.57480300
98.99999429	0.00000000	25.43061000	2.68823800
99.19999428	0.00000000	27.38681000	3.11269700
99.39999427	0.00000000	30.50566000	3.15575800
99.59999426	0.00000000	34.31963000	3.15575800
99.79999425	0.00000000	37.43848000	3.15575800
99.99999423	0.00000000	39.43774000	3.19881900
100.19999422	0.00000000	40.60039000	3.62327700
100.39999421	0.00000000	40.51427000	4.68750000
100.59999420	0.00000000	38.64419000	5.43184000
100.79999419	0.00000000	35.53765000	5.06274600
100.99999417	0.00000000	32.44956000	4.26919300
101.19999416	0.00000000	29.34301000	2.69439000
101.39999415	0.00000000	27.42987000	0.46751960
101.59999414	0.00000000	26.96850000	-1.06422200
101.79999413	0.00000000	27.38681000	-1.53174200
101.99999411	0.00000000	28.92470000	-1.48253000
102.19999410	0.00000000	31.24384000	-0.64591530
102.39999409	0.00000000	33.57529000	1.66707700
102.59999408	0.00000000	35.90059000	4.68750000
102.79999407	0.00000000	37.43848000	7.38188900
102.99999406	0.00000000	37.85679000	8.91978400
103.19999404	0.00000000	37.48154000	8.91978400
103.39999403	0.00000000	36.32505000	7.38188900
103.59999402	0.00000000	34.73794000	4.68750000
103.79999401	0.00000000	32.78174000	1.58095500
103.99999400	0.00000000	30.50566000	-1.48868100
104.19999398	0.00000000	28.96776000	-3.76476400
104.39999397	0.00000000	28.54946000	-4.14000900
104.59999396	0.00000000	28.92470000	-2.64517700
104.79999395	0.00000000	30.08120000	0.04306102
104.99999394	0.00000000	31.66215000	3.11269700
105.19999392	0.00000000	33.57529000	5.85014700
105.39999391	0.00000000	35.48228000	7.75713500
105.59999390	0.00000000	36.23277000	8.50147600
105.79999389	0.00000000	35.90059000	7.33882900
105.99999388	0.00000000	34.73794000	4.73671200
106.19999387	0.00000000	33.24926000	2.04232300
106.39999385	0.00000000	32.03740000	0.09227362
106.59999384	0.00000000	31.28691000	-1.06422200
106.79999383	0.00000000	30.87475000	-1.06422200
106.99999382	0.00000000	31.28691000	0.04306102
107.19999381	0.00000000	32.03740000	1.57480300
107.39999379	0.00000000	33.20005000	3.15575800
107.59999378	0.00000000	34.31963000	4.68750000
107.79999377	0.00000000	34.69488000	5.80093500
107.99999376	0.00000000	34.36884000	5.80093500
108.19999375	0.00000000	33.57529000	4.64443900
108.39999374	0.00000000	32.82480000	2.78051200
108.59999372	0.00000000	31.99434000	0.87967510
108.79999371	0.00000000	31.24384000	0.09227362
108.99999370	0.00000000	30.50566000	0.04306102
109.19999369	0.00000000	30.54872000	0.46136810
109.39999368	0.00000000	31.61909000	1.62401600
109.59999366	0.00000000	32.78174000	3.15575800
109.79999365	0.00000000	33.57529000	4.68750000
109.99999364	0.00000000	34.36884000	5.85014700
110.19999363	0.00000000	34.74409000	6.21924200
110.39999362	0.00000000	34.74409000	5.85014700
110.59999360	0.00000000	34.31963000	4.68750000
110.79999359	0.00000000	33.20005000	3.15575800
110.99999358	0.00000000	32.08661000	1.62401600
111.19999357	0.00000000	31.66215000	0.41830710
111.39999356	0.00000000	31.61909000	-0.32603340
111.59999355	0.00000000	31.61909000	-0.69512790
111.79999353	0.00000000	31.66215000	0.04306102
111.99999352	0.00000000	32.03740000	1.15649600
112.19999351	0.00000000	32.78174000	1.99311000
112.39999350	0.00000000	33.15699000	3.15575800
112.59999349	0.00000000	33.20005000	4.26919300
112.79999347	0.00000000	33.20005000	4.64443900
112.99999346	0.00000000	33.20005000	4.31840500
113.19999345	0.00000000	33.20005000	3.57406500
113.39999344	0.00000000	33.15699000	3.15575800
113.59999343	0.00000000	32.82480000	2.73745100
113.79999341	0.00000000	32.45571000	1.99311000
113.99999340	0.00000000	32.82480000	1.61786400
114.19999339	0.00000000	33.10777000	1.53174200
114.39999338	0.00000000	32.78174000	1.19955700
114.59999337	0.00000000	32.03740000	0.83661410
114.79999336	0.00000000	31.71137000	1.15649600
114.99999334	0.00000000	32.03740000	1.15649600
115.19999333	0.00000000	32.78174000	0.83661410
115.39999332	0.00000000	33.15699000	1.24877000
115.59999331	0.00000000	33.20005000	1.95004900
115.79999330	0.00000000	33.20005000	2.73745100
115.99999328	0.00000000	33.20005000	3.15575800
116.19999327	0.00000000	33.15699000	3.57406500
116.39999326	0.00000000	32.78174000	4.31840500
116.59999325	0.00000000	32.03740000	4.64443900
116.79999324	0.00000000	31.66215000	4.31840500
116.99999322	0.00000000	31.66215000	3.53100400
117.19999321	0.00000000	32.03740000	2.78051200
117.39999320	0.00000000	32.78174000	1.95004900
117.59999319	0.00000000	33.20005000	1.19955700
117.79999318	0.00000000	33.61835000	0.41830710
117.99999317	0.00000000	34.36884000	0.09227362
118.19999315	0.00000000	34.69488000	0.41830710
118.39999314	0.00000000	34.31963000	1.19955700
118.59999313	0.00000000	33.20005000	1.95004900
118.79999312	0.00000000	32.03740000	2.78051200
118.99999311	0.00000000	31.24384000	3.53100400
119.19999309	0.00000000	30.45644000	4.31840500
119.39999308	0.00000000	30.13041000	4.69365100
119.59999307	0.00000000	30.45644000	4.69365100
119.79999306	0.00000000	31.24384000	4.26919300
119.99999305	0.00000000	32.03740000	3.19881900
120.19999303	0.00000000	33.24926000	2.41141700
120.39999302	0.00000000	34.73794000	2.36220500
120.59999301	0.00000000	35.90059000	1.95004900
120.79999300	0.00000000	36.27584000	1.61786400
120.99999299	0.00000000	35.90059000	1.57480300
121.19999298	0.00000000	34.73794000	1.57480300
121.39999296	0.00000000	33.20005000	1.57480300
121.59999295	0.00000000	31.66215000	1.57480300
121.79999294	0.00000000	30.50566000	1.61786400
121.99999293	0.00000000	30.08120000	1.99311000
122.19999292	0.00000000	30.03814000	2.73745100
122.39999290	0.00000000	30.08120000	3.11269700
122.59999289	0.00000000	30.50566000	3.15575800
122.79999288	0.00000000	31.61909000	3.19881900
122.99999287	0.00000000	32.78174000	3.53100400
123.19999286	0.00000000	33.57529000	3.90009800
123.39999284	0.00000000	34.36884000	3.53100400
123.59999283	0.00000000	34.74409000	3.15575800
123.79999282	0.00000000	34.78716000	2.73745100
123.99999281	0.00000000	34.74409000	1.99311000
124.19999280	0.00000000	34.31963000	1.61786400
124.39999279	0.00000000	33.20005000	1.57480300
124.59999277	0.00000000	32.03740000	1.57480300
124.79999276	0.00000000	31.24384000	1.57480300
124.99999275	0.00000000	30.45644000	1.61786400
125.19999274	0.00000000	30.08120000	1.99311000
125.39999273	0.00000000	30.08120000	2.73745100
125.59999271	0.00000000	30.50566000	3.11269700
125.79999270	0.00000000	31.61909000	3.15575800
125.99999269	0.00000000	32.78174000	3.15575800
126.19999268	0.00000000	33.57529000	3.15575800
126.39999267	0.00000000	34.36884000	3.15575800
126.59999265	0.00000000	34.74409000	3.11269700
126.79999264	0.00000000	34.74409000	2.73745100
126.99999263	0.00000000	34.31963000	1.99311000
127.19999262	0.00000000	33.15699000	1.61786400
127.39999261	0.00000000	31.66215000	1.57480300
127.59999260	0.00000000	30.50566000	1.57480300
127.79999258	0.00000000	30.08120000	1.57480300
127.99999257	0.00000000	30.08120000	1.57480300
128.19999256	0.00000000	30.50566000	1.61786400
128.39999255	0.00000000	31.61909000	1.99311000
128.59999254	0.00000000	32.78174000	2.73745100
128.79999252	0.00000000	33.57529000	3.11269700
128.99999251	0.00000000	34.36884000	3.15575800
129.19999250	0.00000000	34.69488000	3.11269700
129.39999249	0.00000000	34.36884000	2.73745100
129.59999248	0.00000000	33.57529000	1.99311000
129.79999246	0.00000000	32.78174000	1.61786400
129.99999245	0.00000000	31.61909000	1.57480300
130.19999244	0.00000000	30.50566000	1.57480300
130.39999243	0.00000000	30.13041000	1.61786400
130.59999242	0.00000000	30.45644000	1.99311000
130.79999241	0.00000000	31.24384000	2.73745100
130.99999239	0.00000000	32.03740000	3.11269700
131.19999238	0.00000000	33.15699000	3.15575800
131.39999237	0.00000000	33.90133000	3.11269700
131.59999236	0.00000000	33.57529000	2.73745100
131.79999235	0.00000000	33.24311000	1.99311000
131.99999233	0.00000000	33.15699000	1.57480300
132.19999232	0.00000000	32.78174000	1.19955700
132.39999231	0.00000000	32.03740000	0.83661410
132.59999230	0.00000000	31.66215000	1.19955700
132.79999229	0.00000000	31.61909000	1.57480300
132.99999227	0.00000000	31.61909000	1.99311000
133.19999226	0.00000000	31.66215000	2.78051200
133.39999225	0.00000000	31.99434000	3.48794300
133.59999224	0.00000000	32.36343000	3.90009800
133.79999223	0.00000000	31.99434000	3.53100400
133.99999222	0.00000000	31.66215000	3.15575800
134.19999220	0.00000000	31.61909000	2.73745100
134.39999219	0.00000000	31.61909000	1.95004900
134.59999218	0.00000000	31.66215000	1.19955700
134.79999217	0.00000000	32.03740000	0.41830710
134.99999216	0.00000000	32.78174000	0.04306102
135.19999214	0.00000000	33.15699000	0.00000000
135.39999213	0.00000000	33.20005000	0.09227362
135.59999212	0.00000000	33.20005000	0.83661410
135.79999211	0.00000000	33.15699000	2.31914400
135.99999210	0.00000000	32.78174000	3.11269700
136.19999208	0.00000000	31.99434000	3.53100400
136.39999207	0.00000000	31.24384000	3.90009800
136.59999206	0.00000000	30.50566000	3.53100400
136.79999205	0.00000000	30.50566000	3.19881900
136.99999204	0.00000000	31.24384000	3.11269700
137.19999203	0.00000000	31.99434000	2.73745100
137.39999201	0.00000000	32.78174000	1.95004900
137.59999200	0.00000000	33.15699000	1.19955700
137.79999199	0.00000000	33.20005000	0.41830710
137.99999198	0.00000000	33.20005000	0.09227362
138.19999197	0.00000000	33.15699000	0.41830710
138.39999195	0.00000000	32.78174000	1.15649600
138.59999194	0.00000000	32.03740000	1.53174200
138.79999193	0.00000000	31.61909000	1.61786400
138.99999192	0.00000000	31.24384000	1.99311000
139.19999191	0.00000000	30.87475000	2.73745100
139.39999189	0.00000000	31.24384000	3.11269700
139.59999188	0.00000000	31.61909000	3.15575800
139.79999187	0.00000000	32.03740000	3.15575800
139.99999186	0.00000000	32.78174000	3.11269700
140.19999185	0.00000000	33.15699000	2.73745100
140.39999184	0.00000000	33.20005000	1.99311000
140.59999182	0.00000000	33.20005000	1.57480300
140.79999181	0.00000000	33.15699000	1.15649600
140.99999180	0.00000000	32.78174000	0.46136810
141.19999179	0.00000000	32.03740000	0.46136810
141.39999178	0.00000000	31.66215000	1.19955700
141.59999176	0.00000000	31.61909000	1.95004900
141.79999175	0.00000000	31.61909000	2.78051200
141.99999174	0.00000000	31.66215000	3.48794300
142.19999173	0.00000000	32.03740000	3.94315900
142.39999172	0.00000000	32.78174000	3.90625000
142.59999170	0.00000000	33.15699000	3.94315900
142.79999169	0.00000000	33.15699000	3.48794300
142.99999168	0.00000000	32.78174000	2.78051200
143.19999167	0.00000000	32.08661000	1.95004900
143.39999166	0.00000000	32.03740000	1.19955700
143.59999165	0.00000000	32.36343000	0.41830710
143.79999163	0.00000000	31.99434000	0.09227362
143.99999162	0.00000000	31.66215000	0.41830710
144.19999161	0.00000000	31.66215000	1.19955700
144.39999160	0.00000000	32.03740000	1.95004900
144.59999159	0.00000000	32.78174000	2.78051200
144.79999157	0.00000000	33.15699000	3.48794300
144.99999156	0.00000000	33.15699000	3.90009800
145.19999155	0.00000000	32.78174000	3.53100400
145.39999154	0.00000000	32.03740000	3.19881900
145.59999153	0.00000000	31.66215000	3.11269700
145.79999151	0.00000000	31.57603000	2.73745100
145.99999150	0.00000000	31.24384000	1.95004900
146.19999149	0.00000000	30.87475000	1.19955700
146.39999148	0.00000000	31.24384000	0.46136810
146.59999147	0.00000000	31.57603000	0.46136810
146.79999146	0.00000000	31.66215000	1.15649600
146.99999144	0.00000000	32.03740000	1.57480300
147.19999143	0.00000000	32.73252000	1.99311000
147.39999142	0.00000000	32.73252000	2.73745100
147.59999141	0.00000000	32.03740000	3.11269700
147.79999140	0.00000000	31.66215000	3.15575800
147.99999138	0.00000000	31.61909000	3.15575800
148.19999137	0.00000000	31.61909000	3.11269700
148.39999136	0.00000000	31.61909000	2.73745100
148.59999135	0.00000000	31.61909000	1.99311000
148.79999134	0.00000000	31.61909000	1.61786400
148.99999132	0.00000000	31.66215000	1.57480300
149.19999131	0.00000000	31.99434000	1.57480300
149.39999130	0.00000000	32.40649000	1.57480300
149.59999129	0.00000000	32.41265000	1.57480300
149.79999128	0.00000000	32.82480000	1.57480300
149.99999127	0.00000000	33.15699000	1.61786400
150.19999125	0.00000000	33.15699000	1.99311000
150.39999124	0.00000000	32.78174000	2.68823800
150.59999123	0.00000000	32.03740000	2.73745100
150.79999122	0.00000000	31.66215000	2.41141700
150.99999121	0.00000000	31.61909000	2.78051200
151.19999119	0.00000000	31.61909000	3.06348400
151.39999118	0.00000000	31.61909000	2.73745100
151.59999117	0.00000000	31.61909000	1.99311000
151.79999116	0.00000000	31.61909000	1.61786400
151.99999115	0.00000000	31.66215000	1.57480300
152.19999113	0.00000000	32.03740000	1.57480300
152.39999112	0.00000000	32.78174000	1.57480300
152.59999111	0.00000000	33.15699000	1.57480300
152.79999110	0.00000000	33.15699000	1.57480300
152.99999109	0.00000000	32.82480000	1.61786400
153.19999108	0.00000000	32.41265000	1.95004900
153.39999106	0.00000000	32.40649000	2.36220500
153.59999105	0.00000000	31.99434000	2.36835600
153.79999104	0.00000000	31.66215000	2.78051200
153.99999103	0.00000000	31.57603000	3.11269700
154.19999102	0.00000000	31.20078000	3.15575800
154.39999100	0.00000000	30.50566000	3.15575800
154.59999099	0.00000000	30.50566000	3.15575800
154.79999098	0.00000000	31.20078000	3.11269700
154.99999097	0.00000000	31.61909000	2.73745100
155.19999096	0.00000000	32.03740000	1.95004900
155.39999094	0.00000000	32.78174000	1.24877000
155.59999093	0.00000000	33.15699000	0.83661410
155.79999092	0.00000000	33.20005000	1.19955700
155.99999091	0.00000000	33.20005000	1.57480300
156.19999090	0.00000000	33.15699000	1.99311000
156.39999089	0.00000000	32.78174000	2.73745100
156.59999087	0.00000000	31.99434000	3.11269700
156.79999086	0.00000000	31.24384000	3.15575800
156.99999085	0.00000000	30.45644000	3.15575800
157.19999084	0.00000000	30.08120000	3.15575800
157.39999083	0.00000000	30.08120000	3.11269700
157.59999081	0.00000000	30.45644000	2.78051200
157.79999080	0.00000000	31.20078000	2.36835600
157.99999079	0.00000000	31.57603000	2.36220500
158.19999078	0.00000000	31.66215000	1.95004900
158.39999077	0.00000000	32.03740000	1.61786400
158.59999075	0.00000000	32.78174000	1.57480300
158.79999074	0.00000000	33.15699000	1.57480300
158.99999073	0.00000000	33.15699000	1.57480300
159.19999072	0.00000000	32.78174000	1.61786400
159.39999071	0.00000000	32.03740000	1.99311000
159.59999070	0.00000000	31.66215000	2.73745100
159.79999068	0.00000000	31.61909000	3.11269700
159.99999067	0.00000000	31.61909000	3.15575800
160.19999066	0.00000000	31.61909000	3.11269700
160.39999065	0.00000000	31.61909000	2.73745100
160.59999064	0.00000000	31.61909000	1.99311000
160.79999062	0.00000000	31.61909000	1.61786400
160.99999061	0.00000000	31.61909000	1.57480300
161.19999060	0.00000000	31.61909000	1.57480300
161.39999059	0.00000000	31.61909000	1.57480300
161.59999058	0.00000000	31.66215000	1.57480300
161.79999056	0.00000000	31.99434000	1.57480300
161.99999055	0.00000000	32.36343000	1.57480300
162.19999054	0.00000000	31.99434000	1.61786400
162.39999053	0.00000000	31.66215000	1.99311000
162.59999052	0.00000000	31.61909000	2.73745100
162.79999051	0.00000000	31.61909000	3.11269700
162.99999049	0.00000000	31.61909000	3.11269700
163.19999048	0.00000000	31.57603000	2.78051200
163.39999047	0.00000000	31.24384000	2.36835600
163.59999046	0.00000000	30.87475000	2.36220500
163.79999045	0.00000000	31.24384000	1.95004900
163.99999043	0.00000000	31.57603000	1.61786400
164.19999042	0.00000000	31.61909000	1.57480300
164.39999041	0.00000000	31.61909000	1.57480300
164.59999040	0.00000000	31.61909000	1.57480300
164.79999039	0.00000000	31.61909000	1.57480300
164.99999037	0.00000000	31.61909000	1.57480300
165.19999036	0.00000000	31.61909000	1.57480300
165.39999035	0.00000000	31.61909000	1.57480300
165.59999034	0.00000000	31.61909000	1.61786400
165.79999033	0.00000000	31.61909000	1.95004900
165.99999032	0.00000000	31.61909000	2.31914400
166.19999030	0.00000000	31.57603000	1.95004900
166.39999029	0.00000000	31.20078000	1.61786400
166.59999028	0.00000000	30.50566000	1.57480300
166.79999027	0.00000000	30.50566000	1.57480300
166.99999026	0.00000000	31.20078000	1.57480300
167.19999024	0.00000000	31.57603000	1.57480300
167.39999023	0.00000000	31.61909000	1.57480300
167.59999022	0.00000000	31.61909000	1.57480300
167.79999021	0.00000000	31.61909000	1.57480300
167.99999020	0.00000000	31.61909000	1.57480300
168.19999018	0.00000000	31.61909000	1.57480300
168.39999017	0.00000000	31.61909000	1.57480300
168.59999016	0.00000000	31.61909000	1.57480300
168.79999015	0.00000000	31.61909000	1.57480300
168.99999014	0.00000000	31.61909000	1.57480300
169.19999013	0.00000000	31.61909000	1.57480300
169.39999011	0.00000000	31.61909000	1.57480300
169.59999010	0.00000000	31.61909000	1.57480300
169.79999009	0.00000000	31.61909000	1.57480300
169.99999008	0.00000000	31.61909000	1.57480300
170.19999007	0.00000000	31.61909000	1.57480300
170.39999005	0.00000000	31.61909000	1.57480300
170.59999004	0.00000000	31.61909000	1.57480300
170.79999003	0.00000000	31.61909000	1.57480300
170.99999002	0.00000000	31.61909000	1.57480300
171.19999001	0.00000000	31.61909000	1.57480300
171.39998999	0.00000000	31.61909000	1.57480300
171.59998998	0.00000000	31.61909000	1.57480300
171.79998997	0.00000000	31.61909000	1.57480300
171.99998996	0.00000000	31.61909000	1.57480300
172.19998995	0.00000000	31.61909000	1.57480300
172.39998994	0.00000000	31.61909000	1.57480300
172.59998992	0.00000000	31.61909000	1.57480300
172.79998991	0.00000000	31.61909000	1.57480300
172.99998990	0.00000000	31.61909000	1.57480300
173.19998989	0.00000000	31.61909000	1.57480300
173.39998988	0.00000000	31.61909000	1.57480300
173.59998986	0.00000000	31.61909000	1.57480300
173.79998985	0.00000000	31.61909000	1.57480300
173.99998984	0.00000000	31.61909000	1.57480300
174.19998983	0.00000000	31.61909000	1.57480300
174.39998982	0.00000000	31.61909000	1.57480300
174.59998980	0.00000000	31.61909000	1.57480300
174.79998979	0.00000000	31.61909000	1.57480300
174.99998978	0.00000000	31.61909000	1.61786400
175.19998977	0.00000000	31.61909000	1.95004900
175.39998976	0.00000000	31.61909000	2.31914400
175.59998975	0.00000000	31.61909000	1.95004900
175.79998973	0.00000000	31.61909000	1.61786400
175.99998972	0.00000000	31.61909000	1.57480300
176.19998971	0.00000000	31.61909000	1.57480300
176.39998970	0.00000000	31.61909000	1.57480300
176.59998969	0.00000000	31.61909000	1.57480300
176.79998967	0.00000000	31.61909000	1.57480300
176.99998966	0.00000000	31.61909000	1.57480300
177.19998965	0.00000000	31.61909000	1.57480300
177.39998964	0.00000000	31.61909000	1.57480300
177.59998963	0.00000000	31.61909000	1.57480300
177.79998961	0.00000000	31.61909000	1.57480300
177.99998960	0.00000000	31.61909000	1.57480300
178.19998959	0.00000000	31.61909000	1.57480300
178.39998958	0.00000000	31.61909000	1.57480300
178.59998957	0.00000000	31.61909000	1.57480300
178.79998956	0.00000000	31.61909000	1.61786400
178.99998954	0.00000000	31.61909000	1.95004900
179.19998953	0.00000000	31.61909000	2.31914400
179.39998952	0.00000000	31.61909000	1.95004900
179.59998951	0.00000000	31.61909000	1.61786400
179.79998950	0.00000000	31.61909000	1.57480300
179.99998948	0.00000000	31.61909000	1.57480300
180.19998947	0.00000000	31.61909000	1.57480300
180.39998946	0.00000000	31.61909000	1.57480300
180.59998945	0.00000000	31.61909000	1.57480300
180.79998944	0.00000000	31.61909000	1.57480300
180.99998942	0.00000000	31.61909000	1.61786400
181.19998941	0.00000000	31.61909000	1.99311000
181.39998940	0.00000000	31.61909000	2.73745100
181.59998939	0.00000000	31.61909000	3.06348400
181.79998938	0.00000000	31.61909000	2.78051200
181.99998937	0.00000000	31.61909000	2.36835600
182.19998935	0.00000000	31.61909000	2.36220500
182.39998934	0.00000000	31.61909000	1.95004900
182.59998933	0.00000000	31.61909000	1.61786400
182.79998932	0.00000000	31.61909000	1.57480300
182.99998931	0.00000000	31.61909000	1.57480300
183.19998929	0.00000000	31.61909000	1.57480300
183.39998928	0.00000000	31.61909000	1.57480300
183.59998927	0.00000000	31.61909000	1.57480300
183.79998926	0.00000000	31.61909000	1.57480300
183.99998925	0.00000000	31.61909000	1.57480300
184.19998923	0.00000000	31.61909000	1.61786400
184.39998922	0.00000000	31.61909000	1.99311000
184.59998921	0.00000000	31.61909000	2.73745100
184.79998920	0.00000000	31.61909000	3.06348400
184.99998919	0.00000000	31.61909000	2.78051200
185.19998918	0.00000000	31.61909000	2.36835600
185.39998916	0.00000000	31.61909000	2.36220500
185.59998915	0.00000000	31.61909000	1.95004900
185.79998914	0.00000000	31.61909000	1.61786400
185.99998913	0.00000000	31.61909000	1.57480300
186.19998912	0.00000000	31.61909000	1.57480300
186.39998910	0.00000000	31.61909000	1.57480300
186.59998909	0.00000000	31.57603000	1.57480300
186.79998908	0.00000000	31.20078000	1.57480300
186.99998907	0.00000000	30.50566000	1.57480300
187.19998906	0.00000000	30.50566000	1.61786400
187.39998904	0.00000000	31.20078000	1.99311000
187.59998903	0.00000000	31.57603000	2.73745100
187.79998902	0.00000000	31.61909000	3.11269700
187.99998901	0.00000000	31.61909000	3.15575800
188.19998900	0.00000000	31.61909000	3.11269700
188.39998899	0.00000000	31.57603000	2.73745100
188.59998897	0.00000000	31.24384000	1.99311000
188.79998896	0.00000000	30.87475000	1.61786400
188.99998895	0.00000000	31.24384000	1.53174200
189.19998894	0.00000000	31.52682000	1.19955700
189.39998893	0.00000000	31.24384000	0.83661410
189.59998891	0.00000000	30.83169000	1.19955700
189.79998890	0.00000000	30.82554000	1.53174200
189.99998889	0.00000000	30.45644000	1.57480300
190.19998888	0.00000000	30.45644000	1.57480300
190.39998887	0.00000000	30.78248000	1.61786400
190.59998885	0.00000000	30.45644000	1.95004900
190.79998884	0.00000000	30.50566000	2.31914400
190.99998883	0.00000000	31.20078000	1.95004900
191.19998882	0.00000000	31.57603000	1.61786400
191.39998881	0.00000000	31.61909000	1.57480300
191.59998880	0.00000000	31.61909000	1.57480300
191.79998878	0.00000000	31.61909000	1.57480300
191.99998877	0.00000000	31.61909000	1.57480300
192.19998876	0.00000000	31.61909000	1.57480300
192.39998875	0.00000000	31.61909000	1.57480300
192.59998874	0.00000000	31.61909000	1.57480300
192.79998872	0.00000000	31.61909000	1.57480300
192.99998871	0.00000000	31.57603000	1.57480300
193.19998870	0.00000000	31.20078000	1.57480300
193.39998869	0.00000000	30.45644000	1.57480300
193.59998868	0.00000000	30.08120000	1.57480300
193.79998866	0.00000000	30.08120000	1.61786400
193.99998865	0.00000000	30.45644000	1.95004900
194.19998864	0.00000000	31.20078000	2.31914400
194.39998863	0.00000000	31.57603000	1.95004900
194.59998862	0.00000000	31.61909000	1.61786400
194.79998861	0.00000000	31.61909000	1.57480300
194.99998859	0.00000000	31.61909000	1.57480300
195.19998858	0.00000000	31.61909000	1.57480300
195.39998857	0.00000000	31.61909000	1.57480300
195.59998856	0.00000000	31.57603000	1.57480300
195.79998855	0.00000000	31.20078000	1.57480300
195.99998853	0.00000000	30.45644000	1.57480300
