Time	Channel A	Channel B	Channel C
(us)	(V)	(mV)	(mV)

-4.49999956	0.00000000	71.15526000	17.36589000
-4.29999957	0.00000000	71.15526000	17.36589000
-4.09999958	0.00000000	71.15526000	17.36589000
-3.89999959	0.00000000	71.15526000	17.36589000
-3.69999960	0.00000000	71.15526000	17.36589000
-3.49999962	0.00000000	71.15526000	17.36589000
-3.29999963	0.00000000	71.15526000	17.36589000
-3.09999964	0.00000000	71.15526000	17.36589000
-2.89999965	0.00000000	71.15526000	17.36589000
-2.69999966	0.00000000	71.15526000	17.36589000
-2.49999968	0.00000000	71.15526000	17.36589000
-2.29999969	0.00000000	71.15526000	17.40895000
-2.09999970	0.00000000	71.15526000	17.74114000
-1.89999971	0.00000000	71.15526000	18.11024000
-1.69999972	0.00000000	71.15526000	17.74114000
-1.49999973	0.00000000	71.15526000	17.40895000
-1.29999975	0.00000000	71.15526000	17.36589000
-1.09999976	0.00000000	71.15526000	17.36589000
-0.89999977	0.00000000	71.15526000	17.40895000
-0.69999978	0.00000000	71.15526000	17.74114000
-0.49999979	0.00000000	71.15526000	18.11024000
-0.29999981	0.15871060	71.15526000	17.74114000
-0.09999982	0.63668800	71.15526000	17.40895000
0.10000017	0.95533960	71.15526000	17.40895000
0.30000016	0.95533960	71.15526000	17.74114000
0.50000015	0.79601380	71.15526000	18.11024000
0.70000013	0.47736220	71.15526000	17.74114000
0.90000012	-0.31803640	71.15526000	17.40895000
1.10000011	-1.43331700	71.15526000	17.36589000
1.30000010	-2.22994600	71.15526000	17.36589000
1.50000009	-2.70792300	71.15526000	17.36589000
1.70000008	-2.54859700	71.15526000	17.40895000
1.90000006	-1.43331700	71.15526000	17.78420000
2.10000005	0.31803640	71.15526000	18.52854000
2.30000004	2.38927200	71.15526000	18.85458000
2.50000003	4.30056600	71.15526000	18.52854000
2.70000002	5.25652100	71.15526000	17.78420000
2.90000000	4.93786900	71.15526000	17.40895000
3.09999999	3.18590100	71.15526000	17.36589000
3.29999998	0.31803640	71.11221000	17.36589000
3.49999997	-3.02657500	70.78001000	17.36589000
3.69999996	-6.05315000	70.41092000	17.36589000
3.89999994	-7.80511800	70.78001000	17.40895000
4.09999993	-7.64579200	71.11221000	17.74114000
4.29999992	-5.41584600	71.15526000	18.15330000
4.49999991	-1.59264300	71.15526000	18.11639000
4.69999990	2.70792300	71.15526000	18.15330000
4.89999989	6.69045300	71.15526000	17.74114000
5.09999987	9.07972400	71.11221000	17.40895000
5.29999986	9.23905000	70.73695000	17.32283000
5.49999985	7.00848900	69.99261000	16.94759000
5.69999984	3.02657500	69.61736000	16.20325000
5.89999983	-1.75196900	69.57431000	15.87721000
6.09999981	-6.21247500	69.61736000	16.20325000
6.29999980	-8.92039900	69.99261000	16.94759000
6.49999979	-9.39837600	70.73695000	17.32283000
6.69999978	-7.64579200	71.11221000	17.40895000
6.89999977	-3.98191400	71.15526000	17.74114000
7.09999975	0.31803640	71.15526000	18.11024000
7.29999974	4.45989200	71.11221000	17.74114000
7.49999973	7.00848900	70.78001000	17.40895000
7.69999972	7.80511800	70.36786000	17.36589000
7.89999971	6.53112700	70.40477000	17.36589000
8.09999970	3.82258900	70.36786000	17.36589000
8.29999968	0.47736220	70.78001000	17.36589000
8.49999967	-2.54859700	71.11221000	17.36589000
8.69999966	-4.45989200	71.15526000	17.36589000
8.89999965	-5.25652100	71.15526000	17.36589000
9.09999964	-4.61921700	71.15526000	17.36589000
9.29999962	-2.86724900	71.15526000	17.36589000
9.49999961	-0.95533960	71.15526000	17.36589000
9.69999960	0.79601380	71.15526000	17.36589000
9.89999959	2.07062000	71.15526000	17.36589000
10.09999958	2.54859700	71.15526000	17.36589000
10.29999956	2.22994600	71.15526000	17.36589000
10.49999955	1.59264300	71.15526000	17.36589000
10.69999954	0.63668800	71.15526000	17.36589000
10.89999953	-0.15871060	71.15526000	17.40895000
11.09999952	-0.63668800	71.15526000	17.74114000
11.29999951	-0.95533960	71.15526000	18.11024000
11.49999949	-0.95533960	71.15526000	17.74114000
11.69999948	-0.79601380	71.15526000	17.40895000
11.89999947	-0.47736220	71.15526000	17.36589000
12.09999946	-0.15871060	71.15526000	17.36589000
12.29999945	-0.15871060	71.15526000	17.40895000
12.49999943	0.00000000	71.15526000	17.74114000
12.69999942	-0.15871060	71.11221000	18.11024000
12.89999941	0.00000000	70.78001000	17.74114000
13.09999940	0.00000000	70.41092000	17.40895000
13.29999939	0.00000000	70.78001000	17.36589000
13.49999937	0.00000000	71.11221000	17.36589000
13.69999936	0.00000000	71.15526000	17.36589000
13.89999935	-0.15871060	71.15526000	17.36589000
14.09999934	-0.15871060	71.15526000	17.36589000
14.29999933	-0.15871060	71.11221000	17.36589000
14.49999932	-0.15871060	70.78001000	17.36589000
14.69999930	-0.15871060	70.41092000	17.36589000
14.89999929	0.00000000	70.78001000	17.36589000
15.09999928	0.00000000	71.11221000	17.36589000
15.29999927	0.00000000	71.11221000	17.36589000
15.49999926	0.00000000	70.73695000	17.36589000
15.69999924	0.00000000	69.99261000	17.36589000
15.89999923	0.00000000	69.61736000	17.36589000
16.09999922	0.00000000	69.61736000	17.36589000
16.29999921	-0.15871060	69.94955000	17.36589000
16.49999920	-0.15871060	70.36171000	17.36589000
16.69999919	-0.15871060	70.41092000	17.36589000
16.89999917	0.00000000	71.15526000	17.36589000
17.09999916	0.00000000	71.89960000	17.36589000
17.29999915	0.00000000	71.94881000	17.36589000
17.49999914	0.00000000	72.31791000	17.36589000
17.69999913	0.00000000	72.26870000	17.36589000
17.89999911	0.00000000	71.53051000	17.36589000
18.09999910	0.00000000	70.73695000	17.36589000
18.29999909	0.00000000	69.53124000	17.36589000
18.49999908	0.00000000	67.99335000	17.36589000
18.69999907	0.00000000	66.45546000	17.36589000
18.89999905	0.00000000	65.33588000	17.36589000
19.09999904	-0.15871060	65.33588000	17.36589000
19.29999903	0.00000000	66.54158000	17.36589000
19.49999902	0.00000000	68.92224000	17.36589000
19.69999901	0.00000000	72.77928000	17.36589000
19.89999900	0.00000000	76.96850000	17.36589000
20.09999898	0.00000000	80.08734000	17.36589000
20.29999897	0.00000000	81.62524000	17.36589000
20.49999896	0.00000000	81.15772000	17.36589000
20.69999895	0.00000000	77.95275000	17.36589000
20.89999894	0.00000000	71.75812000	17.36589000
21.09999892	0.00000000	63.66264000	17.36589000
21.29999891	0.00000000	55.98548000	17.36589000
21.49999890	-0.15871060	50.59055000	17.36589000
21.69999889	0.00000000	49.09572000	17.36589000
21.89999888	0.00000000	52.25763000	17.36589000
22.09999886	0.00000000	60.07627000	17.36589000
22.29999885	0.00000000	71.66584000	17.36589000
22.49999884	0.00000000	84.41190000	17.36589000
22.69999883	0.00000000	95.20792000	17.36589000
22.89999882	0.00000000	101.72240000	17.36589000
23.09999881	0.00000000	101.58710000	17.40895000
23.29999879	0.00000000	93.81151000	17.78420000
23.49999878	0.00000000	79.48450000	18.52854000
23.69999877	0.00000000	61.71259000	18.90379000
23.89999876	0.00000000	44.35285000	18.94685000
24.09999875	0.00000000	31.69906000	18.94685000
24.29999873	0.00000000	27.50369000	18.85458000
24.49999872	0.00000000	33.32308000	18.11024000
24.69999871	0.00000000	48.07455000	16.57849000
24.89999870	0.00000000	68.92224000	15.40969000
25.09999869	0.00000000	91.33858000	14.16092000
25.29999867	0.00000000	109.82410000	12.72146000
25.49999866	0.00000000	120.19560000	12.02018000
25.69999865	0.00000000	118.98380000	13.18282000
25.89999864	0.00000000	106.28690000	15.87721000
26.09999863	0.00000000	85.39001000	19.36516000
26.29999862	0.00000000	60.63607000	23.21604000
26.49999860	0.00000000	37.51230000	26.32874000
26.69999859	0.00000000	21.69660000	28.24188000
26.89999858	0.00000000	17.03986000	28.51870000
27.09999857	0.00000000	24.34793000	25.73203000
27.29999856	0.00000000	41.74458000	19.97416000
27.49999854	0.00000000	65.29281000	12.58612000
27.69999853	0.00000000	89.62229000	4.91510800
27.89999852	0.00000000	108.93820000	-1.21186000
28.09999851	0.00000000	119.03300000	-3.45103300
28.29999850	0.00000000	117.91340000	-1.11958700
28.49999848	0.00000000	106.37300000	5.88705700
28.69999847	0.00000000	87.43848000	16.29552000
28.89999846	0.00000000	65.42815000	27.90969000
29.09999845	0.00000000	45.33095000	38.31816000
29.29999844	0.00000000	31.74212000	45.19562000
29.49999843	0.00000000	27.04232000	46.31520000
29.69999841	0.00000000	31.60679000	40.87721000
29.89999840	0.00000000	43.93454000	30.05044000
30.09999839	0.00000000	60.54995000	15.69882000
30.29999838	0.00000000	77.99581000	0.68897630
30.49999837	0.00000000	92.69807000	-11.66339000
30.69999835	0.00000000	101.67940000	-18.17790000
30.89999834	0.00000000	103.63560000	-17.42741000
31.09999833	0.00000000	98.65279000	-9.20890700
31.29999832	0.00000000	87.85679000	5.05659400
31.49999831	0.00000000	74.31717000	22.80389000
31.69999829	0.00000000	60.72834000	39.39468000
31.89999828	0.00000000	49.56323000	51.37795000
32.09999827	0.00000000	43.70694000	56.44070000
32.29999826	0.00000000	43.98376000	53.33415000
32.49999825	0.00000000	49.00959000	43.24557000
32.69999824	0.00000000	57.94168000	27.40526000
32.89999822	0.00000000	69.10678000	9.28887700
33.09999821	0.00000000	79.53371000	-6.56373000
33.29999820	0.00000000	86.92790000	-17.42741000
33.49999819	0.00000000	90.04675000	-20.87229000
33.69999818	0.00000000	88.55191000	-16.31397000
33.89999816	0.00000000	83.15698000	-5.11811000
34.09999815	0.00000000	75.43060000	9.98400600
34.29999814	0.00000000	66.95989000	26.24262000
34.49999813	0.00000000	59.98400000	40.50196000
34.69999812	0.00000000	56.12081000	49.37868000
34.89999810	0.00000000	55.70866000	50.95964000
35.09999809	0.00000000	59.19045000	45.19562000
35.29999808	0.00000000	65.24360000	33.63066000
35.49999807	0.00000000	71.80733000	18.98991000
35.69999806	0.00000000	76.83316000	4.68134800
35.89999805	0.00000000	79.57676000	-6.09621000
36.09999803	0.00000000	79.57676000	-11.10974000
36.29999802	0.00000000	76.88238000	-8.83366100
36.49999801	0.00000000	72.31791000	-0.42445860
36.69999800	0.00000000	67.29208000	11.51575000
36.89999799	0.00000000	63.42274000	24.20029000
37.09999797	0.00000000	61.10359000	34.19045000
37.29999796	0.00000000	61.14665000	38.84104000
37.49999795	0.00000000	63.79798000	37.34621000
37.69999794	0.00000000	68.03641000	30.46875000
37.89999793	0.00000000	72.64394000	20.52780000
38.09999791	0.00000000	76.50713000	10.53765000
38.29999790	0.00000000	78.46333000	3.24188000
38.49999789	0.00000000	78.50639000	0.54749010
38.69999788	0.00000000	76.92544000	3.24188000
38.89999787	0.00000000	73.80659000	10.48843000
39.09999786	0.00000000	69.52509000	20.01722000
39.29999784	0.00000000	64.91756000	28.42643000
39.49999783	0.00000000	61.10359000	33.07701000
39.69999782	0.00000000	59.52263000	33.07701000
39.89999781	0.00000000	60.26082000	28.42643000
40.09999780	0.00000000	62.59227000	20.01722000
40.29999778	0.00000000	66.49852000	10.44537000
40.49999777	0.00000000	71.10605000	2.77436000
40.69999776	0.00000000	75.38755000	-1.07652500
40.89999775	0.00000000	78.50639000	0.12918310
41.09999774	0.00000000	80.04429000	6.21924200
41.29999772	0.00000000	79.66904000	15.41585000
41.49999771	0.00000000	77.34374000	24.66166000
41.69999770	0.00000000	73.84965000	32.00664000
41.89999769	0.00000000	69.57431000	35.81446000
42.09999768	0.00000000	65.33588000	34.65182000
42.29999767	0.00000000	62.21702000	28.93701000
42.49999765	0.00000000	60.63607000	20.52780000
42.69999764	0.00000000	60.63607000	12.02633000
42.89999763	0.00000000	62.17396000	5.46875000
43.09999762	0.00000000	64.91756000	1.98695800
43.29999761	0.00000000	68.36859000	2.68208600
43.49999759	0.00000000	71.80733000	6.48991100
43.69999758	0.00000000	73.76353000	11.88484000
43.89999757	0.00000000	74.27411000	18.06102000
44.09999756	0.00000000	74.27411000	23.08686000
44.29999755	0.00000000	73.84965000	26.19955000
44.49999753	0.00000000	72.77928000	26.98080000
44.69999752	0.00000000	71.99188000	25.08612000
44.89999751	0.00000000	71.94266000	21.68430000
45.09999750	0.00000000	71.53051000	17.83341000
45.29999749	0.00000000	71.15526000	14.72072000
45.49999748	0.00000000	70.64468000	12.72146000
45.69999746	0.00000000	69.06373000	11.60187000
45.89999745	0.00000000	66.36318000	11.97711000
46.09999744	0.00000000	63.33661000	13.87795000
46.29999743	0.00000000	61.01131000	16.16018000
46.49999742	0.00000000	60.31004000	18.52854000
46.69999740	0.00000000	61.52190000	20.43553000
46.89999739	0.00000000	65.42815000	21.59203000
47.09999738	0.00000000	71.15526000	21.59203000
47.29999737	0.00000000	76.96850000	20.47859000
47.49999736	0.00000000	81.62524000	18.90379000
47.69999734	0.00000000	84.31963000	16.94759000
47.89999733	0.00000000	84.22736000	14.67150000
48.09999732	0.00000000	80.69020000	13.13976000
48.29999731	0.00000000	73.71432000	12.72146000
48.49999730	0.00000000	64.96062000	13.13976000
48.69999729	0.00000000	57.19734000	14.72072000
48.89999727	0.00000000	52.58366000	17.36589000
49.09999726	0.00000000	51.38410000	20.06029000
49.29999725	0.00000000	54.58292000	22.01649000
49.49999724	0.00000000	61.47884000	23.17298000
49.69999723	0.00000000	70.78001000	23.17298000
49.89999721	0.00000000	79.95201000	21.96727000
50.09999720	0.00000000	86.55265000	19.64198000
50.29999719	0.00000000	88.83488000	16.16018000
50.49999718	0.00000000	86.50959000	12.72146000
50.69999717	0.00000000	79.57676000	10.02707000
50.89999715	0.00000000	70.03568000	8.86441900
51.09999714	0.00000000	61.14665000	9.65182000
51.29999713	0.00000000	54.95816000	11.97711000
51.49999712	0.00000000	52.63287000	15.83415000
51.69999711	0.00000000	54.91510000	20.01722000
51.89999710	0.00000000	60.68528000	23.17298000
52.09999708	0.00000000	68.41166000	25.08612000
52.29999707	0.00000000	76.45792000	25.44906000
52.49999706	0.00000000	82.18504000	23.50517000
52.69999705	0.00000000	83.76598000	20.10950000
52.89999704	0.00000000	81.11466000	16.20325000
53.09999702	0.00000000	75.38755000	12.76452000
53.29999701	0.00000000	68.45472000	10.44537000
53.49999700	0.00000000	62.26624000	10.02707000
53.69999699	0.00000000	58.02780000	11.18356000
53.89999698	0.00000000	56.91437000	13.46580000
54.09999696	0.00000000	59.56569000	16.52928000
54.29999695	0.00000000	64.96062000	18.81152000
54.49999694	0.00000000	71.48130000	20.06029000
54.69999693	0.00000000	77.57751000	20.39247000
54.89999692	0.00000000	80.64714000	19.64198000
55.09999691	0.00000000	79.99508000	17.74114000
55.29999689	0.00000000	76.92544000	15.87721000
55.49999688	0.00000000	72.26870000	14.72072000
55.69999687	0.00000000	66.87376000	14.72072000
55.89999686	0.00000000	62.26008000	15.87721000
56.09999685	0.00000000	59.56569000	17.78420000
56.29999683	0.00000000	59.60876000	20.06029000
56.49999682	0.00000000	62.64148000	21.50590000
56.69999681	0.00000000	67.61810000	21.08760000
56.89999680	0.00000000	72.60088000	18.43627000
57.09999679	0.00000000	76.45792000	14.67150000
57.29999677	0.00000000	78.03887000	11.55881000
57.49999676	0.00000000	77.30068000	9.65182000
57.69999675	0.00000000	75.01230000	9.33193800
57.89999674	0.00000000	71.53051000	11.64493000
58.09999673	0.00000000	68.07948000	15.83415000
58.29999672	0.00000000	65.33588000	20.47859000
58.49999670	0.00000000	63.79798000	24.75394000
58.69999669	0.00000000	63.79798000	27.78051000
58.89999668	0.00000000	65.29281000	28.51870000
59.09999667	0.00000000	67.61810000	26.15034000
59.29999666	0.00000000	69.90649000	21.17372000
59.49999664	0.00000000	71.85040000	14.62844000
59.69999663	0.00000000	72.60088000	8.48917200
59.89999662	0.00000000	72.31791000	4.26304100
60.09999661	0.00000000	71.53051000	3.10039400
60.29999660	0.00000000	70.73695000	5.46875000
60.49999658	0.00000000	69.57431000	10.86368000
60.69999657	0.00000000	68.46087000	18.52854000
60.89999656	0.00000000	68.08563000	25.77510000
61.09999655	0.00000000	68.41166000	30.46875000
61.29999654	0.00000000	69.15600000	32.04970000
61.49999653	0.00000000	69.57431000	30.46875000
61.69999651	0.00000000	69.94955000	25.77510000
61.89999650	0.00000000	70.26943000	18.47933000
62.09999649	0.00000000	69.53124000	10.44537000
62.29999648	0.00000000	68.41166000	4.26304100
62.49999647	0.00000000	67.66117000	1.15034400
62.69999645	0.00000000	67.24901000	1.56865100
62.89999644	0.00000000	67.66117000	5.80093500
63.09999643	0.00000000	68.36859000	12.72146000
63.29999642	0.00000000	69.19906000	20.43553000
63.49999641	0.00000000	69.99261000	27.35605000
63.69999639	0.00000000	71.15526000	31.58834000
63.89999638	0.00000000	72.22563000	32.04970000
64.09999637	0.00000000	72.26870000	29.35531000
64.29999636	0.00000000	71.53051000	24.33563000
64.49999635	0.00000000	70.68774000	17.78420000
64.69999634	0.00000000	69.15600000	11.60187000
64.89999632	0.00000000	67.29208000	6.90821800
65.09999631	0.00000000	66.49852000	4.21998000
65.29999630	0.00000000	66.44931000	4.21998000
65.49999629	0.00000000	66.87376000	6.90821800
65.69999628	0.00000000	68.03641000	11.51575000
65.89999626	0.00000000	69.53124000	16.89837000
66.09999625	0.00000000	70.68774000	21.54897000
66.29999624	0.00000000	71.06299000	24.71087000
66.49999623	0.00000000	70.68774000	26.28568000
66.69999622	0.00000000	69.53124000	26.32874000
66.89999620	0.00000000	67.99335000	25.17224000
67.09999619	0.00000000	66.49852000	23.22219000
67.29999618	0.00000000	65.75418000	20.47859000
67.49999617	0.00000000	66.54158000	17.36589000
67.69999616	0.00000000	68.45472000	14.25320000
67.89999615	0.00000000	71.11221000	11.51575000
68.09999613	0.00000000	73.43134000	9.55954600
68.29999612	0.00000000	74.60014000	8.40305000
68.49999611	0.00000000	74.96924000	8.44611200
68.69999610	0.00000000	73.72047000	10.02707000
68.89999609	0.00000000	70.64468000	13.13976000
69.09999607	0.00000000	66.45546000	17.36589000
69.29999606	0.00000000	62.59227000	21.64124000
69.49999605	0.00000000	60.31004000	25.17224000
69.69999604	0.00000000	59.89788000	27.82357000
69.89999603	0.00000000	61.89099000	28.51870000
70.09999601	0.00000000	65.71111000	26.24262000
70.29999600	0.00000000	70.78001000	22.01033000
70.49999599	0.00000000	75.76279000	16.94759000
70.69999598	0.00000000	79.61983000	11.55881000
70.89999597	0.00000000	81.15772000	7.37573800
71.09999596	0.00000000	79.99508000	5.75172200
71.29999594	0.00000000	76.45792000	6.48991100
71.49999593	0.00000000	70.68774000	8.86441900
71.69999592	0.00000000	64.22243000	13.13976000
71.89999591	0.00000000	59.52263000	18.47933000
72.09999590	0.00000000	57.14812000	23.08686000
72.29999588	0.00000000	56.77903000	25.82431000
72.49999587	0.00000000	59.14739000	26.24262000
72.69999586	0.00000000	63.75492000	24.75394000
72.89999585	0.00000000	69.52509000	22.01649000
73.09999584	0.00000000	74.96924000	18.57160000
73.29999582	0.00000000	78.83243000	15.13902000
73.49999581	0.00000000	80.73941000	13.18282000
73.69999580	0.00000000	79.57676000	12.72146000
73.89999579	0.00000000	75.80585000	13.09670000
74.09999578	0.00000000	71.15526000	14.25320000
74.29999577	0.00000000	66.49852000	15.74188000
74.49999575	0.00000000	62.59227000	16.89837000
74.69999574	0.00000000	60.31004000	17.23056000
74.89999573	0.00000000	59.89788000	16.52928000
75.09999572	0.00000000	61.79872000	15.04675000
75.29999571	0.00000000	64.82529000	14.34547000
75.49999569	0.00000000	67.99335000	14.67150000
75.69999568	0.00000000	71.06299000	15.83415000
75.89999567	0.00000000	73.38828000	17.45817000
76.09999566	0.00000000	74.18184000	19.78346000
76.29999565	0.00000000	73.80659000	22.75467000
76.49999563	0.00000000	72.31791000	24.24335000
76.69999562	0.00000000	70.41092000	23.50517000
76.89999561	0.00000000	69.24213000	21.17372000
77.09999560	0.00000000	68.41166000	17.27362000
77.29999559	0.00000000	68.03641000	12.72146000
77.49999558	0.00000000	67.99335000	8.82135800
77.69999556	0.00000000	67.99335000	6.53912400
77.89999555	0.00000000	67.95029000	6.17002900
78.09999554	0.00000000	67.57505000	8.48917200
78.29999553	0.00000000	66.82455000	12.72146000
78.49999552	0.00000000	66.44931000	17.74114000
78.69999550	0.00000000	66.44931000	22.79773000
78.89999549	0.00000000	66.87376000	26.61786000
79.09999548	0.00000000	68.03641000	28.51870000
79.29999547	0.00000000	69.57431000	27.35605000
79.49999546	0.00000000	71.15526000	23.59129000
79.69999544	0.00000000	72.69316000	18.94685000
79.89999543	0.00000000	73.80659000	14.25320000
80.09999542	0.00000000	73.76353000	10.02707000
80.29999541	0.00000000	72.22563000	7.33267600
80.49999540	0.00000000	69.52509000	6.90821800
80.69999539	0.00000000	66.49852000	8.40305000
80.89999537	0.00000000	64.17323000	11.14050000
81.09999536	0.00000000	63.37967000	14.62844000
81.29999535	0.00000000	63.75492000	18.52854000
81.49999534	0.00000000	65.33588000	21.96727000
81.69999533	0.00000000	67.99335000	24.33563000
81.89999531	0.00000000	70.68774000	25.12918000
82.09999530	0.00000000	72.64394000	24.75394000
82.29999529	0.00000000	73.80659000	23.17298000
82.49999528	0.00000000	73.80659000	20.47859000
82.69999527	0.00000000	72.64394000	17.36589000
82.89999525	0.00000000	70.73695000	14.25320000
83.09999524	0.00000000	68.45472000	11.51575000
83.29999523	0.00000000	66.87376000	9.60875900
83.49999522	0.00000000	66.07406000	8.82135800
83.69999521	0.00000000	65.66190000	9.55954600
83.89999520	0.00000000	66.07406000	11.14050000
84.09999518	0.00000000	66.82455000	13.51501000
84.29999517	0.00000000	67.99335000	17.03986000
84.49999516	0.00000000	69.10678000	20.81078000
84.69999515	0.00000000	69.53124000	23.91732000
84.89999514	0.00000000	69.57431000	25.12918000
85.09999512	0.00000000	69.57431000	25.12918000
85.29999511	0.00000000	69.57431000	23.87426000
85.49999510	0.00000000	69.57431000	20.43553000
85.69999509	0.00000000	69.61736000	16.20325000
85.89999508	0.00000000	69.94955000	12.29700000
86.09999506	0.00000000	70.31865000	8.82135800
86.29999505	0.00000000	69.90649000	6.95743000
86.49999504	0.00000000	69.15600000	7.33267600
86.69999503	0.00000000	67.99335000	10.07013000
86.89999502	0.00000000	66.82455000	14.62844000
87.09999501	0.00000000	66.03100000	19.64198000
87.29999499	0.00000000	65.33588000	23.50517000
87.49999498	0.00000000	65.71111000	25.82431000
87.69999497	0.00000000	67.19980000	25.82431000
87.89999496	0.00000000	68.36859000	23.50517000
88.09999495	0.00000000	69.61736000	19.64198000
88.29999493	0.00000000	71.11221000	14.62844000
88.49999492	0.00000000	72.22563000	10.07013000
88.69999491	0.00000000	72.22563000	7.37573800
88.89999490	0.00000000	71.11221000	7.33267600
89.09999489	0.00000000	69.57431000	9.65182000
89.29999487	0.00000000	67.99335000	13.51501000
89.49999486	0.00000000	66.49852000	18.52854000
89.69999485	0.00000000	65.71111000	23.08686000
89.89999484	0.00000000	66.07406000	25.82431000
90.09999483	0.00000000	66.82455000	26.19955000
90.29999482	0.00000000	67.99335000	24.24335000
90.49999480	0.00000000	69.10678000	20.01722000
90.69999479	0.00000000	69.53124000	14.67766000
90.89999478	0.00000000	69.57431000	10.07013000
91.09999477	0.00000000	69.57431000	7.37573800
91.29999476	0.00000000	69.57431000	7.37573800
91.49999474	0.00000000	69.57431000	10.02707000
91.69999473	0.00000000	69.53124000	14.25320000
91.89999472	0.00000000	69.15600000	18.90379000
92.09999471	0.00000000	68.46087000	23.12992000
92.29999470	0.00000000	68.46087000	25.77510000
92.49999468	0.00000000	69.10678000	25.77510000
92.69999467	0.00000000	69.10678000	23.12992000
92.89999466	0.00000000	68.36859000	18.90379000
93.09999465	0.00000000	67.57505000	14.25320000
93.29999464	0.00000000	66.40624000	10.07013000
93.49999463	0.00000000	65.33588000	7.79404500
93.69999461	0.00000000	65.33588000	8.53223400
93.89999460	0.00000000	66.45546000	11.55881000
94.09999459	0.00000000	67.99335000	15.78494000
94.29999458	0.00000000	69.57431000	20.01722000
94.49999457	0.00000000	71.15526000	23.08686000
94.69999455	0.00000000	72.64394000	24.24335000
94.89999454	0.00000000	73.43134000	23.12992000
95.09999453	0.00000000	73.01919000	20.43553000
95.29999452	0.00000000	71.80733000	16.94759000
95.49999451	0.00000000	69.10678000	13.13976000
95.69999449	0.00000000	65.66806000	10.48843000
95.89999448	0.00000000	62.96136000	10.02707000
96.09999447	0.00000000	61.01131000	11.18356000
96.29999446	0.00000000	60.67913000	13.51501000
96.49999445	0.00000000	62.21702000	16.94759000
96.69999444	0.00000000	65.29281000	19.97416000
96.89999442	0.00000000	69.15600000	21.54897000
97.09999441	0.00000000	72.64394000	21.59203000
97.29999440	0.00000000	75.38755000	20.43553000
97.49999439	0.00000000	76.92544000	18.52854000
97.69999438	0.00000000	76.88238000	16.25246000
97.89999436	0.00000000	74.92618000	14.67150000
98.09999435	0.00000000	71.06299000	13.87795000
98.29999434	0.00000000	66.49852000	13.51501000
98.49999433	0.00000000	62.63533000	14.25320000
98.69999432	0.00000000	60.63607000	15.36663000
98.89999430	0.00000000	60.21776000	16.16018000
99.09999429	0.00000000	61.01131000	16.94759000
99.29999428	0.00000000	63.37967000	17.32283000
99.49999427	0.00000000	66.82455000	17.36589000
99.69999426	0.00000000	70.68774000	17.36589000
99.89999425	0.00000000	73.76353000	17.40895000
100.09999423	0.00000000	75.38755000	17.83341000
100.29999422	0.00000000	75.76279000	18.94685000
100.49999421	0.00000000	74.96924000	20.01722000
100.69999420	0.00000000	72.64394000	20.01722000
100.89999419	0.00000000	69.57431000	18.90379000
101.09999417	0.00000000	66.45546000	17.36589000
101.29999416	0.00000000	63.75492000	15.74188000
101.49999415	0.00000000	62.21702000	13.83489000
101.69999414	0.00000000	62.17396000	11.97711000
101.89999413	0.00000000	63.28740000	11.60187000
102.09999411	0.00000000	64.86835000	12.72146000
102.29999410	0.00000000	66.87376000	14.67150000
102.49999409	0.00000000	69.52509000	17.36589000
102.69999408	0.00000000	71.80733000	20.06029000
102.89999407	0.00000000	72.64394000	22.01649000
103.09999406	0.00000000	72.69316000	23.12992000
103.29999404	0.00000000	72.26870000	22.71161000
103.49999403	0.00000000	71.06299000	20.43553000
103.69999402	0.00000000	69.15600000	17.36589000
103.89999401	0.00000000	66.87376000	14.25320000
104.09999400	0.00000000	65.29281000	11.55881000
104.29999398	0.00000000	64.49311000	10.02707000
104.49999397	0.00000000	64.13016000	10.02707000
104.69999396	0.00000000	64.91756000	11.60187000
104.89999395	0.00000000	66.40624000	14.62844000
105.09999394	0.00000000	67.99335000	18.06102000
105.29999392	0.00000000	69.53124000	20.39247000
105.49999391	0.00000000	70.68774000	21.59203000
105.69999390	0.00000000	71.06299000	21.59203000
105.89999389	0.00000000	70.68774000	20.43553000
106.09999388	0.00000000	69.53124000	18.47933000
106.29999387	0.00000000	68.03641000	15.83415000
106.49999385	0.00000000	66.87376000	13.55807000
106.69999384	0.00000000	66.44931000	12.76452000
106.89999383	0.00000000	66.44931000	13.09670000
107.09999382	0.00000000	66.87376000	14.25320000
107.29999381	0.00000000	67.99335000	15.78494000
107.49999379	0.00000000	69.10678000	17.36589000
107.69999378	0.00000000	69.53124000	18.85458000
107.89999377	0.00000000	69.57431000	19.64198000
108.09999376	0.00000000	69.53124000	19.22982000
108.29999375	0.00000000	69.10678000	18.11024000
108.49999374	0.00000000	67.99335000	16.20325000
108.69999372	0.00000000	66.87376000	14.67150000
108.89999371	0.00000000	66.44931000	13.87795000
109.09999370	0.00000000	66.44931000	13.51501000
109.29999369	0.00000000	66.87376000	14.29626000
109.49999368	0.00000000	67.99335000	15.78494000
109.69999366	0.00000000	69.10678000	17.36589000
109.89999365	0.00000000	69.53124000	18.85458000
110.09999364	0.00000000	69.57431000	19.64198000
110.29999363	0.00000000	69.53124000	19.27903000
110.49999362	0.00000000	69.15600000	18.52854000
110.69999360	0.00000000	68.36859000	17.32283000
110.89999359	0.00000000	67.61810000	15.78494000
111.09999358	0.00000000	66.82455000	14.25320000
111.29999357	0.00000000	66.44931000	13.09670000
111.49999356	0.00000000	66.44931000	12.72146000
111.69999355	0.00000000	66.82455000	13.09670000
111.89999353	0.00000000	67.57505000	14.25320000
112.09999352	0.00000000	67.99335000	15.78494000
112.29999351	0.00000000	68.36859000	17.27362000
112.49999350	0.00000000	68.78075000	18.11024000
112.69999349	0.00000000	68.74384000	18.11639000
112.89999347	0.00000000	68.78075000	18.15330000
113.09999346	0.00000000	68.36859000	17.74114000
113.29999345	0.00000000	68.03641000	17.40895000
113.49999344	0.00000000	67.99335000	17.32283000
113.69999343	0.00000000	67.99335000	16.94759000
113.89999341	0.00000000	67.99335000	16.20325000
114.09999340	0.00000000	67.99335000	15.82800000
114.29999339	0.00000000	67.99335000	15.78494000
114.49999338	0.00000000	67.99335000	15.74188000
114.69999337	0.00000000	67.99335000	15.36663000
114.89999336	0.00000000	67.99335000	14.67150000
115.09999334	0.00000000	67.99335000	14.67150000
115.29999333	0.00000000	67.99335000	15.36663000
115.49999332	0.00000000	67.99335000	15.78494000
115.69999331	0.00000000	67.99335000	16.20325000
115.89999330	0.00000000	67.99335000	16.99065000
116.09999328	0.00000000	67.99335000	17.74114000
116.29999327	0.00000000	67.99335000	18.52854000
116.49999326	0.00000000	67.99335000	18.90379000
116.69999325	0.00000000	67.99335000	18.90379000
116.89999324	0.00000000	67.99335000	18.52854000
117.09999322	0.00000000	67.99335000	17.74114000
117.29999321	0.00000000	68.03641000	16.94759000
117.49999320	0.00000000	68.41166000	15.78494000
117.69999319	0.00000000	69.15600000	14.67150000
117.89999318	0.00000000	69.53124000	14.25320000
118.09999317	0.00000000	69.57431000	14.25320000
118.29999315	0.00000000	69.53124000	14.62844000
118.49999314	0.00000000	69.15600000	15.40969000
118.69999313	0.00000000	68.36859000	16.20325000
118.89999312	0.00000000	67.57505000	17.32283000
119.09999311	0.00000000	66.40624000	18.11024000
119.29999309	0.00000000	65.29281000	18.15945000
119.49999308	0.00000000	64.91756000	18.52854000
119.69999307	0.00000000	65.29281000	18.47933000
119.89999306	0.00000000	66.45546000	17.74114000
120.09999305	0.00000000	67.94415000	16.99065000
120.29999303	0.00000000	69.15600000	16.20325000
120.49999302	0.00000000	69.94955000	15.78494000
120.69999301	0.00000000	70.73695000	15.36663000
120.89999300	0.00000000	71.06299000	14.62844000
121.09999299	0.00000000	70.68774000	14.30241000
121.29999298	0.00000000	69.53124000	14.62844000
121.49999296	0.00000000	67.99335000	15.36663000
121.69999295	0.00000000	66.45546000	15.74188000
121.89999294	0.00000000	65.29281000	15.82800000
122.09999293	0.00000000	64.86835000	16.20325000
122.29999292	0.00000000	64.86835000	16.94759000
122.49999290	0.00000000	65.29281000	17.32283000
122.69999289	0.00000000	66.40624000	17.36589000
122.89999288	0.00000000	67.57505000	17.36589000
123.09999287	0.00000000	68.36859000	17.36589000
123.29999286	0.00000000	69.15600000	17.32283000
123.49999284	0.00000000	69.57431000	16.94759000
123.69999283	0.00000000	69.94955000	16.20325000
123.89999282	0.00000000	70.26943000	15.82800000
124.09999281	0.00000000	69.53124000	15.78494000
124.29999280	0.00000000	68.41166000	15.78494000
124.49999279	0.00000000	67.61810000	15.78494000
124.69999277	0.00000000	66.78149000	15.78494000
124.89999276	0.00000000	66.03100000	15.78494000
125.09999275	0.00000000	65.24360000	15.82800000
125.29999274	0.00000000	64.91756000	16.20325000
125.49999273	0.00000000	65.29281000	16.94759000
125.69999271	0.00000000	66.40624000	17.32283000
125.89999270	0.00000000	67.57505000	17.36589000
126.09999269	0.00000000	68.36859000	17.36589000
126.29999268	0.00000000	69.15600000	17.36589000
126.49999267	0.00000000	69.53124000	17.32283000
126.69999265	0.00000000	69.57431000	16.94759000
126.89999264	0.00000000	69.53124000	16.20325000
127.09999263	0.00000000	69.10678000	15.82800000
127.29999262	0.00000000	67.99335000	15.78494000
127.49999261	0.00000000	66.82455000	15.78494000
127.69999260	0.00000000	66.07406000	15.78494000
127.89999258	0.00000000	65.61884000	15.82800000
128.09999257	0.00000000	65.65575000	16.20325000
128.29999256	0.00000000	65.66190000	16.94759000
128.49999255	0.00000000	66.49852000	17.32283000
128.69999254	0.00000000	67.94415000	17.36589000
128.89999252	0.00000000	69.10678000	17.36589000
129.09999251	0.00000000	69.53124000	17.32283000
129.29999250	0.00000000	69.53124000	16.94759000
129.49999249	0.00000000	69.10678000	16.20325000
129.69999248	0.00000000	67.99335000	15.82800000
129.89999246	0.00000000	66.87376000	15.78494000
130.09999245	0.00000000	66.40624000	15.78494000
130.29999244	0.00000000	66.03100000	15.78494000
130.49999243	0.00000000	65.66190000	15.78494000
130.69999242	0.00000000	66.07406000	15.82800000
130.89999241	0.00000000	66.78149000	16.20325000
131.09999239	0.00000000	67.61810000	16.94759000
131.29999238	0.00000000	68.36859000	17.27362000
131.49999237	0.00000000	69.15600000	16.94759000
131.69999236	0.00000000	69.48203000	16.20325000
131.89999235	0.00000000	69.15600000	15.82800000
132.09999233	0.00000000	68.36859000	15.78494000
132.29999232	0.00000000	67.61810000	15.74188000
132.49999231	0.00000000	66.82455000	15.40969000
132.69999230	0.00000000	66.44931000	15.04675000
132.89999229	0.00000000	66.44931000	15.45891000
133.09999227	0.00000000	66.82455000	16.16018000
133.29999226	0.00000000	67.57505000	16.94759000
133.49999225	0.00000000	67.95029000	17.32283000
133.69999224	0.00000000	67.99335000	17.36589000
133.89999223	0.00000000	67.99335000	17.36589000
134.09999222	0.00000000	67.99335000	17.32283000
134.29999220	0.00000000	67.99335000	16.94759000
134.49999219	0.00000000	67.99335000	16.16018000
134.69999218	0.00000000	67.99335000	15.40969000
134.89999217	0.00000000	67.99335000	14.62844000
135.09999216	0.00000000	67.99335000	14.25320000
135.29999214	0.00000000	67.95029000	14.25320000
135.49999213	0.00000000	67.61810000	14.62844000
135.69999212	0.00000000	67.24901000	15.40969000
135.89999211	0.00000000	67.57505000	16.16018000
136.09999210	0.00000000	67.52583000	16.94759000
136.29999208	0.00000000	66.82455000	17.32283000
136.49999207	0.00000000	66.44931000	17.36589000
136.69999206	0.00000000	66.40624000	17.36589000
136.89999205	0.00000000	66.44931000	17.32283000
137.09999204	0.00000000	66.82455000	16.94759000
137.29999203	0.00000000	67.57505000	16.20325000
137.49999201	0.00000000	67.99335000	15.78494000
137.69999200	0.00000000	68.41166000	15.36663000
137.89999199	0.00000000	69.10678000	14.62844000
138.09999198	0.00000000	69.10678000	14.30241000
138.29999197	0.00000000	68.36859000	14.62844000
138.49999195	0.00000000	67.61810000	15.36663000
138.69999194	0.00000000	66.82455000	15.78494000
138.89999193	0.00000000	66.44931000	16.20325000
139.09999192	0.00000000	66.40624000	16.94759000
139.29999191	0.00000000	66.40624000	17.32283000
139.49999189	0.00000000	66.44931000	17.36589000
139.69999188	0.00000000	66.82455000	17.36589000
139.89999187	0.00000000	67.57505000	17.36589000
140.09999186	0.00000000	67.95029000	17.32283000
140.29999185	0.00000000	67.99335000	16.94759000
140.49999184	0.00000000	67.99335000	16.16018000
140.69999182	0.00000000	67.95029000	15.40969000
140.89999181	0.00000000	67.57505000	14.62844000
141.09999180	0.00000000	66.82455000	14.30241000
141.29999179	0.00000000	66.44931000	14.62844000
141.49999178	0.00000000	66.40624000	15.40969000
141.69999176	0.00000000	66.44931000	16.16018000
141.89999175	0.00000000	66.82455000	16.94759000
142.09999174	0.00000000	67.57505000	17.32283000
142.29999173	0.00000000	67.95029000	17.36589000
142.49999172	0.00000000	67.99335000	17.36589000
142.69999170	0.00000000	67.99335000	17.36589000
142.89999169	0.00000000	67.99335000	17.32283000
143.09999168	0.00000000	67.95029000	16.89837000
143.29999167	0.00000000	67.57505000	15.78494000
143.49999166	0.00000000	66.82455000	14.67150000
143.69999165	0.00000000	66.49852000	14.25320000
143.89999163	0.00000000	66.82455000	14.21014000
144.09999162	0.00000000	67.57505000	14.30241000
144.29999161	0.00000000	67.99335000	15.04675000
144.49999160	0.00000000	68.36859000	16.52928000
144.69999159	0.00000000	68.68848000	17.27362000
144.89999157	0.00000000	67.99335000	17.36589000
145.09999156	0.00000000	67.29208000	17.36589000
145.29999155	0.00000000	67.57505000	17.36589000
145.49999154	0.00000000	67.52583000	17.32283000
145.69999153	0.00000000	66.82455000	16.94759000
145.89999151	0.00000000	66.44931000	16.20325000
146.09999150	0.00000000	66.40624000	15.78494000
146.29999149	0.00000000	66.40624000	15.40969000
146.49999148	0.00000000	66.44931000	15.04675000
146.69999147	0.00000000	66.82455000	15.40969000
146.89999146	0.00000000	67.57505000	15.74188000
147.09999144	0.00000000	67.95029000	15.78494000
147.29999143	0.00000000	67.99335000	15.82800000
147.49999142	0.00000000	67.99335000	16.20325000
147.69999141	0.00000000	67.99335000	16.94759000
147.89999140	0.00000000	67.95029000	17.32283000
148.09999138	0.00000000	67.57505000	17.36589000
148.29999137	0.00000000	66.82455000	17.32283000
148.49999136	0.00000000	66.44931000	16.94759000
148.69999135	0.00000000	66.40624000	16.20325000
148.89999134	0.00000000	66.44931000	15.82800000
149.09999132	0.00000000	66.82455000	15.78494000
149.29999131	0.00000000	67.57505000	15.78494000
149.49999130	0.00000000	67.95029000	15.78494000
149.69999129	0.00000000	67.99335000	15.78494000
149.89999128	0.00000000	67.99335000	15.82800000
150.09999127	0.00000000	67.99335000	16.20325000
150.29999125	0.00000000	67.99335000	16.94759000
150.49999124	0.00000000	67.95029000	17.32283000
150.69999123	0.00000000	67.57505000	17.36589000
150.89999122	0.00000000	66.82455000	17.36589000
151.09999121	0.00000000	66.44931000	17.32283000
151.29999119	0.00000000	66.40624000	16.94759000
151.49999118	0.00000000	66.40624000	16.20325000
151.69999117	0.00000000	66.44931000	15.82800000
151.89999116	0.00000000	66.82455000	15.78494000
152.09999115	0.00000000	67.57505000	15.78494000
152.29999113	0.00000000	67.95029000	15.78494000
152.49999112	0.00000000	67.99335000	15.78494000
152.69999111	0.00000000	67.99335000	15.78494000
152.89999110	0.00000000	67.99335000	15.78494000
153.09999109	0.00000000	67.99335000	15.78494000
153.29999108	0.00000000	67.95029000	15.78494000
153.49999106	0.00000000	67.57505000	15.78494000
153.69999105	0.00000000	66.82455000	15.78494000
153.89999104	0.00000000	66.44931000	15.82800000
154.09999103	0.00000000	66.40624000	16.16018000
154.29999102	0.00000000	66.40624000	16.52928000
154.49999100	0.00000000	66.40624000	16.16018000
154.69999099	0.00000000	66.40624000	15.82800000
154.89999098	0.00000000	66.44931000	15.78494000
155.09999097	0.00000000	66.82455000	15.78494000
155.29999096	0.00000000	67.57505000	15.78494000
155.49999094	0.00000000	67.95029000	15.78494000
155.69999093	0.00000000	67.99335000	15.78494000
155.89999092	0.00000000	67.99335000	15.78494000
156.09999091	0.00000000	67.95029000	15.78494000
156.29999090	0.00000000	67.57505000	15.82800000
156.49999089	0.00000000	66.82455000	16.20325000
156.69999087	0.00000000	66.44931000	16.94759000
156.89999086	0.00000000	66.40624000	17.32283000
157.09999085	0.00000000	66.40624000	17.36589000
157.29999084	0.00000000	66.40624000	17.32283000
157.49999083	0.00000000	66.40624000	16.94759000
157.69999081	0.00000000	66.44931000	16.20325000
157.89999080	0.00000000	66.82455000	15.78494000
158.09999079	0.00000000	67.57505000	15.36663000
158.29999078	0.00000000	67.95029000	14.62844000
158.49999077	0.00000000	67.95029000	14.30241000
158.69999075	0.00000000	67.61810000	14.62844000
158.89999074	0.00000000	67.24901000	15.40969000
159.09999073	0.00000000	67.61810000	16.16018000
159.29999072	0.00000000	67.90108000	16.94759000
159.49999071	0.00000000	67.57505000	17.32283000
159.69999070	0.00000000	66.82455000	17.36589000
159.89999068	0.00000000	66.44931000	17.36589000
160.09999067	0.00000000	66.40624000	17.32283000
160.29999066	0.00000000	66.40624000	16.94759000
160.49999065	0.00000000	66.40624000	16.20325000
160.69999064	0.00000000	66.40624000	15.82800000
160.89999062	0.00000000	66.40624000	15.78494000
161.09999061	0.00000000	66.44931000	15.78494000
161.29999060	0.00000000	66.82455000	15.78494000
161.49999059	0.00000000	67.57505000	15.78494000
161.69999058	0.00000000	67.95029000	15.78494000
161.89999056	0.00000000	67.99335000	15.78494000
162.09999055	0.00000000	67.95029000	15.82800000
162.29999054	0.00000000	67.61810000	16.20325000
162.49999053	0.00000000	67.20596000	16.94759000
162.69999052	0.00000000	67.19365000	17.27362000
162.89999051	0.00000000	66.78149000	16.94759000
163.09999049	0.00000000	66.44931000	16.25246000
163.29999048	0.00000000	66.40624000	16.20325000
163.49999047	0.00000000	66.40624000	16.52928000
163.69999046	0.00000000	66.40624000	16.16018000
163.89999045	0.00000000	66.40624000	15.82800000
164.09999043	0.00000000	66.40624000	15.78494000
164.29999042	0.00000000	66.40624000	15.78494000
164.49999041	0.00000000	66.44931000	15.78494000
164.69999040	0.00000000	66.82455000	15.78494000
164.89999039	0.00000000	67.57505000	15.78494000
165.09999037	0.00000000	67.95029000	15.78494000
165.29999036	0.00000000	67.99335000	15.78494000
165.49999035	0.00000000	67.95029000	15.78494000
165.69999034	0.00000000	67.57505000	15.78494000
165.89999033	0.00000000	66.82455000	15.78494000
166.09999032	0.00000000	66.44931000	15.78494000
166.29999030	0.00000000	66.40624000	15.78494000
166.49999029	0.00000000	66.40624000	15.78494000
166.69999028	0.00000000	66.40624000	15.78494000
166.89999027	0.00000000	66.40624000	15.78494000
167.09999026	0.00000000	66.40624000	15.78494000
167.29999024	0.00000000	66.40624000	15.78494000
167.49999023	0.00000000	66.49852000	15.78494000
167.69999022	0.00000000	67.15674000	15.78494000
167.89999021	0.00000000	67.89492000	15.78494000
168.09999020	0.00000000	67.19980000	15.78494000
168.29999018	0.00000000	66.87376000	15.78494000
168.49999017	0.00000000	67.19365000	15.78494000
168.69999016	0.00000000	67.15674000	15.78494000
168.89999015	0.00000000	67.19365000	15.78494000
169.09999014	0.00000000	66.78149000	15.78494000
169.29999013	0.00000000	66.44931000	15.78494000
169.49999011	0.00000000	66.40624000	15.78494000
169.69999010	0.00000000	66.40624000	15.78494000
169.89999009	0.00000000	66.40624000	15.78494000
170.09999008	0.00000000	66.40624000	15.78494000
170.29999007	0.00000000	66.40624000	15.78494000
170.49999005	0.00000000	66.40624000	15.78494000
170.69999004	0.00000000	66.40624000	15.78494000
170.89999003	0.00000000	66.40624000	15.78494000
171.09999002	0.00000000	66.40624000	15.78494000
171.29999001	0.00000000	66.40624000	15.78494000
171.49998999	0.00000000	66.40624000	15.78494000
171.69998998	0.00000000	66.40624000	15.78494000
171.89998997	0.00000000	66.40624000	15.78494000
172.09998996	0.00000000	66.40624000	15.78494000
172.29998995	0.00000000	66.40624000	15.78494000
172.49998994	0.00000000	66.40624000	15.78494000
172.69998992	0.00000000	66.40624000	15.78494000
172.89998991	0.00000000	66.36318000	15.78494000
173.09998990	0.00000000	66.03100000	15.78494000
173.29998989	0.00000000	65.66190000	15.74188000
173.49998988	0.00000000	66.03100000	15.40969000
173.69998986	0.00000000	66.36318000	15.04675000
173.89998985	0.00000000	66.40624000	15.40969000
174.09998984	0.00000000	66.40624000	15.74188000
174.29998983	0.00000000	66.40624000	15.78494000
174.49998982	0.00000000	66.40624000	15.78494000
174.69998980	0.00000000	66.40624000	15.78494000
174.89998979	0.00000000	66.40624000	15.78494000
175.09998978	0.00000000	66.40624000	15.78494000
175.29998977	0.00000000	66.40624000	15.78494000
175.49998976	0.00000000	66.40624000	15.78494000
175.69998975	0.00000000	66.40624000	15.78494000
175.89998973	0.00000000	66.40624000	15.78494000
176.09998972	0.00000000	66.40624000	15.78494000
176.29998971	0.00000000	66.36318000	15.78494000
176.49998970	0.00000000	66.07406000	15.78494000
176.69998969	0.00000000	66.04330000	15.78494000
176.89998967	0.00000000	66.77534000	15.78494000
177.09998966	0.00000000	66.73843000	15.78494000
177.29998965	0.00000000	66.44931000	15.78494000
177.49998964	0.00000000	66.40624000	15.78494000
177.69998963	0.00000000	66.40624000	15.78494000
177.89998961	0.00000000	66.40624000	15.78494000
178.09998960	0.00000000	66.40624000	15.78494000
178.29998959	0.00000000	66.40624000	15.78494000
178.49998958	0.00000000	66.40624000	15.78494000
178.69998957	0.00000000	66.40624000	15.78494000
178.89998956	0.00000000	66.40624000	15.78494000
179.09998954	0.00000000	66.40624000	15.78494000
179.29998953	0.00000000	66.40624000	15.78494000
179.49998952	0.00000000	66.40624000	15.78494000
179.69998951	0.00000000	66.40624000	15.78494000
179.89998950	0.00000000	66.40624000	15.78494000
180.09998948	0.00000000	66.40624000	15.78494000
180.29998947	0.00000000	66.40624000	15.78494000
180.49998946	0.00000000	66.40624000	15.78494000
180.69998945	0.00000000	66.40624000	15.78494000
180.89998944	0.00000000	66.40624000	15.78494000
181.09998942	0.00000000	66.40624000	15.78494000
181.29998941	0.00000000	66.40624000	15.78494000
181.49998940	0.00000000	66.40624000	15.78494000
181.69998939	0.00000000	66.40624000	15.78494000
181.89998938	0.00000000	66.40624000	15.78494000
182.09998937	0.00000000	66.40624000	15.78494000
182.29998935	0.00000000	66.40624000	15.78494000
182.49998934	0.00000000	66.40624000	15.78494000
182.69998933	0.00000000	66.40624000	15.78494000
182.89998932	0.00000000	66.40624000	15.78494000
183.09998931	0.00000000	66.40624000	15.78494000
183.29998929	0.00000000	66.40624000	15.78494000
183.49998928	0.00000000	66.40624000	15.78494000
183.69998927	0.00000000	66.40624000	15.78494000
183.89998926	0.00000000	66.40624000	15.78494000
184.09998925	0.00000000	66.40624000	15.78494000
184.29998923	0.00000000	66.40624000	15.78494000
184.49998922	0.00000000	66.40624000	15.78494000
184.69998921	0.00000000	66.40624000	15.78494000
184.89998920	0.00000000	66.40624000	15.78494000
185.09998919	0.00000000	66.40624000	15.78494000
185.29998918	0.00000000	66.40624000	15.78494000
185.49998916	0.00000000	66.40624000	15.78494000
185.69998915	0.00000000	66.40624000	15.74188000
185.89998914	0.00000000	66.40624000	15.40969000
186.09998913	0.00000000	66.40624000	15.00369000
186.29998912	0.00000000	66.40624000	14.99139000
186.49998910	0.00000000	66.40624000	14.58538000
186.69998909	0.00000000	66.40624000	14.30241000
186.89998908	0.00000000	66.40624000	14.62844000
187.09998907	0.00000000	66.40624000	15.40969000
187.29998906	0.00000000	66.40624000	16.11712000
187.49998904	0.00000000	66.40624000	16.52928000
187.69998903	0.00000000	66.40624000	16.16018000
187.89998902	0.00000000	66.40624000	15.82800000
188.09998901	0.00000000	66.40624000	15.78494000
188.29998900	0.00000000	66.40624000	15.78494000
188.49998899	0.00000000	66.40624000	15.78494000
188.69998897	0.00000000	66.40624000	15.78494000
188.89998896	0.00000000	66.40624000	15.74188000
189.09998895	0.00000000	66.40624000	15.40969000
189.29998894	0.00000000	66.40624000	15.04675000
189.49998893	0.00000000	66.40624000	15.40969000
189.69998891	0.00000000	66.40624000	15.74188000
189.89998890	0.00000000	66.40624000	15.82800000
190.09998889	0.00000000	66.40624000	16.16018000
190.29998888	0.00000000	66.40624000	16.57234000
190.49998887	0.00000000	66.40624000	16.53543000
190.69998885	0.00000000	66.40624000	16.57234000
190.89998884	0.00000000	66.40624000	16.20325000
191.09998883	0.00000000	66.40624000	16.20325000
191.29998882	0.00000000	66.40624000	16.52928000
191.49998881	0.00000000	66.40624000	16.16018000
191.69998880	0.00000000	66.40624000	15.82800000
191.89998878	0.00000000	66.40624000	15.78494000
192.09998877	0.00000000	66.40624000	15.78494000
192.29998876	0.00000000	66.40624000	15.74188000
192.49998875	0.00000000	66.40624000	15.36663000
192.69998874	0.00000000	66.40624000	14.67150000
192.89998872	0.00000000	66.40624000	14.67150000
193.09998871	0.00000000	66.40624000	15.36663000
193.29998870	0.00000000	66.40624000	15.74188000
193.49998869	0.00000000	66.40624000	15.78494000
193.69998868	0.00000000	66.40624000	15.78494000
193.89998866	0.00000000	66.40624000	15.78494000
194.09998865	0.00000000	66.40624000	15.78494000
194.29998864	0.00000000	66.40624000	15.78494000
194.49998863	0.00000000	66.40624000	15.78494000
194.69998862	0.00000000	66.40624000	15.78494000
194.89998861	0.00000000	66.40624000	15.78494000
195.09998859	0.00000000	66.40624000	15.74188000
195.29998858	0.00000000	66.40624000	15.40969000
195.49998857	0.00000000	66.40624000	15.04675000
195.69998856	0.00000000	66.40624000	15.40969000
195.89998855	0.00000000	66.40624000	15.74188000
196.09998853	0.00000000	66.40624000	15.78494000
