Time	Channel A	Channel B	Channel C
(us)	(V)	(mV)	(mV)

-4.49999956	0.00000000	49.43405000	9.05511800
-4.29999957	0.00000000	49.10802000	8.68602300
-4.09999958	0.00000000	49.43405000	8.72293300
-3.89999959	0.00000000	50.12918000	8.68602300
-3.69999960	0.00000000	50.17839000	9.09817800
-3.49999962	0.00000000	49.85236000	9.43036400
-3.29999963	0.00000000	50.22145000	9.43036400
-3.09999964	0.00000000	50.50443000	9.05511800
-2.89999965	0.00000000	50.22145000	8.35998900
-2.69999966	0.00000000	49.80930000	8.35998900
-2.49999968	0.00000000	49.84621000	9.05511800
-2.29999969	0.00000000	49.76624000	9.38115100
-2.09999970	0.00000000	49.80315000	9.05511800
-1.89999971	0.00000000	49.43405000	8.35998900
-1.69999972	0.00000000	49.48326000	8.35998900
-1.49999973	0.00000000	50.17839000	9.05511800
-1.29999975	0.00000000	50.55364000	9.43036400
-1.09999976	0.00000000	50.59670000	9.47342500
-0.89999977	0.00000000	50.59670000	9.47342500
-0.69999978	0.00000000	50.59670000	9.47342500
-0.49999979	0.00000000	50.59670000	9.47342500
-0.29999981	0.15871060	50.59670000	9.47342500
-0.09999982	0.63668800	50.59670000	9.47342500
0.10000017	0.95533960	50.59670000	9.47342500
0.30000016	1.11466500	50.59670000	9.47342500
0.50000015	0.95533960	50.59670000	9.47342500
0.70000013	0.47736220	50.55364000	9.47342500
0.90000012	-0.31803640	50.22145000	9.47342500
1.10000011	-1.27399100	49.85236000	9.47342500
1.30000010	-2.22994600	50.22145000	9.47342500
1.50000009	-2.70792300	50.55364000	9.47342500
1.70000008	-2.54859700	50.59670000	9.47342500
1.90000006	-1.59264300	50.59670000	9.51648500
2.10000005	0.15871060	50.59670000	9.84867000
2.30000004	2.22994600	50.59670000	10.21161000
2.50000003	4.14124000	50.59670000	9.84867000
2.70000002	5.25652100	50.59670000	9.51648500
2.90000000	5.09719500	50.59670000	9.43036400
3.09999999	3.34522600	50.59670000	9.05511800
3.29999998	0.47736220	50.59670000	8.35998900
3.49999997	-2.86724900	50.59670000	8.35998900
3.69999996	-5.89382400	50.59670000	9.05511800
3.89999994	-7.80511800	50.59670000	9.43036400
4.09999993	-7.80511800	50.59670000	9.47342500
4.29999992	-5.57517200	50.59670000	9.47342500
4.49999991	-1.91129400	50.59670000	9.47342500
4.69999990	2.38927200	50.59670000	9.47342500
4.89999989	6.53112700	50.55364000	9.43036400
5.09999987	8.92039900	50.17839000	9.05511800
5.29999986	9.23905000	49.43405000	8.31077700
5.49999985	7.16781500	49.05881000	7.93553100
5.69999984	3.34522600	49.05881000	7.93553100
5.89999983	-1.43331700	49.39099000	8.26771600
6.09999981	-5.89382400	49.76009000	8.67987200
6.29999980	-8.76107300	49.43405000	8.68602300
6.49999979	-9.39837600	49.48326000	9.09817800
6.69999978	-7.80511800	50.17839000	9.43036400
6.89999977	-4.30056600	50.50443000	9.47342500
7.09999975	0.15871060	50.22145000	9.47342500
7.29999974	4.14124000	49.80930000	9.47342500
7.49999973	6.84916400	49.80315000	9.43036400
7.69999972	7.80511800	49.39099000	9.05511800
7.89999971	6.69045300	49.05881000	8.31077700
8.09999970	4.14124000	49.05881000	7.98474400
8.29999968	0.79601380	49.39099000	8.26771600
8.49999967	-2.38927200	49.76009000	8.67987200
8.69999966	-4.45989200	49.39099000	8.68602300
8.89999965	-5.25652100	49.05881000	9.09817800
9.09999964	-4.61921700	49.01575000	9.38115100
9.29999962	-3.02657500	49.01575000	9.09817800
9.49999961	-1.11466500	49.05881000	8.72908400
9.69999960	0.79601380	49.43405000	9.09817800
9.89999959	2.07062000	50.12918000	9.43036400
10.09999958	2.54859700	50.17839000	9.47342500
10.29999956	2.22994600	49.85236000	9.47342500
10.49999955	1.59264300	50.22145000	9.43036400
10.69999954	0.63668800	50.50443000	9.09817800
10.89999953	-0.15871060	50.17839000	8.68602300
11.09999952	-0.63668800	49.48326000	8.72293300
11.29999951	-0.95533960	49.43405000	8.68602300
11.49999949	-0.95533960	49.76009000	9.09817800
11.69999948	-0.79601380	49.39099000	9.38115100
11.89999947	-0.47736220	49.05881000	9.09817800
12.09999946	-0.15871060	49.05881000	8.72908400
12.29999945	-0.15871060	49.43405000	9.09817800
12.49999943	0.00000000	50.12918000	9.43036400
12.69999942	0.00000000	50.12918000	9.47342500
12.89999941	0.00000000	49.43405000	9.47342500
13.09999940	0.00000000	49.05881000	9.47342500
13.29999939	0.15871060	49.01575000	9.47342500
13.49999937	0.00000000	49.01575000	9.47342500
13.69999936	0.00000000	49.05881000	9.43036400
13.89999935	0.00000000	49.43405000	9.09817800
14.09999934	-0.15871060	50.12918000	8.72908400
14.29999933	-0.15871060	50.17839000	9.09817800
14.49999932	-0.15871060	49.80930000	9.43036400
14.69999930	-0.15871060	49.80315000	9.47342500
14.89999929	0.00000000	49.39099000	9.47342500
15.09999928	0.00000000	49.05881000	9.47342500
15.29999927	0.00000000	49.01575000	9.47342500
15.49999926	0.00000000	49.01575000	9.47342500
15.69999924	0.00000000	49.01575000	9.47342500
15.89999923	0.00000000	49.01575000	9.47342500
16.09999922	0.00000000	49.01575000	9.47342500
16.29999921	0.00000000	49.05881000	9.47342500
16.49999920	0.00000000	49.43405000	9.47342500
16.69999919	-0.15871060	50.17839000	9.47342500
16.89999917	0.00000000	50.55364000	9.47342500
17.09999916	-0.15871060	50.63976000	9.47342500
17.29999915	0.00000000	51.01501000	9.47342500
17.49999914	0.00000000	51.75935000	9.47342500
17.69999913	0.00000000	52.08538000	9.47342500
17.89999911	0.00000000	51.71013000	9.47342500
18.09999910	0.00000000	50.55364000	9.47342500
18.29999909	0.00000000	49.01575000	9.47342500
18.49999908	0.00000000	47.43479000	9.47342500
18.69999907	0.00000000	45.89690000	9.47342500
18.89999905	-0.15871060	44.78346000	9.47342500
19.09999904	0.00000000	44.78346000	9.47342500
19.29999903	0.00000000	45.98917000	9.43036400
19.49999902	0.00000000	48.32062000	9.09817800
19.69999901	0.00000000	51.84547000	8.72908400
19.89999900	0.00000000	55.67175000	9.09817800
20.09999898	0.00000000	59.15354000	9.38115100
20.29999897	0.00000000	61.01746000	9.09817800
20.49999896	0.00000000	60.59916000	8.72908400
20.69999895	0.00000000	57.43725000	9.05511800
20.89999894	0.00000000	51.62401000	9.05511800
21.09999892	0.00000000	44.27288000	8.72908400
21.29999891	0.00000000	36.92175000	9.05511800
21.49999890	0.00000000	31.15157000	9.00590400
21.69999889	0.00000000	28.53716000	8.31077700
21.89999888	0.00000000	30.58563000	7.93553100
22.09999886	0.00000000	37.98597000	7.89247000
22.29999885	0.00000000	49.56939000	7.89247000
22.49999884	0.00000000	62.69069000	7.89247000
22.69999883	0.00000000	74.23105000	7.93553100
22.89999882	0.00000000	81.12081000	8.31077700
23.09999881	0.00000000	81.02854000	9.05511800
23.29999879	0.00000000	73.25910000	9.47342500
23.49999878	0.00000000	58.97515000	9.89173200
23.69999877	0.00000000	41.52928000	10.62992000
23.89999876	0.00000000	24.53863000	11.00517000
24.09999875	0.00000000	11.47269000	11.00517000
24.29999873	0.00000000	6.57603300	10.58686000
24.49999872	0.00000000	11.60802000	9.42421200
24.69999871	0.00000000	25.93504000	7.89247000
24.89999870	0.00000000	46.45054000	6.31151500
25.09999869	0.00000000	68.83612000	4.77977300
25.29999867	0.00000000	88.09669000	3.66633800
25.49999866	0.00000000	98.84965000	3.66633800
25.69999865	0.00000000	98.47440000	4.87204700
25.89999864	0.00000000	86.84792000	7.19734200
26.09999863	0.00000000	66.37549000	10.72219000
26.29999862	0.00000000	41.66461000	14.53617000
26.49999860	0.00000000	18.49163000	18.01796000
26.69999859	0.00000000	2.25762800	19.88189000
26.89999858	0.00000000	-3.51254900	19.50664000
27.09999857	0.00000000	2.67593500	16.72613000
27.29999856	0.00000000	19.65428000	11.65723000
27.49999854	0.00000000	43.15945000	4.69365100
27.69999853	0.00000000	67.53198000	-2.60211600
27.89999852	0.00000000	87.22318000	-8.36614100
28.09999851	0.00000000	98.10531000	-11.01132000
28.29999850	0.00000000	97.73621000	-9.38730200
28.49999848	0.00000000	86.98327000	-3.16190900
28.69999847	0.00000000	68.41782000	6.86515700
28.89999846	0.00000000	46.40748000	18.43627000
29.09999845	0.00000000	25.93504000	28.89395000
29.29999844	0.00000000	11.60802000	36.18971000
29.49999843	0.00000000	6.48991100	38.41658000
29.69999841	0.00000000	10.62992000	34.09818000
29.89999840	0.00000000	22.26255000	23.64665000
30.09999839	0.00000000	38.87795000	9.01205700
30.29999838	0.00000000	57.01894000	-6.40994000
30.49999837	0.00000000	72.13951000	-18.77460000
30.69999835	0.00000000	81.49606000	-25.74434000
30.89999834	0.00000000	83.86442000	-25.65207000
31.09999833	0.00000000	78.88779000	-17.93799000
31.29999832	0.00000000	68.46087000	-4.00467500
31.49999831	0.00000000	54.92125000	12.96137000
31.69999829	0.00000000	41.01255000	29.58907000
31.89999828	0.00000000	30.16732000	41.94759000
32.09999827	0.00000000	24.26181000	47.76082000
32.29999826	0.00000000	23.84350000	45.76156000
32.49999825	0.00000000	28.45103000	35.72219000
32.69999824	0.00000000	36.96481000	19.92495000
32.89999822	0.00000000	47.43479000	2.13459600
33.09999821	0.00000000	57.86171000	-14.08095000
33.29999820	0.00000000	65.95103000	-25.31988000
33.49999819	0.00000000	69.49433000	-29.18307000
33.69999818	0.00000000	68.37475000	-25.36294000
33.89999816	0.00000000	63.34276000	-14.54232000
34.09999815	0.00000000	55.24729000	0.51058070
34.29999814	0.00000000	46.45054000	16.76919000
34.49999813	0.00000000	39.48080000	31.07775000
34.69999812	0.00000000	35.94365000	40.32357000
34.89999810	0.00000000	35.89444000	42.64886000
35.09999809	0.00000000	38.97022000	37.26009000
35.29999808	0.00000000	44.36515000	25.73203000
35.49999807	0.00000000	50.50443000	11.09744000
35.69999806	0.00000000	55.89936000	-3.21112200
35.89999805	0.00000000	58.97515000	-14.03789000
36.09999803	0.00000000	59.01821000	-19.42667000
36.29999802	0.00000000	56.36687000	-17.88878000
36.49999801	0.00000000	52.13459000	-9.85482200
36.69999800	0.00000000	47.43479000	1.99311000
36.89999799	0.00000000	42.87032000	14.35162000
37.09999797	0.00000000	39.84990000	23.97268000
37.29999796	0.00000000	40.17593000	29.03543000
37.49999795	0.00000000	42.82726000	28.24803000
37.69999794	0.00000000	46.73966000	22.15797000
37.89999793	0.00000000	51.71013000	12.58612000
38.09999791	0.00000000	55.94857000	2.59596400
38.29999790	0.00000000	58.27386000	-5.06889700
38.49999789	0.00000000	58.68602000	-8.50147600
38.69999788	0.00000000	56.74212000	-6.18848400
38.89999787	0.00000000	53.29109000	1.01501000
39.09999786	0.00000000	49.01575000	10.58686000
39.29999784	0.00000000	44.78346000	19.37131000
39.49999783	0.00000000	41.66461000	24.76009000
39.69999782	0.00000000	40.08366000	25.13533000
39.89999781	0.00000000	40.08366000	20.57702000
40.09999780	0.00000000	41.66461000	12.45079000
40.29999778	0.00000000	44.78346000	2.87278500
40.49999777	0.00000000	49.01575000	-5.90551100
40.69999776	0.00000000	53.24803000	-10.45768000
40.89999775	0.00000000	56.36687000	-9.38730200
41.09999774	0.00000000	57.99089000	-3.62942900
41.29999772	0.00000000	58.32308000	5.19808000
41.49999771	0.00000000	57.10506000	14.81299000
41.69999770	0.00000000	53.66634000	22.52707000
41.89999769	0.00000000	49.43405000	26.75935000
42.09999768	0.00000000	45.52165000	26.34104000
42.29999767	0.00000000	42.03986000	20.99532000
42.49999765	0.00000000	40.12672000	12.62918000
42.69999764	0.00000000	40.08366000	4.12770700
42.89999763	0.00000000	41.62155000	-2.42372000
43.09999762	0.00000000	44.31594000	-5.94857300
43.29999761	0.00000000	47.43479000	-5.57947800
43.49999759	0.00000000	50.50443000	-2.18380900
43.69999758	0.00000000	52.82972000	3.24803100
43.89999757	0.00000000	53.66634000	9.38115100
44.09999756	0.00000000	53.71555000	14.76993000
44.29999755	0.00000000	53.34030000	17.88263000
44.49999753	0.00000000	52.55290000	18.35015000
44.69999752	0.00000000	51.80241000	16.81225000
44.89999751	0.00000000	51.01501000	13.74262000
45.09999750	0.00000000	50.63976000	9.89173200
45.29999749	0.00000000	50.50443000	6.40378900
45.49999748	0.00000000	49.71087000	3.70939900
45.69999746	0.00000000	47.76698000	2.50369100
45.89999745	0.00000000	45.47859000	2.91584600
46.09999744	0.00000000	43.11023000	4.41067900
46.29999743	0.00000000	41.20325000	7.14197800
46.49999742	0.00000000	40.12672000	9.75639700
46.69999740	0.00000000	41.01255000	11.79257000
46.89999739	0.00000000	44.82652000	12.91215000
47.09999738	0.00000000	50.22145000	13.32431000
47.29999737	0.00000000	55.67175000	12.53691000
47.49999736	0.00000000	60.69144000	11.00517000
47.69999734	0.00000000	63.71801000	9.05511800
47.89999733	0.00000000	63.66880000	6.72982200
48.09999732	0.00000000	60.18085000	4.82283400
48.29999731	0.00000000	53.58022000	3.66633800
48.49999730	0.00000000	45.47859000	3.70939900
48.69999729	0.00000000	37.38312000	5.29035400
48.89999727	0.00000000	31.65600000	8.31077700
49.09999726	0.00000000	30.11811000	11.74951000
49.29999725	0.00000000	33.19390000	14.07480000
49.49999724	0.00000000	40.16978000	15.27436000
49.69999723	0.00000000	49.43405000	15.23130000
49.89999721	0.00000000	59.01821000	13.69956000
50.09999720	0.00000000	65.95103000	11.00517000
50.29999719	0.00000000	68.28247000	7.89247000
50.49999718	0.00000000	66.00024000	4.77977300
50.69999717	0.00000000	59.44266000	2.08538400
50.89999715	0.00000000	50.59670000	0.59670270
51.09999714	0.00000000	41.75073000	1.01501000
51.29999713	0.00000000	35.15010000	3.70939900
51.49999712	0.00000000	32.44340000	7.89247000
51.69999711	0.00000000	33.61220000	12.11860000
51.89999710	0.00000000	39.01329000	15.23130000
52.09999708	0.00000000	47.05954000	16.81225000
52.29999707	0.00000000	55.11196000	16.81225000
52.49999706	0.00000000	61.29429000	15.23130000
52.69999705	0.00000000	63.58267000	12.16166000
52.89999704	0.00000000	61.71259000	8.31077700
53.09999702	0.00000000	56.32381000	4.87204700
53.29999701	0.00000000	49.05881000	2.50369100
53.49999700	0.00000000	42.13213000	1.75319900
53.69999699	0.00000000	37.52460000	2.50369100
53.89999698	0.00000000	36.31890000	4.82283400
54.09999696	0.00000000	38.63804000	7.84940900
54.29999695	0.00000000	43.62082000	10.53765000
54.49999694	0.00000000	50.12918000	12.07554000
54.69999693	0.00000000	55.85630000	12.11860000
54.89999692	0.00000000	58.97515000	11.00517000
55.09999691	0.00000000	59.01821000	9.47342500
55.29999689	0.00000000	56.32381000	7.93553100
55.49999688	0.00000000	51.66707000	6.82209600
55.69999687	0.00000000	45.94611000	6.82209600
55.89999686	0.00000000	40.96949000	7.93553100
56.09999685	0.00000000	38.59498000	9.42421200
56.29999683	0.00000000	38.59498000	10.62992000
56.49999682	0.00000000	40.96949000	11.33120000
56.69999681	0.00000000	45.89690000	11.28199000
56.89999680	0.00000000	51.24877000	9.33809000
57.09999679	0.00000000	55.11196000	6.36072800
57.29999677	0.00000000	57.10506000	3.61712600
57.49999676	0.00000000	56.69291000	1.71013800
57.69999675	0.00000000	54.45374000	1.01501000
57.89999674	0.00000000	50.97194000	2.59596400
58.09999673	0.00000000	47.52707000	6.44685000
58.29999672	0.00000000	44.78346000	11.42347000
58.49999670	0.00000000	43.24557000	16.43701000
58.69999669	0.00000000	43.24557000	19.83883000
58.89999668	0.00000000	44.74040000	20.62008000
59.09999667	0.00000000	47.01648000	18.25787000
59.29999666	0.00000000	48.97269000	13.28125000
59.49999664	0.00000000	50.55364000	6.72982200
59.69999663	0.00000000	51.66707000	0.63976370
59.89999662	0.00000000	51.71013000	-3.25418300
60.09999661	0.00000000	50.97194000	-4.04773600
60.29999660	0.00000000	50.17839000	-2.09768700
60.49999658	0.00000000	49.01575000	2.59596400
60.69999657	0.00000000	47.90231000	9.51648500
60.89999656	0.00000000	47.52707000	16.81225000
61.09999655	0.00000000	47.85310000	22.52707000
61.29999654	0.00000000	48.64050000	24.85236000
61.49999653	0.00000000	49.39099000	22.95152000
61.69999651	0.00000000	50.12918000	17.92569000
61.89999650	0.00000000	50.12918000	10.58686000
62.09999649	0.00000000	49.39099000	2.50369100
62.29999648	0.00000000	48.59744000	-4.04773600
62.49999647	0.00000000	47.43479000	-7.85556000
62.69999645	0.00000000	46.32135000	-7.43725300
62.89999644	0.00000000	45.94611000	-2.51599400
63.09999643	0.00000000	46.32135000	4.73671200
63.29999642	0.00000000	47.47785000	12.11860000
63.49999641	0.00000000	49.01575000	18.35015000
63.69999639	0.00000000	50.55364000	22.57628000
63.89999638	0.00000000	51.66707000	23.73892000
64.09999637	0.00000000	51.71013000	21.41363000
64.29999636	0.00000000	50.97194000	16.43701000
64.49999635	0.00000000	50.17839000	9.84867000
64.69999634	0.00000000	48.97269000	3.33415300
64.89999632	0.00000000	47.47785000	-1.72244100
65.09999631	0.00000000	46.32135000	-4.04773600
65.29999630	0.00000000	45.94611000	-3.71555100
65.49999629	0.00000000	46.32135000	-1.02116100
65.69999628	0.00000000	47.47785000	3.20497000
65.89999626	0.00000000	48.97269000	7.84940900
66.09999625	0.00000000	50.12918000	12.16166000
66.29999624	0.00000000	50.50443000	15.64960000
66.49999623	0.00000000	50.12918000	17.97490000
66.69999622	0.00000000	48.97269000	18.35015000
66.89999620	0.00000000	47.43479000	16.90453000
67.09999619	0.00000000	45.94611000	14.53617000
67.29999618	0.00000000	45.20177000	11.79257000
67.49999617	0.00000000	45.98917000	8.31077700
67.69999616	0.00000000	47.90231000	5.19808000
67.89999615	0.00000000	50.59670000	2.78051200
68.09999613	0.00000000	53.24803000	0.46751960
68.29999612	0.00000000	54.78592000	-1.02116100
68.49999611	0.00000000	54.78592000	-1.02116100
68.69999610	0.00000000	53.16190000	0.55364170
68.89999609	0.00000000	49.71087000	3.66633800
69.09999607	0.00000000	45.15871000	7.93553100
69.29999606	0.00000000	41.66461000	12.53691000
69.49999605	0.00000000	39.66535000	16.43701000
69.69999604	0.00000000	38.97022000	18.76845000
69.89999603	0.00000000	40.55118000	19.50664000
70.09999601	0.00000000	44.40821000	17.93184000
70.29999600	0.00000000	49.43405000	14.07480000
70.49999599	0.00000000	54.82898000	9.05511800
70.69999598	0.00000000	59.01821000	3.66633800
70.89999597	0.00000000	60.59916000	-0.55979330
71.09999596	0.00000000	59.48573000	-2.50984200
71.29999594	0.00000000	56.32381000	-2.18380900
71.49999593	0.00000000	51.24877000	0.17839570
71.69999592	0.00000000	44.74040000	4.04158400
71.89999591	0.00000000	39.01329000	9.05511800
72.09999590	0.00000000	35.85138000	13.65650000
72.29999588	0.00000000	35.47613000	16.76919000
72.49999587	0.00000000	37.80758000	17.92569000
72.69999586	0.00000000	42.78420000	16.76919000
72.89999585	0.00000000	48.54823000	13.74262000
73.09999584	0.00000000	53.66634000	9.93479300
73.29999582	0.00000000	57.90477000	6.82209600
73.49999581	0.00000000	60.18085000	4.87204700
73.69999580	0.00000000	59.43651000	4.08464600
73.89999579	0.00000000	56.36687000	4.82283400
74.09999578	0.00000000	51.71013000	6.31151500
74.29999577	0.00000000	46.36442000	7.84940900
74.49999575	0.00000000	42.13213000	8.96284400
74.69999574	0.00000000	40.12672000	8.96284400
74.89999573	0.00000000	40.08366000	7.89247000
75.09999572	0.00000000	41.62155000	6.77903500
75.29999571	0.00000000	44.31594000	6.35457700
75.49999569	0.00000000	47.43479000	6.35457700
75.69999568	0.00000000	50.50443000	6.82209600
75.89999567	0.00000000	52.82972000	8.35383800
76.09999566	0.00000000	53.62328000	10.67298000
76.29999565	0.00000000	53.29109000	12.95522000
76.49999563	0.00000000	52.13459000	14.85605000
76.69999562	0.00000000	50.59670000	15.14518000
76.89999561	0.00000000	49.05881000	13.23819000
77.09999560	0.00000000	47.90231000	9.38115100
77.29999559	0.00000000	47.47785000	4.82898600
77.49999558	0.00000000	47.47785000	0.92888770
77.69999556	0.00000000	47.85310000	-1.35334600
77.89999555	0.00000000	48.50517000	-1.76550200
78.09999554	0.00000000	48.12992000	0.22760820
78.29999553	0.00000000	46.69045000	4.04158400
78.49999552	0.00000000	45.94611000	9.09817800
78.69999550	0.00000000	45.85384000	14.07480000
78.89999549	0.00000000	45.94611000	17.97490000
79.09999548	0.00000000	46.73966000	19.83883000
79.29999547	0.00000000	48.64050000	19.08834000
79.49999546	0.00000000	50.55364000	15.64960000
79.69999544	0.00000000	52.13459000	11.04823000
79.89999543	0.00000000	53.24803000	6.35457700
80.09999542	0.00000000	53.20496000	2.08538400
80.29999541	0.00000000	51.66707000	-0.97810030
80.49999540	0.00000000	49.01575000	-2.13459600
80.69999539	0.00000000	46.32135000	-0.97810030
80.89999537	0.00000000	44.36515000	2.04232300
81.09999536	0.00000000	43.20251000	5.89320800
81.29999535	0.00000000	43.24557000	9.42421200
81.49999534	0.00000000	44.78346000	12.58612000
81.69999533	0.00000000	47.43479000	15.23130000
81.89999531	0.00000000	50.12918000	16.43701000
82.09999530	0.00000000	52.08538000	16.06791000
82.29999529	0.00000000	53.24803000	14.90526000
82.49999528	0.00000000	53.24803000	12.53691000
82.69999527	0.00000000	52.08538000	9.47342500
82.89999525	0.00000000	50.17839000	6.36072800
83.09999524	0.00000000	47.85310000	3.61712600
83.29999523	-0.15871060	45.94611000	1.66707700
83.49999522	0.00000000	44.78346000	0.51058070
83.69999521	0.00000000	44.78346000	0.55364170
83.89999520	0.00000000	45.85384000	2.08538400
84.09999518	0.00000000	46.96727000	4.82283400
84.29999517	0.00000000	47.43479000	8.31077700
84.49999516	0.00000000	47.85310000	12.16166000
84.69999515	0.00000000	48.59744000	15.23130000
84.89999514	0.00000000	48.97269000	16.81225000
85.09999512	0.00000000	49.01575000	16.81225000
85.29999511	0.00000000	49.01575000	15.23130000
85.49999510	0.00000000	49.01575000	12.11860000
85.69999509	0.00000000	49.01575000	7.89247000
85.89999508	0.00000000	49.05881000	3.66633800
86.09999506	0.00000000	49.39099000	0.55364170
86.29999505	0.00000000	49.71087000	-0.97810030
86.49999504	0.00000000	48.97269000	-0.60285430
86.69999503	0.00000000	47.81004000	1.75935000
86.89999502	0.00000000	46.64124000	5.61638700
87.09999501	0.00000000	45.15871000	10.62992000
87.29999499	0.00000000	44.78346000	15.18824000
87.49999498	0.00000000	45.47859000	17.88263000
87.69999497	0.00000000	46.32135000	17.88263000
87.89999496	0.00000000	47.85310000	15.23130000
88.09999495	0.00000000	49.76009000	11.00517000
88.29999493	0.00000000	50.92888000	6.35457700
88.49999492	0.00000000	51.71013000	2.12844500
88.69999491	0.00000000	51.66707000	-0.55979330
88.89999490	0.00000000	50.55364000	-0.93503930
89.09999489	0.00000000	49.01575000	0.97194880
89.29999487	0.00000000	47.43479000	4.82898600
89.49999486	0.00000000	45.89690000	9.43036400
89.69999485	0.00000000	44.78346000	13.69956000
89.89999484	0.00000000	44.78346000	16.72613000
90.09999483	0.00000000	45.89690000	17.50738000
90.29999482	0.00000000	47.39173000	15.56348000
90.49999480	0.00000000	48.59744000	11.74336000
90.69999479	0.00000000	49.34793000	6.72982200
90.89999478	0.00000000	49.76009000	2.12844500
91.09999477	0.00000000	49.39099000	-0.93503930
91.29999476	0.00000000	49.05881000	-1.67322800
91.49999474	0.00000000	49.01575000	0.64591530
91.69999473	0.00000000	49.01575000	5.19808000
91.89999472	0.00000000	49.01575000	10.58686000
92.09999471	0.00000000	49.01575000	15.18824000
92.29999470	0.00000000	49.01575000	17.88263000
92.49999468	0.00000000	48.97269000	17.88263000
92.69999467	0.00000000	48.59744000	15.23130000
92.89999466	0.00000000	47.81004000	11.00517000
93.09999465	0.00000000	47.01648000	6.35457700
93.29999464	0.00000000	45.85384000	2.17765700
93.49999463	0.00000000	44.78346000	-0.14148620
93.69999461	0.00000000	44.78346000	0.22145670
93.89999460	0.00000000	45.89690000	2.50369100
94.09999459	0.00000000	47.43479000	6.40378900
94.29999458	0.00000000	49.01575000	10.91289000
94.49999457	0.00000000	50.59670000	14.39468000
94.69999455	0.00000000	52.13459000	15.56348000
94.89999454	0.00000000	53.24803000	14.81299000
95.09999453	0.00000000	53.20496000	12.11860000
95.29999452	0.00000000	51.66707000	8.31077700
95.49999451	0.00000000	48.97269000	4.82283400
95.69999449	0.00000000	45.89690000	2.12844500
95.89999448	0.00000000	43.15945000	1.01501000
96.09999447	0.00000000	41.24631000	2.12844500
96.29999446	0.00000000	40.50196000	4.77977300
96.49999445	0.00000000	41.70767000	7.84940900
96.69999444	0.00000000	44.74040000	10.58686000
96.89999442	0.00000000	48.59744000	12.49385000
97.09999441	0.00000000	52.08538000	13.28125000
97.29999440	0.00000000	54.82898000	12.49385000
97.49999439	0.00000000	56.36687000	10.62992000
97.69999438	0.00000000	56.32381000	8.31077700
97.89999436	0.00000000	54.36761000	6.40378900
98.09999435	0.00000000	50.55364000	5.19808000
98.29999434	0.00000000	46.32135000	4.82898600
98.49999433	0.00000000	42.78420000	5.19808000
98.69999432	0.00000000	40.08366000	6.31151500
98.89999430	0.00000000	38.97022000	7.47416300
99.09999429	0.00000000	40.08366000	8.26771600
99.29999428	0.00000000	42.78420000	9.05511800
99.49999427	0.00000000	46.27214000	9.43036400
99.69999426	0.00000000	50.12918000	9.51648500
99.89999425	0.00000000	53.24803000	9.89173200
100.09999423	0.00000000	55.20423000	10.62992000
100.29999422	0.00000000	55.94857000	11.00517000
100.49999421	0.00000000	54.78592000	11.04823000
100.69999420	0.00000000	52.13459000	11.00517000
100.89999419	0.00000000	49.01575000	10.58686000
101.09999417	0.00000000	45.89690000	9.38115100
101.29999416	0.00000000	43.20251000	7.47416300
101.49999415	0.00000000	41.66461000	5.19808000
101.69999414	0.00000000	41.62155000	3.66633800
101.89999413	0.00000000	42.73499000	3.24803100
102.09999411	0.00000000	44.31594000	3.66633800
102.29999410	0.00000000	46.27214000	5.24729300
102.49999409	0.00000000	48.59744000	7.93553100
102.69999408	0.00000000	50.55364000	11.00517000
102.89999407	0.00000000	52.08538000	13.65650000
103.09999406	0.00000000	52.82972000	14.81299000
103.29999404	0.00000000	52.04232000	14.07480000
103.49999403	0.00000000	50.17839000	12.11860000
103.69999402	0.00000000	47.85310000	9.00590400
103.89999401	0.00000000	45.94611000	5.24729300
104.09999400	0.00000000	44.74040000	2.54675200
104.29999398	0.00000000	44.31594000	1.71013800
104.49999397	0.00000000	44.31594000	2.08538400
104.69999396	0.00000000	44.74040000	3.66633800
104.89999395	0.00000000	45.89690000	6.36072800
105.09999394	0.00000000	47.43479000	9.42421200
105.29999392	0.00000000	48.97269000	12.11860000
105.49999391	0.00000000	50.12918000	13.65650000
105.69999390	0.00000000	50.50443000	13.65650000
105.89999389	0.00000000	50.12918000	12.16781000
106.09999388	0.00000000	48.97269000	9.84867000
106.29999387	0.00000000	47.47785000	7.51722400
106.49999385	0.00000000	46.32135000	5.19808000
106.69999384	0.00000000	45.89690000	3.70939900
106.89999383	0.00000000	45.89690000	3.66633800
107.09999382	0.00000000	46.27214000	4.82283400
107.29999381	0.00000000	47.05954000	6.72982200
107.49999379	0.00000000	47.85310000	9.00590400
107.69999378	0.00000000	48.97269000	10.53765000
107.89999377	0.00000000	49.71087000	10.95595000
108.09999376	0.00000000	49.34793000	10.58686000
108.29999375	0.00000000	48.59744000	9.42421200
108.49999374	0.00000000	47.43479000	7.89247000
108.69999372	0.00000000	46.32135000	6.36072800
108.89999371	0.00000000	45.89690000	5.19808000
109.09999370	0.00000000	45.89690000	4.82898600
109.29999369	0.00000000	46.27214000	5.24729300
109.49999368	0.00000000	47.05954000	6.77903500
109.69999366	0.00000000	47.85310000	9.00590400
109.89999365	0.00000000	49.01575000	10.53765000
110.09999364	0.00000000	50.08612000	11.00517000
110.29999363	0.00000000	50.12918000	11.00517000
110.49999362	0.00000000	49.39099000	10.58686000
110.69999360	0.00000000	48.59744000	9.42421200
110.89999359	0.00000000	47.43479000	7.89247000
111.09999358	0.00000000	46.32135000	6.36072800
111.29999357	0.00000000	45.89690000	5.19808000
111.49999356	0.00000000	45.85384000	4.82898600
111.69999355	0.00000000	45.85384000	5.15501900
111.89999353	0.00000000	45.89690000	5.93626900
112.09999352	0.00000000	46.32135000	6.72982200
112.29999351	0.00000000	47.43479000	7.89247000
112.49999350	0.00000000	48.54823000	9.00590400
112.69999349	0.00000000	48.92347000	9.43036400
112.89999347	0.00000000	48.59744000	9.47342500
113.09999346	0.00000000	47.85310000	9.43036400
113.29999345	0.00000000	47.47785000	9.05511800
113.49999344	0.00000000	47.43479000	8.31077700
113.69999343	0.00000000	47.43479000	7.93553100
113.89999341	0.00000000	47.43479000	7.89247000
114.09999340	0.00000000	47.43479000	7.84940900
114.29999339	0.00000000	47.43479000	7.47416300
114.49999338	0.00000000	47.43479000	6.72982200
114.69999337	0.00000000	47.43479000	6.35457700
114.89999336	0.00000000	47.43479000	6.31151500
115.09999334	0.00000000	47.43479000	6.31151500
115.29999333	0.00000000	47.43479000	6.31151500
115.49999332	0.00000000	47.43479000	6.35457700
115.69999331	0.00000000	47.43479000	6.72982200
115.89999330	0.00000000	47.43479000	7.51722400
116.09999328	0.00000000	47.43479000	8.26771600
116.29999327	0.00000000	47.43479000	9.09817800
116.49999326	0.00000000	47.39173000	9.79945900
116.69999325	0.00000000	47.01648000	10.21161000
116.89999324	0.00000000	46.27214000	9.79945900
117.09999322	0.00000000	45.94611000	9.05511800
117.29999321	0.00000000	46.27214000	7.89247000
117.49999320	0.00000000	47.05954000	6.72982200
117.69999319	0.00000000	47.81004000	5.93626900
117.89999318	0.00000000	48.59744000	5.19808000
118.09999317	0.00000000	48.97269000	5.19808000
118.29999315	0.00000000	48.97269000	5.93626900
118.49999314	0.00000000	48.59744000	6.68676100
118.69999313	0.00000000	47.81004000	7.51722400
118.89999312	0.00000000	47.05954000	8.26771600
119.09999311	0.00000000	46.22908000	9.05511800
119.29999309	0.00000000	45.47859000	9.43036400
119.49999308	0.00000000	44.74040000	9.47342500
119.69999307	0.00000000	44.78346000	9.43036400
119.89999306	0.00000000	45.89690000	9.05511800
120.09999305	0.00000000	47.39173000	8.31077700
120.29999303	0.00000000	48.59744000	7.89247000
120.49999302	0.00000000	49.39099000	7.47416300
120.69999301	0.00000000	50.12918000	6.72982200
120.89999300	0.00000000	50.12918000	6.35457700
121.09999299	0.00000000	49.39099000	6.31151500
121.29999298	0.00000000	48.59744000	6.35457700
121.49999296	0.00000000	47.39173000	6.72982200
121.69999295	0.00000000	45.89690000	7.47416300
121.89999294	0.00000000	44.74040000	7.84940900
122.09999293	0.00000000	44.31594000	7.93553100
122.29999292	0.00000000	44.31594000	8.31077700
122.49999290	0.00000000	44.69119000	9.05511800
122.69999289	0.00000000	45.47859000	9.43036400
122.89999288	0.00000000	46.27214000	9.47342500
123.09999287	0.00000000	47.47785000	9.43036400
123.29999286	0.00000000	48.92347000	9.05511800
123.49999284	0.00000000	49.71087000	8.31077700
123.69999283	0.00000000	49.39099000	7.89247000
123.89999282	0.00000000	49.01575000	7.47416300
124.09999281	0.00000000	48.59744000	6.72982200
124.29999280	0.00000000	47.81004000	6.35457700
124.49999279	0.00000000	47.05954000	6.31151500
124.69999277	0.00000000	46.22908000	6.35457700
124.89999276	0.00000000	45.47859000	6.72982200
125.09999275	0.00000000	44.69119000	7.47416300
125.29999274	0.00000000	44.36515000	7.89247000
125.49999273	0.00000000	44.69119000	8.31077700
125.69999271	0.00000000	45.47859000	9.05511800
125.89999270	0.00000000	46.27214000	9.43036400
126.09999269	0.00000000	47.43479000	9.43036400
126.29999268	0.00000000	48.54823000	9.05511800
126.49999267	0.00000000	48.97269000	8.31077700
126.69999265	0.00000000	49.01575000	7.93553100
126.89999264	0.00000000	48.97269000	7.84940900
127.09999263	0.00000000	48.54823000	7.47416300
127.29999262	0.00000000	47.43479000	6.72982200
127.49999261	0.00000000	46.27214000	6.35457700
127.69999260	0.00000000	45.47859000	6.35457700
127.89999258	0.00000000	44.69119000	6.72982200
128.09999257	0.00000000	44.36515000	7.47416300
128.29999256	0.00000000	44.74040000	7.84940900
128.49999255	0.00000000	45.89690000	7.89247000
128.69999254	0.00000000	47.39173000	7.89247000
128.89999252	0.00000000	48.54823000	7.89247000
129.09999251	0.00000000	48.97269000	7.89247000
129.29999250	0.00000000	48.97269000	7.89247000
129.49999249	0.00000000	48.54823000	7.89247000
129.69999248	0.00000000	47.43479000	7.84940900
129.89999246	0.00000000	46.27214000	7.51722400
130.09999245	0.00000000	45.47859000	7.14812900
130.29999244	0.00000000	44.74040000	7.51722400
130.49999243	0.00000000	44.74040000	7.84940900
130.69999242	0.00000000	45.47859000	7.89247000
130.89999241	0.00000000	46.22908000	7.89247000
131.09999239	0.00000000	47.05954000	7.89247000
131.29999238	0.00000000	47.81004000	7.89247000
131.49999237	0.00000000	48.54823000	7.84940900
131.69999236	0.00000000	48.54823000	7.47416300
131.89999235	0.00000000	47.85310000	6.77903500
132.09999233	0.00000000	47.43479000	6.72982200
132.29999232	0.00000000	47.01648000	7.05585600
132.49999231	0.00000000	46.27214000	6.68676100
132.69999230	0.00000000	45.89690000	6.40378900
132.89999229	0.00000000	45.89690000	6.72982200
133.09999227	0.00000000	46.22908000	7.51722400
133.29999226	0.00000000	46.64124000	8.26771600
133.49999225	0.00000000	46.64739000	9.05511800
133.69999224	0.00000000	47.01648000	9.38115100
133.89999223	0.00000000	46.96727000	9.05511800
134.09999222	0.00000000	46.27214000	8.31077700
134.29999220	0.00000000	45.94611000	7.89247000
134.49999219	0.00000000	46.27214000	7.47416300
134.69999218	0.00000000	47.01648000	6.72982200
134.89999217	0.00000000	47.39173000	6.35457700
135.09999216	0.00000000	47.43479000	6.31151500
135.29999214	0.00000000	47.43479000	6.35457700
135.49999213	0.00000000	47.43479000	6.72982200
135.69999212	0.00000000	47.39173000	7.47416300
135.89999211	0.00000000	47.01648000	7.89247000
136.09999210	0.00000000	46.27214000	8.31077700
136.29999208	0.00000000	45.85384000	9.05511800
136.49999207	0.00000000	45.47859000	9.43036400
136.69999206	0.00000000	45.10950000	9.43036400
136.89999205	0.00000000	45.47859000	9.05511800
137.09999204	0.00000000	45.85384000	8.26771600
137.29999203	0.00000000	46.27214000	7.51722400
137.49999201	0.00000000	47.05954000	6.72982200
137.69999200	0.00000000	47.81004000	6.35457700
137.89999199	0.00000000	48.54823000	6.31151500
138.09999198	0.00000000	48.50517000	6.31151500
138.29999197	0.00000000	47.43479000	6.31151500
138.49999195	0.00000000	46.32135000	6.35457700
138.69999194	0.00000000	45.89690000	6.72982200
138.89999193	0.00000000	45.85384000	7.47416300
139.09999192	0.00000000	45.85384000	7.89247000
139.29999191	0.00000000	45.85384000	8.31077700
139.49999189	0.00000000	45.89690000	9.05511800
139.69999188	0.00000000	46.27214000	9.38115100
139.89999187	0.00000000	47.01648000	9.05511800
140.09999186	0.00000000	47.39173000	8.26771600
140.29999185	0.00000000	47.43479000	7.51722400
140.49999184	0.00000000	47.43479000	6.72982200
140.69999182	0.00000000	47.43479000	6.35457700
140.89999181	0.00000000	47.39173000	6.31151500
141.09999180	0.00000000	47.01648000	6.31151500
141.29999179	0.00000000	46.27214000	6.31151500
141.49999178	0.00000000	45.89690000	6.35457700
141.69999176	0.00000000	45.85384000	6.77903500
141.89999175	0.00000000	45.89690000	7.89247000
142.09999174	0.00000000	46.27214000	9.00590400
142.29999173	0.00000000	47.01648000	9.43036400
142.49999172	0.00000000	47.39173000	9.43036400
142.69999170	0.00000000	47.43479000	9.05511800
142.89999169	0.00000000	47.39173000	8.26771600
143.09999168	0.00000000	47.01648000	7.51722400
143.29999167	0.00000000	46.27214000	6.72982200
143.49999166	0.00000000	45.89690000	6.35457700
143.69999165	0.00000000	45.85384000	6.31151500
143.89999163	0.00000000	45.85384000	6.31151500
144.09999162	0.00000000	45.89690000	6.35457700
144.29999161	0.00000000	46.27214000	6.77903500
144.49999160	0.00000000	47.01648000	7.89247000
144.69999159	0.00000000	47.39173000	8.96284400
144.89999157	0.00000000	47.43479000	9.00590400
145.09999156	0.00000000	47.43479000	8.31077700
145.29999155	0.00000000	47.39173000	7.93553100
145.49999154	0.00000000	47.01648000	7.89247000
145.69999153	0.00000000	46.27214000	7.84940900
145.89999151	0.00000000	45.89690000	7.47416300
146.09999150	0.00000000	45.85384000	6.72982200
146.29999149	0.00000000	45.85384000	6.35457700
146.49999148	0.00000000	45.89690000	6.31151500
146.69999147	0.00000000	46.27214000	6.31151500
146.89999146	0.00000000	47.01648000	6.35457700
147.09999144	0.00000000	47.39173000	6.72982200
147.29999143	0.00000000	47.43479000	7.47416300
147.49999142	0.00000000	47.43479000	7.84940900
147.69999141	0.00000000	47.39173000	7.89247000
147.89999140	0.00000000	47.01648000	7.89247000
148.09999138	0.00000000	46.27214000	7.89247000
148.29999137	0.00000000	45.89690000	7.89247000
148.49999136	0.00000000	45.85384000	7.84940900
148.69999135	0.00000000	45.85384000	7.47416300
148.89999134	0.00000000	45.85384000	6.72982200
149.09999132	0.00000000	45.85384000	6.35457700
149.29999131	0.00000000	45.89690000	6.31151500
149.49999130	0.00000000	46.27214000	6.31151500
149.69999129	0.00000000	47.01648000	6.35457700
149.89999128	0.00000000	47.39173000	6.72982200
150.09999127	0.00000000	47.43479000	7.47416300
150.29999125	0.00000000	47.39173000	7.84940900
150.49999124	0.00000000	47.01648000	7.89247000
150.69999123	0.00000000	46.27214000	7.89247000
150.89999122	0.00000000	45.89690000	7.89247000
151.09999121	0.00000000	45.85384000	7.84940900
151.29999119	0.00000000	45.85384000	7.51722400
151.49999118	0.00000000	45.85384000	7.14812900
151.69999117	0.00000000	45.85384000	7.47416300
151.89999116	0.00000000	45.85384000	7.42495000
152.09999115	0.00000000	45.85384000	6.72982200
152.29999113	0.00000000	45.89690000	6.35457700
152.49999112	0.00000000	46.27214000	6.35457700
152.69999111	0.00000000	47.01648000	6.72982200
152.89999110	0.00000000	47.39173000	7.47416300
153.09999109	0.00000000	47.43479000	7.84940900
153.29999108	0.00000000	47.39173000	7.89247000
153.49999106	0.00000000	47.01648000	7.89247000
153.69999105	0.00000000	46.27214000	7.89247000
153.89999104	0.00000000	45.89690000	7.89247000
154.09999103	0.00000000	45.85384000	7.89247000
154.29999102	0.00000000	45.85384000	7.89247000
154.49999100	0.00000000	45.85384000	7.89247000
154.69999099	0.00000000	45.85384000	7.84940900
154.89999098	0.00000000	45.85384000	7.47416300
155.09999097	0.00000000	45.89690000	6.72982200
155.29999096	0.00000000	46.27214000	6.35457700
155.49999094	0.00000000	47.01648000	6.31151500
155.69999093	0.00000000	47.39173000	6.31151500
155.89999092	0.00000000	47.43479000	6.35457700
156.09999091	0.00000000	47.39173000	6.72982200
156.29999090	0.00000000	47.01648000	7.47416300
156.49999089	0.00000000	46.27214000	7.84940900
156.69999087	0.00000000	45.89690000	7.89247000
156.89999086	0.00000000	45.81078000	7.93553100
157.09999085	0.00000000	45.43553000	8.26771600
157.29999084	0.00000000	44.74040000	8.63681000
157.49999083	0.00000000	44.74040000	8.26771600
157.69999081	0.00000000	45.43553000	7.89247000
157.89999080	0.00000000	45.85384000	7.47416300
158.09999079	0.00000000	46.27214000	6.72982200
158.29999078	0.00000000	47.01648000	6.35457700
158.49999077	0.00000000	47.39173000	6.31151500
158.69999075	0.00000000	47.43479000	6.31151500
158.89999074	0.00000000	47.43479000	6.35457700
159.09999073	0.00000000	47.39173000	6.72982200
159.29999072	0.00000000	47.01648000	7.47416300
159.49999071	0.00000000	46.27214000	7.89247000
159.69999070	0.00000000	45.89690000	8.26771600
159.89999068	0.00000000	45.81078000	8.63681000
160.09999067	0.00000000	45.47859000	8.22465500
160.29999066	0.00000000	45.10950000	7.56028500
160.49999065	0.00000000	45.47859000	7.10506800
160.69999064	0.00000000	45.81078000	7.09891700
160.89999062	0.00000000	45.85384000	6.68676100
161.09999061	0.00000000	45.85384000	6.35457700
161.29999060	0.00000000	45.85384000	6.31151500
161.49999059	0.00000000	45.85384000	6.31151500
161.69999058	0.00000000	45.85384000	6.31151500
161.89999056	0.00000000	45.85384000	6.35457700
162.09999055	0.00000000	45.89690000	6.72982200
162.29999054	0.00000000	46.22908000	7.47416300
162.49999053	0.00000000	46.59818000	7.84940900
162.69999052	0.00000000	46.22908000	7.89247000
162.89999051	0.00000000	45.89690000	7.89247000
163.09999049	0.00000000	45.85384000	7.89247000
163.29999048	0.00000000	45.81078000	7.89247000
163.49999047	0.00000000	45.47859000	7.84940900
163.69999046	0.00000000	45.10950000	7.47416300
163.89999045	0.00000000	45.43553000	6.72982200
164.09999043	0.00000000	45.38631000	6.35457700
164.29999042	0.00000000	44.74040000	6.31151500
164.49999041	0.00000000	44.74040000	6.31151500
164.69999040	0.00000000	45.43553000	6.31151500
164.89999039	0.00000000	45.85384000	6.35457700
165.09999037	0.00000000	46.27214000	6.68676100
165.29999036	0.00000000	46.96727000	7.09891700
165.49999035	0.00000000	47.01648000	7.10506800
165.69999034	0.00000000	46.64739000	7.51722400
165.89999033	0.00000000	46.64124000	7.84940900
166.09999032	0.00000000	46.18602000	7.89247000
166.29999030	0.00000000	45.47859000	7.89247000
166.49999029	0.00000000	44.69119000	7.84940900
166.69999028	0.00000000	44.36515000	7.47416300
166.89999027	0.00000000	44.69119000	6.72982200
167.09999026	0.00000000	45.43553000	6.35457700
167.29999024	0.00000000	45.81078000	6.31151500
167.49999023	0.00000000	45.85384000	6.31151500
167.69999022	0.00000000	45.85384000	6.31151500
167.89999021	0.00000000	45.85384000	6.31151500
168.09999020	0.00000000	45.85384000	6.31151500
168.29999018	0.00000000	45.85384000	6.35457700
168.49999017	0.00000000	45.85384000	6.72982200
168.69999016	0.00000000	45.85384000	7.42495000
168.89999015	0.00000000	45.85384000	7.42495000
169.09999014	0.00000000	45.85384000	6.72982200
169.29999013	0.00000000	45.85384000	6.40378900
169.49999011	0.00000000	45.85384000	6.68676100
169.69999010	0.00000000	45.85384000	7.05585600
169.89999009	0.00000000	45.81078000	6.68676100
170.09999008	0.00000000	45.47859000	6.35457700
170.29999007	0.00000000	45.10950000	6.35457700
170.49999005	0.00000000	45.47859000	6.68676100
170.69999004	0.00000000	45.81078000	7.09891700
170.89999003	0.00000000	45.85384000	7.06200700
171.09999002	0.00000000	45.85384000	7.09891700
171.29999001	0.00000000	45.85384000	6.68676100
171.49998999	0.00000000	45.85384000	6.35457700
171.69998998	0.00000000	45.85384000	6.31151500
171.89998997	0.00000000	45.85384000	6.31151500
172.09998996	0.00000000	45.85384000	6.31151500
172.29998995	0.00000000	45.85384000	6.35457700
172.49998994	0.00000000	45.81078000	6.68676100
172.69998992	0.00000000	45.47859000	7.05585600
172.89998991	0.00000000	45.10950000	6.72982200
173.09998990	0.00000000	45.47859000	6.77903500
173.29998989	0.00000000	45.81078000	7.47416300
173.49998988	0.00000000	45.85384000	7.84940900
173.69998986	0.00000000	45.85384000	7.84940900
173.89998985	0.00000000	45.85384000	7.47416300
174.09998984	0.00000000	45.85384000	6.72982200
174.29998983	0.00000000	45.85384000	6.35457700
174.49998982	0.00000000	45.85384000	6.31151500
174.69998980	0.00000000	45.85384000	6.31151500
174.89998979	0.00000000	45.85384000	6.31151500
175.09998978	0.00000000	45.85384000	6.31151500
175.29998977	0.00000000	45.85384000	6.31151500
175.49998976	0.00000000	45.85384000	6.31151500
175.69998975	0.00000000	45.85384000	6.35457700
175.89998973	0.00000000	45.85384000	6.68676100
176.09998972	0.00000000	45.85384000	7.05585600
176.29998971	0.00000000	45.85384000	6.68676100
176.49998970	0.00000000	45.85384000	6.35457700
176.69998969	0.00000000	45.85384000	6.31151500
176.89998967	0.00000000	45.85384000	6.31151500
177.09998966	0.00000000	45.85384000	6.31151500
177.29998965	0.00000000	45.85384000	6.31151500
177.49998964	0.00000000	45.85384000	6.35457700
177.69998963	0.00000000	45.85384000	6.68676100
177.89998961	0.00000000	45.85384000	7.05585600
178.09998960	0.00000000	45.85384000	6.72982200
178.29998959	0.00000000	45.85384000	6.72982200
178.49998958	0.00000000	45.81078000	7.09891700
178.69998957	0.00000000	45.47859000	7.06200700
178.89998956	0.00000000	45.10950000	7.14197800
179.09998954	0.00000000	45.47859000	7.10506800
179.29998953	0.00000000	45.81078000	7.47416300
179.49998952	0.00000000	45.85384000	7.42495000
179.69998951	0.00000000	45.85384000	6.72982200
179.89998950	0.00000000	45.85384000	6.35457700
180.09998948	0.00000000	45.85384000	6.31151500
180.29998947	0.00000000	45.85384000	6.31151500
180.49998946	0.00000000	45.85384000	6.31151500
180.69998945	0.00000000	45.85384000	6.31151500
180.89998944	0.00000000	45.85384000	6.31151500
181.09998942	0.00000000	45.85384000	6.31151500
181.29998941	0.00000000	45.81078000	6.35457700
181.49998940	0.00000000	45.47859000	6.72982200
181.69998939	0.00000000	45.10950000	7.47416300
181.89998938	0.00000000	45.47859000	7.84940900
182.09998937	0.00000000	45.81078000	7.84940900
182.29998935	0.00000000	45.85384000	7.47416300
182.49998934	0.00000000	45.85384000	6.72982200
182.69998933	0.00000000	45.85384000	6.35457700
182.89998932	0.00000000	45.85384000	6.31151500
183.09998931	0.00000000	45.85384000	6.31151500
183.29998929	0.00000000	45.85384000	6.31151500
183.49998928	0.00000000	45.81078000	6.31151500
183.69998927	0.00000000	45.47859000	6.31151500
183.89998926	0.00000000	45.06644000	6.35457700
184.09998925	0.00000000	45.06028000	6.72982200
184.29998923	0.00000000	44.64813000	7.47416300
184.49998922	0.00000000	44.31594000	7.84940900
184.69998921	0.00000000	44.27288000	7.89247000
184.89998920	0.00000000	44.31594000	7.89247000
185.09998919	0.00000000	44.69119000	7.89247000
185.29998918	0.00000000	45.43553000	7.84940900
185.49998916	0.00000000	45.81078000	7.47416300
185.69998915	0.00000000	45.85384000	6.72982200
185.89998914	0.00000000	45.85384000	6.35457700
186.09998913	0.00000000	45.85384000	6.31151500
186.29998912	0.00000000	45.85384000	6.31151500
186.49998910	0.00000000	45.85384000	6.31151500
186.69998909	0.00000000	45.85384000	6.35457700
186.89998908	0.00000000	45.81078000	6.68676100
187.09998907	0.00000000	45.47859000	7.09891700
187.29998906	0.00000000	45.06644000	7.10506800
187.49998904	0.00000000	45.06028000	7.51722400
187.69998903	0.00000000	44.64813000	7.84940900
187.89998902	0.00000000	44.36515000	7.89247000
188.09998901	0.00000000	44.69119000	7.89247000
188.29998900	0.00000000	45.43553000	7.84940900
188.49998899	0.00000000	45.81078000	7.47416300
188.69998897	0.00000000	45.85384000	6.72982200
188.89998896	0.00000000	45.85384000	6.35457700
189.09998895	0.00000000	45.85384000	6.31151500
189.29998894	0.00000000	45.81078000	6.31151500
189.49998893	0.00000000	45.43553000	6.31151500
189.69998891	0.00000000	44.69119000	6.31151500
189.89998890	0.00000000	44.31594000	6.31151500
190.09998889	0.00000000	44.31594000	6.31151500
190.29998888	0.00000000	44.64813000	6.35457700
190.49998887	0.00000000	45.01722000	6.68676100
190.69998885	0.00000000	44.64813000	7.05585600
190.89998884	0.00000000	44.31594000	6.68676100
191.09998883	0.00000000	44.31594000	6.35457700
191.29998882	0.00000000	44.64813000	6.31151500
191.49998881	0.00000000	45.06028000	6.31151500
191.69998880	0.00000000	45.06644000	6.31151500
191.89998878	0.00000000	45.47859000	6.31151500
192.09998877	0.00000000	45.81078000	6.31151500
192.29998876	0.00000000	45.81078000	6.31151500
192.49998875	0.00000000	45.43553000	6.31151500
192.69998874	0.00000000	44.69119000	6.31151500
192.89998872	0.00000000	44.31594000	6.31151500
193.09998871	0.00000000	44.27288000	6.31151500
193.29998870	0.00000000	44.27288000	6.31151500
193.49998869	0.00000000	44.27288000	6.31151500
193.69998868	0.00000000	44.22982000	6.31151500
193.89998866	0.00000000	43.89763000	6.35457700
194.09998865	0.00000000	43.52854000	6.68676100
194.29998864	0.00000000	43.89763000	7.05585600
194.49998863	0.00000000	44.27288000	6.72982200
194.69998862	0.00000000	44.64813000	6.72982200
194.89998861	0.00000000	45.06028000	7.05585600
195.09998859	0.00000000	45.02337000	6.68676100
195.29998858	0.00000000	45.06028000	6.35457700
195.49998857	0.00000000	44.64813000	6.31151500
195.69998856	0.00000000	44.31594000	6.31151500
195.89998855	0.00000000	44.31594000	6.31151500
196.09998853	0.00000000	44.64813000	6.31151500
