Time	Channel A	Channel B	Channel C
(us)	(V)	(mV)	(mV)

-4.59999956	0.00000000	7.90477300	9.43036400
-4.39999957	0.00000000	7.90477300	9.47342500
-4.19999958	0.00000000	7.90477300	9.47342500
-3.99999959	0.00000000	7.90477300	9.47342500
-3.79999960	0.00000000	7.90477300	9.47342500
-3.59999962	0.00000000	7.90477300	9.47342500
-3.39999963	0.00000000	7.90477300	9.43036400
-3.19999964	0.00000000	7.90477300	9.09817800
-2.99999965	0.00000000	7.90477300	8.72908400
-2.79999966	0.00000000	7.90477300	9.05511800
-2.59999968	0.00000000	7.90477300	9.05511800
-2.39999969	0.00000000	7.90477300	8.72908400
-2.19999970	0.00000000	7.90477300	9.09817800
-1.99999971	0.00000000	7.90477300	9.43036400
-1.79999972	0.00000000	7.90477300	9.47342500
-1.59999973	0.00000000	7.90477300	9.47342500
-1.39999975	0.00000000	7.90477300	9.47342500
-1.19999976	0.00000000	7.90477300	9.43036400
-0.99999977	0.00000000	7.90477300	9.09817800
-0.79999978	0.00000000	7.90477300	8.72908400
-0.59999979	0.00000000	7.90477300	9.09817800
-0.39999981	0.15871060	7.90477300	9.38115100
-0.19999982	0.47736220	7.90477300	9.09817800
0.00000017	0.79601380	7.90477300	8.68602300
0.20000016	0.95533960	7.90477300	8.72293300
0.40000015	0.95533960	7.90477300	8.64296200
0.60000013	0.63668800	7.90477300	8.67987200
0.80000012	0.00000000	7.90477300	8.31077700
1.00000011	-0.95533960	7.90477300	8.35998900
1.20000010	-1.91129400	7.90477300	9.05511800
1.40000009	-2.54859700	7.90477300	9.43036400
1.60000008	-2.70792300	7.90477300	9.47342500
1.80000006	-2.07062000	7.90477300	9.47342500
2.00000005	-0.63668800	7.90477300	9.47342500
2.20000004	1.27399100	7.90477300	9.47342500
2.40000003	3.50393700	7.90477300	9.47342500
2.60000002	4.93786900	7.90477300	9.43036400
2.80000000	5.41584600	7.90477300	9.05511800
2.99999999	4.30056600	7.90477300	8.31077700
3.19999998	1.91129400	7.90477300	7.93553100
3.39999997	-1.43331700	7.90477300	7.89247000
3.59999996	-4.77854300	7.90477300	7.93553100
3.79999994	-7.16781500	7.90477300	8.31077700
3.99999993	-7.96444400	7.90477300	9.05511800
4.19999992	-6.69045300	7.90477300	9.43036400
4.39999991	-3.50393700	7.90477300	9.47342500
4.59999990	0.63668800	7.90477300	9.47342500
4.79999989	4.93786900	7.90477300	9.43036400
4.99999987	8.12377000	7.90477300	9.05511800
5.19999986	9.55770200	7.90477300	8.31077700
5.39999985	8.28309500	7.90477300	7.93553100
5.59999984	5.09719500	7.90477300	7.89247000
5.79999983	0.47736220	7.90477300	7.89247000
5.99999981	-4.14124000	7.90477300	7.89247000
6.19999980	-7.80511800	7.90477300	7.93553100
6.39999979	-9.39837600	7.90477300	8.31077700
6.59999978	-8.76107300	7.90477300	9.05511800
6.79999977	-5.89382400	7.90477300	9.43036400
6.99999975	-1.75196900	7.90477300	9.47342500
7.19999974	2.54859700	7.90477300	9.47342500
7.39999973	6.05315000	7.90477300	9.47342500
7.59999972	7.64579200	7.90477300	9.43036400
7.79999971	7.32714100	7.90477300	9.05511800
7.99999970	5.25652100	7.90477300	8.31077700
8.19999968	2.07062000	7.90477300	7.98474400
8.39999967	-1.11466500	7.90477300	8.31077700
8.59999966	-3.66326300	7.90477300	9.05511800
8.79999965	-5.09719500	7.90477300	9.43036400
8.99999964	-5.09719500	7.90477300	9.47342500
9.19999962	-3.82258900	7.90477300	9.47342500
9.39999961	-1.91129400	7.90477300	9.47342500
9.59999960	0.00000000	7.90477300	9.43036400
9.79999959	1.59264300	7.90477300	9.09817800
9.99999958	2.38927200	7.90477300	8.72908400
10.19999956	2.38927200	7.90477300	9.09817800
10.39999955	1.91129400	7.90477300	9.43036400
10.59999954	1.11466500	7.94783400	9.43036400
10.79999953	0.15871060	8.28001900	9.05511800
10.99999952	-0.47736220	8.64911400	8.31077700
11.19999951	-0.79601380	8.28001900	7.98474400
11.39999949	-0.95533960	7.94783400	8.31077700
11.59999948	-0.95533960	7.90477300	9.05511800
11.79999947	-0.63668800	7.90477300	9.43036400
11.99999946	-0.31803640	7.90477300	9.47342500
12.19999945	-0.15871060	7.90477300	9.43036400
12.39999943	-0.15871060	7.90477300	9.09817800
12.59999942	0.00000000	7.90477300	8.72908400
12.79999941	0.00000000	7.90477300	9.09817800
12.99999940	0.00000000	7.90477300	9.43036400
13.19999939	0.15871060	7.90477300	9.47342500
13.39999937	0.00000000	7.90477300	9.47342500
13.59999936	0.00000000	7.90477300	9.47342500
13.79999935	0.00000000	7.90477300	9.47342500
13.99999934	0.00000000	7.90477300	9.47342500
14.19999933	-0.15871060	7.90477300	9.43036400
14.39999932	-0.15871060	7.90477300	9.05511800
14.59999930	-0.15871060	7.90477300	8.35998900
14.79999929	0.00000000	7.94783400	8.31077700
14.99999928	0.00000000	8.32308000	8.63681000
15.19999927	0.00000000	9.01820900	8.26771600
15.39999926	0.00000000	9.01820900	7.93553100
15.59999924	0.00000000	8.32308000	7.93553100
15.79999923	0.00000000	7.94783400	8.31077700
15.99999922	0.00000000	7.90477300	9.05511800
16.19999921	0.00000000	7.90477300	9.43036400
16.39999920	-0.15871060	7.90477300	9.47342500
16.59999919	0.00000000	7.94783400	9.47342500
16.79999917	0.00000000	8.32308000	9.43036400
16.99999916	-0.15871060	9.06742000	9.09817800
17.19999915	0.00000000	9.48572700	8.72908400
17.39999914	0.00000000	9.86097400	9.09817800
17.59999913	0.00000000	10.23007000	9.43036400
17.79999911	0.00000000	9.81791200	9.47342500
17.99999910	0.00000000	9.06742000	9.47342500
18.19999909	0.00000000	7.86171200	9.47342500
18.39999908	0.00000000	6.32381900	9.47342500
18.59999907	0.00000000	4.78592500	9.47342500
18.79999905	0.00000000	3.62942900	9.47342500
18.99999904	0.00000000	3.25418300	9.47342500
19.19999903	0.00000000	3.67249000	9.47342500
19.39999902	0.00000000	5.29650500	9.47342500
19.59999901	0.00000000	8.41535400	9.43036400
19.79999900	0.00000000	12.64764000	9.09817800
19.99999898	0.00000000	16.83686000	8.72908400
20.19999897	0.00000000	19.53125000	9.09817800
20.39999896	0.00000000	19.90650000	9.43036400
20.59999895	0.00000000	17.90723000	9.43036400
20.79999894	0.00000000	13.20743000	9.09817800
20.99999892	0.00000000	6.23154500	8.72908400
21.19999891	0.00000000	-1.48868100	9.05511800
21.39999890	0.00000000	-8.42150500	9.00590400
21.59999889	0.00000000	-12.56767000	8.35998900
21.79999888	0.00000000	-12.10015000	8.31077700
21.99999886	0.00000000	-6.28690900	8.67987200
22.19999885	0.00000000	3.80782500	8.64296200
22.39999884	0.00000000	16.18479000	8.67987200
22.59999883	0.00000000	28.51255000	8.31077700
22.79999882	0.00000000	37.35236000	8.35998900
22.99999881	0.00000000	40.38509000	9.05511800
23.19999879	0.00000000	36.42347000	9.47342500
23.39999878	0.00000000	25.17224000	9.89173200
23.59999877	0.00000000	8.88902600	10.62992000
23.79999876	0.00000000	-9.21505800	11.00517000
23.99999875	0.00000000	-24.98154000	11.00517000
24.19999873	0.00000000	-33.41535000	10.62992000
24.39999872	0.00000000	-32.66486000	9.79945900
24.59999871	0.00000000	-22.47785000	8.63681000
24.79999870	0.00000000	-4.33070900	6.68676100
24.99999869	0.00000000	18.09178000	4.82283400
25.19999867	0.00000000	39.26550000	3.62327700
25.39999866	0.00000000	54.28764000	3.24803100
25.59999865	0.00000000	58.89518000	3.66633800
25.79999864	0.00000000	51.96850000	5.29035400
25.99999863	0.00000000	35.26698000	8.40305000
26.19999862	0.00000000	11.71875000	12.62918000
26.39999860	0.00000000	-13.35507000	16.81225000
26.59999859	0.00000000	-33.41535000	19.55585000
26.79999858	0.00000000	-44.24828000	20.30020000
26.99999857	0.00000000	-43.04257000	19.04527000
27.19999856	0.00000000	-29.96432000	14.72687000
27.39999854	0.00000000	-8.37844500	7.80019600
27.59999853	0.00000000	16.37549000	0.09227362
27.79999852	0.00000000	38.80413000	-6.82824800
27.99999851	0.00000000	54.24458000	-11.01132000
28.19999850	0.00000000	58.89518000	-11.01132000
28.39999848	0.00000000	52.05462000	-6.69291300
28.59999847	0.00000000	36.23893000	1.48253000
28.79999846	0.00000000	15.34818000	12.67840000
28.99999845	0.00000000	-6.28690900	24.24335000
29.19999844	0.00000000	-23.68356000	33.49532000
29.39999843	0.00000000	-33.04010000	38.42273000
29.59999841	0.00000000	-33.12623000	36.79257000
29.79999840	0.00000000	-24.66166000	28.34030000
29.99999839	0.00000000	-9.95939900	15.18824000
30.19999838	0.00000000	7.81250000	0.09227362
30.39999837	0.00000000	24.84006000	-14.17323000
30.59999835	0.00000000	37.22318000	-24.16338000
30.79999834	0.00000000	42.75344000	-27.23302000
30.99999833	0.00000000	40.84645000	-22.58243000
31.19999832	0.00000000	32.79404000	-10.96826000
31.39999831	0.00000000	20.37401000	5.24729300
31.59999829	0.00000000	6.45915300	22.61934000
31.79999828	0.00000000	-6.32997000	37.30315000
31.99999827	0.00000000	-15.21900000	46.22293000
32.19999826	0.00000000	-18.38090000	47.76082000
32.39999825	0.00000000	-15.72958000	41.48622000
32.59999824	0.00000000	-8.42150500	28.00812000
32.79999822	0.00000000	1.67322800	10.26698000
32.99999821	0.00000000	12.51230000	-7.11737200
33.19999820	0.00000000	22.13952000	-21.09375000
33.39999819	0.00000000	27.95275000	-28.76476000
33.59999818	0.00000000	28.79552000	-28.43258000
33.79999816	0.00000000	25.34449000	-20.30635000
33.99999815	0.00000000	18.41781000	-6.45915300
34.19999814	0.00000000	9.95324800	10.21161000
34.39999813	0.00000000	2.17765700	26.01501000
34.59999812	0.00000000	-3.58636800	38.04749000
34.79999810	0.00000000	-5.91166300	43.39936000
34.99999809	0.00000000	-4.05388800	41.16019000
35.19999808	0.00000000	0.51058070	31.91437000
35.39999807	0.00000000	6.36687900	18.39321000
35.59999806	0.00000000	12.51230000	3.33415300
35.79999805	0.00000000	17.48893000	-10.13164000
35.99999803	0.00000000	19.39591000	-18.22096000
36.19999802	0.00000000	17.90723000	-19.46973000
36.39999801	0.00000000	13.71801000	-14.08095000
36.59999800	0.00000000	8.32308000	-3.71555100
36.79999799	0.00000000	3.34030500	8.96284400
36.99999797	0.00000000	-0.14148620	20.48474000
37.19999796	0.00000000	-0.93503930	27.87278000
37.39999795	0.00000000	0.59670270	29.77977000
37.59999794	0.00000000	4.09079700	25.96580000
37.79999793	0.00000000	9.06742000	17.18750000
37.99999791	0.00000000	13.67495000	6.86515700
38.19999790	0.00000000	16.79380000	-2.00541300
38.39999789	0.00000000	17.95029000	-7.34498000
38.59999788	0.00000000	16.83686000	-7.34498000
38.79999787	0.00000000	14.13632000	-2.00541300
38.99999786	0.00000000	10.59916000	6.77903500
39.19999784	0.00000000	6.32381900	16.35089000
39.39999783	0.00000000	2.13459600	23.60359000
39.59999782	0.00000000	-0.55979330	26.29798000
39.79999781	0.00000000	-0.98425190	23.60359000
39.99999780	0.00000000	0.51058070	16.35089000
40.19999778	0.00000000	3.25418300	6.77903500
40.39999777	0.00000000	6.79133800	-2.09768700
40.59999776	0.00000000	11.06668000	-8.23080600
40.79999775	0.00000000	15.25591000	-10.13164000
40.99999774	0.00000000	17.99951000	-6.64985200
41.19999772	0.00000000	18.79306000	1.01501000
41.39999771	0.00000000	17.99951000	11.00517000
41.59999770	0.00000000	15.25591000	20.57702000
41.79999769	0.00000000	11.06668000	26.71629000
41.99999768	0.00000000	6.79133800	27.92200000
42.19999767	0.00000000	3.29724400	24.10802000
42.39999765	0.00000000	0.92888770	16.85531000
42.59999764	0.00000000	0.17839570	8.35998900
42.79999763	0.00000000	0.92888770	0.64591530
42.99999762	0.00000000	3.25418300	-4.74286400
43.19999761	0.00000000	6.28075700	-6.32381900
43.39999759	0.00000000	9.01820900	-4.04773600
43.59999758	0.00000000	11.02362000	0.92888770
43.79999757	0.00000000	12.60458000	7.43110200
43.99999756	0.00000000	13.71801000	13.23819000
44.19999755	0.00000000	13.71801000	17.14444000
44.39999753	0.00000000	12.64764000	19.08834000
44.59999752	0.00000000	11.53420000	18.35015000
44.79999751	0.00000000	11.10974000	15.69882000
44.99999750	0.00000000	11.02362000	12.21087000
45.19999749	0.00000000	10.64838000	8.35998900
45.39999748	0.00000000	9.81791200	5.29035400
45.59999746	0.00000000	8.59990100	3.66633800
45.79999745	0.00000000	6.23154500	3.29109200
45.99999744	0.00000000	3.20497000	4.03543200
46.19999743	0.00000000	0.51058070	5.98548200
46.39999742	0.00000000	-1.02731300	8.26771600
46.59999740	0.00000000	-0.93503930	10.62992000
46.79999739	0.00000000	1.43946800	12.49385000
46.99999738	0.00000000	6.45915300	13.32431000
47.19999737	0.00000000	12.60458000	12.91215000
47.39999736	0.00000000	18.41781000	11.79257000
47.59999734	0.00000000	22.65010000	9.79945900
47.79999733	0.00000000	24.13878000	7.51722400
47.99999732	0.00000000	22.18258000	5.19808000
48.19999731	0.00000000	16.74459000	3.70939900
48.39999730	0.00000000	9.01820900	3.66633800
48.59999729	0.00000000	0.55364170	4.82283400
48.79999727	0.00000000	-6.37303100	6.77903500
48.99999726	0.00000000	-9.82406400	9.51648500
49.19999725	0.00000000	-9.03051100	12.58612000
49.39999724	0.00000000	-3.63558100	15.23130000
49.59999723	0.00000000	4.83513700	16.39395000
49.79999721	0.00000000	14.09326000	15.60654000
49.99999720	0.00000000	22.18258000	13.32431000
50.19999719	0.00000000	26.79626000	9.79945900
50.39999718	0.00000000	26.83932000	5.98548200
50.59999717	0.00000000	22.55782000	2.50369100
50.79999715	0.00000000	14.88066000	0.59670270
50.99999714	0.00000000	5.62869100	0.55364170
51.19999713	0.00000000	-2.42987200	2.12844500
51.39999712	0.00000000	-7.44955700	5.24729300
51.59999711	0.00000000	-7.82480200	9.47342500
51.79999710	0.00000000	-3.67864200	13.69956000
51.99999708	0.00000000	3.25418300	16.76919000
52.19999707	0.00000000	10.97441000	17.92569000
52.39999706	0.00000000	17.95029000	16.81225000
52.59999705	0.00000000	22.47170000	14.11786000
52.79999704	0.00000000	22.83464000	10.62992000
52.99999702	0.00000000	18.32554000	6.77903500
53.19999701	0.00000000	11.48499000	3.70939900
53.39999700	0.00000000	4.87819900	2.17150600
53.59999699	0.00000000	-0.55979330	2.54675200
53.79999698	0.00000000	-3.58636800	4.82283400
53.99999696	0.00000000	-3.16806100	7.84940900
54.19999695	0.00000000	1.02116100	10.53765000
54.39999694	0.00000000	7.48646600	12.11860000
54.59999693	0.00000000	13.63189000	12.53691000
54.79999692	0.00000000	17.90723000	12.11860000
54.99999691	0.00000000	19.44513000	10.58686000
55.19999689	0.00000000	17.90723000	8.35383800
55.39999688	0.00000000	13.71801000	6.86515700
55.59999687	0.00000000	8.32308000	6.82209600
55.79999686	0.00000000	3.34030500	7.93553100
55.99999685	0.00000000	-0.14148620	9.47342500
56.19999683	0.00000000	-0.93503930	11.00517000
56.39999682	0.00000000	0.59670270	12.16166000
56.59999681	0.00000000	4.04773600	12.45079000
56.79999680	0.00000000	8.69217500	11.28199000
56.99999679	0.00000000	12.88755000	8.22465500
57.19999677	0.00000000	15.99409000	4.82283400
57.39999676	0.00000000	16.74459000	2.08538400
57.59999675	0.00000000	15.29897000	0.63976370
57.79999674	0.00000000	12.55536000	1.43946800
57.99999673	0.00000000	9.11048200	4.87204700
58.19999672	0.00000000	5.67175200	9.47342500
58.39999670	0.00000000	3.71555100	14.16708000
58.59999669	0.00000000	3.25418300	18.35015000
58.79999668	0.00000000	3.67249000	20.62008000
58.99999667	0.00000000	5.21038300	19.83883000
59.19999666	0.00000000	7.48646600	16.35089000
59.39999664	0.00000000	9.39345400	10.53765000
59.59999663	0.00000000	10.59916000	3.66633800
59.79999662	0.00000000	11.02362000	-2.09153500
59.99999661	0.00000000	11.02362000	-5.16117100
60.19999660	0.00000000	10.59916000	-4.78592500
60.39999658	0.00000000	9.44266700	-0.88582670
60.59999657	0.00000000	7.99704600	5.62253900
60.79999656	0.00000000	7.20964500	13.37352000
60.99999655	0.00000000	7.57258800	20.21407000
61.19999654	0.00000000	8.28001900	24.47712000
61.39999653	0.00000000	9.06742000	24.44020000
61.59999651	0.00000000	9.44266700	20.66929000
61.79999650	0.00000000	9.44266700	14.07480000
61.99999649	0.00000000	9.01820900	6.36072800
62.19999648	0.00000000	7.90477300	-0.97810030
62.39999647	0.00000000	6.79133800	-6.32381900
62.59999645	0.00000000	6.36687900	-7.85556000
62.79999644	0.00000000	6.32381900	-5.20423200
62.99999643	0.00000000	6.36687900	0.59670270
63.19999642	0.00000000	6.79133800	8.26771600
63.39999641	0.00000000	7.94783400	15.97564000
63.59999639	0.00000000	9.48572700	21.41363000
63.79999638	0.00000000	11.02362000	24.15723000
63.99999637	0.00000000	12.13706000	23.73892000
64.19999636	0.00000000	12.13706000	19.88189000
64.39999635	0.00000000	10.97441000	13.74262000
64.59999634	0.00000000	9.06742000	6.77903500
64.79999632	0.00000000	6.79133800	0.63976370
64.99999631	0.00000000	5.25344500	-3.25418300
65.19999630	0.00000000	4.83513700	-4.04773600
65.39999629	0.00000000	5.21038300	-2.18380900
65.59999628	0.00000000	6.36687900	1.66707700
65.79999626	0.00000000	7.90477300	6.31151500
65.99999625	0.00000000	9.44266700	10.95595000
66.19999624	0.00000000	10.55610000	14.85605000
66.39999623	0.00000000	10.55610000	17.23056000
66.59999622	0.00000000	9.44266700	18.39321000
66.79999620	0.00000000	7.90477300	18.01796000
66.99999619	0.00000000	6.36687900	16.11712000
67.19999618	0.00000000	5.25344500	13.79183000
67.39999617	0.00000000	5.29650500	11.00517000
67.59999616	0.00000000	6.79133800	7.89247000
67.79999615	0.00000000	9.11048200	4.77977300
67.99999613	0.00000000	11.39887000	2.08538400
68.19999612	0.00000000	13.34276000	0.55364170
68.39999611	0.00000000	14.09326000	0.51058070
68.59999610	0.00000000	13.71801000	1.66707700
68.79999609	0.00000000	12.05093000	3.66633800
68.99999607	0.00000000	8.59990100	6.82209600
69.19999606	0.00000000	4.04773600	11.04823000
69.39999605	0.00000000	0.59670270	15.27436000
69.59999604	0.00000000	-0.98425190	18.39321000
69.79999603	0.00000000	-0.55979330	19.93110000
69.99999601	0.00000000	2.17765700	19.50664000
70.19999600	0.00000000	6.79133800	16.76919000
70.39999599	0.00000000	12.18012000	12.16166000
70.59999598	0.00000000	16.83686000	6.77903500
70.79999597	0.00000000	19.90650000	2.12844500
70.99999596	0.00000000	20.65084000	-0.97810030
71.19999594	0.00000000	18.32554000	-2.13459600
71.39999593	0.00000000	13.71801000	-0.93503930
71.59999592	0.00000000	7.90477300	2.50369100
71.79999591	0.00000000	2.13459600	7.47416300
71.99999590	0.00000000	-2.14074800	12.11860000
72.19999588	0.00000000	-4.05388800	15.60654000
72.39999587	0.00000000	-3.26033400	17.55044000
72.59999586	0.00000000	0.59670270	17.18750000
72.79999585	0.00000000	6.32381900	15.27436000
72.99999584	0.00000000	12.13706000	12.21087000
73.19999582	0.00000000	16.83686000	8.77214500
73.39999581	0.00000000	19.90650000	6.44685000
73.59999580	0.00000000	20.65084000	5.24729300
73.79999579	0.00000000	18.37475000	5.24729300
73.99999578	0.00000000	14.18553000	6.36072800
74.19999577	0.00000000	9.48572700	7.84940900
74.39999575	0.00000000	4.83513700	9.00590400
74.59999574	0.00000000	1.02116100	9.38115100
74.79999573	0.00000000	-0.51673230	9.00590400
74.99999572	0.00000000	0.55364170	7.89247000
75.19999571	0.00000000	3.20497000	6.77903500
75.39999569	0.00000000	6.32381900	6.40378900
75.59999568	0.00000000	9.44266700	6.82209600
75.79999567	0.00000000	12.13706000	8.35383800
75.99999566	0.00000000	13.67495000	10.67298000
76.19999565	0.00000000	13.71801000	13.00443000
76.39999563	0.00000000	12.60458000	15.27436000
76.59999562	0.00000000	11.06668000	16.34473000
76.79999561	0.00000000	9.52879000	15.18824000
76.99999560	0.00000000	8.37229300	12.11860000
77.19999559	0.00000000	7.94783400	7.84940900
77.39999558	0.00000000	7.90477300	3.24803100
77.59999556	0.00000000	7.90477300	-0.55979330
77.79999555	0.00000000	7.90477300	-2.09153500
77.99999554	0.00000000	7.86171200	-0.97810030
78.19999553	0.00000000	7.48646600	2.12844500
78.39999552	0.00000000	6.74212600	6.82209600
78.59999550	0.00000000	6.36687900	12.58612000
78.79999549	0.00000000	6.36687900	17.92569000
78.99999548	0.00000000	6.83439900	20.99532000
79.19999547	0.00000000	8.37229300	21.03838000
79.39999546	0.00000000	10.64838000	18.39321000
79.59999544	0.00000000	12.55536000	14.11786000
79.79999543	0.00000000	13.71801000	9.09817800
79.99999542	0.00000000	13.71801000	4.04158400
80.19999541	0.00000000	12.55536000	0.22760820
80.39999540	0.00000000	10.59916000	-1.76550200
80.59999539	0.00000000	7.90477300	-1.35334600
80.79999537	0.00000000	5.25344500	0.92888770
80.99999536	0.00000000	3.67249000	4.77977300
81.19999535	0.00000000	3.29724400	9.00590400
81.39999534	0.00000000	4.04773600	12.53691000
81.59999533	0.00000000	5.99163300	15.27436000
81.79999531	0.00000000	8.32308000	16.85531000
81.99999530	0.00000000	11.02362000	17.23056000
82.19999529	0.00000000	13.29970000	16.43701000
82.39999528	0.00000000	14.09326000	14.11786000
82.59999527	0.00000000	13.71801000	11.04823000
82.79999525	0.00000000	12.18012000	7.93553100
82.99999524	0.00000000	9.90403500	5.19808000
83.19999523	0.00000000	7.94783400	3.19881900
83.39999522	0.00000000	6.41609200	1.66707700
83.59999521	0.00000000	5.62869100	0.92888770
83.79999520	0.00000000	5.99163300	1.71013800
83.99999518	0.00000000	6.69906400	3.66633800
84.19999517	0.00000000	7.52952700	6.77903500
84.39999516	0.00000000	8.23695900	10.62992000
84.59999515	0.00000000	8.64911400	14.11786000
84.79999514	0.00000000	8.32308000	16.81225000
84.99999512	0.00000000	8.37229300	17.97490000
85.19999511	0.00000000	9.06742000	17.18750000
85.39999510	0.00000000	9.44266700	14.85605000
85.59999509	0.00000000	9.52879000	10.95595000
85.79999508	0.00000000	9.90403500	6.35457700
85.99999506	0.00000000	10.59916000	2.12844500
86.19999505	0.00000000	10.59916000	-0.55979330
86.39999504	0.00000000	9.86097400	-0.93503930
86.59999503	0.00000000	9.06742000	0.97194880
86.79999502	0.00000000	7.86171200	4.82898600
86.99999501	0.00000000	6.41609200	9.43036400
87.19999499	0.00000000	5.62869100	13.69956000
87.39999498	0.00000000	5.99163300	16.81225000
87.59999497	0.00000000	6.74212600	18.35015000
87.79999496	0.00000000	7.94783400	17.92569000
87.99999495	0.00000000	9.48572700	15.18824000
88.19999493	0.00000000	11.02362000	10.62992000
88.39999492	0.00000000	12.18012000	5.61638700
88.59999491	0.00000000	12.55536000	1.75935000
88.79999490	0.00000000	12.13706000	-0.55979330
88.99999489	0.00000000	10.59916000	-0.46751960
89.19999487	0.00000000	8.37229300	2.55290300
89.39999486	0.00000000	6.83439900	7.51722400
89.59999485	0.00000000	6.36687900	12.49385000
89.79999484	0.00000000	6.32381900	16.39395000
89.99999483	0.00000000	6.36687900	18.25787000
90.19999482	0.00000000	6.79133800	17.50738000
90.39999480	0.00000000	7.90477300	14.07480000
90.59999479	0.00000000	9.06742000	9.51648500
90.79999478	0.00000000	9.86097400	5.19808000
90.99999477	0.00000000	10.59916000	1.75935000
91.19999476	0.00000000	10.59916000	-0.14148620
91.39999474	0.00000000	9.90403500	0.64591530
91.59999473	0.00000000	9.52879000	3.70939900
91.79999472	0.00000000	9.48572700	8.31077700
91.99999471	0.00000000	9.48572700	13.28125000
92.19999470	0.00000000	9.48572700	16.72613000
92.39999468	0.00000000	9.48572700	17.92569000
92.59999467	0.00000000	9.44266700	16.76919000
92.79999466	0.00000000	9.01820900	13.65650000
92.99999465	0.00000000	7.90477300	9.05511800
93.19999464	0.00000000	6.79133800	4.12770700
93.39999463	0.00000000	6.36687900	1.06422200
93.59999461	0.00000000	6.32381900	0.59670270
93.79999460	0.00000000	6.41609200	2.12844500
93.99999459	0.00000000	7.20964500	5.24729300
94.19999458	0.00000000	9.11048200	9.47342500
94.39999457	0.00000000	11.02362000	13.65650000
94.59999455	0.00000000	12.60458000	16.35089000
94.79999454	0.00000000	13.71801000	16.71998000
94.99999453	0.00000000	13.71801000	14.81299000
95.19999452	0.00000000	12.55536000	11.00517000
95.39999451	0.00000000	10.59916000	6.82209600
95.59999449	0.00000000	7.86171200	3.70939900
95.79999448	0.00000000	4.83513700	2.12844500
95.99999447	0.00000000	2.50984200	2.17150600
96.19999446	0.00000000	1.75935000	4.08464600
96.39999445	0.00000000	2.50984200	7.51722400
96.59999444	0.00000000	4.83513700	10.91289000
96.79999442	0.00000000	7.94783400	13.28125000
96.99999441	0.00000000	11.44193000	14.07480000
97.19999440	0.00000000	14.88066000	13.69956000
97.39999439	0.00000000	16.79380000	12.16781000
97.59999438	0.00000000	16.83686000	9.89173200
97.79999436	0.00000000	15.29897000	7.93553100
97.99999435	0.00000000	12.55536000	6.40378900
98.19999434	0.00000000	9.06742000	5.61638700
98.39999433	0.00000000	5.21038300	5.98548200
98.59999432	0.00000000	2.13459600	6.72982200
98.79999430	0.00000000	0.55364170	7.89247000
98.99999429	0.00000000	0.55364170	9.00590400
99.19999428	0.00000000	2.13459600	9.43036400
99.39999427	0.00000000	5.21038300	9.47342500
99.59999426	0.00000000	9.06742000	9.47342500
99.79999425	0.00000000	12.55536000	9.51648500
99.99999423	0.00000000	15.25591000	9.89173200
100.19999422	0.00000000	16.41855000	10.67298000
100.39999421	0.00000000	15.67421000	11.38041000
100.59999420	0.00000000	13.76107000	11.79257000
100.79999419	0.00000000	11.06668000	11.38041000
100.99999417	0.00000000	8.32308000	10.58686000
101.19999416	0.00000000	5.94857300	9.00590400
101.39999415	0.00000000	3.67249000	6.77903500
101.59999414	0.00000000	2.55290300	5.19808000
101.79999413	0.00000000	3.25418300	4.40452700
101.99999411	0.00000000	4.78592500	4.08464600
102.19999410	0.00000000	6.74212600	5.29035400
102.39999409	0.00000000	9.11048200	7.93553100
102.59999408	0.00000000	11.39887000	11.00517000
102.79999407	0.00000000	13.34276000	13.69956000
102.99999406	0.00000000	14.09326000	15.23130000
103.19999404	0.00000000	13.76107000	15.27436000
103.39999403	0.00000000	12.60458000	14.11786000
103.59999402	0.00000000	11.02362000	12.11860000
103.79999401	0.00000000	9.06742000	9.05511800
103.99999400	0.00000000	6.79133800	5.61638700
104.19999398	0.00000000	5.25344500	3.33415300
104.39999397	0.00000000	4.83513700	2.50369100
104.59999396	0.00000000	5.21038300	3.33415300
104.79999395	0.00000000	6.36687900	5.57332700
104.99999394	0.00000000	7.90477300	8.67987200
105.19999392	0.00000000	9.44266700	11.33735000
105.39999391	0.00000000	10.59916000	13.32431000
105.59999390	0.00000000	11.02362000	14.07480000
105.79999389	0.00000000	11.02362000	13.69956000
105.99999388	0.00000000	10.59916000	12.11860000
106.19999387	0.00000000	9.44266700	9.47342500
106.39999385	0.00000000	7.99704600	6.82209600
106.59999384	0.00000000	7.20964500	5.24729300
106.79999383	0.00000000	7.52952700	4.87204700
106.99999382	0.00000000	7.90477300	5.61638700
107.19999381	0.00000000	8.37229300	7.51722400
107.39999379	0.00000000	9.48572700	9.42421200
107.59999378	0.00000000	10.59916000	11.00517000
107.79999377	0.00000000	10.97441000	12.11860000
107.99999376	0.00000000	10.64838000	12.11860000
108.19999375	0.00000000	9.86097400	11.00517000
108.39999374	0.00000000	9.06742000	9.47342500
108.59999372	0.00000000	7.90477300	7.93553100
108.79999371	0.00000000	6.79133800	6.77903500
108.99999370	0.00000000	6.41609200	6.40378900
109.19999369	0.00000000	6.79133800	6.77903500
109.39999368	0.00000000	7.94783400	7.93553100
109.59999366	0.00000000	9.44266700	9.47342500
109.79999365	0.00000000	10.59916000	11.00517000
109.99999364	0.00000000	11.02362000	12.16166000
110.19999363	0.00000000	11.02362000	12.53691000
110.39999362	0.00000000	10.64838000	12.16166000
110.59999360	0.00000000	9.86097400	11.00517000
110.79999359	0.00000000	9.11048200	9.47342500
110.99999358	0.00000000	8.28001900	7.93553100
111.19999357	0.00000000	7.57258800	6.77903500
111.39999356	0.00000000	7.16043300	6.35457700
111.59999355	0.00000000	7.52952700	6.35457700
111.79999353	0.00000000	7.90477300	6.77903500
111.99999352	0.00000000	8.32308000	7.89247000
112.19999351	0.00000000	9.06742000	9.05511800
112.39999350	0.00000000	9.44266700	9.84867000
112.59999349	0.00000000	9.48572700	10.62992000
112.79999347	0.00000000	9.48572700	10.95595000
112.99999346	0.00000000	9.48572700	10.62992000
113.19999345	0.00000000	9.48572700	9.89173200
113.39999344	0.00000000	9.44266700	9.51648500
113.59999343	0.00000000	9.11048200	9.43036400
113.79999341	0.00000000	8.74138700	9.05511800
113.99999340	0.00000000	9.06742000	8.31077700
114.19999339	0.00000000	9.01820900	7.93553100
114.39999338	0.00000000	8.37229300	7.89247000
114.59999337	0.00000000	8.37229300	7.89247000
114.79999336	0.00000000	9.06742000	7.89247000
114.99999334	0.00000000	9.44266700	7.89247000
115.19999333	0.00000000	9.48572700	7.89247000
115.39999332	0.00000000	9.48572700	7.93553100
115.59999331	0.00000000	9.48572700	8.31077700
115.79999330	0.00000000	9.48572700	9.09817800
115.99999328	0.00000000	9.44266700	9.84867000
116.19999327	0.00000000	9.11048200	10.62992000
116.39999326	0.00000000	8.69832600	11.00517000
116.59999325	0.00000000	8.73523500	11.04823000
116.79999324	0.00000000	8.65526600	11.00517000
116.99999322	0.00000000	8.73523500	10.62992000
117.19999321	0.00000000	8.69832600	9.84867000
117.39999320	0.00000000	9.11048200	9.09817800
117.59999319	0.00000000	9.44266700	8.26771600
117.79999318	0.00000000	9.52879000	7.51722400
117.99999317	0.00000000	9.90403500	6.77903500
118.19999315	0.00000000	10.59916000	6.77903500
118.39999314	0.00000000	10.59916000	7.51722400
118.59999313	0.00000000	9.86097400	8.26771600
118.79999312	0.00000000	9.06742000	9.05511800
118.99999311	0.00000000	7.90477300	9.47342500
119.19999309	0.00000000	6.79133800	9.89173200
119.39999308	0.00000000	6.41609200	10.62992000
119.59999307	0.00000000	6.74212600	10.95595000
119.79999306	0.00000000	7.52952700	10.62992000
119.99999305	0.00000000	8.32308000	9.89173200
120.19999303	0.00000000	9.48572700	9.47342500
120.39999302	0.00000000	10.64838000	9.05511800
120.59999301	0.00000000	11.44193000	8.31077700
120.79999300	0.00000000	12.18012000	7.93553100
120.99999299	0.00000000	12.13706000	7.89247000
121.19999298	0.00000000	11.02362000	7.89247000
121.39999296	0.00000000	9.52879000	7.89247000
121.59999295	0.00000000	8.32308000	7.93553100
121.79999294	0.00000000	7.52952700	8.31077700
121.99999293	0.00000000	6.74212600	9.05511800
122.19999292	0.00000000	6.41609200	9.43036400
122.39999290	0.00000000	6.74212600	9.51648500
122.59999289	0.00000000	7.52952700	9.84867000
122.79999288	0.00000000	8.32308000	10.25467000
122.99999287	0.00000000	9.48572700	10.21776000
123.19999286	0.00000000	10.59916000	10.25467000
123.39999284	0.00000000	11.02362000	9.84867000
123.59999283	0.00000000	11.06668000	9.47342500
123.79999282	0.00000000	11.06668000	9.05511800
123.99999281	0.00000000	11.02362000	8.31077700
124.19999280	0.00000000	10.59916000	7.93553100
124.39999279	0.00000000	9.48572700	7.89247000
124.59999277	0.00000000	8.37229300	7.89247000
124.79999276	0.00000000	7.90477300	7.89247000
124.99999275	0.00000000	7.48646600	7.93553100
125.19999274	0.00000000	6.79133800	8.31077700
125.39999273	0.00000000	6.79133800	9.05511800
125.59999271	0.00000000	7.52952700	9.47342500
125.79999270	0.00000000	8.32308000	9.84867000
125.99999269	0.00000000	9.48572700	10.21161000
126.19999268	0.00000000	10.59916000	9.84867000
126.39999267	0.00000000	11.02362000	9.51648500
126.59999265	0.00000000	11.06668000	9.47342500
126.79999264	0.00000000	11.02362000	9.43036400
126.99999263	0.00000000	10.59916000	9.05511800
127.19999262	0.00000000	9.48572700	8.31077700
127.39999261	0.00000000	8.37229300	7.93553100
127.59999260	0.00000000	7.90477300	7.93553100
127.79999258	0.00000000	7.52952700	8.31077700
127.99999257	0.00000000	7.16043300	9.05511800
128.19999256	0.00000000	7.57258800	9.43036400
128.39999255	0.00000000	8.28001900	9.47342500
128.59999254	0.00000000	9.11048200	9.47342500
128.79999252	0.00000000	9.86097400	9.47342500
128.99999251	0.00000000	10.64838000	9.47342500
129.19999250	0.00000000	11.02362000	9.47342500
129.39999249	0.00000000	11.02362000	9.43036400
129.59999248	0.00000000	10.59916000	9.05511800
129.79999246	0.00000000	9.48572700	8.31077700
129.99999245	0.00000000	8.32308000	7.93553100
130.19999244	0.00000000	7.57258800	7.93553100
130.39999243	0.00000000	7.16043300	8.31077700
130.59999242	0.00000000	7.52952700	9.05511800
130.79999241	0.00000000	7.90477300	9.43036400
130.99999239	0.00000000	8.32308000	9.47342500
131.19999238	0.00000000	9.11048200	9.47342500
131.39999237	0.00000000	9.86097400	9.47342500
131.59999236	0.00000000	10.59916000	9.43036400
131.79999235	0.00000000	10.59916000	9.05511800
131.99999233	0.00000000	9.90403500	8.31077700
132.19999232	0.00000000	9.48572700	7.93553100
132.39999231	0.00000000	9.06742000	7.89247000
132.59999230	0.00000000	8.32308000	7.93553100
132.79999229	0.00000000	7.99704600	8.31077700
132.99999227	0.00000000	8.28001900	9.05511800
133.19999226	0.00000000	8.69217500	9.47342500
133.39999225	0.00000000	8.69832600	9.89173200
133.59999224	0.00000000	9.11048200	10.62992000
133.79999223	0.00000000	9.44266700	10.95595000
133.99999222	0.00000000	9.48572700	10.58686000
134.19999220	0.00000000	9.48572700	9.47342500
134.39999219	0.00000000	9.44266700	8.35998900
134.59999218	0.00000000	9.11048200	7.93553100
134.79999217	0.00000000	8.74138700	7.89247000
134.99999216	0.00000000	9.11048200	7.89247000
135.19999214	0.00000000	9.44266700	7.89247000
135.39999213	0.00000000	9.48572700	7.93553100
135.59999212	0.00000000	9.48572700	8.31077700
135.79999211	0.00000000	9.48572700	9.05511800
135.99999210	0.00000000	9.44266700	9.47342500
136.19999208	0.00000000	9.06742000	9.89173200
136.39999207	0.00000000	8.32308000	10.62992000
136.59999206	0.00000000	7.94783400	10.95595000
136.79999205	0.00000000	7.90477300	10.62992000
136.99999204	0.00000000	7.94783400	9.89173200
137.19999203	0.00000000	8.32308000	9.47342500
137.39999201	0.00000000	9.11048200	9.05511800
137.59999200	0.00000000	9.86097400	8.31077700
137.79999199	0.00000000	10.64838000	7.93553100
137.99999198	0.00000000	10.97441000	7.89247000
138.19999197	0.00000000	10.64838000	7.89247000
138.39999195	0.00000000	9.86097400	7.89247000
138.59999194	0.00000000	9.11048200	7.93553100
138.79999193	0.00000000	8.32308000	8.31077700
138.99999192	0.00000000	7.94783400	9.05511800
139.19999191	0.00000000	7.90477300	9.47342500
139.39999189	0.00000000	7.94783400	9.89173200
139.59999188	0.00000000	8.32308000	10.62992000
139.79999187	0.00000000	9.06742000	10.95595000
139.99999186	0.00000000	9.44266700	10.62992000
140.19999185	0.00000000	9.48572700	9.84867000
140.39999184	0.00000000	9.48572700	9.09817800
140.59999182	0.00000000	9.48572700	8.31077700
140.79999181	0.00000000	9.48572700	7.89247000
140.99999180	0.00000000	9.44266700	7.51722400
141.19999179	0.00000000	9.06742000	7.14812900
141.39999178	0.00000000	8.32308000	7.56028500
141.59999176	0.00000000	7.99704600	8.26771600
141.79999175	0.00000000	8.32308000	9.09817800
141.99999174	0.00000000	9.06742000	9.84867000
142.19999173	0.00000000	9.44266700	10.62992000
142.39999172	0.00000000	9.48572700	11.00517000
142.59999170	0.00000000	9.48572700	11.00517000
142.79999169	0.00000000	9.48572700	10.62992000
142.99999168	0.00000000	9.48572700	9.84867000
143.19999167	0.00000000	9.48572700	9.09817800
143.39999166	0.00000000	9.44266700	8.31077700
143.59999165	0.00000000	9.11048200	7.89247000
143.79999163	0.00000000	8.74138700	7.51722400
143.99999162	0.00000000	9.11048200	7.19734200
144.19999161	0.00000000	9.44266700	7.93553100
144.39999160	0.00000000	9.48572700	9.00590400
144.59999159	0.00000000	9.48572700	9.47342500
144.79999157	0.00000000	9.48572700	9.89173200
144.99999156	0.00000000	9.48572700	10.62992000
145.19999155	0.00000000	9.48572700	10.95595000
145.39999154	0.00000000	9.44266700	10.62992000
145.59999153	0.00000000	9.06742000	9.84867000
145.79999151	0.00000000	8.32308000	9.09817800
145.99999150	0.00000000	7.94783400	8.31077700
146.19999149	0.00000000	7.90477300	7.93553100
146.39999148	0.00000000	7.94783400	7.89247000
146.59999147	0.00000000	8.32308000	7.89247000
146.79999146	0.00000000	9.06742000	7.93553100
146.99999144	0.00000000	9.44266700	8.31077700
147.19999143	0.00000000	9.48572700	9.05511800
147.39999142	0.00000000	9.48572700	9.43036400
147.59999141	0.00000000	9.48572700	9.47342500
147.79999140	0.00000000	9.48572700	9.47342500
147.99999138	0.00000000	9.48572700	9.47342500
148.19999137	0.00000000	9.44266700	9.47342500
148.39999136	0.00000000	9.06742000	9.47342500
148.59999135	0.00000000	8.32308000	9.43036400
148.79999134	0.00000000	7.99704600	9.05511800
148.99999132	0.00000000	8.32308000	8.31077700
149.19999131	0.00000000	9.06742000	7.93553100
149.39999130	0.00000000	9.44266700	7.89247000
149.59999129	0.00000000	9.48572700	7.89247000
149.79999128	0.00000000	9.48572700	7.93553100
149.99999127	0.00000000	9.48572700	8.31077700
150.19999125	0.00000000	9.48572700	9.05511800
150.39999124	0.00000000	9.48572700	9.43036400
150.59999123	0.00000000	9.48572700	9.47342500
150.79999122	0.00000000	9.48572700	9.47342500
150.99999121	0.00000000	9.44266700	9.47342500
151.19999119	0.00000000	9.06742000	9.47342500
151.39999118	0.00000000	8.32308000	9.47342500
151.59999117	0.00000000	7.94783400	9.47342500
151.79999116	0.00000000	7.94783400	9.43036400
151.99999115	0.00000000	8.32308000	9.09817800
152.19999113	0.00000000	9.06742000	8.72908400
152.39999112	0.00000000	9.44266700	9.05511800
152.59999111	0.00000000	9.48572700	9.05511800
152.79999110	0.00000000	9.52879000	8.72908400
152.99999109	0.00000000	9.86097400	9.09817800
153.19999108	0.00000000	10.23007000	9.43036400
153.39999106	0.00000000	9.86097400	9.47342500
153.59999105	0.00000000	9.48572700	9.47342500
153.79999104	0.00000000	9.06742000	9.47342500
153.99999103	0.00000000	8.32308000	9.47342500
154.19999102	0.00000000	7.94783400	9.47342500
154.39999100	0.00000000	7.90477300	9.47342500
154.59999099	0.00000000	7.94783400	9.47342500
154.79999098	0.00000000	8.32308000	9.47342500
154.99999097	0.00000000	9.06742000	9.43036400
155.19999096	0.00000000	9.44266700	9.05511800
155.39999094	0.00000000	9.52879000	8.35998900
155.59999093	0.00000000	9.90403500	8.31077700
155.79999092	0.00000000	10.59916000	8.67987200
155.99999091	0.00000000	10.59916000	8.68602300
156.19999090	0.00000000	9.90403500	9.09817800
156.39999089	0.00000000	9.52879000	9.43036400
156.59999087	0.00000000	9.44266700	9.47342500
156.79999086	0.00000000	9.06742000	9.47342500
156.99999085	0.00000000	8.32308000	9.47342500
157.19999084	0.00000000	7.94783400	9.47342500
157.39999083	0.00000000	7.90477300	9.47342500
157.59999081	0.00000000	7.94783400	9.47342500
157.79999080	0.00000000	8.32308000	9.47342500
157.99999079	0.00000000	9.06742000	9.43036400
158.19999078	0.00000000	9.44266700	9.05511800
158.39999077	0.00000000	9.48572700	8.31077700
158.59999075	0.00000000	9.48572700	7.93553100
158.79999074	0.00000000	9.48572700	7.93553100
158.99999073	0.00000000	9.48572700	8.31077700
159.19999072	0.00000000	9.48572700	9.05511800
159.39999071	0.00000000	9.48572700	9.43036400
159.59999070	0.00000000	9.44266700	9.47342500
159.79999068	0.00000000	9.06742000	9.47342500
159.99999067	0.00000000	8.32308000	9.47342500
160.19999066	0.00000000	7.99704600	9.47342500
160.39999065	0.00000000	8.32308000	9.47342500
160.59999064	0.00000000	9.06742000	9.47342500
160.79999062	0.00000000	9.44266700	9.43036400
160.99999061	0.00000000	9.48572700	9.05511800
161.19999060	0.00000000	9.48572700	8.31077700
161.39999059	0.00000000	9.48572700	7.93553100
161.59999058	0.00000000	9.48572700	7.93553100
161.79999056	0.00000000	9.48572700	8.31077700
161.99999055	0.00000000	9.48572700	9.05511800
162.19999054	0.00000000	9.48572700	9.43036400
162.39999053	0.00000000	9.48572700	9.47342500
162.59999052	0.00000000	9.48572700	9.47342500
162.79999051	0.00000000	9.48572700	9.47342500
162.99999049	0.00000000	9.44266700	9.47342500
163.19999048	0.00000000	9.06742000	9.47342500
163.39999047	0.00000000	8.32308000	9.47342500
163.59999046	0.00000000	7.94783400	9.43036400
163.79999045	0.00000000	7.90477300	9.09817800
163.99999043	0.00000000	7.94783400	8.72908400
164.19999042	0.00000000	8.32308000	9.09817800
164.39999041	0.00000000	9.06742000	9.38115100
164.59999040	0.00000000	9.44266700	9.09817800
164.79999039	0.00000000	9.48572700	8.72908400
164.99999037	0.00000000	9.48572700	9.09817800
165.19999036	0.00000000	9.48572700	9.43036400
165.39999035	0.00000000	9.48572700	9.47342500
165.59999034	0.00000000	9.48572700	9.47342500
165.79999033	0.00000000	9.48572700	9.47342500
165.99999032	0.00000000	9.48572700	9.47342500
166.19999030	0.00000000	9.44266700	9.47342500
166.39999029	0.00000000	9.11048200	9.47342500
166.59999028	0.00000000	8.74138700	9.47342500
166.79999027	0.00000000	9.06742000	9.47342500
166.99999026	0.00000000	9.06742000	9.47342500
167.19999024	0.00000000	8.74138700	9.47342500
167.39999023	0.00000000	9.11048200	9.47342500
167.59999022	0.00000000	9.44266700	9.43036400
167.79999021	0.00000000	9.48572700	9.09817800
167.99999020	0.00000000	9.48572700	8.72908400
168.19999018	0.00000000	9.48572700	9.09817800
168.39999017	0.00000000	9.48572700	9.43036400
168.59999016	0.00000000	9.48572700	9.47342500
168.79999015	0.00000000	9.48572700	9.47342500
168.99999014	0.00000000	9.48572700	9.47342500
169.19999013	0.00000000	9.48572700	9.47342500
169.39999011	0.00000000	9.48572700	9.47342500
169.59999010	0.00000000	9.48572700	9.47342500
169.79999009	0.00000000	9.48572700	9.47342500
169.99999008	0.00000000	9.48572700	9.47342500
170.19999007	0.00000000	9.48572700	9.47342500
170.39999005	0.00000000	9.48572700	9.47342500
170.59999004	0.00000000	9.48572700	9.47342500
170.79999003	0.00000000	9.48572700	9.47342500
170.99999002	0.00000000	9.48572700	9.47342500
171.19999001	0.00000000	9.48572700	9.47342500
171.39998999	0.00000000	9.48572700	9.47342500
171.59998998	0.00000000	9.48572700	9.47342500
171.79998997	0.00000000	9.48572700	9.47342500
171.99998996	0.00000000	9.48572700	9.47342500
172.19998995	0.00000000	9.48572700	9.47342500
172.39998994	0.00000000	9.48572700	9.43036400
172.59998992	0.00000000	9.48572700	9.09817800
172.79998991	0.00000000	9.48572700	8.72908400
172.99998990	0.00000000	9.48572700	9.09817800
173.19998989	0.00000000	9.48572700	9.43036400
173.39998988	0.00000000	9.48572700	9.47342500
173.59998986	0.00000000	9.48572700	9.47342500
173.79998985	0.00000000	9.48572700	9.47342500
173.99998984	0.00000000	9.48572700	9.47342500
174.19998983	0.00000000	9.48572700	9.47342500
174.39998982	0.00000000	9.48572700	9.43036400
174.59998980	0.00000000	9.48572700	9.09817800
174.79998979	0.00000000	9.48572700	8.72908400
174.99998978	0.00000000	9.48572700	9.09817800
175.19998977	0.00000000	9.48572700	9.43036400
175.39998976	0.00000000	9.48572700	9.47342500
175.59998975	0.00000000	9.52879000	9.47342500
175.79998973	0.00000000	9.86097400	9.47342500
175.99998972	0.00000000	10.23007000	9.47342500
176.19998971	0.00000000	9.86097400	9.47342500
176.39998970	0.00000000	9.52879000	9.43036400
176.59998969	0.00000000	9.48572700	9.09817800
176.79998967	0.00000000	9.48572700	8.68602300
176.99998966	0.00000000	9.48572700	8.67987200
177.19998965	0.00000000	9.48572700	8.31077700
177.39998964	0.00000000	9.48572700	8.31077700
177.59998963	0.00000000	9.48572700	8.67987200
177.79998961	0.00000000	9.48572700	8.68602300
177.99998960	0.00000000	9.48572700	9.09817800
178.19998959	0.00000000	9.44266700	9.43036400
178.39998958	0.00000000	9.11048200	9.47342500
178.59998957	0.00000000	8.74138700	9.47342500
178.79998956	0.00000000	9.11048200	9.47342500
178.99998954	0.00000000	9.44266700	9.47342500
179.19998953	0.00000000	9.48572700	9.47342500
179.39998952	0.00000000	9.48572700	9.47342500
179.59998951	0.00000000	9.48572700	9.47342500
179.79998950	0.00000000	9.48572700	9.47342500
179.99998948	0.00000000	9.48572700	9.47342500
180.19998947	0.00000000	9.48572700	9.43036400
180.39998946	0.00000000	9.48572700	9.09817800
180.59998945	0.00000000	9.48572700	8.72908400
180.79998944	0.00000000	9.48572700	9.05511800
180.99998942	0.00000000	9.48572700	9.05511800
181.19998941	0.00000000	9.48572700	8.72908400
181.39998940	0.00000000	9.48572700	9.09817800
181.59998939	0.00000000	9.48572700	9.43036400
181.79998938	0.00000000	9.48572700	9.47342500
181.99998937	0.00000000	9.48572700	9.47342500
182.19998935	0.00000000	9.48572700	9.47342500
182.39998934	0.00000000	9.48572700	9.43036400
182.59998933	0.00000000	9.48572700	9.09817800
182.79998932	0.00000000	9.48572700	8.72908400
182.99998931	0.00000000	9.48572700	9.05511800
183.19998929	0.00000000	9.48572700	9.05511800
183.39998928	0.00000000	9.48572700	8.68602300
183.59998927	0.00000000	9.48572700	8.72293300
183.79998926	0.00000000	9.48572700	8.68602300
183.99998925	0.00000000	9.48572700	9.09817800
184.19998923	0.00000000	9.48572700	9.43036400
184.39998922	0.00000000	9.48572700	9.47342500
184.59998921	0.00000000	9.48572700	9.47342500
184.79998920	0.00000000	9.48572700	9.47342500
184.99998919	0.00000000	9.48572700	9.47342500
185.19998918	0.00000000	9.48572700	9.47342500
185.39998916	0.00000000	9.48572700	9.47342500
185.59998915	0.00000000	9.48572700	9.43036400
185.79998914	0.00000000	9.48572700	9.05511800
185.99998913	0.00000000	9.48572700	8.35998900
186.19998912	0.00000000	9.48572700	8.31077700
186.39998910	0.00000000	9.48572700	8.63681000
186.59998909	0.00000000	9.48572700	8.31077700
186.79998908	0.00000000	9.48572700	8.35998900
186.99998907	0.00000000	9.48572700	9.05511800
187.19998906	0.00000000	9.48572700	9.43036400
187.39998904	0.00000000	9.48572700	9.47342500
187.59998903	0.00000000	9.48572700	9.47342500
187.79998902	0.00000000	9.48572700	9.47342500
187.99998901	0.00000000	9.48572700	9.47342500
188.19998900	0.00000000	9.48572700	9.47342500
188.39998899	0.00000000	9.52879000	9.47342500
188.59998897	0.00000000	9.86097400	9.43036400
188.79998896	0.00000000	10.23007000	9.05511800
188.99998895	0.00000000	9.86097400	8.31077700
189.19998894	0.00000000	9.52879000	7.93553100
189.39998893	0.00000000	9.48572700	7.93553100
189.59998891	0.00000000	9.48572700	8.31077700
189.79998890	0.00000000	9.48572700	9.05511800
189.99998889	0.00000000	9.48572700	9.43036400
190.19998888	0.00000000	9.48572700	9.47342500
190.39998887	0.00000000	9.48572700	9.47342500
190.59998885	0.00000000	9.48572700	9.47342500
190.79998884	0.00000000	9.48572700	9.47342500
190.99998883	0.00000000	9.48572700	9.47342500
191.19998882	0.00000000	9.48572700	9.47342500
191.39998881	0.00000000	9.48572700	9.43036400
191.59998880	0.00000000	9.48572700	9.09817800
191.79998878	0.00000000	9.48572700	8.72908400
191.99998877	0.00000000	9.48572700	9.09817800
192.19998876	0.00000000	9.48572700	9.43036400
192.39998875	0.00000000	9.48572700	9.47342500
192.59998874	0.00000000	9.48572700	9.43036400
192.79998872	0.00000000	9.48572700	9.09817800
192.99998871	0.00000000	9.48572700	8.72908400
193.19998870	0.00000000	9.48572700	9.09817800
193.39998869	0.00000000	9.48572700	9.43036400
193.59998868	0.00000000	9.48572700	9.47342500
193.79998866	0.00000000	9.48572700	9.47342500
193.99998865	0.00000000	9.48572700	9.47342500
194.19998864	0.00000000	9.48572700	9.47342500
194.39998863	0.00000000	9.48572700	9.47342500
194.59998862	0.00000000	9.48572700	9.47342500
194.79998861	0.00000000	9.48572700	9.47342500
194.99998859	0.00000000	9.48572700	9.47342500
195.19998858	0.00000000	9.48572700	9.47342500
195.39998857	0.00000000	9.48572700	9.47342500
195.59998856	0.00000000	9.48572700	9.47342500
195.79998855	0.00000000	9.48572700	9.47342500
195.99998853	0.00000000	9.48572700	9.47342500
