Time	Channel A	Channel B	Channel C
(us)	(V)	(mV)	(mV)

-4.59999956	0.00000000	95.24483000	30.00123000
-4.39999957	0.00000000	95.65698000	30.00123000
-4.19999958	0.00000000	95.62007000	30.00123000
-3.99999959	0.00000000	95.70004000	30.00123000
-3.79999960	0.00000000	95.62007000	30.00123000
-3.59999962	0.00000000	95.65698000	30.00123000
-3.39999963	0.00000000	95.28789000	30.00123000
-3.19999964	0.00000000	95.33710000	30.00123000
-2.99999965	0.00000000	96.03223000	30.00123000
-2.79999966	0.00000000	96.40748000	30.00123000
-2.59999968	0.00000000	96.40748000	30.00123000
-2.39999969	0.00000000	96.07529000	30.00123000
-2.19999970	0.00000000	95.66313000	30.00123000
-1.99999971	0.00000000	95.70004000	30.00123000
-1.79999972	0.00000000	95.62007000	30.00123000
-1.59999973	0.00000000	95.70004000	30.00123000
-1.39999975	0.00000000	95.62007000	30.00123000
-1.19999976	0.00000000	95.70004000	30.00123000
-0.99999977	0.00000000	95.66313000	30.00123000
-0.79999978	0.00000000	96.07529000	30.00123000
-0.59999979	0.00000000	96.40748000	30.00123000
-0.39999981	0.15871060	96.45053000	30.00123000
-0.19999982	0.47736220	96.40748000	30.00123000
0.00000017	0.79601380	96.07529000	30.00123000
0.20000016	0.95533960	95.66313000	30.00123000
0.40000015	0.95533960	95.70004000	30.00123000
0.60000013	0.63668800	95.62007000	30.00123000
0.80000012	0.00000000	95.70004000	30.00123000
1.00000011	-0.95533960	95.62007000	30.00123000
1.20000010	-1.91129400	95.65698000	30.00123000
1.40000009	-2.54859700	95.24483000	30.00123000
1.60000008	-2.70792300	94.96185000	30.00123000
1.80000006	-1.91129400	95.24483000	30.00123000
2.00000005	-0.47736220	95.65698000	30.04429000
2.20000004	1.59264300	95.62007000	30.32726000
2.40000003	3.66326300	95.65698000	30.32111000
2.60000002	5.09719500	95.24483000	29.25689000
2.80000000	5.25652100	94.91264000	28.88779000
2.99999999	4.14124000	94.86958000	29.16461000
3.19999998	1.59264300	94.86958000	28.79552000
3.39999997	-1.75196900	94.86958000	28.51255000
3.59999996	-5.09719500	94.86958000	28.83858000
3.79999994	-7.32714100	94.91264000	29.58292000
3.99999993	-7.96444400	95.24483000	29.95817000
4.19999992	-6.53112700	95.61392000	30.00123000
4.39999991	-3.34522600	95.28789000	30.00123000
4.59999990	1.11466500	95.28789000	30.00123000
4.79999989	5.41584600	95.61392000	30.00123000
4.99999987	8.44242100	95.24483000	29.95817000
5.19999986	9.39837600	94.96185000	29.62598000
5.39999985	8.12377000	95.24483000	29.21383000
5.59999984	4.61921700	95.61392000	29.20767000
5.79999983	0.00000000	95.24483000	28.83858000
5.99999981	-4.61921700	94.91264000	28.88779000
6.19999980	-8.12377000	94.86958000	29.58292000
6.39999979	-9.39837600	94.86958000	29.95817000
6.59999978	-8.44242100	94.91264000	30.00123000
6.79999977	-5.41584600	95.24483000	30.00123000
6.99999975	-1.27399100	95.61392000	30.00123000
7.19999974	3.02657500	95.24483000	30.00123000
7.39999973	6.21247500	94.91264000	30.00123000
7.59999972	7.80511800	94.86958000	29.95817000
7.79999971	7.16781500	94.86958000	29.58292000
7.99999970	4.93786900	94.86958000	28.83858000
8.19999968	1.75196900	94.86958000	28.51255000
8.39999967	-1.43331700	94.86958000	28.83858000
8.59999966	-3.82258900	94.86958000	29.58292000
8.79999965	-5.09719500	94.86958000	29.95817000
8.99999964	-4.93786900	94.86958000	30.00123000
9.19999962	-3.66326300	94.91264000	30.00123000
9.39999961	-1.75196900	95.24483000	30.00123000
9.59999960	0.15871060	95.61392000	30.00123000
9.79999959	1.75196900	95.24483000	30.00123000
9.99999958	2.38927200	94.91264000	30.00123000
10.19999956	2.54859700	94.86958000	30.00123000
10.39999955	1.91129400	94.86958000	30.00123000
10.59999954	0.95533960	94.86958000	30.00123000
10.79999953	0.15871060	94.86958000	29.95817000
10.99999952	-0.47736220	94.91264000	29.58292000
11.19999951	-0.95533960	95.24483000	28.88779000
11.39999949	-0.95533960	95.61392000	28.88779000
11.59999948	-0.95533960	95.24483000	29.58292000
11.79999947	-0.63668800	94.91264000	29.95817000
11.99999946	-0.31803640	94.86958000	30.00123000
12.19999945	-0.15871060	94.86958000	30.00123000
12.39999943	-0.15871060	94.86958000	30.00123000
12.59999942	0.00000000	94.86958000	30.00123000
12.79999941	0.00000000	94.86958000	30.00123000
12.99999940	0.00000000	94.86958000	30.00123000
13.19999939	0.00000000	94.86958000	30.00123000
13.39999937	0.00000000	94.86958000	30.00123000
13.59999936	0.00000000	94.86958000	30.00123000
13.79999935	0.00000000	94.86958000	30.00123000
13.99999934	-0.15871060	94.91264000	30.00123000
14.19999933	-0.15871060	95.24483000	30.00123000
14.39999932	-0.15871060	95.61392000	30.00123000
14.59999930	-0.15871060	95.24483000	30.00123000
14.79999929	0.00000000	94.91264000	30.00123000
14.99999928	0.00000000	94.86958000	30.00123000
15.19999927	0.00000000	94.86958000	30.00123000
15.39999926	0.00000000	94.86958000	30.00123000
15.59999924	0.00000000	94.86958000	30.00123000
15.79999923	0.00000000	94.86958000	30.00123000
15.99999922	0.00000000	94.86958000	30.00123000
16.19999921	0.00000000	94.86958000	30.00123000
16.39999920	-0.15871060	94.91264000	30.00123000
16.59999919	-0.15871060	95.28789000	30.00123000
16.79999917	-0.15871060	96.03223000	30.04429000
16.99999916	0.00000000	96.40748000	30.37647000
17.19999915	0.00000000	96.49360000	30.73942000
17.39999914	0.00000000	96.86884000	30.37647000
17.59999913	0.00000000	97.56396000	30.04429000
17.79999911	0.00000000	97.52091000	30.00123000
17.99999910	0.00000000	96.40748000	30.00123000
18.19999909	0.00000000	94.86958000	30.00123000
18.39999908	0.00000000	93.28863000	30.00123000
18.59999907	0.00000000	91.70767000	30.00123000
18.79999905	0.00000000	90.21899000	30.00123000
18.99999904	0.00000000	89.47465000	30.00123000
19.19999903	0.00000000	90.26205000	30.00123000
19.39999902	0.00000000	92.21825000	30.00123000
19.59999901	0.00000000	95.38016000	30.00123000
19.79999900	0.00000000	99.61245000	30.00123000
19.99999898	0.00000000	103.80780000	30.00123000
20.19999897	0.00000000	106.50220000	30.00123000
20.39999896	0.00000000	106.83440000	29.95817000
20.59999895	0.00000000	104.45990000	29.58292000
20.79999894	0.00000000	99.01575000	28.83858000
20.99999892	0.00000000	91.66460000	28.46333000
21.19999891	0.00000000	83.93823000	28.46333000
21.39999890	0.00000000	77.38065000	28.83858000
21.59999889	0.00000000	73.97884000	29.53371000
21.79999888	0.00000000	74.82160000	29.53371000
21.99999886	0.00000000	80.72095000	28.83858000
22.19999885	0.00000000	91.14788000	28.46333000
22.39999884	0.00000000	103.89390000	28.46333000
22.59999883	0.00000000	115.85260000	28.79552000
22.79999882	0.00000000	124.32330000	29.20767000
22.99999881	0.00000000	126.93160000	29.21383000
23.19999879	0.00000000	122.18870000	29.62598000
23.39999878	0.00000000	110.18080000	30.00123000
23.59999877	0.00000000	93.20251000	30.41954000
23.79999876	0.00000000	75.42445000	31.15772000
23.99999875	0.00000000	60.76525000	31.48376000
24.19999873	0.00000000	52.76205000	31.15772000
24.39999872	0.00000000	54.34301000	30.32726000
24.59999871	0.00000000	65.60039000	29.16461000
24.79999870	0.00000000	84.17199000	27.21457000
24.99999869	0.00000000	106.59450000	25.35064000
25.19999867	0.00000000	127.39300000	24.19414000
25.39999866	0.00000000	141.63390000	24.19414000
25.59999865	0.00000000	145.44780000	25.35064000
25.79999864	0.00000000	137.30930000	27.30684000
25.99999863	0.00000000	119.20520000	30.08735000
26.19999862	0.00000000	95.20176000	33.57529000
26.39999860	0.00000000	70.90919000	37.43233000
26.59999859	0.00000000	51.60556000	40.40969000
26.79999858	0.00000000	42.34129000	41.14788000
26.99999857	0.00000000	44.99261000	38.82874000
27.19999856	0.00000000	58.53223000	34.14124000
27.39999854	0.00000000	80.16732000	27.54060000
27.59999853	0.00000000	104.87820000	19.82652000
27.79999852	0.00000000	126.88850000	13.31816000
27.99999851	0.00000000	141.21550000	9.46727400
28.19999850	0.00000000	144.70960000	9.55339400
28.39999848	0.00000000	137.06940000	14.24705000
28.59999847	0.00000000	120.46010000	23.16683000
28.79999846	0.00000000	99.23720000	34.73794000
28.99999845	0.00000000	77.93430000	46.30905000
29.19999844	0.00000000	61.31889000	55.13656000
29.39999843	0.00000000	52.71899000	58.99360000
29.59999841	0.00000000	53.45718000	56.62524000
29.79999840	0.00000000	62.67839000	48.44365000
29.99999839	0.00000000	78.12499000	35.25467000
30.19999838	0.00000000	95.89690000	19.50049000
30.39999837	0.00000000	112.18010000	5.24114100
30.59999835	0.00000000	123.85580000	-4.01082700
30.79999834	0.00000000	128.93080000	-6.32997000
30.99999833	0.00000000	127.01770000	-0.89812980
31.19999832	0.00000000	118.51010000	11.09129000
31.39999831	0.00000000	105.43180000	27.34990000
31.59999829	0.00000000	91.10481000	44.68504000
31.79999828	0.00000000	78.72169000	58.99360000
31.99999827	0.00000000	70.54010000	67.12598000
32.19999826	0.00000000	68.16560000	67.86417000
32.39999825	0.00000000	71.19217000	60.48228000
32.59999824	0.00000000	78.58636000	46.21678000
32.79999822	0.00000000	89.01328000	28.51255000
32.99999821	0.00000000	100.22150000	11.46653000
33.19999820	0.00000000	109.48570000	-1.35949800
33.39999819	0.00000000	114.92370000	-8.32308000
33.59999818	0.00000000	115.34820000	-7.86171200
33.79999816	0.00000000	111.15900000	0.59670270
33.99999815	0.00000000	103.80780000	14.85605000
34.19999814	0.00000000	94.91880000	31.48991000
34.39999813	0.00000000	86.49113000	47.33021000
34.59999812	0.00000000	81.05315000	58.90133000
34.79999810	0.00000000	79.84128000	63.55191000
34.99999809	0.00000000	82.08046000	60.52534000
35.19999808	0.00000000	87.14320000	50.86122000
35.39999807	0.00000000	93.62081000	37.01402000
35.59999806	0.00000000	99.80315000	21.96112000
35.79999805	0.00000000	103.67250000	9.60260800
35.99999803	0.00000000	104.87820000	2.21456700
36.19999802	0.00000000	103.29720000	1.10113200
36.39999801	0.00000000	99.10187000	6.86515700
36.59999800	0.00000000	93.75615000	17.91953000
36.79999799	0.00000000	89.09940000	30.60408000
36.99999797	0.00000000	86.02977000	41.43085000
37.19999796	0.00000000	85.24236000	48.40059000
37.39999795	0.00000000	87.14320000	49.93233000
37.59999794	0.00000000	90.59423000	45.70620000
37.79999793	0.00000000	94.86958000	36.92175000
37.99999791	0.00000000	99.10187000	26.23647000
38.19999790	0.00000000	102.17770000	17.40280000
38.39999789	0.00000000	103.34030000	12.75221000
38.59999788	0.00000000	102.22690000	13.12746000
38.79999787	0.00000000	99.47710000	18.51624000
38.99999786	0.00000000	95.61392000	27.30684000
39.19999784	0.00000000	90.96333000	36.82948000
39.39999783	0.00000000	87.14320000	43.70694000
39.59999782	0.00000000	84.77485000	45.66314000
39.79999781	0.00000000	84.39960000	42.63656000
39.99999780	0.00000000	85.89443000	35.67298000
40.19999778	0.00000000	88.68110000	26.46407000
40.39999777	0.00000000	92.54428000	17.26747000
40.59999776	0.00000000	97.19488000	11.17741000
40.79999775	0.00000000	101.06420000	10.02092000
40.99999774	0.00000000	103.80780000	14.24705000
41.19999772	0.00000000	104.92120000	22.65625000
41.39999771	0.00000000	103.76480000	32.60334000
41.59999770	0.00000000	100.68900000	41.10482000
41.79999769	0.00000000	96.45053000	46.16756000
41.99999768	0.00000000	92.17519000	47.28715000
42.19999767	0.00000000	88.63803000	43.79921000
42.39999765	0.00000000	85.93749000	36.17741000
42.59999764	0.00000000	84.82406000	27.39296000
42.79999763	0.00000000	85.93749000	20.01107000
42.99999762	0.00000000	88.58882000	15.36048000
43.19999761	0.00000000	91.70767000	14.15477000
43.39999759	0.00000000	94.77731000	16.47392000
43.59999758	0.00000000	97.14566000	21.45669000
43.79999757	0.00000000	98.31447000	27.95891000
43.99999756	0.00000000	98.77583000	33.76599000
44.19999755	0.00000000	98.36368000	37.62303000
44.39999753	0.00000000	97.65624000	39.24089000
44.59999752	0.00000000	96.86884000	38.09055000
44.79999751	0.00000000	96.49360000	35.43307000
44.99999750	0.00000000	96.40748000	31.53297000
45.19999749	0.00000000	96.03223000	27.39296000
45.39999748	0.00000000	95.20176000	24.65551000
45.59999746	0.00000000	93.98376000	23.77584000
45.79999745	0.00000000	91.66460000	23.77584000
45.99999744	0.00000000	88.96407000	24.61245000
46.19999743	0.00000000	86.63262000	26.83932000
46.39999742	0.00000000	84.77485000	29.16461000
46.59999740	0.00000000	84.86712000	30.79478000
46.79999739	0.00000000	87.61073000	32.73868000
46.99999738	0.00000000	92.59350000	34.14124000
47.19999737	0.00000000	98.81889000	33.80905000
47.39999736	0.00000000	104.55220000	31.90822000
47.59999734	0.00000000	108.82750000	29.62598000
47.79999733	0.00000000	109.90400000	27.25763000
47.99999732	0.00000000	107.57260000	25.35064000
48.19999731	0.00000000	101.75930000	24.19414000
48.39999730	0.00000000	93.66387000	24.19414000
48.59999729	0.00000000	85.51919000	25.35064000
48.79999727	0.00000000	78.58636000	27.30684000
48.99999726	0.00000000	74.82160000	30.04429000
49.19999725	0.00000000	75.97810000	33.06471000
49.39999724	0.00000000	81.74828000	35.38385000
49.59999723	0.00000000	90.59423000	36.13435000
49.79999721	0.00000000	100.22150000	35.38385000
49.99999720	0.00000000	107.94780000	33.02165000
50.19999719	0.00000000	112.22930000	29.58292000
50.39999718	0.00000000	112.18630000	25.72589000
50.59999717	0.00000000	107.57260000	22.65625000
50.79999715	0.00000000	99.47710000	21.08145000
50.99999714	0.00000000	90.26205000	21.08145000
51.19999713	0.00000000	82.17273000	22.65625000
51.39999712	0.00000000	77.55905000	25.77510000
51.59999711	0.00000000	77.51599000	30.00123000
51.79999710	0.00000000	81.74828000	34.18430000
51.99999708	0.00000000	89.05634000	36.87869000
52.19999707	0.00000000	97.52091000	37.34006000
52.39999706	0.00000000	104.78590000	36.17741000
52.59999705	0.00000000	108.64910000	33.80905000
52.79999704	0.00000000	107.90480000	29.95817000
52.99999702	0.00000000	103.34030000	25.81816000
53.19999701	0.00000000	96.40748000	23.07455000
53.39999700	0.00000000	89.14246000	22.23794000
53.59999699	0.00000000	83.75368000	22.61319000
53.79999698	0.00000000	81.79749000	24.19414000
53.99999696	0.00000000	83.28617000	26.88853000
54.19999695	0.00000000	87.51845000	29.90895000
54.39999694	0.00000000	93.28863000	32.18504000
54.59999693	0.00000000	99.05880000	32.60334000
54.79999692	0.00000000	103.29720000	31.53297000
54.99999691	0.00000000	104.83510000	30.00123000
55.19999689	0.00000000	103.29720000	28.46333000
55.39999688	0.00000000	99.05880000	27.30684000
55.59999687	0.00000000	93.33169000	26.97465000
55.79999686	0.00000000	87.98597000	27.72515000
55.99999685	0.00000000	84.86712000	29.62598000
56.19999683	0.00000000	84.44881000	31.48991000
56.39999682	0.00000000	86.35580000	32.64640000
56.59999681	0.00000000	90.21899000	32.60334000
56.79999680	0.00000000	94.82652000	31.06545000
56.99999679	0.00000000	99.05880000	28.37721000
57.19999677	0.00000000	101.75930000	25.30758000
57.39999676	0.00000000	102.17770000	22.65625000
57.59999675	0.00000000	100.68900000	21.54281000
57.79999674	0.00000000	97.94537000	22.70546000
57.99999673	0.00000000	94.49434000	25.81816000
58.19999672	0.00000000	91.01255000	30.41954000
58.39999670	0.00000000	88.72416000	35.38385000
58.59999669	0.00000000	87.93675000	38.87795000
58.79999668	0.00000000	89.05634000	40.40969000
58.99999667	0.00000000	91.33242000	39.57308000
59.19999666	0.00000000	93.62081000	35.67298000
59.39999664	0.00000000	95.56471000	29.53371000
59.59999663	0.00000000	96.35826000	22.61319000
59.79999662	0.00000000	96.40748000	16.89222000
59.99999661	0.00000000	96.03223000	14.20399000
60.19999660	0.00000000	95.20176000	15.36048000
60.39999658	0.00000000	94.07603000	19.96186000
60.59999657	0.00000000	92.59350000	26.93159000
60.79999656	0.00000000	92.21825000	34.60261000
60.99999655	0.00000000	92.91338000	41.10482000
61.19999654	0.00000000	93.66387000	44.21752000
61.39999653	0.00000000	94.45127000	43.52239000
61.59999651	0.00000000	94.82652000	39.99138000
61.79999650	0.00000000	94.82652000	33.76599000
61.99999649	0.00000000	94.40206000	25.72589000
62.19999648	0.00000000	93.28863000	18.43012000
62.39999647	0.00000000	92.17519000	13.77953000
62.59999645	0.00000000	91.75073000	12.62303000
62.79999644	0.00000000	91.70767000	15.36048000
62.99999643	0.00000000	91.75073000	21.49975000
63.19999642	0.00000000	92.21825000	29.58292000
63.39999641	0.00000000	93.75615000	37.25394000
63.59999639	0.00000000	95.98302000	42.68578000
63.79999638	0.00000000	97.52091000	44.63582000
63.99999637	0.00000000	97.93922000	43.14714000
64.19999636	0.00000000	97.52091000	38.87795000
64.39999635	0.00000000	95.98302000	32.69562000
64.59999634	0.00000000	93.75615000	25.77510000
64.79999632	0.00000000	92.17519000	20.01107000
64.99999631	0.00000000	91.33242000	16.84916000
65.19999630	0.00000000	90.59423000	16.43085000
65.39999629	0.00000000	90.63730000	18.33784000
65.59999628	0.00000000	91.79995000	22.19488000
65.79999626	0.00000000	93.66387000	26.79626000
65.99999625	0.00000000	95.56471000	31.11466000
66.19999624	0.00000000	96.31520000	34.64567000
66.39999623	0.00000000	95.98302000	37.34006000
66.59999622	0.00000000	94.82652000	38.50270000
66.79999620	0.00000000	93.28863000	37.75836000
66.99999619	0.00000000	91.75073000	35.85138000
67.19999618	0.00000000	90.63730000	33.11393000
67.39999617	0.00000000	90.63730000	30.00123000
67.59999616	0.00000000	91.79995000	26.83932000
67.79999615	0.00000000	93.75615000	23.72662000
67.99999613	0.00000000	96.40748000	21.03838000
68.19999612	0.00000000	98.68356000	19.50049000
68.39999611	0.00000000	99.43405000	19.45743000
68.59999610	0.00000000	98.64050000	20.66314000
68.79999609	0.00000000	95.93995000	23.03149000
68.99999607	0.00000000	92.12598000	26.93159000
69.19999606	0.00000000	88.63803000	31.53297000
69.39999605	0.00000000	85.89443000	35.75910000
69.59999604	0.00000000	84.39960000	38.50270000
69.79999603	0.00000000	84.82406000	39.29626000
69.99999601	0.00000000	87.56152000	38.50270000
70.19999600	0.00000000	92.17519000	35.71604000
70.39999599	0.00000000	97.57012000	31.11466000
70.59999598	0.00000000	102.17770000	25.72589000
70.79999597	0.00000000	104.92120000	21.08145000
70.99999596	0.00000000	105.25340000	18.01181000
71.19999594	0.00000000	102.92200000	17.22441000
71.39999593	0.00000000	97.89616000	19.16830000
71.59999592	0.00000000	91.75073000	22.98843000
71.79999591	0.00000000	85.93749000	28.00197000
71.99999590	0.00000000	81.70521000	32.60334000
72.19999588	0.00000000	80.16732000	35.75910000
72.39999587	0.00000000	81.70521000	37.29700000
72.59999586	0.00000000	85.93749000	36.92175000
72.79999585	0.00000000	91.70767000	34.64567000
72.99999584	0.00000000	97.52091000	31.57603000
73.19999582	0.00000000	102.17770000	28.51255000
73.39999581	0.00000000	104.87820000	26.19340000
73.59999580	0.00000000	104.87820000	25.39985000
73.79999579	0.00000000	102.22690000	25.68282000
73.99999578	0.00000000	97.98843000	26.51329000
74.19999577	0.00000000	93.33169000	27.63287000
74.39999575	0.00000000	89.01328000	29.11540000
74.59999574	0.00000000	85.61146000	29.44759000
74.79999573	0.00000000	84.07972000	28.42027000
74.99999572	0.00000000	85.56225000	27.25763000
75.19999571	0.00000000	88.54576000	26.46407000
75.39999569	0.00000000	91.70767000	25.77510000
75.59999568	0.00000000	94.82652000	26.23647000
75.79999567	0.00000000	97.47784000	28.51255000
75.99999566	0.00000000	98.68356000	31.53297000
76.19999565	0.00000000	98.36368000	34.22736000
76.39999563	0.00000000	97.56396000	35.75910000
76.59999562	0.00000000	96.03223000	35.75910000
76.79999561	0.00000000	94.17445000	34.18430000
76.99999560	0.00000000	93.33169000	31.06545000
77.19999559	0.00000000	92.91338000	26.83932000
77.39999558	0.00000000	92.54428000	22.61319000
77.59999556	0.00000000	92.91338000	19.50049000
77.79999555	0.00000000	93.19635000	18.01181000
77.99999554	0.00000000	92.87032000	18.80536000
78.19999553	0.00000000	92.08292000	22.28100000
78.39999552	0.00000000	91.33242000	27.25763000
78.59999550	0.00000000	90.59423000	32.68946000
78.79999549	0.00000000	90.63730000	37.29700000
78.99999548	0.00000000	91.75073000	39.99138000
79.19999547	0.00000000	93.33169000	39.99138000
79.39999546	0.00000000	95.28789000	37.34006000
79.59999544	0.00000000	97.56396000	33.11393000
79.79999543	0.00000000	99.01575000	28.42027000
79.99999542	0.00000000	98.68356000	23.77584000
80.19999541	0.00000000	96.78272000	19.96186000
80.39999540	0.00000000	94.49434000	18.38706000
80.59999539	0.00000000	92.08292000	19.12524000
80.79999537	0.00000000	89.79453000	21.40748000
80.99999536	0.00000000	87.89370000	24.93233000
81.19999535	0.00000000	87.51845000	28.75246000
81.39999534	0.00000000	88.63803000	32.27731000
81.59999533	0.00000000	90.59423000	34.60261000
81.79999531	0.00000000	93.28863000	35.85138000
81.99999530	0.00000000	95.98302000	36.22047000
82.19999529	0.00000000	97.89616000	35.75910000
82.39999528	0.00000000	98.68356000	33.80905000
82.59999527	0.00000000	97.89616000	30.41954000
82.79999525	0.00000000	96.03223000	27.30684000
82.99999524	0.00000000	93.70693000	24.88927000
83.19999523	0.00000000	91.79995000	22.57013000
83.39999522	0.00000000	90.59423000	21.08145000
83.59999521	0.00000000	90.21899000	20.98917000
83.79999520	0.00000000	90.54502000	21.81964000
83.99999518	0.00000000	91.33242000	23.40674000
84.19999517	0.00000000	92.08292000	26.55635000
84.39999516	0.00000000	92.87032000	30.32726000
84.59999515	0.00000000	93.24557000	33.85211000
84.79999514	0.00000000	93.28863000	36.17741000
84.99999512	0.00000000	93.28863000	37.29700000
85.19999511	0.00000000	93.28863000	36.50344000
85.39999510	0.00000000	93.33169000	33.43996000
85.59999509	0.00000000	93.70693000	29.58292000
85.79999508	0.00000000	94.45127000	25.26452000
85.99999506	0.00000000	94.82652000	21.08145000
86.19999505	0.00000000	94.82652000	18.43012000
86.39999504	0.00000000	94.40206000	18.38706000
86.59999503	0.00000000	93.24557000	20.66314000
86.79999502	0.00000000	91.70767000	24.19414000
86.99999501	0.00000000	90.21899000	28.83858000
87.19999499	0.00000000	89.43159000	33.80905000
87.39999498	0.00000000	89.79453000	37.25394000
87.59999497	0.00000000	90.54502000	38.45349000
87.79999496	0.00000000	91.79995000	37.29700000
87.99999495	0.00000000	93.66387000	34.18430000
88.19999493	0.00000000	95.56471000	29.58292000
88.39999492	0.00000000	96.35826000	24.56939000
88.59999491	0.00000000	96.40748000	20.74926000
88.79999490	0.00000000	95.98302000	18.80536000
88.99999489	0.00000000	94.82652000	19.58661000
89.19999487	0.00000000	93.28863000	22.65625000
89.39999486	0.00000000	91.75073000	27.30684000
89.59999485	0.00000000	90.59423000	32.64640000
89.79999484	0.00000000	90.21899000	36.82948000
89.99999483	0.00000000	90.59423000	38.41043000
90.19999482	0.00000000	91.70767000	37.25394000
90.39999480	0.00000000	92.87032000	33.80905000
90.59999479	0.00000000	93.66387000	28.75246000
90.79999478	0.00000000	94.45127000	23.48671000
90.99999477	0.00000000	94.82652000	19.64198000
91.19999476	0.00000000	94.82652000	19.21752000
91.39999474	0.00000000	94.45127000	21.03838000
91.59999473	0.00000000	93.70693000	24.19414000
91.79999472	0.00000000	93.33169000	28.46333000
91.99999471	0.00000000	93.28863000	33.06471000
92.19999470	0.00000000	93.28863000	36.87869000
92.39999468	0.00000000	93.28863000	38.36737000
92.59999467	0.00000000	93.24557000	36.87869000
92.79999466	0.00000000	92.87032000	33.06471000
92.99999465	0.00000000	92.08292000	28.42027000
93.19999464	0.00000000	91.33242000	23.81890000
93.39999463	0.00000000	90.54502000	20.42938000
93.59999461	0.00000000	90.21899000	20.01107000
93.79999460	0.00000000	90.59423000	22.23794000
93.99999459	0.00000000	91.75073000	25.72589000
94.19999458	0.00000000	93.28863000	29.95817000
94.39999457	0.00000000	94.86958000	33.76599000
94.59999455	0.00000000	96.40748000	35.71604000
94.79999454	0.00000000	97.56396000	35.71604000
94.99999453	0.00000000	97.89616000	33.76599000
95.19999452	0.00000000	97.10260000	29.95817000
95.39999451	0.00000000	94.77731000	25.77510000
95.59999449	0.00000000	91.70767000	22.70546000
95.79999448	0.00000000	88.63803000	21.49975000
95.99999447	0.00000000	86.31274000	22.23794000
96.19999446	0.00000000	85.56225000	24.14493000
96.39999445	0.00000000	86.31274000	26.88853000
96.59999444	0.00000000	88.68110000	29.95201000
96.79999442	0.00000000	92.12598000	32.60334000
96.99999441	0.00000000	95.98302000	33.76599000
97.19999440	0.00000000	99.10187000	33.02165000
97.39999439	0.00000000	101.01500000	31.11466000
97.59999438	0.00000000	101.42720000	28.46333000
97.79999436	0.00000000	99.80930000	26.14419000
97.99999435	0.00000000	96.77042000	24.98154000
98.19999434	0.00000000	92.50123000	24.52018000
98.39999433	0.00000000	88.68110000	24.93233000
98.59999432	0.00000000	85.89443000	25.68282000
98.79999430	0.00000000	84.39960000	26.83932000
98.99999429	0.00000000	84.77485000	27.95275000
99.19999428	0.00000000	87.05708000	28.42027000
99.39999427	0.00000000	90.16978000	28.79552000
99.59999426	0.00000000	93.66387000	29.20767000
99.79999425	0.00000000	97.14566000	29.21383000
99.99999423	0.00000000	99.43405000	29.62598000
100.19999422	0.00000000	100.26450000	30.00123000
100.39999421	0.00000000	99.47710000	30.41954000
100.59999420	0.00000000	97.56396000	31.11466000
100.79999419	0.00000000	94.82652000	31.06545000
100.99999417	0.00000000	91.75073000	29.95201000
101.19999416	0.00000000	89.01328000	28.37721000
101.39999415	0.00000000	87.10014000	26.46407000
101.59999414	0.00000000	86.31274000	24.56324000
101.79999413	0.00000000	87.05708000	23.81890000
101.99999411	0.00000000	88.58882000	24.15108000
102.19999410	0.00000000	90.54502000	25.35064000
102.39999409	0.00000000	92.87032000	27.30684000
102.59999408	0.00000000	94.82652000	30.00123000
102.79999407	0.00000000	96.40748000	32.64640000
102.99999406	0.00000000	97.52091000	34.18430000
103.19999404	0.00000000	97.52091000	34.18430000
103.39999403	0.00000000	96.35826000	32.64640000
103.59999402	0.00000000	94.45127000	29.95201000
103.79999401	0.00000000	92.12598000	26.88853000
103.99999400	0.00000000	90.21899000	24.14493000
104.19999398	0.00000000	89.01328000	22.23794000
104.39999397	0.00000000	88.63803000	21.49975000
104.59999396	0.00000000	89.01328000	22.65625000
104.79999395	0.00000000	90.16978000	25.30758000
104.99999394	0.00000000	91.70767000	28.37721000
105.19999392	0.00000000	93.28863000	31.11466000
105.39999391	0.00000000	94.77731000	32.97859000
105.59999390	0.00000000	95.56471000	33.43381000
105.79999389	0.00000000	95.20176000	32.28346000
105.99999388	0.00000000	94.45127000	30.78248000
106.19999387	0.00000000	93.24557000	28.74631000
106.39999385	0.00000000	91.75073000	26.51329000
106.59999384	0.00000000	90.63730000	24.61245000
106.79999383	0.00000000	90.59423000	24.23720000
106.99999382	0.00000000	91.33242000	25.30758000
107.19999381	0.00000000	92.08292000	26.83932000
107.39999379	0.00000000	92.91338000	28.42027000
107.59999378	0.00000000	93.66387000	29.95201000
107.79999377	0.00000000	94.40206000	31.06545000
107.99999376	0.00000000	94.35899000	31.06545000
108.19999375	0.00000000	93.28863000	29.95201000
108.39999374	0.00000000	92.12598000	28.42027000
108.59999372	0.00000000	91.33242000	26.88853000
108.79999371	0.00000000	90.54502000	25.72589000
108.99999370	0.00000000	90.21899000	25.35679000
109.19999369	0.00000000	90.59423000	25.72589000
109.39999368	0.00000000	91.70767000	26.93159000
109.59999366	0.00000000	92.87032000	28.79552000
109.79999365	0.00000000	93.66387000	30.69636000
109.99999364	0.00000000	94.45127000	31.48376000
110.19999363	0.00000000	94.77731000	31.53297000
110.39999362	0.00000000	94.40206000	31.11466000
110.59999360	0.00000000	93.28863000	29.95201000
110.79999359	0.00000000	92.12598000	28.42027000
110.99999358	0.00000000	91.33242000	26.88853000
111.19999357	0.00000000	90.54502000	25.72589000
111.39999356	0.00000000	90.21899000	25.35679000
111.59999355	0.00000000	90.54502000	25.68282000
111.79999353	0.00000000	91.33242000	26.46407000
111.99999352	0.00000000	92.08292000	27.21457000
112.19999351	0.00000000	92.87032000	28.04503000
112.39999350	0.00000000	93.24557000	28.79552000
112.59999349	0.00000000	93.28863000	29.58292000
112.79999347	0.00000000	93.24557000	29.95817000
112.99999346	0.00000000	92.87032000	29.95817000
113.19999345	0.00000000	92.12598000	29.58292000
113.39999344	0.00000000	91.75073000	28.83858000
113.59999343	0.00000000	91.70767000	28.46333000
113.79999341	0.00000000	91.70767000	28.37721000
113.99999340	0.00000000	91.70767000	28.00197000
114.19999339	0.00000000	91.70767000	27.25763000
114.39999338	0.00000000	91.70767000	26.88238000
114.59999337	0.00000000	91.75073000	26.83932000
114.79999336	0.00000000	92.08292000	26.83932000
114.99999334	0.00000000	92.49507000	26.83932000
115.19999333	0.00000000	92.45816000	26.83932000
115.39999332	0.00000000	92.49507000	26.83932000
115.59999331	0.00000000	92.08292000	26.88238000
115.79999330	0.00000000	91.75073000	27.30684000
115.99999328	0.00000000	91.70767000	28.42027000
116.19999327	0.00000000	91.70767000	29.53371000
116.39999326	0.00000000	91.70767000	29.95817000
116.59999325	0.00000000	91.70767000	30.00123000
116.79999324	0.00000000	91.70767000	29.95817000
116.99999322	0.00000000	91.70767000	29.58292000
117.19999321	0.00000000	91.75073000	28.79552000
117.39999320	0.00000000	92.12598000	28.00197000
117.59999319	0.00000000	92.91338000	26.83932000
117.79999318	0.00000000	93.62081000	25.72589000
117.99999317	0.00000000	94.03297000	25.35679000
118.19999315	0.00000000	93.66387000	25.68282000
118.39999314	0.00000000	93.28863000	26.46407000
118.59999313	0.00000000	92.82111000	27.21457000
118.79999312	0.00000000	91.70767000	28.04503000
118.99999311	0.00000000	90.54502000	28.79552000
119.19999309	0.00000000	89.79453000	29.58292000
119.39999308	0.00000000	89.38238000	29.95817000
119.59999307	0.00000000	89.79453000	29.95817000
119.79999306	0.00000000	90.54502000	29.58292000
119.99999305	0.00000000	91.75073000	28.83858000
120.19999303	0.00000000	93.24557000	28.42027000
120.39999302	0.00000000	94.40206000	28.00197000
120.59999301	0.00000000	94.82652000	27.25763000
120.79999300	0.00000000	94.86958000	26.88238000
120.99999299	0.00000000	94.82652000	26.83932000
121.19999298	0.00000000	94.40206000	26.83932000
121.39999296	0.00000000	93.24557000	26.83932000
121.59999295	0.00000000	91.70767000	26.88238000
121.79999294	0.00000000	90.16978000	27.25763000
121.99999293	0.00000000	89.05634000	28.04503000
122.19999292	0.00000000	89.01328000	28.79552000
122.39999290	0.00000000	89.75147000	29.58292000
122.59999289	0.00000000	90.54502000	29.95817000
122.79999288	0.00000000	91.70767000	30.00123000
122.99999287	0.00000000	92.87032000	29.95817000
123.19999286	0.00000000	93.66387000	29.58292000
123.39999284	0.00000000	94.45127000	28.83858000
123.59999283	0.00000000	94.82652000	28.46333000
123.79999282	0.00000000	94.82652000	28.37721000
123.99999281	0.00000000	94.40206000	28.00197000
124.19999280	0.00000000	93.28863000	27.25763000
124.39999279	0.00000000	92.12598000	26.88238000
124.59999277	0.00000000	91.33242000	26.83932000
124.79999276	0.00000000	90.54502000	26.88238000
124.99999275	0.00000000	90.16978000	27.25763000
125.19999274	0.00000000	90.12672000	28.00197000
125.39999273	0.00000000	90.12672000	28.37721000
125.59999271	0.00000000	90.16978000	28.42027000
125.79999270	0.00000000	90.59423000	28.42027000
125.99999269	0.00000000	91.70767000	28.42027000
126.19999268	0.00000000	92.87032000	28.42027000
126.39999267	0.00000000	93.66387000	28.42027000
126.59999265	0.00000000	94.40206000	28.37721000
126.79999264	0.00000000	94.40206000	28.00197000
126.99999263	0.00000000	93.66387000	27.25763000
127.19999262	0.00000000	92.87032000	26.88238000
127.39999261	0.00000000	91.66460000	26.83932000
127.59999260	0.00000000	90.16978000	26.83932000
127.79999258	0.00000000	89.05634000	26.83932000
127.99999257	0.00000000	89.01328000	26.88238000
128.19999256	0.00000000	89.75147000	27.25763000
128.39999255	0.00000000	90.54502000	28.00197000
128.59999254	0.00000000	91.70767000	28.37721000
128.79999252	0.00000000	92.82111000	28.42027000
128.99999251	0.00000000	93.24557000	28.37721000
129.19999250	0.00000000	93.28863000	28.00197000
129.39999249	0.00000000	93.24557000	27.25763000
129.59999248	0.00000000	92.87032000	26.93159000
129.79999246	0.00000000	92.12598000	27.21457000
129.99999245	0.00000000	91.66460000	27.58366000
130.19999244	0.00000000	90.91412000	27.25763000
130.39999243	0.00000000	89.80683000	27.25763000
130.59999242	0.00000000	89.84374000	27.62672000
130.79999241	0.00000000	90.50197000	27.63287000
130.99999239	0.00000000	91.33242000	28.04503000
131.19999238	0.00000000	92.08292000	28.32800000
131.39999237	0.00000000	92.87032000	28.00197000
131.59999236	0.00000000	93.19635000	27.25763000
131.79999235	0.00000000	92.87032000	26.88238000
131.99999233	0.00000000	92.12598000	26.83932000
132.19999232	0.00000000	91.70767000	26.83932000
132.39999231	0.00000000	91.28937000	26.83932000
132.59999230	0.00000000	90.54502000	26.83932000
132.79999229	0.00000000	90.21899000	26.88238000
132.99999227	0.00000000	90.54502000	27.25763000
133.19999226	0.00000000	91.28937000	28.04503000
133.39999225	0.00000000	91.66460000	28.79552000
133.59999224	0.00000000	91.70767000	29.53371000
133.79999223	0.00000000	91.70767000	29.53371000
133.99999222	0.00000000	91.70767000	28.83858000
134.19999220	0.00000000	91.70767000	28.42027000
134.39999219	0.00000000	91.70767000	28.00197000
134.59999218	0.00000000	91.70767000	27.21457000
134.79999217	0.00000000	91.70767000	26.46407000
134.99999216	0.00000000	91.70767000	25.72589000
135.19999214	0.00000000	91.70767000	25.72589000
135.39999213	0.00000000	91.75073000	26.46407000
135.59999212	0.00000000	92.08292000	27.21457000
135.79999211	0.00000000	92.40280000	28.00197000
135.99999210	0.00000000	91.66460000	28.37721000
136.19999208	0.00000000	90.59423000	28.42027000
136.39999207	0.00000000	90.16978000	28.42027000
136.59999206	0.00000000	90.12672000	28.42027000
136.79999205	0.00000000	90.12672000	28.42027000
136.99999204	0.00000000	90.16978000	28.37721000
137.19999203	0.00000000	90.59423000	28.00197000
137.39999201	0.00000000	91.70767000	27.25763000
137.59999200	0.00000000	92.82111000	26.88238000
137.79999199	0.00000000	93.24557000	26.83932000
137.99999198	0.00000000	93.28863000	26.83932000
138.19999197	0.00000000	93.19635000	26.83932000
138.39999195	0.00000000	92.45201000	26.83932000
138.59999194	0.00000000	90.96333000	26.88238000
138.79999193	0.00000000	90.21899000	27.25763000
138.99999192	0.00000000	90.12672000	28.00197000
139.19999191	0.00000000	90.12672000	28.42027000
139.39999189	0.00000000	90.16978000	28.83858000
139.59999188	0.00000000	90.54502000	29.58292000
139.79999187	0.00000000	91.33242000	29.90895000
139.99999186	0.00000000	92.08292000	29.58292000
140.19999185	0.00000000	92.82111000	28.79552000
140.39999184	0.00000000	92.82111000	28.00197000
140.59999182	0.00000000	92.12598000	26.88853000
140.79999181	0.00000000	91.75073000	26.14419000
140.99999180	0.00000000	91.66460000	26.42101000
141.19999179	0.00000000	91.28937000	26.42101000
141.39999178	0.00000000	90.59423000	26.10113000
141.59999176	0.00000000	90.59423000	26.51329000
141.79999175	0.00000000	91.28937000	27.25763000
141.99999174	0.00000000	91.66460000	28.42027000
142.19999173	0.00000000	91.70767000	29.53371000
142.39999172	0.00000000	91.70767000	29.90895000
142.59999170	0.00000000	91.70767000	29.58292000
142.79999169	0.00000000	91.70767000	28.79552000
142.99999168	0.00000000	91.70767000	28.04503000
143.19999167	0.00000000	91.70767000	27.21457000
143.39999166	0.00000000	91.66460000	26.46407000
143.59999165	0.00000000	91.33242000	25.68282000
143.79999163	0.00000000	90.92027000	25.35679000
143.99999162	0.00000000	90.95718000	25.68282000
144.19999161	0.00000000	90.92027000	26.46407000
144.39999160	0.00000000	91.33242000	27.21457000
144.59999159	0.00000000	91.66460000	28.00197000
144.79999157	0.00000000	91.70767000	28.37721000
144.99999156	0.00000000	91.70767000	28.42027000
145.19999155	0.00000000	91.70767000	28.42027000
145.39999154	0.00000000	91.66460000	28.37721000
145.59999153	0.00000000	91.28937000	28.00197000
145.79999151	0.00000000	90.54502000	27.25763000
145.99999150	0.00000000	90.16978000	26.88238000
146.19999149	0.00000000	90.16978000	26.83932000
146.39999148	0.00000000	90.54502000	26.83932000
146.59999147	0.00000000	91.28937000	26.83932000
146.79999146	0.00000000	91.66460000	26.83932000
146.99999144	0.00000000	91.75073000	26.88238000
147.19999143	0.00000000	92.08292000	27.25763000
147.39999142	0.00000000	92.45201000	28.00197000
147.59999141	0.00000000	92.08292000	28.37721000
147.79999140	0.00000000	91.70767000	28.42027000
147.99999138	0.00000000	91.28937000	28.42027000
148.19999137	0.00000000	90.54502000	28.37721000
148.39999136	0.00000000	90.16978000	28.00197000
148.59999135	0.00000000	90.12672000	27.25763000
148.79999134	0.00000000	90.12672000	26.88238000
148.99999132	0.00000000	90.16978000	26.83932000
149.19999131	0.00000000	90.54502000	26.83932000
149.39999130	0.00000000	91.28937000	26.83932000
149.59999129	0.00000000	91.66460000	26.83932000
149.79999128	0.00000000	91.70767000	26.83932000
149.99999127	0.00000000	91.70767000	26.88238000
150.19999125	0.00000000	91.70767000	27.25763000
150.39999124	0.00000000	91.70767000	28.00197000
150.59999123	0.00000000	91.66460000	28.37721000
150.79999122	0.00000000	91.28937000	28.42027000
150.99999121	0.00000000	90.54502000	28.42027000
151.19999119	0.00000000	90.16978000	28.42027000
151.39999118	0.00000000	90.16978000	28.42027000
151.59999117	0.00000000	90.54502000	28.37721000
151.79999116	0.00000000	91.28937000	28.00197000
151.99999115	0.00000000	91.66460000	27.30684000
152.19999113	0.00000000	91.70767000	27.25763000
152.39999112	0.00000000	91.70767000	27.62672000
152.59999111	0.00000000	91.70767000	27.63287000
152.79999110	0.00000000	91.75073000	28.04503000
152.99999109	0.00000000	92.08292000	28.37721000
153.19999108	0.00000000	92.45201000	28.42027000
153.39999106	0.00000000	92.08292000	28.42027000
153.59999105	0.00000000	91.70767000	28.42027000
153.79999104	0.00000000	91.28937000	28.42027000
153.99999103	0.00000000	90.54502000	28.42027000
154.19999102	0.00000000	90.16978000	28.42027000
154.39999100	0.00000000	90.12672000	28.42027000
154.59999099	0.00000000	90.16978000	28.42027000
154.79999098	0.00000000	90.54502000	28.37721000
154.99999097	0.00000000	91.28937000	28.00197000
155.19999096	0.00000000	91.66460000	27.25763000
155.39999094	0.00000000	91.70767000	26.88238000
155.59999093	0.00000000	91.70767000	26.83932000
155.79999092	0.00000000	91.70767000	26.83932000
155.99999091	0.00000000	91.70767000	26.83932000
156.19999090	0.00000000	91.70767000	26.88238000
156.39999089	0.00000000	91.66460000	27.25763000
156.59999087	0.00000000	91.28937000	28.00197000
156.79999086	0.00000000	90.54502000	28.37721000
156.99999085	0.00000000	90.16978000	28.42027000
157.19999084	0.00000000	90.12672000	28.42027000
157.39999083	0.00000000	90.12672000	28.37721000
157.59999081	0.00000000	90.12672000	28.00197000
157.79999080	0.00000000	90.16978000	27.25763000
157.99999079	0.00000000	90.54502000	26.88238000
158.19999078	0.00000000	91.28937000	26.83932000
158.39999077	0.00000000	91.66460000	26.83932000
158.59999075	0.00000000	91.70767000	26.83932000
158.79999074	0.00000000	91.70767000	26.83932000
158.99999073	0.00000000	91.70767000	26.83932000
159.19999072	0.00000000	91.66460000	26.88238000
159.39999071	0.00000000	91.28937000	27.25763000
159.59999070	0.00000000	90.54502000	28.00197000
159.79999068	0.00000000	90.16978000	28.37721000
159.99999067	0.00000000	90.12672000	28.42027000
160.19999066	0.00000000	90.12672000	28.37721000
160.39999065	0.00000000	90.12672000	28.00197000
160.59999064	0.00000000	90.16978000	27.25763000
160.79999062	0.00000000	90.50197000	26.88238000
160.99999061	0.00000000	90.87106000	26.83932000
161.19999060	0.00000000	90.50197000	26.83932000
161.39999059	0.00000000	90.21899000	26.83932000
161.59999058	0.00000000	90.50197000	26.83932000
161.79999056	0.00000000	90.91412000	26.83932000
161.99999055	0.00000000	90.92027000	26.83932000
162.19999054	0.00000000	91.33242000	26.88238000
162.39999053	0.00000000	91.61539000	27.21457000
162.59999052	0.00000000	91.28937000	27.62672000
162.79999051	0.00000000	90.54502000	27.63287000
162.99999049	0.00000000	90.16978000	28.04503000
163.19999048	0.00000000	90.12672000	28.32800000
163.39999047	0.00000000	90.12672000	28.00197000
163.59999046	0.00000000	90.12672000	27.25763000
163.79999045	0.00000000	90.12672000	26.88238000
163.99999043	0.00000000	90.12672000	26.83932000
164.19999042	0.00000000	90.12672000	26.83932000
164.39999041	0.00000000	90.16978000	26.83932000
164.59999040	0.00000000	90.54502000	26.79626000
164.79999039	0.00000000	91.28937000	26.46407000
164.99999037	0.00000000	91.66460000	26.14419000
165.19999036	0.00000000	91.70767000	26.83932000
165.39999035	0.00000000	91.66460000	27.53445000
165.59999034	0.00000000	91.28937000	27.21457000
165.79999033	0.00000000	90.54502000	26.88238000
165.99999032	0.00000000	90.16978000	26.88238000
166.19999030	0.00000000	90.12672000	27.21457000
166.39999029	0.00000000	90.12672000	27.58366000
166.59999028	0.00000000	90.12672000	27.21457000
166.79999027	0.00000000	90.12672000	26.88238000
166.99999026	0.00000000	90.12672000	26.83932000
167.19999024	0.00000000	90.16978000	26.83932000
167.39999023	0.00000000	90.54502000	26.88238000
167.59999022	0.00000000	91.24016000	27.21457000
167.79999021	0.00000000	91.28937000	27.58366000
167.99999020	0.00000000	90.96333000	27.21457000
168.19999018	0.00000000	91.33242000	26.88238000
168.39999017	0.00000000	91.61539000	26.83932000
168.59999016	0.00000000	91.28937000	26.83932000
168.79999015	0.00000000	90.54502000	26.83932000
168.99999014	0.00000000	90.16978000	26.83932000
169.19999013	0.00000000	90.12672000	26.83932000
169.39999011	0.00000000	90.12672000	26.83932000
169.59999010	0.00000000	90.12672000	26.83932000
169.79999009	0.00000000	90.12672000	26.83932000
169.99999008	0.00000000	90.12672000	26.83932000
170.19999007	0.00000000	90.12672000	26.83932000
170.39999005	0.00000000	90.12672000	26.83932000
170.59999004	0.00000000	90.12672000	26.83932000
170.79999003	0.00000000	90.12672000	26.83932000
170.99999002	0.00000000	90.12672000	26.83932000
171.19999001	0.00000000	90.16978000	26.83932000
171.39998999	0.00000000	90.54502000	26.83932000
171.59998998	0.00000000	91.24016000	26.83932000
171.79998997	0.00000000	91.24016000	26.83932000
171.99998996	0.00000000	90.54502000	26.83932000
172.19998995	0.00000000	90.16978000	26.83932000
172.39998994	0.00000000	90.12672000	26.83932000
172.59998992	0.00000000	90.12672000	26.83932000
172.79998991	0.00000000	90.12672000	26.83932000
172.99998990	0.00000000	90.12672000	26.83932000
173.19998989	0.00000000	90.12672000	26.83932000
173.39998988	0.00000000	90.12672000	26.83932000
173.59998986	0.00000000	90.12672000	26.83932000
173.79998985	0.00000000	90.12672000	26.83932000
173.99998984	0.00000000	90.12672000	26.83932000
174.19998983	0.00000000	90.12672000	26.83932000
174.39998982	0.00000000	90.12672000	26.83932000
174.59998980	0.00000000	90.12672000	26.83932000
174.79998979	0.00000000	90.12672000	26.83932000
174.99998978	0.00000000	90.12672000	26.83932000
175.19998977	0.00000000	90.12672000	26.83932000
175.39998976	0.00000000	90.12672000	26.83932000
175.59998975	0.00000000	90.12672000	26.83932000
175.79998973	0.00000000	90.08366000	26.83932000
175.99998972	0.00000000	89.75147000	26.83932000
176.19998971	0.00000000	89.38238000	26.83932000
176.39998970	0.00000000	89.75147000	26.83932000
176.59998969	0.00000000	90.08366000	26.83932000
176.79998967	0.00000000	90.12672000	26.83932000
176.99998966	0.00000000	90.12672000	26.83932000
177.19998965	0.00000000	90.12672000	26.83932000
177.39998964	0.00000000	90.12672000	26.83932000
177.59998963	0.00000000	90.12672000	26.83932000
177.79998961	0.00000000	90.12672000	26.83932000
177.99998960	0.00000000	90.12672000	26.83932000
178.19998959	0.00000000	90.12672000	26.83932000
178.39998958	0.00000000	90.12672000	26.83932000
178.59998957	0.00000000	90.12672000	26.83932000
178.79998956	0.00000000	90.12672000	26.83932000
178.99998954	0.00000000	90.12672000	26.83932000
179.19998953	0.00000000	90.12672000	26.83932000
179.39998952	0.00000000	90.12672000	26.83932000
179.59998951	0.00000000	90.12672000	26.79626000
179.79998950	0.00000000	90.12672000	26.46407000
179.99998948	0.00000000	90.12672000	26.10113000
180.19998947	0.00000000	90.12672000	26.46407000
180.39998946	0.00000000	90.12672000	26.79626000
180.59998945	0.00000000	90.12672000	26.83932000
180.79998944	0.00000000	90.12672000	26.83932000
180.99998942	0.00000000	90.12672000	26.83932000
181.19998941	0.00000000	90.12672000	26.83932000
181.39998940	0.00000000	90.12672000	26.83932000
181.59998939	0.00000000	90.12672000	26.83932000
181.79998938	0.00000000	90.12672000	26.83932000
181.99998937	0.00000000	90.12672000	26.83932000
182.19998935	0.00000000	90.12672000	26.83932000
182.39998934	0.00000000	90.12672000	26.83932000
182.59998933	0.00000000	90.12672000	26.83932000
182.79998932	0.00000000	90.12672000	26.83932000
182.99998931	0.00000000	90.12672000	26.83932000
183.19998929	0.00000000	90.12672000	26.83932000
183.39998928	0.00000000	90.12672000	26.83932000
183.59998927	0.00000000	90.12672000	26.83932000
183.79998926	0.00000000	90.12672000	26.83932000
183.99998925	0.00000000	90.12672000	26.88238000
184.19998923	0.00000000	90.12672000	27.25763000
184.39998922	0.00000000	90.12672000	28.00197000
184.59998921	0.00000000	90.12672000	28.37721000
184.79998920	0.00000000	90.12672000	28.42027000
184.99998919	0.00000000	90.12672000	28.42027000
185.19998918	0.00000000	90.12672000	28.37721000
185.39998916	0.00000000	90.12672000	28.00197000
185.59998915	0.00000000	90.12672000	27.25763000
185.79998914	0.00000000	90.12672000	26.88238000
185.99998913	0.00000000	90.12672000	26.83932000
186.19998912	0.00000000	90.12672000	26.83932000
186.39998910	0.00000000	90.12672000	26.83932000
186.59998909	0.00000000	90.12672000	26.83932000
186.79998908	0.00000000	90.12672000	26.83932000
186.99998907	0.00000000	90.12672000	26.83932000
187.19998906	0.00000000	90.12672000	26.88238000
187.39998904	0.00000000	90.12672000	27.25763000
187.59998903	0.00000000	90.12672000	28.00197000
187.79998902	0.00000000	90.12672000	28.32800000
187.99998901	0.00000000	90.12672000	28.00197000
188.19998900	0.00000000	90.12672000	27.25763000
188.39998899	0.00000000	90.12672000	26.88238000
188.59998897	0.00000000	90.12672000	26.83932000
188.79998896	0.00000000	90.12672000	26.79626000
188.99998895	0.00000000	90.12672000	26.42101000
189.19998894	0.00000000	90.12672000	25.72589000
189.39998893	0.00000000	90.12672000	25.72589000
189.59998891	0.00000000	90.12672000	26.42101000
189.79998890	0.00000000	90.12672000	26.79626000
189.99998889	0.00000000	90.08366000	26.83932000
190.19998888	0.00000000	89.75147000	26.83932000
190.39998887	0.00000000	89.38238000	26.83932000
190.59998885	0.00000000	89.75147000	26.83932000
190.79998884	0.00000000	90.08366000	26.83932000
190.99998883	0.00000000	90.12672000	26.88238000
191.19998882	0.00000000	90.12672000	27.21457000
191.39998881	0.00000000	90.12672000	27.58366000
191.59998880	0.00000000	90.12672000	27.21457000
191.79998878	0.00000000	90.12672000	26.88238000
191.99998877	0.00000000	90.12672000	26.83932000
192.19998876	0.00000000	90.12672000	26.79626000
192.39998875	0.00000000	90.12672000	26.46407000
192.59998874	0.00000000	90.12672000	26.10113000
192.79998872	0.00000000	90.08366000	26.46407000
192.99998871	0.00000000	89.75147000	26.79626000
193.19998870	0.00000000	89.33932000	26.83932000
193.39998869	0.00000000	89.37623000	26.83932000
193.59998868	0.00000000	89.33932000	26.88238000
193.79998866	0.00000000	89.75147000	27.21457000
193.99998865	0.00000000	90.08366000	27.58366000
194.19998864	0.00000000	90.12672000	27.21457000
194.39998863	0.00000000	90.12672000	26.88238000
194.59998862	0.00000000	90.12672000	26.83932000
194.79998861	0.00000000	90.12672000	26.83932000
194.99998859	0.00000000	90.12672000	26.83932000
195.19998858	0.00000000	90.12672000	26.83932000
195.39998857	0.00000000	90.12672000	26.83932000
195.59998856	0.00000000	90.12672000	26.83932000
195.79998855	0.00000000	90.08366000	26.83932000
195.99998853	0.00000000	89.75147000	26.83932000
