Time	Channel A	Channel B	Channel C
(us)	(V)	(mV)	(mV)

-4.49999956	0.00000000	44.27288000	6.68676100
-4.29999957	0.00000000	44.27288000	6.35457700
-4.09999958	0.00000000	44.27288000	6.31151500
-3.89999959	0.00000000	44.27288000	6.31151500
-3.69999960	0.00000000	44.22982000	6.31151500
-3.49999962	0.00000000	43.89763000	6.35457700
-3.29999963	0.00000000	43.52854000	6.72982200
-3.09999964	0.00000000	43.85457000	7.42495000
-2.89999965	0.00000000	43.80536000	7.42495000
-2.69999966	0.00000000	43.15945000	6.72982200
-2.49999968	0.00000000	43.11023000	6.35457700
-2.29999969	0.00000000	43.43627000	6.35457700
-2.09999970	0.00000000	43.11023000	6.68676100
-1.89999971	0.00000000	43.15945000	7.05585600
-1.69999972	0.00000000	43.80536000	6.68676100
-1.49999973	0.00000000	43.85457000	6.35457700
-1.29999975	0.00000000	43.52854000	6.31151500
-1.09999976	0.00000000	43.85457000	6.31151500
-0.89999977	0.00000000	43.80536000	6.31151500
-0.69999978	0.00000000	43.15945000	6.31151500
-0.49999979	0.00000000	43.11023000	6.31151500
-0.29999981	0.31803640	43.47933000	6.31151500
-0.09999982	0.63668800	43.48548000	6.31151500
0.10000017	0.95533960	43.89763000	6.31151500
0.30000016	0.95533960	44.18061000	6.31151500
0.50000015	0.95533960	43.85457000	6.31151500
0.70000013	0.47736220	43.11023000	6.31151500
0.90000012	-0.31803640	42.78420000	6.35457700
1.10000011	-1.43331700	43.06717000	6.68676100
1.30000010	-2.22994600	43.47933000	7.05585600
1.50000009	-2.86724900	43.48548000	6.72982200
1.70000008	-2.54859700	43.89763000	6.77903500
1.90000006	-1.59264300	44.18061000	7.47416300
2.10000005	0.31803640	43.89763000	7.80019600
2.30000004	2.38927200	43.48548000	7.47416300
2.50000003	4.30056600	43.47933000	6.72982200
2.70000002	5.25652100	43.06717000	6.35457700
2.90000000	5.09719500	42.73499000	6.31151500
3.09999999	3.18590100	42.69193000	6.31151500
3.29999998	0.31803640	42.69193000	6.31151500
3.49999997	-3.02657500	42.69193000	6.35457700
3.69999996	-6.05315000	42.73499000	6.68676100
3.89999994	-7.80511800	43.11023000	7.09891700
4.09999993	-7.64579200	43.85457000	7.10506800
4.29999992	-5.41584600	44.22982000	7.51722400
4.49999991	-1.59264300	44.27288000	7.84940900
4.69999990	2.70792300	44.27288000	7.84940900
4.89999989	6.69045300	44.27288000	7.47416300
5.09999987	9.07972400	44.22982000	6.72982200
5.29999986	9.23905000	43.89763000	6.35457700
5.49999985	7.00848900	43.48548000	6.31151500
5.69999984	3.02657500	43.47933000	6.31151500
5.89999983	-1.75196900	43.06717000	6.31151500
6.09999981	-6.05315000	42.73499000	6.31151500
6.29999980	-8.92039900	42.69193000	6.31151500
6.49999979	-9.39837600	42.73499000	6.35457700
6.69999978	-7.64579200	43.11023000	6.72982200
6.89999977	-3.98191400	43.80536000	7.47416300
7.09999975	0.47736220	43.80536000	7.80019600
7.29999974	4.45989200	43.11023000	7.47416300
7.49999973	7.00848900	42.73499000	6.72982200
7.69999972	7.80511800	42.69193000	6.35457700
7.89999971	6.53112700	42.69193000	6.31151500
8.09999970	3.82258900	42.69193000	6.31151500
8.29999968	0.47736220	42.69193000	6.31151500
8.49999967	-2.38927200	42.69193000	6.31151500
8.69999966	-4.45989200	42.69193000	6.31151500
8.89999965	-5.25652100	42.69193000	6.35457700
9.09999964	-4.45989200	42.69193000	6.68676100
9.29999962	-2.86724900	42.69193000	7.05585600
9.49999961	-0.95533960	42.69193000	6.68676100
9.69999960	0.79601380	42.69193000	6.35457700
9.89999959	2.07062000	42.69193000	6.31151500
10.09999958	2.54859700	42.69193000	6.31151500
10.29999956	2.22994600	42.69193000	6.31151500
10.49999955	1.59264300	42.69193000	6.31151500
10.69999954	0.63668800	42.69193000	6.31151500
10.89999953	-0.15871060	42.73499000	6.31151500
11.09999952	-0.63668800	43.06717000	6.31151500
11.29999951	-0.95533960	43.43627000	6.31151500
11.49999949	-0.95533960	43.06717000	6.31151500
11.69999948	-0.79601380	42.73499000	6.35457700
11.89999947	-0.47736220	42.69193000	6.68676100
12.09999946	-0.15871060	42.69193000	7.05585600
12.29999945	-0.15871060	42.69193000	6.68676100
12.49999943	0.00000000	42.73499000	6.35457700
12.69999942	0.00000000	43.06717000	6.31151500
12.89999941	0.00000000	43.43627000	6.31151500
13.09999940	0.00000000	43.06717000	6.31151500
13.29999939	0.15871060	42.73499000	6.31151500
13.49999937	0.00000000	42.69193000	6.31151500
13.69999936	0.00000000	42.69193000	6.31151500
13.89999935	0.00000000	42.69193000	6.31151500
14.09999934	0.00000000	42.69193000	6.31151500
14.29999933	-0.15871060	42.69193000	6.31151500
14.49999932	-0.15871060	42.69193000	6.31151500
14.69999930	-0.15871060	42.69193000	6.31151500
14.89999929	0.00000000	42.69193000	6.31151500
15.09999928	0.00000000	42.69193000	6.31151500
15.29999927	0.00000000	42.69193000	6.31151500
15.49999926	0.00000000	42.69193000	6.35457700
15.69999924	0.00000000	42.69193000	6.68676100
15.89999923	0.00000000	42.69193000	7.05585600
16.09999922	0.00000000	42.69193000	6.68676100
16.29999921	0.00000000	42.69193000	6.35457700
16.49999920	0.00000000	42.73499000	6.31151500
16.69999919	0.00000000	43.11023000	6.31151500
16.89999917	-0.15871060	43.85457000	6.31151500
17.09999916	0.00000000	44.22982000	6.31151500
17.29999915	0.00000000	44.27288000	6.31151500
17.49999914	0.00000000	44.27288000	6.31151500
17.69999913	0.00000000	44.27288000	6.31151500
17.89999911	0.00000000	44.22982000	6.31151500
18.09999910	0.00000000	43.80536000	6.31151500
18.29999909	0.00000000	42.64886000	6.35457700
18.49999908	0.00000000	41.11097000	6.68676100
18.69999907	-0.15871060	39.57308000	7.05585600
18.89999905	0.00000000	38.45964000	6.68676100
19.09999904	0.00000000	38.45964000	6.35457700
19.29999903	0.00000000	39.62229000	6.31151500
19.49999902	0.00000000	41.62155000	6.31151500
19.69999901	0.00000000	44.78346000	6.31151500
19.89999900	0.00000000	48.97269000	6.31151500
20.09999898	0.00000000	52.78666000	6.31151500
20.29999897	0.00000000	54.69365000	6.31151500
20.49999896	0.00000000	54.27534000	6.31151500
20.69999895	0.00000000	51.07037000	6.31151500
20.89999894	0.00000000	44.88189000	6.31151500
21.09999892	0.00000000	36.78642000	6.31151500
21.29999891	0.00000000	29.06004000	6.31151500
21.49999890	0.00000000	23.28986000	6.31151500
21.69999889	0.00000000	21.09990000	6.31151500
21.89999888	0.00000000	24.21875000	6.31151500
22.09999886	0.00000000	32.35728000	6.31151500
22.29999885	0.00000000	43.62082000	6.31151500
22.49999884	0.00000000	56.36687000	6.31151500
22.69999883	0.00000000	67.48892000	6.31151500
22.89999882	0.00000000	73.63435000	6.35457700
23.09999881	0.00000000	73.21604000	6.72982200
23.29999879	0.00000000	65.77264000	7.47416300
23.49999878	0.00000000	52.18381000	7.89247000
23.69999877	0.00000000	34.78716000	8.26771600
23.89999876	0.00000000	17.47662000	8.63681000
24.09999875	0.00000000	4.77362200	8.26771600
24.29999873	0.00000000	0.20915350	7.89247000
24.49999872	0.00000000	5.28420300	7.42495000
24.69999871	0.00000000	19.65428000	6.22539300
24.89999870	0.00000000	40.50196000	4.36146600
25.09999869	0.00000000	63.25048000	2.41141700
25.29999867	0.00000000	82.14198000	1.29183100
25.49999866	0.00000000	92.56889000	0.92888770
25.69999865	0.00000000	92.10137000	2.12844500
25.89999864	0.00000000	80.09966000	4.82283400
26.09999863	0.00000000	58.88287000	8.31077700
26.29999862	0.00000000	33.80290000	12.21087000
26.49999860	0.00000000	10.62992000	15.64960000
26.69999859	0.00000000	-5.22883800	17.92569000
26.89999858	0.00000000	-10.25467000	17.83957000
27.09999857	0.00000000	-3.64788400	14.72687000
27.29999856	0.00000000	13.70571000	8.91978400
27.49999854	0.00000000	37.61687000	1.58095500
27.69999853	0.00000000	61.95866000	-5.75787400
27.89999852	0.00000000	81.68060000	-11.47884000
28.09999851	0.00000000	92.10137000	-13.74877000
28.29999850	0.00000000	91.03100000	-11.42962000
28.49999848	0.00000000	79.49064000	-5.20423200
28.69999847	0.00000000	60.55610000	4.17691900
28.89999846	0.00000000	38.59498000	15.74188000
29.09999845	0.00000000	18.78076000	26.84547000
29.29999844	0.00000000	5.18577700	34.14124000
29.49999843	0.00000000	-0.62130900	35.67913000
29.69999841	0.00000000	3.23572800	30.98548000
29.89999840	0.00000000	15.52042000	20.48474000
30.09999839	0.00000000	32.50492000	5.85014700
30.29999838	0.00000000	50.69513000	-9.57185000
30.49999837	0.00000000	65.77264000	-21.93036000
30.69999835	0.00000000	74.79699000	-28.85088000
30.89999834	0.00000000	76.75320000	-28.43258000
31.09999833	0.00000000	71.77042000	-20.30635000
31.29999832	0.00000000	60.97440000	-6.40994000
31.49999831	0.00000000	47.47785000	10.62992000
31.69999829	0.00000000	34.22121000	27.22072000
31.89999828	0.00000000	23.37598000	39.95448000
32.09999827	0.00000000	16.77534000	45.71235000
32.29999826	0.00000000	16.02485000	43.02411000
32.49999825	0.00000000	20.96457000	32.60949000
32.69999824	0.00000000	30.21653000	16.76919000
32.89999822	0.00000000	41.06176000	-0.97810030
33.09999821	0.00000000	51.53174000	-16.86762000
33.29999820	0.00000000	59.62721000	-27.69439000
33.49999819	0.00000000	63.16436000	-31.59449000
33.69999818	0.00000000	62.00172000	-27.69439000
33.89999816	0.00000000	56.64370000	-16.91068000
34.09999815	0.00000000	48.18528000	-1.44562000
34.29999814	0.00000000	39.70842000	15.14518000
34.49999813	0.00000000	32.68332000	29.45374000
34.69999812	0.00000000	28.45103000	38.33046000
34.89999810	0.00000000	28.03272000	39.90526000
35.09999809	0.00000000	31.10236000	34.14124000
35.29999808	0.00000000	36.87869000	22.57628000
35.49999807	0.00000000	43.76230000	7.94168200
35.69999806	0.00000000	49.53248000	-6.32381900
35.89999805	0.00000000	52.65133000	-16.77534000
36.09999803	0.00000000	52.69439000	-21.46899000
36.29999802	0.00000000	50.00000000	-19.88804000
36.49999801	0.00000000	45.38631000	-12.21703000
36.69999800	0.00000000	39.99754000	-0.33218500
36.89999799	0.00000000	35.42692000	11.98942000
37.09999797	0.00000000	33.05856000	22.02264000
37.29999796	0.00000000	33.47072000	27.41142000
37.49999795	0.00000000	36.13435000	26.66708000
37.69999794	0.00000000	40.77879000	20.57702000
37.89999793	0.00000000	45.71850000	10.96211000
38.09999791	0.00000000	49.62475000	0.63976370
38.29999790	0.00000000	51.58095000	-7.39419200
38.49999789	0.00000000	51.58095000	-10.45768000
38.69999788	0.00000000	49.66781000	-7.81250000
38.89999787	0.00000000	46.13681000	-0.60285430
39.09999786	0.00000000	41.89838000	8.59375000
39.29999784	0.00000000	37.24778000	16.67692000
39.49999783	0.00000000	33.80290000	22.02264000
39.69999782	0.00000000	32.22195000	22.71777000
39.89999781	0.00000000	32.59719000	17.74729000
40.09999780	0.00000000	34.92249000	9.01205700
40.29999778	0.00000000	38.41658000	-0.60285430
40.49999777	0.00000000	42.69193000	-8.27386800
40.69999776	0.00000000	46.92421000	-12.13091000
40.89999775	0.00000000	50.04306000	-10.96826000
41.09999774	0.00000000	51.62401000	-5.20423200
41.29999772	0.00000000	51.62401000	3.62327700
41.49999771	0.00000000	50.04306000	13.23819000
41.69999770	0.00000000	46.92421000	20.90305000
41.89999769	0.00000000	42.69193000	24.76009000
42.09999768	0.00000000	38.45964000	23.64665000
42.29999767	0.00000000	35.34079000	18.30093000
42.49999765	0.00000000	33.75369000	10.58686000
42.69999764	0.00000000	33.75369000	2.12844500
42.89999763	0.00000000	35.29773000	-4.78592500
43.09999762	0.00000000	37.99213000	-8.27386800
43.29999761	0.00000000	41.06791000	-7.94783400
43.49999759	0.00000000	43.80536000	-4.14000900
43.69999758	0.00000000	45.76156000	1.62401600
43.89999757	0.00000000	46.92421000	7.80019600
44.09999756	0.00000000	46.96727000	13.18898000
44.29999755	0.00000000	46.22908000	16.25861000
44.49999753	0.00000000	45.47859000	16.35089000
44.69999752	0.00000000	44.69119000	14.11786000
44.89999751	0.00000000	44.31594000	11.00517000
45.09999750	0.00000000	44.22982000	7.51722400
45.29999749	0.00000000	43.80536000	4.03543200
45.49999748	0.00000000	42.59965000	1.71013800
45.69999746	0.00000000	40.64345000	0.55364170
45.89999745	0.00000000	37.94907000	0.92888770
46.09999744	0.00000000	35.24852000	2.82972400
46.29999743	0.00000000	33.33538000	5.11195900
46.49999742	0.00000000	32.59104000	7.47416300
46.69999740	0.00000000	33.84596000	9.38115100
46.89999739	0.00000000	37.34006000	10.53765000
47.09999738	0.00000000	42.78420000	10.58686000
47.29999737	0.00000000	48.92347000	9.79945900
47.49999736	0.00000000	54.31840000	8.58759800
47.69999734	0.00000000	57.39419000	6.26845500
47.89999733	0.00000000	57.34498000	3.66633800
48.09999732	0.00000000	53.80782000	2.08538400
48.29999731	0.00000000	46.88115000	1.66707700
48.49999730	0.00000000	38.41043000	2.04232300
48.69999729	0.00000000	30.64099000	3.24803100
48.89999727	0.00000000	24.91388000	5.19808000
49.09999726	0.00000000	23.05610000	7.93553100
49.29999725	0.00000000	26.49483000	10.96211000
49.49999724	0.00000000	33.75369000	13.23819000
49.69999723	0.00000000	42.69193000	13.61343000
49.89999721	0.00000000	51.58095000	12.11860000
50.09999720	0.00000000	58.46457000	9.38115100
50.29999719	0.00000000	61.15895000	5.89320800
50.49999718	0.00000000	58.88287000	2.04232300
50.69999717	0.00000000	52.69439000	-0.97810030
50.89999715	0.00000000	43.85457000	-2.18380900
51.09999714	0.00000000	34.63951000	-1.39640700
51.29999713	0.00000000	28.07579000	0.92888770
51.49999712	0.00000000	25.33218000	4.82898600
51.69999711	0.00000000	26.87008000	9.38115100
51.89999710	0.00000000	32.30807000	13.23819000
52.09999708	0.00000000	40.36663000	15.14518000
52.29999707	0.00000000	49.15723000	14.81299000
52.49999706	0.00000000	55.25959000	12.49385000
52.69999705	0.00000000	56.88361000	9.05511800
52.89999704	0.00000000	54.23228000	5.15501900
53.09999702	0.00000000	48.50517000	1.71013800
53.29999701	0.00000000	41.52928000	-0.60285430
53.49999700	0.00000000	35.00861000	-0.97810030
53.69999699	0.00000000	30.40723000	0.51058070
53.89999698	0.00000000	29.65674000	3.19881900
54.09999696	0.00000000	32.64025000	6.26845500
54.29999695	0.00000000	38.03519000	8.96284400
54.49999694	0.00000000	44.18061000	10.49459000
54.69999693	0.00000000	49.57554000	10.49459000
54.89999692	0.00000000	52.65133000	9.00590400
55.09999691	0.00000000	52.65133000	6.77903500
55.29999689	0.00000000	49.62475000	5.24729300
55.49999688	0.00000000	44.60506000	4.82898600
55.69999687	0.00000000	39.24089000	5.19808000
55.89999686	0.00000000	34.59645000	6.36072800
56.09999685	0.00000000	32.30807000	7.89247000
56.29999683	0.00000000	32.64025000	9.42421200
56.49999682	0.00000000	35.34079000	10.49459000
56.69999681	0.00000000	39.57308000	10.07628000
56.89999680	0.00000000	44.18061000	7.80019600
57.09999679	0.00000000	48.04380000	4.73671200
57.29999677	0.00000000	49.95078000	1.62401600
57.49999676	0.00000000	49.62475000	-1.02116100
57.69999675	0.00000000	47.34252000	-2.09153500
57.89999674	0.00000000	44.27288000	-0.51673230
58.09999673	0.00000000	41.15403000	3.66633800
58.29999672	0.00000000	38.45964000	9.05511800
58.49999670	0.00000000	36.92175000	14.03174000
58.69999669	0.00000000	36.87869000	17.50738000
58.89999668	0.00000000	37.99213000	18.21481000
59.09999667	0.00000000	39.57308000	15.92642000
59.29999666	0.00000000	41.48622000	10.86983000
59.49999664	0.00000000	43.43627000	4.36146600
59.69999663	0.00000000	44.55585000	-2.18380900
59.89999662	0.00000000	44.96801000	-6.74212600
60.09999661	0.00000000	44.18061000	-7.94783400
60.29999660	0.00000000	42.73499000	-5.57947800
60.49999658	0.00000000	41.57849000	-0.22760820
60.69999657	0.00000000	41.15403000	7.14812900
60.89999656	0.00000000	41.11097000	14.40699000
61.09999655	0.00000000	41.15403000	20.20177000
61.29999654	0.00000000	41.52928000	22.44094000
61.49999653	0.00000000	42.27362000	20.57702000
61.69999651	0.00000000	42.64886000	15.18824000
61.89999650	0.00000000	42.64886000	7.84940900
62.09999649	0.00000000	42.22441000	0.13533460
62.29999648	0.00000000	41.11097000	-6.40994000
62.49999647	0.00000000	39.99754000	-9.84867000
62.69999645	0.00000000	39.57308000	-9.47957600
62.89999644	0.00000000	39.57308000	-5.25344500
63.09999643	0.00000000	39.99754000	1.66707700
63.29999642	0.00000000	41.15403000	9.38115100
63.49999641	0.00000000	42.69193000	16.30167000
63.69999639	0.00000000	44.22982000	20.57702000
63.89999638	0.00000000	45.34325000	21.37057000
64.09999637	0.00000000	45.34325000	19.08834000
64.29999636	0.00000000	44.22982000	14.03174000
64.49999635	0.00000000	42.69193000	7.51722400
64.69999634	0.00000000	41.11097000	0.92888770
64.89999632	0.00000000	39.57308000	-4.09079700
65.09999631	0.00000000	38.45964000	-6.78518600
65.29999630	0.00000000	38.45964000	-6.45300100
65.49999629	0.00000000	39.57308000	-3.39566900
65.69999628	0.00000000	41.11097000	0.83661410
65.89999626	0.00000000	42.64886000	5.89320800
66.09999625	0.00000000	43.80536000	10.49459000
66.29999624	0.00000000	44.18061000	13.65650000
66.49999623	0.00000000	43.80536000	15.23130000
66.69999622	0.00000000	42.64886000	15.27436000
66.89999620	0.00000000	41.11097000	14.11786000
67.09999619	0.00000000	39.57308000	12.16781000
67.29999618	0.00000000	38.45964000	9.42421200
67.49999617	0.00000000	38.50270000	6.31151500
67.69999616	0.00000000	40.04060000	3.19881900
67.89999615	0.00000000	42.69193000	0.46751960
68.09999613	0.00000000	45.34325000	-1.48868100
68.29999612	0.00000000	46.88115000	-2.64517700
68.49999611	0.00000000	46.88115000	-2.60211600
68.69999610	0.00000000	45.34325000	-1.02116100
68.89999609	0.00000000	42.59965000	2.08538400
69.09999607	0.00000000	39.11171000	6.31151500
69.29999606	0.00000000	35.29773000	10.58686000
69.49999605	0.00000000	32.64025000	14.07480000
69.69999604	0.00000000	32.22195000	16.39395000
69.89999603	0.00000000	33.80290000	16.76919000
70.09999601	0.00000000	37.29700000	15.18824000
70.29999600	0.00000000	42.31668000	11.65723000
70.49999599	0.00000000	47.29946000	6.31151500
70.69999598	0.00000000	51.20571000	0.92888770
70.89999597	0.00000000	53.06963000	-2.97736200
71.09999596	0.00000000	52.31914000	-5.33956700
71.29999594	0.00000000	48.78814000	-5.62253900
71.49999593	0.00000000	43.43627000	-3.29724400
71.69999592	0.00000000	37.24778000	1.62401600
71.89999591	0.00000000	32.22195000	6.96358300
72.09999590	0.00000000	29.10310000	10.91289000
72.29999588	0.00000000	28.35876000	13.65650000
72.49999587	0.00000000	30.68405000	14.76993000
72.69999586	0.00000000	35.29773000	13.65650000
72.89999585	0.00000000	41.11097000	11.00517000
73.09999584	0.00000000	46.88115000	7.89247000
73.29999582	0.00000000	51.11343000	4.82283400
73.49999581	0.00000000	52.69439000	2.50369100
73.69999580	0.00000000	51.58095000	1.71013800
73.89999579	0.00000000	48.50517000	2.08538400
74.09999578	0.00000000	44.22982000	3.57406500
74.29999577	0.00000000	39.57308000	5.43184000
74.49999575	0.00000000	35.34079000	6.21924200
74.69999574	0.00000000	32.64025000	6.26845500
74.89999573	0.00000000	32.22195000	5.85014700
75.09999572	0.00000000	33.75369000	4.73671200
75.29999571	0.00000000	36.82948000	3.66633800
75.49999569	0.00000000	40.64345000	3.66633800
75.69999568	0.00000000	43.76230000	4.82283400
75.89999567	0.00000000	45.71850000	6.77903500
76.09999566	0.00000000	46.50590000	9.47342500
76.29999565	0.00000000	45.76156000	12.11860000
76.49999563	0.00000000	44.27288000	13.61343000
76.69999562	0.00000000	42.73499000	13.23819000
76.89999561	0.00000000	41.57849000	10.86983000
77.09999560	0.00000000	41.15403000	7.00664300
77.29999559	0.00000000	41.11097000	2.04232300
77.49999558	0.00000000	41.11097000	-2.18380900
77.69999556	0.00000000	41.11097000	-4.50910400
77.89999555	0.00000000	41.06791000	-4.87819900
78.09999554	0.00000000	40.64345000	-2.51599400
78.29999553	0.00000000	39.53002000	2.04232300
78.49999552	0.00000000	38.45964000	7.47416300
78.69999550	0.00000000	38.41658000	12.49385000
78.89999549	0.00000000	39.15477000	16.35089000
79.09999548	0.00000000	39.99754000	17.88263000
79.29999547	0.00000000	41.57849000	16.76919000
79.49999546	0.00000000	43.85457000	13.65650000
79.69999544	0.00000000	45.76156000	9.00590400
79.89999543	0.00000000	46.88115000	3.62327700
80.09999542	0.00000000	46.50590000	-0.97810030
80.29999541	0.00000000	44.60506000	-3.71555100
80.49999540	0.00000000	42.27362000	-4.14000900
80.69999539	0.00000000	39.53002000	-2.64517700
80.89999537	0.00000000	36.87869000	0.09227362
81.09999536	0.00000000	35.34079000	3.57406500
81.29999535	0.00000000	35.34079000	7.47416300
81.49999534	0.00000000	36.87869000	10.91289000
81.69999533	0.00000000	39.57308000	13.28125000
81.89999531	0.00000000	42.59965000	14.07480000
82.09999530	0.00000000	44.92495000	13.69956000
82.29999529	0.00000000	45.76156000	12.16781000
82.49999528	0.00000000	45.76156000	9.84867000
82.69999527	0.00000000	44.96801000	7.47416300
82.89999525	0.00000000	43.06717000	4.68750000
83.09999524	0.00000000	41.15403000	1.66707700
83.29999523	0.00000000	39.57308000	-0.64591530
83.49999522	0.00000000	38.45964000	-1.43946800
83.69999521	0.00000000	38.41658000	-1.06422200
83.89999520	0.00000000	39.15477000	0.51058070
84.09999518	0.00000000	39.90526000	3.19881900
84.29999517	0.00000000	40.73573000	6.31151500
84.49999516	0.00000000	41.44316000	9.47342500
84.69999515	0.00000000	41.89838000	12.53691000
84.89999514	0.00000000	41.90453000	14.81299000
85.09999512	0.00000000	42.31668000	15.18824000
85.29999511	0.00000000	42.64886000	13.65650000
85.49999510	0.00000000	42.69193000	10.53765000
85.69999509	0.00000000	42.69193000	6.31151500
85.89999508	0.00000000	42.69193000	2.04232300
86.09999506	0.00000000	42.69193000	-1.39640700
86.29999505	0.00000000	42.64886000	-3.34030500
86.49999504	0.00000000	42.22441000	-2.93430100
86.69999503	0.00000000	41.06791000	-0.64591530
86.89999502	0.00000000	39.57308000	3.24803100
87.09999501	0.00000000	38.41658000	7.84940900
87.29999499	0.00000000	38.04134000	12.07554000
87.49999498	0.00000000	38.41658000	14.76993000
87.69999497	0.00000000	39.57308000	15.14518000
87.89999496	0.00000000	41.11097000	13.23819000
88.09999495	0.00000000	42.64886000	9.38115100
88.29999493	0.00000000	43.80536000	4.77977300
88.49999492	0.00000000	44.22982000	0.51058070
88.69999491	0.00000000	44.22982000	-2.55905500
88.89999490	0.00000000	43.76230000	-3.67249000
89.09999489	0.00000000	42.22441000	-2.09768700
89.29999487	0.00000000	39.99754000	2.08538400
89.49999486	0.00000000	38.45964000	7.42495000
89.69999485	0.00000000	37.99213000	12.03248000
89.89999484	0.00000000	37.99213000	14.76993000
90.09999483	0.00000000	38.41658000	15.14518000
90.29999482	0.00000000	39.57308000	13.23819000
90.49999480	0.00000000	41.06791000	9.38115100
90.69999479	0.00000000	42.22441000	4.77977300
90.89999478	0.00000000	42.64886000	0.51058070
91.09999477	0.00000000	42.69193000	-2.51599400
91.29999476	0.00000000	42.64886000	-3.25418300
91.49999474	0.00000000	42.27362000	-0.97810030
91.69999473	0.00000000	41.52928000	3.20497000
91.89999472	0.00000000	41.15403000	7.84940900
92.09999471	0.00000000	41.11097000	12.07554000
92.29999470	0.00000000	41.11097000	14.72072000
92.49999468	0.00000000	41.11097000	14.72072000
92.69999467	0.00000000	41.06791000	12.07554000
92.89999466	0.00000000	40.69267000	7.89247000
93.09999465	0.00000000	39.90526000	3.62327700
93.29999464	0.00000000	39.15477000	0.13533460
93.49999463	0.00000000	38.41658000	-2.14074800
93.69999461	0.00000000	38.41658000	-2.09153500
93.89999460	0.00000000	39.15477000	0.55364170
94.09999459	0.00000000	39.99754000	4.73671200
94.29999458	0.00000000	41.57849000	8.96284400
94.49999457	0.00000000	43.80536000	12.03248000
94.69999455	0.00000000	45.34325000	13.18898000
94.89999454	0.00000000	45.76156000	12.07554000
95.09999453	0.00000000	45.38631000	9.38115100
95.29999452	0.00000000	44.13755000	5.89320800
95.49999451	0.00000000	41.80610000	2.08538400
95.69999449	0.00000000	38.36737000	-0.55979330
95.89999448	0.00000000	35.34079000	-1.02116100
96.09999447	0.00000000	33.75369000	0.09227362
96.29999446	0.00000000	33.75369000	2.08538400
96.49999445	0.00000000	35.29773000	5.15501900
96.69999444	0.00000000	38.04134000	8.58759800
96.89999442	0.00000000	41.52928000	10.82677000
97.09999441	0.00000000	45.38631000	11.28199000
97.29999440	0.00000000	48.46210000	9.75639700
97.49999439	0.00000000	50.00000000	7.51722400
97.69999438	0.00000000	49.57554000	5.15501900
97.89999436	0.00000000	46.92421000	3.24803100
98.09999435	0.00000000	43.06717000	2.08538400
98.29999434	0.00000000	39.19783000	2.08538400
98.49999433	0.00000000	35.66683000	3.19881900
98.69999432	0.00000000	33.37844000	4.68750000
98.89999430	0.00000000	32.54798000	5.85014700
99.09999429	0.00000000	33.37844000	6.26845500
99.29999428	0.00000000	35.66683000	6.31151500
99.49999427	0.00000000	39.19783000	6.31151500
99.69999426	0.00000000	43.02411000	6.31151500
99.89999425	0.00000000	46.50590000	6.35457700
100.09999423	0.00000000	48.41904000	6.72982200
100.29999422	0.00000000	48.50517000	7.51722400
100.49999421	0.00000000	47.34252000	8.26771600
100.69999420	0.00000000	45.38631000	9.00590400
100.89999419	0.00000000	42.64886000	8.91978400
101.09999417	0.00000000	39.57308000	7.43110200
101.29999416	0.00000000	36.83563000	5.15501900
101.49999415	0.00000000	34.92249000	3.19881900
101.69999414	0.00000000	34.13509000	1.66707700
101.89999413	0.00000000	34.92249000	0.92888770
102.09999411	0.00000000	36.78642000	1.71013800
102.29999410	0.00000000	39.15477000	3.61712600
102.49999409	0.00000000	41.48622000	6.31151500
102.69999408	0.00000000	43.80536000	9.00590400
102.89999407	0.00000000	45.34325000	10.96211000
103.09999406	0.00000000	45.76156000	12.11860000
103.29999404	0.00000000	45.34325000	12.07554000
103.49999403	0.00000000	43.80536000	10.49459000
103.69999402	0.00000000	41.52928000	7.42495000
103.89999401	0.00000000	39.57308000	3.66633800
104.09999400	0.00000000	37.99213000	0.97194880
104.29999398	0.00000000	36.87869000	0.13533460
104.49999397	0.00000000	36.83563000	0.46136810
104.69999396	0.00000000	37.61687000	1.66707700
104.89999395	0.00000000	38.74261000	3.61712600
105.09999394	0.00000000	40.31742000	6.31151500
105.29999392	0.00000000	41.44316000	8.96284400
105.49999391	0.00000000	42.27362000	10.49459000
105.69999390	0.00000000	42.59965000	10.53765000
105.89999389	0.00000000	42.27362000	9.38115100
106.09999388	0.00000000	41.48622000	7.47416300
106.29999387	0.00000000	40.69267000	5.15501900
106.49999385	0.00000000	39.57308000	3.24803100
106.69999384	0.00000000	38.83489000	2.08538400
106.89999383	0.00000000	39.19783000	2.08538400
107.09999382	0.00000000	39.90526000	3.24803100
107.29999381	0.00000000	40.73573000	5.11195900
107.49999379	0.00000000	41.48622000	7.05585600
107.69999378	0.00000000	42.27362000	8.17544300
107.89999377	0.00000000	42.59965000	8.63681000
108.09999376	0.00000000	42.22441000	8.17544300
108.29999375	0.00000000	41.11097000	7.05585600
108.49999374	0.00000000	39.94832000	5.15501900
108.69999372	0.00000000	39.15477000	3.66633800
108.89999371	0.00000000	38.36737000	3.19881900
109.09999370	0.00000000	38.04134000	3.19881900
109.29999369	0.00000000	38.41658000	3.62327700
109.49999368	0.00000000	39.57308000	4.77977300
109.69999366	0.00000000	41.06791000	6.31151500
109.89999365	0.00000000	42.22441000	7.84940900
110.09999364	0.00000000	42.64886000	8.96284400
110.29999363	0.00000000	42.64886000	9.00590400
110.49999362	0.00000000	42.22441000	8.22465500
110.69999360	0.00000000	41.11097000	7.05585600
110.89999359	0.00000000	39.94832000	5.15501900
111.09999358	0.00000000	39.15477000	3.62327700
111.29999357	0.00000000	38.36737000	2.82357300
111.49999356	0.00000000	38.04134000	2.41141700
111.69999355	0.00000000	38.36737000	2.82357300
111.89999353	0.00000000	39.15477000	3.57406500
112.09999352	0.00000000	39.90526000	4.77977300
112.29999351	0.00000000	40.69267000	6.26845500
112.49999350	0.00000000	41.06791000	7.42495000
112.69999349	0.00000000	41.11097000	7.84940900
112.89999347	0.00000000	41.11097000	7.84940900
113.09999346	0.00000000	41.06791000	7.47416300
113.29999345	0.00000000	40.69267000	6.72982200
113.49999344	0.00000000	39.94832000	6.35457700
113.69999343	0.00000000	39.57308000	6.26845500
113.89999341	0.00000000	39.53002000	5.89320800
114.09999340	0.00000000	39.53002000	5.15501900
114.29999339	0.00000000	39.57308000	4.77977300
114.49999338	0.00000000	39.94832000	4.73671200
114.69999337	0.00000000	40.69267000	4.69365100
114.89999336	0.00000000	41.06791000	4.36146600
115.09999334	0.00000000	41.11097000	3.94931100
115.29999333	0.00000000	41.06791000	3.98622000
115.49999332	0.00000000	40.73573000	3.99237200
115.69999331	0.00000000	40.36663000	4.77977300
115.89999330	0.00000000	40.69267000	5.85014700
116.09999328	0.00000000	40.64345000	6.31151500
116.29999327	0.00000000	39.94832000	6.72982200
116.49999326	0.00000000	39.57308000	7.47416300
116.69999325	0.00000000	39.53002000	7.80019600
116.89999324	0.00000000	39.57308000	7.47416300
117.09999322	0.00000000	39.94832000	6.68676100
117.29999321	0.00000000	40.69267000	5.89320800
117.49999320	0.00000000	41.11097000	4.73671200
117.69999319	0.00000000	41.48622000	3.62327700
117.89999318	0.00000000	41.85531000	3.19881900
118.09999317	0.00000000	41.52928000	3.19881900
118.29999315	0.00000000	41.52928000	3.57406500
118.49999314	0.00000000	41.80610000	4.36146600
118.69999313	0.00000000	41.06791000	5.15501900
118.89999312	0.00000000	39.94832000	6.31151500
119.09999311	0.00000000	39.15477000	7.42495000
119.29999309	0.00000000	38.36737000	7.84940900
119.49999308	0.00000000	37.99213000	7.89247000
119.69999307	0.00000000	37.99213000	7.84940900
119.89999306	0.00000000	38.41658000	7.47416300
120.09999305	0.00000000	39.57308000	6.68676100
120.29999303	0.00000000	41.11097000	5.93626900
120.49999302	0.00000000	42.64886000	5.15501900
120.69999301	0.00000000	43.76230000	4.77977300
120.89999300	0.00000000	43.80536000	4.73671200
121.09999299	0.00000000	43.06717000	4.73671200
121.29999298	0.00000000	42.27362000	4.73671200
121.49999296	0.00000000	41.06791000	4.73671200
121.69999295	0.00000000	39.57308000	4.77977300
121.89999294	0.00000000	38.41658000	5.15501900
122.09999293	0.00000000	37.99213000	5.89320800
122.29999292	0.00000000	37.99213000	6.26845500
122.49999290	0.00000000	38.36737000	6.31151500
122.69999289	0.00000000	39.15477000	6.31151500
122.89999288	0.00000000	39.94832000	6.31151500
123.09999287	0.00000000	41.11097000	6.31151500
123.29999286	0.00000000	42.22441000	6.31151500
123.49999284	0.00000000	42.64886000	6.26845500
123.69999283	0.00000000	42.64886000	5.89320800
123.89999282	0.00000000	42.27362000	5.15501900
124.09999281	0.00000000	41.48622000	4.77977300
124.29999280	0.00000000	40.73573000	4.73671200
124.49999279	0.00000000	39.90526000	4.73671200
124.69999277	0.00000000	39.15477000	4.73671200
124.89999276	0.00000000	38.36737000	4.77977300
125.09999275	0.00000000	38.04134000	5.15501900
125.29999274	0.00000000	38.32431000	5.89320800
125.49999273	0.00000000	38.73647000	6.31151500
125.69999271	0.00000000	38.78568000	6.68676100
125.89999270	0.00000000	39.57308000	7.05585600
126.09999269	0.00000000	40.69267000	6.68676100
126.29999268	0.00000000	41.48622000	6.35457700
126.49999267	0.00000000	42.27362000	6.26845500
126.69999265	0.00000000	42.59965000	5.93626900
126.89999264	0.00000000	42.27362000	5.53026500
127.09999263	0.00000000	41.48622000	5.51796200
127.29999262	0.00000000	40.69267000	5.11195900
127.49999261	0.00000000	39.53002000	4.77977300
127.69999260	0.00000000	38.41658000	4.73671200
127.89999258	0.00000000	37.99213000	4.77977300
128.09999257	0.00000000	37.99213000	5.15501900
128.29999256	0.00000000	38.36737000	5.89320800
128.49999255	0.00000000	39.15477000	6.26845500
128.69999254	0.00000000	39.94832000	6.31151500
128.89999252	0.00000000	41.11097000	6.31151500
129.09999251	0.00000000	42.18134000	6.31151500
129.29999250	0.00000000	42.22441000	6.26845500
129.49999249	0.00000000	41.48622000	5.89320800
129.69999248	0.00000000	40.69267000	5.15501900
129.89999246	0.00000000	39.53002000	4.77977300
130.09999245	0.00000000	38.41658000	4.73671200
130.29999244	0.00000000	37.99213000	4.77977300
130.49999243	0.00000000	37.99213000	5.15501900
130.69999242	0.00000000	38.36737000	5.89320800
130.89999241	0.00000000	39.15477000	6.26845500
131.09999239	0.00000000	39.90526000	6.31151500
131.29999238	0.00000000	40.69267000	6.26845500
131.49999237	0.00000000	41.06791000	5.89320800
131.69999236	0.00000000	41.11097000	5.15501900
131.89999235	0.00000000	41.06791000	4.77977300
132.09999233	0.00000000	40.69267000	4.69365100
132.29999232	0.00000000	39.94832000	4.36146600
132.49999231	0.00000000	39.53002000	3.99237200
132.69999230	0.00000000	39.15477000	4.40452700
132.89999229	0.00000000	38.78568000	5.11195900
133.09999227	0.00000000	39.15477000	5.89320800
133.29999226	0.00000000	39.48696000	6.31151500
133.49999225	0.00000000	39.53002000	6.72982200
133.69999224	0.00000000	39.53002000	7.42495000
133.89999223	0.00000000	39.53002000	7.42495000
134.09999222	0.00000000	39.53002000	6.68676100
134.29999220	0.00000000	39.53002000	5.93626900
134.49999219	0.00000000	39.53002000	5.15501900
134.69999218	0.00000000	39.57308000	4.73671200
134.89999217	0.00000000	39.94832000	4.36146600
135.09999216	0.00000000	40.69267000	3.99237200
135.29999214	0.00000000	41.06791000	4.36146600
135.49999213	0.00000000	41.06791000	4.73671200
135.69999212	0.00000000	40.69267000	5.15501900
135.89999211	0.00000000	39.94832000	5.89320800
136.09999210	0.00000000	39.53002000	6.26845500
136.29999208	0.00000000	39.11171000	6.31151500
136.49999207	0.00000000	38.36737000	6.31151500
136.69999206	0.00000000	38.04134000	6.31151500
136.89999205	0.00000000	38.36737000	6.31151500
137.09999204	0.00000000	39.15477000	6.26845500
137.29999203	0.00000000	39.90526000	5.89320800
137.49999201	0.00000000	40.69267000	5.15501900
137.69999200	0.00000000	41.06791000	4.73671200
137.89999199	0.00000000	41.11097000	4.36146600
138.09999198	0.00000000	41.11097000	3.99237200
138.29999197	0.00000000	41.06791000	4.36146600
138.49999195	0.00000000	40.69267000	4.69365100
138.69999194	0.00000000	39.90526000	4.77977300
138.89999193	0.00000000	39.15477000	5.15501900
139.09999192	0.00000000	38.36737000	5.89320800
139.29999191	0.00000000	38.04134000	6.31151500
139.49999189	0.00000000	38.36737000	6.68676100
139.69999188	0.00000000	39.15477000	7.05585600
139.89999187	0.00000000	39.90526000	6.68676100
140.09999186	0.00000000	40.64345000	6.31151500
140.29999185	0.00000000	40.69267000	5.89320800
140.49999184	0.00000000	40.32357000	5.11195900
140.69999182	0.00000000	40.31742000	4.40452700
140.89999181	0.00000000	39.90526000	3.94931100
141.09999180	0.00000000	39.57308000	3.98622000
141.29999179	0.00000000	39.48696000	3.94931100
141.49999178	0.00000000	39.15477000	4.40452700
141.69999176	0.00000000	38.78568000	5.11195900
141.89999175	0.00000000	39.15477000	5.93626900
142.09999174	0.00000000	39.53002000	6.68676100
142.29999173	0.00000000	39.94832000	7.47416300
142.49999172	0.00000000	40.69267000	7.80019600
142.69999170	0.00000000	41.01870000	7.42495000
142.89999169	0.00000000	40.69267000	6.31151500
143.09999168	0.00000000	39.94832000	5.19808000
143.29999167	0.00000000	39.57308000	4.73671200
143.49999166	0.00000000	39.53002000	4.31840500
143.69999165	0.00000000	39.53002000	3.62327700
143.89999163	0.00000000	39.53002000	3.62327700
144.09999162	0.00000000	39.53002000	4.31840500
144.29999161	0.00000000	39.53002000	4.73671200
144.49999160	0.00000000	39.57308000	5.15501900
144.69999159	0.00000000	39.94832000	5.93626900
144.89999157	0.00000000	40.64345000	6.68676100
145.09999156	0.00000000	40.64345000	7.42495000
145.29999155	0.00000000	39.94832000	7.42495000
145.49999154	0.00000000	39.57308000	6.68676100
145.69999153	0.00000000	39.53002000	5.93626900
145.89999151	0.00000000	39.53002000	5.15501900
146.09999150	0.00000000	39.53002000	4.77977300
146.29999149	0.00000000	39.53002000	4.73671200
146.49999148	0.00000000	39.53002000	4.73671200
146.69999147	0.00000000	39.53002000	4.73671200
146.89999146	0.00000000	39.53002000	4.73671200
147.09999144	0.00000000	39.53002000	4.77977300
147.29999143	0.00000000	39.53002000	5.15501900
147.49999142	0.00000000	39.53002000	5.89320800
147.69999141	0.00000000	39.53002000	6.26845500
147.89999140	0.00000000	39.53002000	6.31151500
148.09999138	0.00000000	39.48696000	6.31151500
148.29999137	0.00000000	39.15477000	6.26845500
148.49999136	0.00000000	38.78568000	5.89320800
148.69999135	0.00000000	39.15477000	5.15501900
148.89999134	0.00000000	39.48696000	4.77977300
149.09999132	0.00000000	39.53002000	4.73671200
149.29999131	0.00000000	39.53002000	4.73671200
149.49999130	0.00000000	39.57308000	4.73671200
149.69999129	0.00000000	39.90526000	4.73671200
149.89999128	0.00000000	40.31742000	4.77977300
150.09999127	0.00000000	40.28051000	5.15501900
150.29999125	0.00000000	40.31742000	5.89320800
150.49999124	0.00000000	39.90526000	6.26845500
150.69999123	0.00000000	39.57308000	6.31151500
150.89999122	0.00000000	39.53002000	6.31151500
151.09999121	0.00000000	39.53002000	6.31151500
151.29999119	0.00000000	39.48696000	6.26845500
151.49999118	0.00000000	39.15477000	5.89320800
151.69999117	0.00000000	38.78568000	5.15501900
151.89999116	0.00000000	39.15477000	4.77977300
152.09999115	0.00000000	39.48696000	4.73671200
152.29999113	0.00000000	39.53002000	4.77977300
152.49999112	0.00000000	39.57308000	5.11195900
152.69999111	0.00000000	39.94832000	5.51796200
152.89999110	0.00000000	40.64345000	5.53026500
153.09999109	0.00000000	40.64345000	5.93626900
153.29999108	0.00000000	39.94832000	6.26845500
153.49999106	0.00000000	39.57308000	6.31151500
153.69999105	0.00000000	39.48696000	6.31151500
153.89999104	0.00000000	39.11171000	6.31151500
154.09999103	0.00000000	38.36737000	6.26845500
154.29999102	0.00000000	37.99213000	5.93626900
154.49999100	0.00000000	37.99213000	5.53026500
154.69999099	0.00000000	38.36737000	5.51796200
154.89999098	0.00000000	39.11171000	5.11195900
155.09999097	0.00000000	39.48696000	4.77977300
155.29999096	0.00000000	39.53002000	4.73671200
155.49999094	0.00000000	39.57308000	4.73671200
155.69999093	0.00000000	39.90526000	4.73671200
155.89999092	0.00000000	40.27436000	4.73671200
156.09999091	0.00000000	39.90526000	4.77977300
156.29999090	0.00000000	39.57308000	5.15501900
156.49999089	0.00000000	39.48696000	5.89320800
156.69999087	0.00000000	39.11171000	6.26845500
156.89999086	0.00000000	38.36737000	6.31151500
157.09999085	0.00000000	37.99213000	6.31151500
157.29999084	0.00000000	37.94907000	6.31151500
157.49999083	0.00000000	37.99213000	6.26845500
157.69999081	0.00000000	38.36737000	5.89320800
157.89999080	0.00000000	39.11171000	5.15501900
158.09999079	0.00000000	39.48696000	4.77977300
158.29999078	0.00000000	39.53002000	4.69365100
158.49999077	0.00000000	39.57308000	4.36146600
158.69999075	0.00000000	39.90526000	3.99237200
158.89999074	0.00000000	40.27436000	4.40452700
159.09999073	0.00000000	39.90526000	5.11195900
159.29999072	0.00000000	39.57308000	5.89320800
159.49999071	0.00000000	39.53002000	6.26845500
159.69999070	0.00000000	39.53002000	6.31151500
159.89999068	0.00000000	39.48696000	6.31151500
160.09999067	0.00000000	39.11171000	6.31151500
160.29999066	0.00000000	38.36737000	6.31151500
160.49999065	0.00000000	38.04134000	6.26845500
160.69999064	0.00000000	38.36737000	5.89320800
160.89999062	0.00000000	39.11171000	5.15501900
161.09999061	0.00000000	39.48696000	4.77977300
161.29999060	0.00000000	39.53002000	4.73671200
161.49999059	0.00000000	39.53002000	4.73671200
161.69999058	0.00000000	39.53002000	4.73671200
161.89999056	0.00000000	39.53002000	4.73671200
162.09999055	0.00000000	39.53002000	4.77977300
162.29999054	0.00000000	39.53002000	5.15501900
162.49999053	0.00000000	39.53002000	5.89320800
162.69999052	0.00000000	39.53002000	6.26845500
162.89999051	0.00000000	39.53002000	6.31151500
163.09999049	0.00000000	39.48696000	6.31151500
163.29999048	0.00000000	39.11171000	6.26845500
163.49999047	0.00000000	38.36737000	5.89320800
163.69999046	0.00000000	37.99213000	5.15501900
163.89999045	0.00000000	37.94907000	4.77977300
164.09999043	0.00000000	37.99213000	4.73671200
164.29999042	0.00000000	38.36737000	4.73671200
164.49999041	0.00000000	39.15477000	4.73671200
164.69999040	0.00000000	39.86220000	4.73671200
164.89999039	0.00000000	40.27436000	4.73671200
165.09999037	0.00000000	39.90526000	4.77977300
165.29999036	0.00000000	39.57308000	5.11195900
165.49999035	0.00000000	39.53002000	5.51796200
165.69999034	0.00000000	39.53002000	5.48105300
165.89999033	0.00000000	39.53002000	5.56717500
166.09999032	0.00000000	39.48696000	5.53026500
166.29999030	0.00000000	39.11171000	5.89320800
166.49999029	0.00000000	38.36737000	5.85014700
166.69999028	0.00000000	37.99213000	5.15501900
166.89999027	0.00000000	37.99213000	4.77977300
167.09999026	0.00000000	38.36737000	4.73671200
167.29999024	0.00000000	39.11171000	4.73671200
167.49999023	0.00000000	39.48696000	4.73671200
167.69999022	0.00000000	39.53002000	4.73671200
167.89999021	0.00000000	39.53002000	4.73671200
168.09999020	0.00000000	39.53002000	4.73671200
168.29999018	0.00000000	39.53002000	4.73671200
168.49999017	0.00000000	39.53002000	4.73671200
168.69999016	0.00000000	39.53002000	4.73671200
168.89999015	0.00000000	39.53002000	4.73671200
169.09999014	0.00000000	39.53002000	4.73671200
169.29999013	0.00000000	39.53002000	4.73671200
169.49999011	0.00000000	39.53002000	4.73671200
169.69999010	0.00000000	39.53002000	4.73671200
169.89999009	0.00000000	39.48696000	4.73671200
170.09999008	0.00000000	39.11171000	4.73671200
170.29999007	0.00000000	38.41658000	4.73671200
170.49999005	0.00000000	38.41658000	4.73671200
170.69999004	0.00000000	39.11171000	4.73671200
170.89999003	0.00000000	39.48696000	4.73671200
171.09999002	0.00000000	39.53002000	4.73671200
171.29999001	0.00000000	39.53002000	4.73671200
171.49998999	0.00000000	39.53002000	4.73671200
171.69998998	0.00000000	39.53002000	4.73671200
171.89998997	0.00000000	39.53002000	4.73671200
172.09998996	0.00000000	39.53002000	4.73671200
172.29998995	0.00000000	39.53002000	4.73671200
172.49998994	0.00000000	39.53002000	4.73671200
172.69998992	0.00000000	39.53002000	4.73671200
172.89998991	0.00000000	39.53002000	4.73671200
173.09998990	0.00000000	39.53002000	4.73671200
173.29998989	0.00000000	39.53002000	4.73671200
173.49998988	0.00000000	39.53002000	4.73671200
173.69998986	0.00000000	39.48696000	4.73671200
173.89998985	0.00000000	39.15477000	4.77977300
174.09998984	0.00000000	38.78568000	5.11195900
174.29998983	0.00000000	39.15477000	5.47490100
174.49998982	0.00000000	39.48696000	5.11195900
174.69998980	0.00000000	39.53002000	4.77977300
174.89998979	0.00000000	39.48696000	4.73671200
175.09998978	0.00000000	39.15477000	4.73671200
175.29998977	0.00000000	38.78568000	4.73671200
175.49998976	0.00000000	39.11171000	4.73671200
175.69998975	0.00000000	39.11171000	4.73671200
175.89998973	0.00000000	38.78568000	4.73671200
176.09998972	0.00000000	39.11171000	4.73671200
176.29998971	0.00000000	39.11171000	4.73671200
176.49998970	0.00000000	38.78568000	4.73671200
176.69998969	0.00000000	39.15477000	4.73671200
176.89998967	0.00000000	39.48696000	4.73671200
177.09998966	0.00000000	39.53002000	4.73671200
177.29998965	0.00000000	39.48696000	4.73671200
177.49998964	0.00000000	39.11171000	4.73671200
177.69998963	0.00000000	38.36737000	4.73671200
177.89998961	0.00000000	38.04134000	4.73671200
178.09998960	0.00000000	38.32431000	4.73671200
178.29998959	0.00000000	38.73647000	4.73671200
178.49998958	0.00000000	38.74261000	4.73671200
178.69998957	0.00000000	39.15477000	4.73671200
178.89998956	0.00000000	39.48696000	4.73671200
179.09998954	0.00000000	39.53002000	4.73671200
179.29998953	0.00000000	39.53002000	4.73671200
179.49998952	0.00000000	39.53002000	4.73671200
179.69998951	0.00000000	39.53002000	4.73671200
179.89998950	0.00000000	39.53002000	4.73671200
180.09998948	0.00000000	39.48696000	4.73671200
180.29998947	0.00000000	39.11171000	4.73671200
180.49998946	0.00000000	38.41658000	4.73671200
180.69998945	0.00000000	38.36737000	4.73671200
180.89998944	0.00000000	38.69341000	4.73671200
181.09998942	0.00000000	38.32431000	4.73671200
181.29998941	0.00000000	37.99213000	4.73671200
181.49998940	0.00000000	37.99213000	4.77977300
181.69998939	0.00000000	38.36737000	5.11195900
181.89998938	0.00000000	39.11171000	5.51796200
182.09998937	0.00000000	39.48696000	5.48105300
182.29998935	0.00000000	39.53002000	5.51796200
182.49998934	0.00000000	39.53002000	5.11195900
182.69998933	0.00000000	39.53002000	4.77977300
182.89998932	0.00000000	39.53002000	4.73671200
183.09998931	0.00000000	39.53002000	4.73671200
183.29998929	0.00000000	39.53002000	4.73671200
183.49998928	0.00000000	39.48696000	4.73671200
183.69998927	0.00000000	39.11171000	4.73671200
183.89998926	0.00000000	38.36737000	4.73671200
184.09998925	0.00000000	37.99213000	4.77977300
184.29998923	0.00000000	37.94907000	5.11195900
184.49998922	0.00000000	37.94907000	5.51796200
184.69998921	0.00000000	37.94907000	5.53026500
184.89998920	0.00000000	37.94907000	5.93626900
185.09998919	0.00000000	37.99213000	6.21924200
185.29998918	0.00000000	38.36737000	5.89320800
185.49998916	0.00000000	39.11171000	5.15501900
185.69998915	0.00000000	39.48696000	4.77977300
185.89998914	0.00000000	39.48696000	4.73671200
186.09998913	0.00000000	39.15477000	4.73671200
186.29998912	0.00000000	38.78568000	4.73671200
186.49998910	0.00000000	39.11171000	4.73671200
186.69998909	0.00000000	39.06250000	4.73671200
186.89998908	0.00000000	38.36737000	4.73671200
187.09998907	0.00000000	37.99213000	4.77977300
187.29998906	0.00000000	37.94907000	5.15501900
187.49998904	0.00000000	37.94907000	5.85014700
187.69998903	0.00000000	37.94907000	5.89320800
187.89998902	0.00000000	37.94907000	5.57332700
188.09998901	0.00000000	37.94907000	5.89320800
188.29998900	0.00000000	37.99213000	5.85014700
188.49998899	0.00000000	38.36737000	5.15501900
188.69998897	0.00000000	39.11171000	4.77977300
188.89998896	0.00000000	39.48696000	4.69365100
189.09998895	0.00000000	39.53002000	4.36146600
189.29998894	0.00000000	39.48696000	3.99237200
189.49998893	0.00000000	39.11171000	4.36146600
189.69998891	0.00000000	38.36737000	4.69365100
189.89998890	0.00000000	37.99213000	4.73671200
190.09998889	0.00000000	37.94907000	4.73671200
190.29998888	0.00000000	37.94907000	4.73671200
190.49998887	0.00000000	37.94907000	4.73671200
190.69998885	0.00000000	37.94907000	4.77977300
190.89998884	0.00000000	37.94907000	5.11195900
191.09998883	0.00000000	37.99213000	5.47490100
191.29998882	0.00000000	38.36737000	5.11195900
191.49998881	0.00000000	39.11171000	4.77977300
191.69998880	0.00000000	39.48696000	4.73671200
191.89998878	0.00000000	39.48696000	4.73671200
192.09998877	0.00000000	39.11171000	4.73671200
192.29998876	0.00000000	38.36737000	4.73671200
192.49998875	0.00000000	37.99213000	4.73671200
192.69998874	0.00000000	37.94907000	4.73671200
192.89998872	0.00000000	37.94907000	4.73671200
193.09998871	0.00000000	37.94907000	4.73671200
193.29998870	0.00000000	37.94907000	4.73671200
193.49998869	0.00000000	37.94907000	4.77977300
193.69998868	0.00000000	37.94907000	5.11195900
193.89998866	0.00000000	37.94907000	5.47490100
194.09998865	0.00000000	37.94907000	5.11195900
194.29998864	0.00000000	37.99213000	4.77977300
194.49998863	0.00000000	38.36737000	4.73671200
194.69998862	0.00000000	39.11171000	4.73671200
194.89998861	0.00000000	39.48696000	4.73671200
195.09998859	0.00000000	39.48696000	4.73671200
195.29998858	0.00000000	39.11171000	4.73671200
195.49998857	0.00000000	38.36737000	4.73671200
195.69998856	0.00000000	37.99213000	4.73671200
195.89998855	0.00000000	37.94907000	4.73671200
196.09998853	0.00000000	37.94907000	4.73671200
