Time	Channel A	Channel B	Channel C
(us)	(V)	(mV)	(mV)

-4.59999956	0.00000000	21.75812000	0.00000000
-4.39999957	0.00000000	21.34596000	0.00000000
-4.19999958	0.00000000	21.33981000	0.00000000
-3.99999959	0.00000000	20.97072000	0.00000000
-3.79999960	0.00000000	21.01993000	0.00000000
-3.59999962	0.00000000	21.71506000	0.00000000
-3.39999963	0.00000000	22.09030000	0.00000000
-3.19999964	0.00000000	22.09030000	0.00000000
-2.99999965	0.00000000	21.75812000	0.00000000
-2.79999966	0.00000000	21.38902000	0.00000000
-2.59999968	0.00000000	21.71506000	0.00000000
-2.39999969	0.00000000	21.71506000	0.00000000
-2.19999970	0.00000000	21.38902000	0.00000000
-1.99999971	0.00000000	21.75812000	0.00000000
-1.79999972	0.00000000	22.09030000	0.00000000
-1.59999973	0.00000000	22.09030000	0.00000000
-1.39999975	0.00000000	21.71506000	0.00000000
-1.19999976	0.00000000	21.01993000	0.00000000
-0.99999977	0.00000000	20.97072000	0.00000000
-0.79999978	0.00000000	21.33981000	0.00000000
-0.59999979	0.00000000	21.34596000	0.00000000
-0.39999981	0.15871060	21.75812000	0.00000000
-0.19999982	0.47736220	22.04109000	-0.04306102
0.00000017	0.79601380	21.75812000	-0.37524600
0.20000016	0.95533960	21.34596000	-0.78124990
0.40000015	0.95533960	21.38287000	-0.74434050
0.60000013	0.47736220	21.30290000	-0.78124990
0.80000012	-0.15871060	21.33981000	-0.37524600
1.00000011	-1.11466500	20.92766000	-0.04306102
1.20000010	-2.07062000	20.64468000	0.00000000
1.40000009	-2.70792300	20.97072000	0.00000000
1.60000008	-2.70792300	21.71506000	0.00000000
1.80000006	-1.75196900	22.09030000	0.00000000
2.00000005	-0.15871060	22.09030000	0.00000000
2.20000004	1.91129400	21.71506000	0.00000000
2.40000003	3.98191400	20.97072000	0.00000000
2.60000002	5.09719500	20.59547000	0.00000000
2.80000000	5.25652100	20.55241000	-0.04306102
2.99999999	3.66326300	20.55241000	-0.41830710
3.19999998	0.95533960	20.55241000	-1.11343500
3.39999997	-2.38927200	20.55241000	-1.11343500
3.59999996	-5.57517200	20.55241000	-0.41830710
3.79999994	-7.64579200	20.59547000	-0.04306102
3.99999993	-7.80511800	20.97072000	0.00000000
4.19999992	-6.05315000	21.71506000	0.00000000
4.39999991	-2.54859700	22.09030000	0.00000000
4.59999990	1.91129400	22.13336000	0.00000000
4.79999989	6.05315000	22.09030000	0.00000000
4.99999987	8.76107300	21.71506000	-0.04306102
5.19999986	9.39837600	20.97072000	-0.41830710
5.39999985	7.64579200	20.59547000	-1.15649600
5.59999984	3.98191400	20.55241000	-1.53174200
5.79999983	-0.79601380	20.55241000	-1.53174200
5.99999981	-5.25652100	20.59547000	-1.15649600
6.19999980	-8.44242100	20.97072000	-0.41830710
6.39999979	-9.39837600	21.71506000	-0.04306102
6.59999978	-8.12377000	22.09030000	0.00000000
6.79999977	-4.77854300	22.13336000	0.00000000
6.99999975	-0.47736220	22.13336000	0.00000000
7.19999974	3.66326300	22.13336000	0.00000000
7.39999973	6.69045300	22.09030000	0.00000000
7.59999972	7.80511800	21.71506000	-0.04306102
7.79999971	7.00848900	20.97072000	-0.41830710
7.99999970	4.45989200	20.59547000	-1.15649600
8.19999968	1.11466500	20.55241000	-1.48253000
8.39999967	-1.91129400	20.55241000	-1.15649600
8.59999966	-4.14124000	20.59547000	-0.41830710
8.79999965	-5.09719500	20.97072000	-0.04306102
8.99999964	-4.77854300	21.71506000	0.00000000
9.19999962	-3.18590100	22.09030000	0.00000000
9.39999961	-1.27399100	22.09030000	0.00000000
9.59999960	0.63668800	21.75812000	0.00000000
9.79999959	1.91129400	21.34596000	0.00000000
9.99999958	2.54859700	21.33981000	0.00000000
10.19999956	2.38927200	20.92766000	0.00000000
10.39999955	1.75196900	20.59547000	0.00000000
10.59999954	0.79601380	20.55241000	0.00000000
10.79999953	0.00000000	20.59547000	0.00000000
10.99999952	-0.63668800	20.92766000	-0.04306102
11.19999951	-0.95533960	21.29675000	-0.37524600
11.39999949	-0.95533960	20.97072000	-0.73818890
11.59999948	-0.79601380	20.97072000	-0.37524600
11.79999947	-0.47736220	21.29675000	-0.04306102
11.99999946	-0.15871060	20.92766000	0.00000000
12.19999945	-0.15871060	20.59547000	0.00000000
12.39999943	0.00000000	20.55241000	0.00000000
12.59999942	0.00000000	20.55241000	0.00000000
12.79999941	0.00000000	20.55241000	0.00000000
12.99999940	0.00000000	20.55241000	0.00000000
13.19999939	0.00000000	20.59547000	0.00000000
13.39999937	0.00000000	20.97072000	0.00000000
13.59999936	0.00000000	21.66585000	0.00000000
13.79999935	0.00000000	21.66585000	0.00000000
13.99999934	0.00000000	20.97072000	0.00000000
14.19999933	-0.15871060	20.59547000	0.00000000
14.39999932	-0.15871060	20.55241000	0.00000000
14.59999930	-0.15871060	20.55241000	0.00000000
14.79999929	0.00000000	20.55241000	0.00000000
14.99999928	0.00000000	20.55241000	0.00000000
15.19999927	0.00000000	20.55241000	0.00000000
15.39999926	0.00000000	20.55241000	0.00000000
15.59999924	0.00000000	20.55241000	0.00000000
15.79999923	0.00000000	20.55241000	0.00000000
15.99999922	0.00000000	20.55241000	0.00000000
16.19999921	0.00000000	20.55241000	0.00000000
16.39999920	0.00000000	20.55241000	-0.04306102
16.59999919	0.00000000	20.59547000	-0.32603340
16.79999917	0.00000000	20.97072000	-0.41215550
16.99999916	0.00000000	21.71506000	-0.00615157
17.19999915	0.00000000	22.13336000	-0.41215550
17.39999914	0.00000000	22.50861000	-0.32603340
17.59999913	0.00000000	22.87770000	-0.04306102
17.79999911	0.00000000	22.50861000	0.00000000
17.99999910	0.00000000	22.09030000	0.00000000
18.19999909	0.00000000	21.24754000	0.00000000
18.39999908	0.00000000	19.34670000	0.00000000
18.59999907	0.00000000	17.48277000	0.00000000
18.79999905	0.00000000	16.27707000	0.00000000
18.99999904	0.00000000	15.94488000	0.00000000
19.19999903	0.00000000	16.73843000	0.00000000
19.39999902	0.00000000	19.10679000	0.00000000
19.59999901	0.00000000	22.55167000	0.00000000
19.79999900	0.00000000	26.45792000	0.00000000
19.99999898	0.00000000	29.90280000	0.00000000
20.19999897	0.00000000	32.17888000	0.00000000
20.39999896	0.00000000	32.13582000	0.00000000
20.59999895	0.00000000	29.39222000	0.00000000
20.79999894	0.00000000	24.27411000	0.00000000
20.99999892	0.00000000	16.92298000	0.00000000
21.19999891	0.00000000	8.87672100	0.00000000
21.39999890	0.00000000	2.73745100	0.00000000
21.59999889	0.00000000	0.03690945	0.00000000
21.79999888	0.00000000	1.71013800	-0.04306102
21.99999886	0.00000000	8.31692900	-0.37524600
22.19999885	0.00000000	19.19906000	-0.73818890
22.39999884	0.00000000	31.90822000	-0.37524600
22.59999883	0.00000000	43.86073000	-0.04306102
22.79999882	0.00000000	51.49483000	0.00000000
22.99999881	0.00000000	52.61442000	0.00000000
23.19999879	0.00000000	46.37672000	0.00000000
23.39999878	0.00000000	33.54453000	0.04306102
23.59999877	0.00000000	16.55389000	0.41830710
23.79999876	0.00000000	-1.21186000	1.15649600
23.99999875	0.00000000	-15.03445000	1.48253000
24.19999873	0.00000000	-21.54897000	1.11343500
24.39999872	0.00000000	-18.34400000	0.00000000
24.59999871	0.00000000	-5.22268700	-1.19955700
24.79999870	0.00000000	14.87451000	-2.41141700
24.99999869	0.00000000	37.26009000	-4.31840500
25.19999867	0.00000000	56.98203000	-5.75787400
25.39999866	0.00000000	69.27288000	-5.80093500
25.59999865	0.00000000	71.13065000	-4.64443900
25.79999864	0.00000000	61.07898000	-2.64517700
25.99999863	0.00000000	41.40009000	0.46751960
26.19999862	0.00000000	17.06447000	4.31840500
26.39999860	0.00000000	-6.88976300	7.80019600
26.59999859	0.00000000	-24.62475000	10.45152000
26.79999858	0.00000000	-31.97588000	11.14665000
26.99999857	0.00000000	-27.36220000	8.78444900
27.19999856	0.00000000	-11.92175000	3.76476400
27.39999854	0.00000000	10.50689000	-3.24803100
27.59999853	0.00000000	35.21161000	-10.91289000
27.79999852	0.00000000	56.42839000	-17.46432000
27.99999851	0.00000000	68.80536000	-20.85999000
28.19999850	0.00000000	70.06028000	-20.06643000
28.39999848	0.00000000	60.42692000	-14.58538000
28.59999847	0.00000000	42.69808000	-5.29650500
28.79999846	0.00000000	21.06299000	6.31766700
28.99999845	0.00000000	0.54749010	17.83957000
29.19999844	0.00000000	-14.57308000	26.29183000
29.39999843	0.00000000	-21.59203000	29.36146000
29.59999841	0.00000000	-19.27288000	26.20571000
29.79999840	0.00000000	-8.51993000	16.91068000
29.99999839	0.00000000	8.04010800	2.97736200
30.19999838	0.00000000	25.81201000	-12.45079000
30.39999837	0.00000000	40.98179000	-26.34104000
30.59999835	0.00000000	51.11958000	-35.12549000
30.79999834	0.00000000	54.61368000	-36.33120000
30.99999833	0.00000000	51.16265000	-29.77977000
31.19999832	0.00000000	41.53543000	-17.37205000
31.39999831	0.00000000	28.41412000	-1.07037400
31.59999829	0.00000000	14.82529000	16.25861000
31.79999828	0.00000000	3.24188000	30.52411000
31.99999827	0.00000000	-3.77706700	38.23819000
32.19999826	0.00000000	-4.98892600	37.86294000
32.39999825	0.00000000	-1.16879900	29.36146000
32.59999824	0.00000000	6.96973400	14.67766000
32.79999822	0.00000000	17.39050000	-3.06963600
32.99999821	0.00000000	27.81742000	-20.11565000
33.19999820	0.00000000	35.95595000	-32.80635000
33.39999819	0.00000000	39.86835000	-38.69341000
33.59999818	0.00000000	39.53617000	-36.38041000
33.79999816	0.00000000	35.25467000	-27.49754000
33.99999815	0.00000000	27.94660000	-13.10285000
34.19999814	0.00000000	19.48204000	4.18307100
34.39999813	0.00000000	12.13091000	19.98031000
34.59999812	0.00000000	7.48031400	30.47490000
34.79999810	0.00000000	6.31766700	34.00591000
34.99999809	0.00000000	9.01205700	30.52411000
35.19999808	0.00000000	14.69611000	20.44168000
35.39999807	0.00000000	21.20448000	5.85014700
35.59999806	0.00000000	26.27953000	-9.57185000
35.79999805	0.00000000	29.44143000	-21.88730000
35.99999803	0.00000000	30.55487000	-28.52485000
36.19999802	0.00000000	28.97392000	-28.15576000
36.39999801	0.00000000	24.78469000	-21.64739000
36.59999800	0.00000000	19.43897000	-10.45152000
36.79999799	0.00000000	14.82529000	2.55905500
36.99999797	0.00000000	12.13091000	13.70571000
37.19999796	0.00000000	12.08784000	19.93110000
37.39999795	0.00000000	14.36393000	20.34941000
37.59999794	0.00000000	17.85802000	15.37278000
37.79999793	0.00000000	22.13336000	6.17618100
37.99999791	0.00000000	26.36565000	-4.14000900
38.19999790	0.00000000	29.44143000	-12.64149000
38.39999789	0.00000000	30.55487000	-17.19365000
38.59999788	0.00000000	29.01698000	-16.40010000
38.79999787	0.00000000	25.25221000	-9.94094400
38.99999786	0.00000000	21.01993000	-0.41830710
39.19999784	0.00000000	17.43356000	8.78444900
39.39999783	0.00000000	14.32087000	15.28666000
39.59999782	0.00000000	12.03863000	16.81841000
39.79999781	0.00000000	11.66339000	13.01058000
39.99999780	0.00000000	13.20128000	5.33956700
40.19999778	0.00000000	16.32013000	-4.27534400
40.39999777	0.00000000	20.55241000	-13.05979000
40.59999776	0.00000000	24.82775000	-18.44857000
40.79999775	0.00000000	28.27879000	-18.81767000
40.99999774	0.00000000	30.31496000	-14.21629000
41.19999772	0.00000000	30.61023000	-5.80093500
41.39999771	0.00000000	29.47835000	3.80782500
41.59999770	0.00000000	26.00270000	11.89715000
41.79999769	0.00000000	22.17643000	16.91068000
41.99999768	0.00000000	18.55315000	17.28592000
42.19999767	0.00000000	14.73917000	13.10285000
42.39999765	0.00000000	12.08784000	5.80708600
42.59999764	0.00000000	11.66339000	-2.64517700
42.79999763	0.00000000	13.15822000	-9.98400600
42.99999762	0.00000000	15.85261000	-14.63459000
43.19999761	0.00000000	18.92839000	-15.79109000
43.39999759	0.00000000	21.66585000	-13.14591000
43.59999758	0.00000000	23.62205000	-7.80019600
43.79999757	0.00000000	24.82775000	-1.62401600
43.99999756	0.00000000	25.20300000	4.18307100
44.19999755	0.00000000	24.87697000	8.40920300
44.39999753	0.00000000	24.13263000	9.94094400
44.59999752	0.00000000	23.75738000	8.50147600
44.79999751	0.00000000	23.67126000	5.06274600
44.99999750	0.00000000	23.29601000	1.24877000
45.19999749	0.00000000	22.50861000	-2.27608300
45.39999748	0.00000000	21.66585000	-4.60137700
45.59999746	0.00000000	20.04183000	-5.80093500
45.79999745	0.00000000	17.34744000	-5.80093500
45.99999744	0.00000000	14.27165000	-4.64443900
46.19999743	0.00000000	11.62032000	-2.73745100
46.39999742	0.00000000	10.50689000	-0.41830710
46.59999740	0.00000000	11.71260000	1.48868100
46.79999739	0.00000000	15.15748000	2.73745100
46.99999738	0.00000000	20.26944000	3.43873000
47.19999737	0.00000000	26.04577000	3.43257800
47.39999736	0.00000000	31.85285000	1.86392700
47.59999734	0.00000000	35.62992000	-0.37524600
47.79999733	0.00000000	36.37426000	-2.73745100
47.99999732	0.00000000	33.25541000	-4.64443900
48.19999731	0.00000000	26.69783000	-5.80093500
48.39999730	0.00000000	18.59621000	-5.75787400
48.59999729	0.00000000	10.45768000	-4.22613100
48.79999727	0.00000000	4.31840500	-1.58095500
48.99999726	0.00000000	1.66092500	1.15649600
49.19999725	0.00000000	3.61712600	3.48179100
49.39999724	0.00000000	10.13164000	5.38262700
49.59999723	0.00000000	19.01451000	5.75787400
49.79999721	0.00000000	28.32185000	4.64443900
49.99999720	0.00000000	36.33120000	2.64517700
50.19999719	0.00000000	40.18824000	-0.46751960
50.39999718	0.00000000	38.70571000	-4.26919300
50.59999717	0.00000000	33.34769000	-7.33882900
50.79999715	0.00000000	25.15994000	-8.87672100
50.99999714	0.00000000	15.94488000	-8.50147600
51.19999713	0.00000000	7.89862200	-6.17618100
51.39999712	0.00000000	3.66633800	-2.69439000
51.59999711	0.00000000	4.40452700	1.57480300
51.79999710	0.00000000	9.34424200	5.71481200
51.99999708	0.00000000	17.05832000	8.07701800
52.19999707	0.00000000	25.11688000	8.08932000
52.39999706	0.00000000	31.67446000	6.58833600
52.59999705	0.00000000	34.75024000	3.43873000
52.79999704	0.00000000	33.63066000	-0.37524600
52.99999702	0.00000000	29.02313000	-4.22613100
53.19999701	0.00000000	22.13336000	-6.92052100
53.39999700	0.00000000	15.20054000	-7.71407400
53.59999699	0.00000000	10.21776000	-6.96358300
53.79999698	0.00000000	8.27386800	-4.64443900
53.99999696	0.00000000	10.17470000	-1.62401600
54.19999695	0.00000000	14.73917000	1.11343500
54.39999694	0.00000000	20.55241000	3.02042300
54.59999693	0.00000000	26.32259000	3.76476400
54.79999692	0.00000000	30.51181000	2.64517700
54.99999691	0.00000000	31.66830000	0.46751960
55.19999689	0.00000000	29.39222000	-1.11343500
55.39999688	0.00000000	24.78469000	-1.90698800
55.59999687	0.00000000	19.06373000	-2.26993100
55.79999686	0.00000000	14.04404000	-1.48868100
55.99999685	0.00000000	11.33735000	0.00000000
56.19999683	0.00000000	10.92520000	1.53174200
56.39999682	0.00000000	13.24434000	2.64517700
56.59999681	0.00000000	17.43356000	2.60211600
56.79999680	0.00000000	22.04109000	1.07037400
56.99999679	0.00000000	25.94734000	-1.62401600
57.19999677	0.00000000	28.22958000	-4.68750000
57.39999676	0.00000000	28.64173000	-7.33882900
57.59999675	0.00000000	26.74089000	-8.45226300
57.79999674	0.00000000	23.71432000	-7.25270600
57.99999673	0.00000000	20.55241000	-3.80782500
58.19999672	0.00000000	17.48277000	1.19955700
58.39999670	0.00000000	15.20054000	6.17618100
58.59999669	0.00000000	14.82529000	9.98400600
58.79999668	0.00000000	16.27707000	11.10359000
58.99999667	0.00000000	18.55315000	8.82750900
59.19999666	0.00000000	20.50935000	4.22613100
59.39999664	0.00000000	22.09030000	-1.57480300
59.59999663	0.00000000	23.24680000	-7.38188900
59.79999662	0.00000000	23.62205000	-11.98327000
59.99999661	0.00000000	23.24680000	-14.25935000
60.19999660	0.00000000	22.09030000	-13.05364000
60.39999658	0.00000000	20.59547000	-8.40920300
60.59999657	0.00000000	19.43897000	-1.15649600
60.79999656	0.00000000	19.06373000	6.50221400
60.99999655	0.00000000	19.38976000	11.94021000
61.19999654	0.00000000	20.17716000	14.67766000
61.39999653	0.00000000	20.92766000	14.21629000
61.59999651	0.00000000	21.66585000	9.94094400
61.79999650	0.00000000	21.66585000	2.69439000
61.99999649	0.00000000	20.92766000	-5.38262700
62.19999648	0.00000000	20.13410000	-11.94021000
62.39999647	0.00000000	18.97145000	-15.84030000
62.59999645	0.00000000	17.85802000	-16.16634000
62.79999644	0.00000000	17.48277000	-12.77067000
62.99999643	0.00000000	17.85802000	-6.60063900
63.19999642	0.00000000	19.01451000	0.37524600
63.39999641	0.00000000	20.55241000	7.33882900
63.59999639	0.00000000	22.09030000	12.68455000
63.79999638	0.00000000	23.24680000	14.63459000
63.99999637	0.00000000	23.62205000	13.10285000
64.19999636	0.00000000	23.24680000	8.50147600
64.39999635	0.00000000	22.09030000	1.95004900
64.59999634	0.00000000	20.55241000	-4.60137700
64.79999632	0.00000000	19.01451000	-10.03322000
64.99999631	0.00000000	17.85802000	-13.14591000
65.19999630	0.00000000	17.48277000	-13.56422000
65.39999629	0.00000000	17.85802000	-11.65723000
65.59999628	0.00000000	19.01451000	-7.75713500
65.79999626	0.00000000	20.50935000	-2.78051200
65.99999625	0.00000000	21.66585000	2.22687000
66.19999624	0.00000000	22.04109000	5.75787400
66.39999623	0.00000000	21.66585000	7.75713500
66.59999622	0.00000000	20.55241000	8.54453700
66.79999620	0.00000000	19.38976000	7.75713500
66.99999619	0.00000000	18.59621000	5.85014700
67.19999618	0.00000000	17.85802000	3.11269700
67.39999617	0.00000000	17.90108000	0.00000000
67.59999616	0.00000000	19.06373000	-3.11269700
67.79999615	0.00000000	20.97072000	-5.85014700
67.99999613	0.00000000	23.29601000	-7.80019600
68.19999612	0.00000000	25.15994000	-9.00590400
68.39999611	0.00000000	25.90428000	-9.33809000
68.59999610	0.00000000	24.74163000	-8.50147600
68.79999609	0.00000000	22.09030000	-5.75787400
68.99999607	0.00000000	18.92839000	-1.57480300
69.19999606	0.00000000	15.43430000	2.69439000
69.39999605	0.00000000	12.03863000	6.22539300
69.59999604	0.00000000	10.54995000	8.91978400
69.79999603	0.00000000	11.66339000	10.03322000
69.99999601	0.00000000	14.78223000	8.87057000
70.19999600	0.00000000	19.43897000	5.75787400
70.39999599	0.00000000	24.82775000	1.11343500
70.59999598	0.00000000	29.39222000	-4.27534400
70.79999597	0.00000000	31.71752000	-8.87672100
70.99999596	0.00000000	31.02239000	-11.56496000
71.19999594	0.00000000	28.27879000	-11.61417000
71.39999593	0.00000000	23.99114000	-9.33809000
71.59999592	0.00000000	18.18405000	-5.85014700
71.79999591	0.00000000	12.82603000	-1.53174200
71.99999590	0.00000000	8.92593500	3.02042300
72.19999588	0.00000000	7.43110200	6.50221400
72.39999587	0.00000000	8.96899500	7.67101300
72.59999586	0.00000000	13.20128000	6.96358300
72.79999585	0.00000000	18.97145000	4.64443900
72.99999584	0.00000000	24.78469000	1.62401600
73.19999582	0.00000000	29.39222000	-1.11343500
73.39999581	0.00000000	31.76058000	-3.06348400
73.59999580	0.00000000	31.39149000	-4.22613100
73.79999579	0.00000000	29.06619000	-4.22613100
73.99999578	0.00000000	24.78469000	-3.11269700
74.19999577	0.00000000	19.48204000	-1.62401600
74.39999575	0.00000000	15.20054000	-0.46136810
74.59999574	0.00000000	12.82603000	-0.09227362
74.79999573	0.00000000	11.99557000	-0.46136810
74.99999572	0.00000000	12.82603000	-1.57480300
75.19999571	0.00000000	15.11442000	-2.68823800
75.39999569	0.00000000	18.55315000	-3.06348400
75.59999568	0.00000000	21.62278000	-2.64517700
75.79999567	0.00000000	23.62205000	-1.07037400
75.99999566	0.00000000	24.78469000	1.58095500
76.19999565	0.00000000	24.78469000	4.22613100
76.39999563	0.00000000	23.67126000	5.75787400
76.59999562	0.00000000	22.17643000	5.75787400
76.79999561	0.00000000	20.97072000	4.18307100
76.99999560	0.00000000	20.17716000	1.07037400
77.19999559	0.00000000	19.43897000	-3.15575800
77.39999558	0.00000000	19.43897000	-7.38188900
77.59999556	0.00000000	20.08489000	-10.45152000
77.79999555	0.00000000	20.08489000	-11.60802000
77.99999554	0.00000000	19.34670000	-10.40846000
78.19999553	0.00000000	18.55315000	-6.92052100
78.39999552	0.00000000	17.43356000	-1.53174200
78.59999550	0.00000000	16.69537000	4.18307100
78.79999549	0.00000000	17.10753000	8.45226300
78.99999548	0.00000000	18.22711000	10.45152000
79.19999547	0.00000000	20.17716000	10.45152000
79.39999546	0.00000000	22.09030000	8.45226300
79.59999544	0.00000000	23.67126000	4.22613100
79.79999543	0.00000000	24.78469000	-1.15649600
79.99999542	0.00000000	24.78469000	-6.17618100
80.19999541	0.00000000	23.62205000	-10.03322000
80.39999540	0.00000000	21.66585000	-11.56496000
80.59999539	0.00000000	18.97145000	-10.49459000
80.79999537	0.00000000	16.32013000	-7.80019600
80.99999536	0.00000000	14.78223000	-4.31840500
81.19999535	0.00000000	14.73917000	-0.41830710
81.39999534	0.00000000	15.90182000	3.06348400
81.59999533	0.00000000	17.85802000	5.80093500
81.79999531	0.00000000	20.55241000	7.33882900
81.99999530	0.00000000	23.24680000	7.38188900
82.19999529	0.00000000	25.11688000	6.17618100
82.39999528	0.00000000	25.57210000	3.90009800
82.59999527	0.00000000	24.42175000	0.79355310
82.79999525	0.00000000	22.92076000	-1.95004900
82.99999524	0.00000000	20.92766000	-4.68750000
83.19999523	0.00000000	19.01451000	-7.01279500
83.39999522	0.00000000	17.48277000	-8.17544300
83.59999521	0.00000000	16.69537000	-8.54453700
83.79999520	0.00000000	17.05832000	-7.33882900
83.99999518	0.00000000	17.80881000	-4.64443900
84.19999517	0.00000000	18.97145000	-1.15649600
84.39999516	0.00000000	20.08489000	2.69439000
84.59999515	0.00000000	20.50935000	5.80093500
84.79999514	0.00000000	20.55241000	7.75713500
84.99999512	0.00000000	20.55241000	8.50147600
85.19999511	0.00000000	20.55241000	7.29576700
85.39999510	0.00000000	20.59547000	4.22613100
85.59999509	0.00000000	20.97072000	-0.04306102
85.79999508	0.00000000	21.71506000	-4.64443900
85.99999506	0.00000000	22.04109000	-8.50147600
86.19999505	0.00000000	21.66585000	-10.45152000
86.39999504	0.00000000	20.55241000	-10.45152000
86.59999503	0.00000000	19.38976000	-8.50147600
86.79999502	0.00000000	18.55315000	-4.60137700
86.99999501	0.00000000	17.39050000	0.37524600
87.19999499	0.00000000	16.32013000	5.33956700
87.39999498	0.00000000	16.32013000	8.40920300
87.59999497	0.00000000	17.43356000	8.87672100
87.79999496	0.00000000	18.97145000	7.29576700
87.99999495	0.00000000	20.55241000	3.80782500
88.19999493	0.00000000	22.09030000	-1.15649600
88.39999492	0.00000000	23.20374000	-5.75787400
88.59999491	0.00000000	23.20374000	-8.91978400
88.79999490	0.00000000	22.09030000	-10.40846000
88.99999489	0.00000000	20.55241000	-9.60875900
89.19999487	0.00000000	19.01451000	-6.13312000
89.39999486	0.00000000	17.85802000	-1.15649600
89.59999485	0.00000000	17.43356000	4.22613100
89.79999484	0.00000000	17.43356000	8.40920300
89.99999483	0.00000000	17.80881000	9.94094400
90.19999482	0.00000000	18.59621000	8.45226300
90.39999480	0.00000000	19.38976000	4.60137700
90.59999479	0.00000000	20.55241000	-0.37524600
90.79999478	0.00000000	21.62278000	-5.43184000
90.99999477	0.00000000	21.66585000	-9.20275500
91.19999476	0.00000000	20.97072000	-10.77141000
91.39999474	0.00000000	20.59547000	-9.20275500
91.59999473	0.00000000	20.55241000	-5.43184000
91.79999472	0.00000000	20.55241000	-0.41830710
91.99999471	0.00000000	20.55241000	4.18307100
92.19999470	0.00000000	20.55241000	7.29576700
92.39999468	0.00000000	20.55241000	8.45226300
92.59999467	0.00000000	20.50935000	7.25270600
92.79999466	0.00000000	20.13410000	3.80782500
92.99999465	0.00000000	19.34670000	-1.15649600
93.19999464	0.00000000	18.59621000	-5.71481200
93.39999463	0.00000000	17.80881000	-8.45226300
93.59999461	0.00000000	17.48277000	-8.82750900
93.79999460	0.00000000	17.85802000	-6.92052100
93.99999459	0.00000000	19.01451000	-3.06963600
94.19999458	0.00000000	20.55241000	1.48868100
94.39999457	0.00000000	22.13336000	5.29650500
94.59999455	0.00000000	23.67126000	6.87130900
94.79999454	0.00000000	24.78469000	6.17618100
94.99999453	0.00000000	24.78469000	4.22613100
95.19999452	0.00000000	23.62205000	1.11343500
95.39999451	0.00000000	21.62278000	-2.73745100
95.59999449	0.00000000	18.55315000	-6.13312000
95.79999448	0.00000000	15.11442000	-8.07701800
95.99999447	0.00000000	12.82603000	-7.66486200
96.19999446	0.00000000	12.03863000	-5.43184000
96.39999445	0.00000000	13.20128000	-1.99311000
96.59999444	0.00000000	15.90182000	1.07037400
96.79999442	0.00000000	19.38976000	3.06348400
96.99999441	0.00000000	23.24680000	4.18307100
97.19999440	0.00000000	26.32259000	3.80782500
97.39999439	0.00000000	27.90354000	1.95004900
97.59999438	0.00000000	27.90354000	0.00000000
97.79999436	0.00000000	26.32259000	-1.95004900
97.99999435	0.00000000	23.24680000	-3.85088600
98.19999434	0.00000000	19.38976000	-4.60137700
98.39999433	0.00000000	15.90182000	-4.26919300
98.59999432	0.00000000	13.15822000	-3.15575800
98.79999430	0.00000000	11.62032000	-1.99311000
98.99999429	0.00000000	11.66339000	-1.19955700
99.19999428	0.00000000	13.57652000	-0.41830710
99.39999427	0.00000000	17.01525000	-0.04306102
99.59999426	0.00000000	20.50935000	0.00000000
99.79999425	0.00000000	23.62205000	0.04306102
99.99999423	0.00000000	25.94734000	0.41830710
100.19999422	0.00000000	26.74089000	1.15649600
100.39999421	0.00000000	26.36565000	1.53174200
100.59999420	0.00000000	24.78469000	1.53174200
100.79999419	0.00000000	22.09030000	1.11343500
100.99999417	0.00000000	19.01451000	-0.04306102
101.19999416	0.00000000	16.27707000	-1.57480300
101.39999415	0.00000000	14.32087000	-3.11269700
101.59999414	0.00000000	13.15822000	-4.26919300
101.79999413	0.00000000	13.20128000	-4.64443900
101.99999411	0.00000000	14.73917000	-4.26919300
102.19999410	0.00000000	17.39050000	-3.06348400
102.39999409	0.00000000	20.13410000	-1.11343500
102.59999408	0.00000000	22.46555000	1.53174200
102.79999407	0.00000000	24.36639000	3.80782500
102.99999406	0.00000000	24.78469000	4.64443900
103.19999404	0.00000000	24.08957000	4.64443900
103.39999403	0.00000000	23.24680000	3.76476400
103.59999402	0.00000000	21.66585000	1.11343500
103.79999401	0.00000000	19.38976000	-2.31914400
103.99999400	0.00000000	17.48277000	-5.01968500
104.19999398	0.00000000	16.27707000	-6.96358300
104.39999397	0.00000000	15.90182000	-7.29576700
104.59999396	0.00000000	16.27707000	-5.80093500
104.79999395	0.00000000	17.43356000	-3.11269700
104.99999394	0.00000000	18.97145000	-0.04306102
105.19999392	0.00000000	20.50935000	2.64517700
105.39999391	0.00000000	21.66585000	4.22613100
105.59999390	0.00000000	22.09030000	4.60137700
105.79999389	0.00000000	22.09030000	3.80782500
105.99999388	0.00000000	21.66585000	1.53174200
106.19999387	0.00000000	20.50935000	-1.11343500
106.39999385	0.00000000	19.01451000	-3.06348400
106.59999384	0.00000000	17.85802000	-4.26919300
106.79999383	0.00000000	17.48277000	-4.64443900
106.99999382	0.00000000	17.85802000	-4.22613100
107.19999381	0.00000000	18.97145000	-2.69439000
107.39999379	0.00000000	20.13410000	-0.41830710
107.59999378	0.00000000	20.92766000	1.43946800
107.79999377	0.00000000	21.66585000	2.26993100
107.99999376	0.00000000	21.62278000	1.90698800
108.19999375	0.00000000	20.55241000	1.11343500
108.39999374	0.00000000	19.38976000	-0.46751960
108.59999372	0.00000000	18.59621000	-2.69439000
108.79999371	0.00000000	17.80881000	-4.18307100
108.99999370	0.00000000	17.48277000	-4.26919300
109.19999369	0.00000000	17.80881000	-3.48794300
109.39999368	0.00000000	18.59621000	-2.31914400
109.59999366	0.00000000	19.38976000	-0.37524600
109.79999365	0.00000000	20.55241000	1.48868100
109.99999364	0.00000000	21.66585000	2.64517700
110.19999363	0.00000000	22.04109000	2.68823800
110.39999362	0.00000000	21.66585000	1.95004900
110.59999360	0.00000000	20.55241000	1.15649600
110.79999359	0.00000000	19.38976000	-0.09227362
110.99999358	0.00000000	18.59621000	-1.95004900
111.19999357	0.00000000	17.80881000	-3.85088600
111.39999356	0.00000000	17.48277000	-4.60137700
111.59999355	0.00000000	17.80881000	-4.26919300
111.79999353	0.00000000	18.55315000	-3.11269700
111.99999352	0.00000000	18.97145000	-1.62401600
112.19999351	0.00000000	19.38976000	-0.46136810
112.39999350	0.00000000	20.13410000	0.00000000
112.59999349	0.00000000	20.50935000	0.37524600
112.79999347	0.00000000	20.55241000	0.73818890
112.99999346	0.00000000	20.55241000	0.37524600
113.19999345	0.00000000	20.50935000	0.04306102
113.39999344	0.00000000	20.13410000	0.00000000
113.59999343	0.00000000	19.38976000	-0.04306102
113.79999341	0.00000000	19.01451000	-0.41830710
113.99999340	0.00000000	19.01451000	-1.15649600
114.19999339	0.00000000	19.34670000	-1.57480300
114.39999338	0.00000000	19.71580000	-1.95004900
114.59999337	0.00000000	19.34670000	-2.36220500
114.79999336	0.00000000	19.01451000	-2.36835600
114.99999334	0.00000000	18.97145000	-2.73745100
115.19999333	0.00000000	18.97145000	-2.68823800
115.39999332	0.00000000	18.97145000	-1.99311000
115.59999331	0.00000000	19.01451000	-1.61786400
115.79999330	0.00000000	19.34670000	-1.48253000
115.99999328	0.00000000	19.71580000	-0.73818890
116.19999327	0.00000000	19.34670000	0.73818890
116.39999326	0.00000000	19.01451000	1.48253000
116.59999325	0.00000000	18.97145000	1.53174200
116.79999324	0.00000000	18.97145000	1.15649600
116.99999322	0.00000000	18.97145000	0.37524600
117.19999321	0.00000000	19.01451000	-0.41830710
117.39999320	0.00000000	19.38976000	-1.57480300
117.59999319	0.00000000	20.13410000	-2.68823800
117.79999318	0.00000000	20.50935000	-3.11269700
117.99999317	0.00000000	20.55241000	-3.15575800
118.19999315	0.00000000	20.55241000	-3.11269700
118.39999314	0.00000000	20.50935000	-2.68823800
118.59999313	0.00000000	20.08489000	-1.57480300
118.79999312	0.00000000	18.97145000	-0.41830710
118.99999311	0.00000000	17.85802000	0.37524600
119.19999309	0.00000000	17.39050000	1.15649600
119.39999308	0.00000000	17.01525000	1.48253000
119.59999307	0.00000000	16.69537000	1.15649600
119.79999306	0.00000000	17.48277000	0.41830710
119.99999305	0.00000000	18.97145000	0.00000000
120.19999303	0.00000000	20.50935000	-0.41830710
120.39999302	0.00000000	21.66585000	-1.15649600
120.59999301	0.00000000	22.09030000	-1.53174200
120.79999300	0.00000000	22.09030000	-1.61786400
120.99999299	0.00000000	21.71506000	-1.95004900
121.19999298	0.00000000	20.92766000	-2.31914400
121.39999296	0.00000000	20.13410000	-1.95004900
121.59999295	0.00000000	18.92839000	-1.61786400
121.79999294	0.00000000	17.43356000	-1.57480300
121.99999293	0.00000000	16.32013000	-1.53174200
122.19999292	0.00000000	16.27707000	-1.15649600
122.39999290	0.00000000	17.01525000	-0.41830710
122.59999289	0.00000000	17.80881000	-0.04306102
122.79999288	0.00000000	18.97145000	0.00000000
122.99999287	0.00000000	20.13410000	0.00000000
123.19999286	0.00000000	20.92766000	0.00000000
123.39999284	0.00000000	21.71506000	-0.04306102
123.59999283	0.00000000	22.04109000	-0.41830710
123.79999282	0.00000000	21.71506000	-1.15649600
123.99999281	0.00000000	20.92766000	-1.53174200
124.19999280	0.00000000	20.17716000	-1.57480300
124.39999279	0.00000000	19.34670000	-1.57480300
124.59999277	0.00000000	18.59621000	-1.57480300
124.79999276	0.00000000	17.80881000	-1.57480300
124.99999275	0.00000000	17.43356000	-1.53174200
125.19999274	0.00000000	17.39050000	-1.15649600
125.39999273	0.00000000	17.43356000	-0.41830710
125.59999271	0.00000000	17.80881000	-0.04306102
125.79999270	0.00000000	18.59621000	0.00000000
125.99999269	0.00000000	19.38976000	0.00000000
126.19999268	0.00000000	20.55241000	0.00000000
126.39999267	0.00000000	21.66585000	0.00000000
126.59999265	0.00000000	22.04109000	-0.04306102
126.79999264	0.00000000	21.71506000	-0.41830710
126.99999263	0.00000000	20.92766000	-1.15649600
127.19999262	0.00000000	20.13410000	-1.53174200
127.39999261	0.00000000	18.97145000	-1.57480300
127.59999260	0.00000000	17.85802000	-1.57480300
127.79999258	0.00000000	17.43356000	-1.53174200
127.99999257	0.00000000	17.43356000	-1.15649600
128.19999256	0.00000000	17.80881000	-0.41830710
128.39999255	0.00000000	18.59621000	-0.04306102
128.59999254	0.00000000	19.38976000	0.00000000
128.79999252	0.00000000	20.55241000	0.00000000
128.99999251	0.00000000	21.62278000	-0.04306102
129.19999250	0.00000000	21.66585000	-0.41830710
129.39999249	0.00000000	20.92766000	-1.15649600
129.59999248	0.00000000	20.13410000	-1.53174200
129.79999246	0.00000000	18.97145000	-1.57480300
129.99999245	0.00000000	17.85802000	-1.57480300
130.19999244	0.00000000	17.43356000	-1.57480300
130.39999243	0.00000000	17.39050000	-1.53174200
130.59999242	0.00000000	17.43356000	-1.15649600
130.79999241	0.00000000	17.85802000	-0.41830710
130.99999239	0.00000000	18.97145000	-0.04306102
131.19999238	0.00000000	20.08489000	-0.04306102
131.39999237	0.00000000	20.50935000	-0.41830710
131.59999236	0.00000000	20.55241000	-1.15649600
131.79999235	0.00000000	20.50935000	-1.57480300
131.99999233	0.00000000	20.13410000	-1.95004900
132.19999232	0.00000000	19.38976000	-2.31914400
132.39999231	0.00000000	18.97145000	-1.95004900
132.59999230	0.00000000	18.59621000	-1.61786400
132.79999229	0.00000000	18.22711000	-1.53174200
132.99999227	0.00000000	18.59621000	-1.15649600
133.19999226	0.00000000	18.92839000	-0.41830710
133.39999225	0.00000000	18.97145000	0.00000000
133.59999224	0.00000000	18.97145000	0.37524600
133.79999223	0.00000000	18.97145000	0.73818890
133.99999222	0.00000000	18.97145000	0.32603340
134.19999220	0.00000000	18.97145000	-0.37524600
134.39999219	0.00000000	18.97145000	-1.15649600
134.59999218	0.00000000	18.97145000	-1.57480300
134.79999217	0.00000000	19.01451000	-1.99311000
134.99999216	0.00000000	19.38976000	-2.73745100
135.19999214	0.00000000	20.13410000	-3.06348400
135.39999213	0.00000000	20.46014000	-2.73745100
135.59999212	0.00000000	20.13410000	-1.95004900
135.79999211	0.00000000	19.38976000	-1.19955700
135.99999210	0.00000000	18.97145000	-0.41830710
136.19999208	0.00000000	18.55315000	-0.04306102
136.39999207	0.00000000	17.80881000	0.00000000
136.59999206	0.00000000	17.48277000	0.00000000
136.79999205	0.00000000	17.80881000	0.00000000
136.99999204	0.00000000	18.59621000	-0.04306102
137.19999203	0.00000000	19.30364000	-0.46136810
137.39999201	0.00000000	19.75886000	-1.53174200
137.59999200	0.00000000	19.76501000	-2.26993100
137.79999199	0.00000000	20.17716000	-1.99311000
137.99999198	0.00000000	20.46014000	-2.04232300
138.19999197	0.00000000	20.13410000	-2.68823800
138.39999195	0.00000000	19.38976000	-2.68823800
138.59999194	0.00000000	18.97145000	-1.99311000
138.79999193	0.00000000	18.55315000	-1.57480300
138.99999192	0.00000000	17.80881000	-1.15649600
139.19999191	0.00000000	17.48277000	-0.41830710
139.39999189	0.00000000	17.80881000	-0.04306102
139.59999188	0.00000000	18.59621000	0.00000000
139.79999187	0.00000000	19.34670000	0.00000000
139.99999186	0.00000000	20.13410000	-0.04306102
140.19999185	0.00000000	20.50935000	-0.41830710
140.39999184	0.00000000	20.55241000	-1.15649600
140.59999182	0.00000000	20.50935000	-1.57480300
140.79999181	0.00000000	20.13410000	-1.95004900
140.99999180	0.00000000	19.38976000	-2.31914400
141.19999179	0.00000000	19.01451000	-1.95004900
141.39999178	0.00000000	18.97145000	-1.57480300
141.59999176	0.00000000	18.97145000	-1.15649600
141.79999175	0.00000000	18.97145000	-0.41830710
141.99999174	0.00000000	18.97145000	0.00000000
142.19999173	0.00000000	19.01451000	0.41830710
142.39999172	0.00000000	19.34670000	1.11343500
142.59999170	0.00000000	19.71580000	1.11343500
142.79999169	0.00000000	19.34670000	0.37524600
142.99999168	0.00000000	19.01451000	-0.37524600
143.19999167	0.00000000	18.97145000	-1.19955700
143.39999166	0.00000000	18.92839000	-1.95004900
143.59999165	0.00000000	18.59621000	-2.73745100
143.79999163	0.00000000	18.22711000	-3.06348400
143.99999162	0.00000000	18.59621000	-2.73745100
144.19999161	0.00000000	18.92839000	-1.95004900
144.39999160	0.00000000	19.01451000	-1.19955700
144.59999159	0.00000000	19.38976000	-0.41830710
144.79999157	0.00000000	20.08489000	-0.04306102
144.99999156	0.00000000	20.08489000	0.00000000
145.19999155	0.00000000	19.38976000	0.00000000
145.39999154	0.00000000	19.01451000	0.00000000
145.59999153	0.00000000	18.97145000	-0.04306102
145.79999151	0.00000000	18.97145000	-0.41830710
145.99999150	0.00000000	18.97145000	-1.19955700
146.19999149	0.00000000	18.97145000	-1.90698800
146.39999148	0.00000000	18.97145000	-2.31914400
146.59999147	0.00000000	19.01451000	-1.95004900
146.79999146	0.00000000	19.34670000	-1.61786400
146.99999144	0.00000000	19.75886000	-1.53174200
147.19999143	0.00000000	19.72195000	-1.15649600
147.39999142	0.00000000	19.75886000	-0.41830710
147.59999141	0.00000000	19.34670000	-0.04306102
147.79999140	0.00000000	19.01451000	0.00000000
147.99999138	0.00000000	18.97145000	0.00000000
148.19999137	0.00000000	18.92839000	-0.04306102
148.39999136	0.00000000	18.59621000	-0.41830710
148.59999135	0.00000000	18.18405000	-1.15649600
148.79999134	0.00000000	18.22096000	-1.57480300
148.99999132	0.00000000	18.18405000	-1.95004900
149.19999131	0.00000000	18.59621000	-2.31914400
149.39999130	0.00000000	18.92839000	-1.95004900
149.59999129	0.00000000	18.97145000	-1.61786400
149.79999128	0.00000000	18.97145000	-1.53174200
149.99999127	0.00000000	18.97145000	-1.15649600
150.19999125	0.00000000	18.97145000	-0.41830710
150.39999124	0.00000000	18.97145000	-0.04306102
150.59999123	0.00000000	18.97145000	0.00000000
150.79999122	0.00000000	18.97145000	0.00000000
150.99999121	0.00000000	18.97145000	-0.04306102
151.19999119	0.00000000	18.97145000	-0.41830710
151.39999118	0.00000000	18.92839000	-1.15649600
151.59999117	0.00000000	18.55315000	-1.48253000
151.79999116	0.00000000	17.85802000	-1.19955700
151.99999115	0.00000000	17.85802000	-0.83661410
152.19999113	0.00000000	18.55315000	-1.19955700
152.39999112	0.00000000	18.97145000	-1.53174200
152.59999111	0.00000000	19.38976000	-1.57480300
152.79999110	0.00000000	20.13410000	-1.53174200
152.99999109	0.00000000	20.46014000	-1.15649600
153.19999108	0.00000000	20.13410000	-0.46136810
153.39999106	0.00000000	19.38976000	-0.41830710
153.59999105	0.00000000	18.97145000	-0.73818890
153.79999104	0.00000000	18.55315000	-0.37524600
153.99999103	0.00000000	17.80881000	-0.09227362
154.19999102	0.00000000	17.43356000	-0.41830710
154.39999100	0.00000000	17.39050000	-1.15649600
154.59999099	0.00000000	17.43356000	-1.53174200
154.79999098	0.00000000	17.80881000	-1.57480300
154.99999097	0.00000000	18.59621000	-1.57480300
155.19999096	0.00000000	19.34670000	-1.57480300
155.39999094	0.00000000	20.13410000	-1.57480300
155.59999093	0.00000000	20.46014000	-1.57480300
155.79999092	0.00000000	20.13410000	-1.57480300
155.99999091	0.00000000	19.38976000	-1.57480300
156.19999090	0.00000000	19.01451000	-1.53174200
156.39999089	0.00000000	18.97145000	-1.15649600
156.59999087	0.00000000	18.92839000	-0.41830710
156.79999086	0.00000000	18.55315000	-0.04306102
156.99999085	0.00000000	17.80881000	0.00000000
157.19999084	0.00000000	17.43356000	-0.04306102
157.39999083	0.00000000	17.43356000	-0.41830710
157.59999081	0.00000000	17.80881000	-1.15649600
157.79999080	0.00000000	18.55315000	-1.53174200
157.99999079	0.00000000	18.92839000	-1.57480300
158.19999078	0.00000000	18.97145000	-1.57480300
158.39999077	0.00000000	18.97145000	-1.57480300
158.59999075	0.00000000	18.97145000	-1.57480300
158.79999074	0.00000000	18.97145000	-1.57480300
158.99999073	0.00000000	18.97145000	-1.53174200
159.19999072	0.00000000	18.97145000	-1.15649600
159.39999071	0.00000000	18.97145000	-0.41830710
159.59999070	0.00000000	18.97145000	-0.04306102
159.79999068	0.00000000	18.92839000	0.00000000
159.99999067	0.00000000	18.59621000	0.00000000
160.19999066	0.00000000	18.18405000	0.00000000
160.39999065	0.00000000	18.22096000	-0.04306102
160.59999064	0.00000000	18.18405000	-0.41830710
160.79999062	0.00000000	18.59621000	-1.15649600
160.99999061	0.00000000	18.92839000	-1.53174200
161.19999060	0.00000000	18.97145000	-1.57480300
161.39999059	0.00000000	18.97145000	-1.57480300
161.59999058	0.00000000	18.97145000	-1.57480300
161.79999056	0.00000000	18.97145000	-1.53174200
161.99999055	0.00000000	18.97145000	-1.15649600
162.19999054	0.00000000	18.97145000	-0.46136810
162.39999053	0.00000000	18.97145000	-0.41830710
162.59999052	0.00000000	18.97145000	-0.73818890
162.79999051	0.00000000	18.97145000	-0.37524600
162.99999049	0.00000000	18.92839000	-0.04306102
163.19999048	0.00000000	18.55315000	-0.04306102
163.39999047	0.00000000	17.80881000	-0.41830710
163.59999046	0.00000000	17.43356000	-1.15649600
163.79999045	0.00000000	17.39050000	-1.53174200
163.99999043	0.00000000	17.43356000	-1.57480300
164.19999042	0.00000000	17.80881000	-1.57480300
164.39999041	0.00000000	18.55315000	-1.57480300
164.59999040	0.00000000	18.92839000	-1.57480300
164.79999039	0.00000000	18.97145000	-1.57480300
164.99999037	0.00000000	18.97145000	-1.53174200
165.19999036	0.00000000	18.97145000	-1.19955700
165.39999035	0.00000000	18.97145000	-0.83661410
165.59999034	0.00000000	18.97145000	-1.19955700
165.79999033	0.00000000	18.97145000	-1.48253000
165.99999032	0.00000000	18.92839000	-1.19955700
166.19999030	0.00000000	18.55315000	-0.83661410
166.39999029	0.00000000	17.80881000	-1.19955700
166.59999028	0.00000000	17.43356000	-1.53174200
166.79999027	0.00000000	17.39050000	-1.57480300
166.99999026	0.00000000	17.43356000	-1.57480300
167.19999024	0.00000000	17.80881000	-1.57480300
167.39999023	0.00000000	18.55315000	-1.57480300
167.59999022	0.00000000	18.92839000	-1.57480300
167.79999021	0.00000000	18.97145000	-1.57480300
167.99999020	0.00000000	18.97145000	-1.57480300
168.19999018	0.00000000	18.97145000	-1.53174200
168.39999017	0.00000000	18.97145000	-1.19955700
168.59999016	0.00000000	18.97145000	-0.79355310
168.79999015	0.00000000	18.97145000	-0.78124990
168.99999014	0.00000000	18.97145000	-0.41830710
169.19999013	0.00000000	18.97145000	-0.46136810
169.39999011	0.00000000	18.92839000	-1.15649600
169.59999010	0.00000000	18.55315000	-1.53174200
169.79999009	0.00000000	17.85802000	-1.57480300
169.99999008	0.00000000	17.85802000	-1.57480300
170.19999007	0.00000000	18.55315000	-1.57480300
170.39999005	0.00000000	18.92839000	-1.57480300
170.59999004	0.00000000	18.97145000	-1.57480300
170.79999003	0.00000000	18.97145000	-1.57480300
170.99999002	0.00000000	18.97145000	-1.57480300
171.19999001	0.00000000	18.97145000	-1.57480300
171.39998999	0.00000000	18.97145000	-1.57480300
171.59998998	0.00000000	18.97145000	-1.57480300
171.79998997	0.00000000	18.97145000	-1.57480300
171.99998996	0.00000000	18.97145000	-1.57480300
172.19998995	0.00000000	18.97145000	-1.57480300
172.39998994	0.00000000	18.97145000	-1.57480300
172.59998992	0.00000000	18.97145000	-1.57480300
172.79998991	0.00000000	18.92839000	-1.57480300
172.99998990	0.00000000	18.59621000	-1.57480300
173.19998989	0.00000000	18.22711000	-1.57480300
173.39998988	0.00000000	18.59621000	-1.57480300
173.59998986	0.00000000	18.92839000	-1.57480300
173.79998985	0.00000000	18.97145000	-1.57480300
173.99998984	0.00000000	18.97145000	-1.57480300
174.19998983	0.00000000	18.97145000	-1.57480300
174.39998982	0.00000000	18.97145000	-1.57480300
174.59998980	0.00000000	18.97145000	-1.57480300
174.79998979	0.00000000	18.97145000	-1.57480300
174.99998978	0.00000000	18.97145000	-1.57480300
175.19998977	0.00000000	18.97145000	-1.57480300
175.39998976	0.00000000	18.97145000	-1.57480300
175.59998975	0.00000000	18.97145000	-1.57480300
175.79998973	0.00000000	18.97145000	-1.57480300
175.99998972	0.00000000	18.97145000	-1.57480300
176.19998971	0.00000000	18.97145000	-1.53174200
176.39998970	0.00000000	18.97145000	-1.19955700
176.59998969	0.00000000	18.97145000	-0.83661410
176.79998967	0.00000000	18.97145000	-1.19955700
176.99998966	0.00000000	18.97145000	-1.53174200
177.19998965	0.00000000	18.97145000	-1.57480300
177.39998964	0.00000000	18.97145000	-1.57480300
177.59998963	0.00000000	18.97145000	-1.57480300
177.79998961	0.00000000	18.97145000	-1.57480300
177.99998960	0.00000000	18.97145000	-1.57480300
178.19998959	0.00000000	18.92839000	-1.57480300
178.39998958	0.00000000	18.59621000	-1.57480300
178.59998957	0.00000000	18.22711000	-1.57480300
178.79998956	0.00000000	18.59621000	-1.57480300
178.99998954	0.00000000	18.92839000	-1.57480300
179.19998953	0.00000000	18.97145000	-1.57480300
179.39998952	0.00000000	18.97145000	-1.57480300
179.59998951	0.00000000	18.97145000	-1.57480300
179.79998950	0.00000000	18.97145000	-1.57480300
179.99998948	0.00000000	18.97145000	-1.57480300
180.19998947	0.00000000	18.97145000	-1.57480300
180.39998946	0.00000000	18.92839000	-1.57480300
180.59998945	0.00000000	18.59621000	-1.57480300
180.79998944	0.00000000	18.18405000	-1.57480300
180.99998942	0.00000000	18.17790000	-1.53174200
181.19998941	0.00000000	17.76575000	-1.19955700
181.39998940	0.00000000	17.48277000	-0.83661410
181.59998939	0.00000000	17.80881000	-1.15649600
181.79998938	0.00000000	18.55315000	-1.15649600
181.99998937	0.00000000	18.92839000	-0.83661410
182.19998935	0.00000000	18.97145000	-1.19955700
182.39998934	0.00000000	18.97145000	-1.53174200
182.59998933	0.00000000	18.97145000	-1.57480300
182.79998932	0.00000000	18.97145000	-1.57480300
182.99998931	0.00000000	18.97145000	-1.57480300
183.19998929	0.00000000	18.97145000	-1.57480300
183.39998928	0.00000000	18.97145000	-1.57480300
183.59998927	0.00000000	18.92839000	-1.57480300
183.79998926	0.00000000	18.59621000	-1.53174200
183.99998925	0.00000000	18.18405000	-1.19955700
184.19998923	0.00000000	18.17790000	-0.79355310
184.39998922	0.00000000	17.80881000	-0.78124990
184.59998921	0.00000000	17.85802000	-0.37524600
184.79998920	0.00000000	18.55315000	-0.04306102
184.99998919	0.00000000	18.92839000	0.00000000
185.19998918	0.00000000	18.97145000	-0.04306102
185.39998916	0.00000000	18.97145000	-0.41830710
185.59998915	0.00000000	18.97145000	-1.15649600
185.79998914	0.00000000	18.97145000	-1.53174200
185.99998913	0.00000000	18.97145000	-1.57480300
186.19998912	0.00000000	18.97145000	-1.57480300
186.39998910	0.00000000	18.97145000	-1.57480300
186.59998909	0.00000000	18.92839000	-1.57480300
186.79998908	0.00000000	18.59621000	-1.57480300
186.99998907	0.00000000	18.18405000	-1.53174200
187.19998906	0.00000000	18.22096000	-1.15649600
187.39998904	0.00000000	18.14099000	-0.41830710
187.59998903	0.00000000	18.17790000	-0.04306102
187.79998902	0.00000000	17.80881000	0.00000000
187.99998901	0.00000000	17.85802000	-0.04306102
188.19998900	0.00000000	18.50394000	-0.41830710
188.39998899	0.00000000	18.55315000	-1.15649600
188.59998897	0.00000000	18.22711000	-1.53174200
188.79998896	0.00000000	18.59621000	-1.57480300
188.99998895	0.00000000	18.92839000	-1.57480300
189.19998894	0.00000000	18.97145000	-1.57480300
189.39998893	0.00000000	18.97145000	-1.57480300
189.59998891	0.00000000	18.97145000	-1.57480300
189.79998890	0.00000000	18.92839000	-1.57480300
189.99998889	0.00000000	18.55315000	-1.57480300
190.19998888	0.00000000	17.80881000	-1.57480300
190.39998887	0.00000000	17.43356000	-1.57480300
190.59998885	0.00000000	17.39050000	-1.57480300
190.79998884	0.00000000	17.39050000	-1.57480300
190.99998883	0.00000000	17.43356000	-1.53174200
191.19998882	0.00000000	17.80881000	-1.19955700
191.39998881	0.00000000	18.55315000	-0.83661410
191.59998880	0.00000000	18.92839000	-1.19955700
191.79998878	0.00000000	18.97145000	-1.53174200
191.99998877	0.00000000	18.97145000	-1.57480300
192.19998876	0.00000000	18.97145000	-1.57480300
192.39998875	0.00000000	18.92839000	-1.57480300
192.59998874	0.00000000	18.55315000	-1.57480300
192.79998872	0.00000000	17.80881000	-1.57480300
192.99998871	0.00000000	17.43356000	-1.57480300
193.19998870	0.00000000	17.39050000	-1.57480300
193.39998869	0.00000000	17.39050000	-1.57480300
193.59998868	0.00000000	17.39050000	-1.53174200
193.79998866	0.00000000	17.39050000	-1.19955700
193.99998865	0.00000000	17.43356000	-0.83661410
194.19998864	0.00000000	17.80881000	-1.19955700
194.39998863	0.00000000	18.55315000	-1.53174200
194.59998862	0.00000000	18.92839000	-1.57480300
194.79998861	0.00000000	18.97145000	-1.57480300
194.99998859	0.00000000	18.92839000	-1.57480300
195.19998858	0.00000000	18.59621000	-1.57480300
195.39998857	0.00000000	18.22711000	-1.57480300
195.59998856	0.00000000	18.59621000	-1.57480300
195.79998855	0.00000000	18.87918000	-1.57480300
195.99998853	0.00000000	18.55315000	-1.57480300
