Time	Channel A	Channel B	Channel C
(us)	(V)	(mV)	(mV)

-4.49999956	0.00000000	47.43479000	9.47342500
-4.29999957	0.00000000	47.43479000	9.47342500
-4.09999958	0.00000000	47.43479000	9.47342500
-3.89999959	0.00000000	47.43479000	9.47342500
-3.69999960	0.00000000	47.43479000	9.47342500
-3.49999962	0.00000000	47.43479000	9.47342500
-3.29999963	0.00000000	47.43479000	9.47342500
-3.09999964	0.00000000	47.43479000	9.47342500
-2.89999965	0.00000000	47.43479000	9.47342500
-2.69999966	0.00000000	47.43479000	9.47342500
-2.49999968	0.00000000	47.43479000	9.47342500
-2.29999969	0.00000000	47.43479000	9.47342500
-2.09999970	0.00000000	47.43479000	9.47342500
-1.89999971	0.00000000	47.43479000	9.47342500
-1.69999972	0.00000000	47.43479000	9.47342500
-1.49999973	0.00000000	47.39173000	9.47342500
-1.29999975	0.00000000	47.05954000	9.47342500
-1.09999976	0.00000000	46.69045000	9.47342500
-0.89999977	0.00000000	47.05954000	9.47342500
-0.69999978	0.00000000	47.39173000	9.47342500
-0.49999979	0.00000000	47.39173000	9.47342500
-0.29999981	0.15871060	47.05954000	9.47342500
-0.09999982	0.63668800	46.69045000	9.47342500
0.10000017	0.95533960	47.05954000	9.47342500
0.30000016	1.11466500	47.34252000	9.47342500
0.50000015	0.95533960	47.05954000	9.47342500
0.70000013	0.47736220	46.64739000	9.47342500
0.90000012	-0.31803640	46.64124000	9.47342500
1.10000011	-1.27399100	46.27214000	9.47342500
1.30000010	-2.22994600	46.27214000	9.47342500
1.50000009	-2.70792300	46.64124000	9.47342500
1.70000008	-2.54859700	46.64739000	9.51648500
1.90000006	-1.59264300	47.05954000	9.84867000
2.10000005	0.00000000	47.34252000	10.21161000
2.30000004	2.22994600	47.01648000	9.84867000
2.50000003	4.14124000	46.27214000	9.51648500
2.70000002	5.25652100	45.89690000	9.43036400
2.90000000	5.09719500	45.85384000	9.05511800
3.09999999	3.50393700	45.89690000	8.35998900
3.29999998	0.63668800	46.22908000	8.35998900
3.49999997	-2.54859700	46.64124000	9.05511800
3.69999996	-5.73449800	46.60433000	9.43036400
3.89999994	-7.64579200	46.68430000	9.47342500
4.09999993	-7.80511800	46.64739000	9.51648500
4.29999992	-5.73449800	47.05954000	9.89173200
4.49999991	-2.22994600	47.39173000	10.62992000
4.69999990	2.22994600	47.43479000	11.00517000
4.89999989	6.37180100	47.43479000	11.00517000
5.09999987	8.92039900	47.39173000	10.62992000
5.29999986	9.39837600	47.01648000	9.89173200
5.49999985	7.48646600	46.27214000	9.51648500
5.69999984	3.50393700	45.89690000	9.47342500
5.89999983	-1.27399100	45.85384000	9.47342500
6.09999981	-5.73449800	45.89690000	9.47342500
6.29999980	-8.60174700	46.27214000	9.47342500
6.49999979	-9.39837600	47.01648000	9.51648500
6.69999978	-7.80511800	47.39173000	9.89173200
6.89999977	-4.45989200	47.43479000	10.58686000
7.09999975	0.00000000	47.43479000	10.62992000
7.29999974	3.98191400	47.43479000	10.26698000
7.49999973	6.84916400	47.43479000	10.25467000
7.69999972	7.80511800	47.43479000	9.84867000
7.89999971	6.69045300	47.39173000	9.51648500
8.09999970	4.14124000	47.01648000	9.47342500
8.29999968	0.95533960	46.27214000	9.47342500
8.49999967	-2.07062000	45.89690000	9.47342500
8.69999966	-4.30056600	45.89690000	9.47342500
8.89999965	-5.25652100	46.27214000	9.47342500
9.09999964	-4.61921700	46.96727000	9.47342500
9.29999962	-3.18590100	46.96727000	9.47342500
9.49999961	-1.11466500	46.32135000	9.47342500
9.69999960	0.63668800	46.32135000	9.47342500
9.89999959	2.07062000	46.96727000	9.47342500
10.09999958	2.54859700	46.96727000	9.47342500
10.29999956	2.38927200	46.27214000	9.47342500
10.49999955	1.59264300	45.94611000	9.47342500
10.69999954	0.79601380	46.27214000	9.47342500
10.89999953	0.00000000	47.01648000	9.47342500
11.09999952	-0.63668800	47.39173000	9.47342500
11.29999951	-0.95533960	47.43479000	9.47342500
11.49999949	-0.95533960	47.43479000	9.47342500
11.69999948	-0.79601380	47.39173000	9.47342500
11.89999947	-0.47736220	47.01648000	9.43036400
12.09999946	-0.15871060	46.27214000	9.09817800
12.29999945	-0.15871060	45.89690000	8.68602300
12.49999943	-0.15871060	45.85384000	8.72293300
12.69999942	0.00000000	45.85384000	8.68602300
12.89999941	0.00000000	45.85384000	9.09817800
13.09999940	0.00000000	45.85384000	9.43036400
13.29999939	0.00000000	45.85384000	9.47342500
13.49999937	0.00000000	45.85384000	9.47342500
13.69999936	0.00000000	45.85384000	9.47342500
13.89999935	0.00000000	45.85384000	9.47342500
14.09999934	-0.15871060	45.85384000	9.47342500
14.29999933	-0.15871060	45.85384000	9.47342500
14.49999932	-0.15871060	45.85384000	9.47342500
14.69999930	0.00000000	45.85384000	9.47342500
14.89999929	0.00000000	45.85384000	9.47342500
15.09999928	0.00000000	45.85384000	9.47342500
15.29999927	0.00000000	45.85384000	9.47342500
15.49999926	0.00000000	45.85384000	9.47342500
15.69999924	0.00000000	45.85384000	9.47342500
15.89999923	0.00000000	45.85384000	9.47342500
16.09999922	0.00000000	45.85384000	9.47342500
16.29999921	0.00000000	45.89690000	9.47342500
16.49999920	-0.15871060	46.27214000	9.47342500
16.69999919	0.00000000	47.01648000	9.47342500
16.89999917	-0.15871060	47.43479000	9.47342500
17.09999916	0.00000000	47.81004000	9.47342500
17.29999915	0.00000000	48.22219000	9.47342500
17.49999914	0.00000000	48.22834000	9.47342500
17.69999913	0.00000000	48.59744000	9.47342500
17.89999911	0.00000000	48.50517000	9.47342500
18.09999910	0.00000000	47.39173000	9.47342500
18.29999909	0.00000000	45.85384000	9.47342500
18.49999908	0.00000000	44.27288000	9.47342500
18.69999907	0.00000000	42.73499000	9.47342500
18.89999905	0.00000000	41.62155000	9.47342500
19.09999904	0.00000000	41.62155000	9.47342500
19.29999903	0.00000000	42.78420000	9.47342500
19.49999902	0.00000000	44.78346000	9.47342500
19.69999901	0.00000000	47.94537000	9.47342500
19.89999900	0.00000000	52.13459000	9.47342500
20.09999898	0.00000000	55.99163000	9.47342500
20.29999897	0.00000000	58.23080000	9.47342500
20.49999896	0.00000000	58.22465000	9.47342500
20.69999895	0.00000000	55.06890000	9.47342500
20.89999894	0.00000000	49.62475000	9.47342500
21.09999892	0.00000000	42.22441000	9.47342500
21.29999891	0.00000000	34.17815000	9.47342500
21.49999890	0.00000000	28.07579000	9.47342500
21.69999889	0.00000000	25.75049000	9.47342500
21.89999888	0.00000000	28.11885000	9.47342500
22.09999886	0.00000000	34.77485000	9.47342500
22.29999885	0.00000000	45.28789000	9.47342500
22.49999884	0.00000000	57.99089000	9.47342500
22.69999883	0.00000000	69.53740000	9.47342500
22.89999882	0.00000000	76.83932000	9.47342500
23.09999881	0.00000000	77.91584000	9.51648500
23.29999879	0.00000000	71.58588000	9.89173200
23.49999878	0.00000000	58.04626000	10.62992000
23.69999877	0.00000000	39.94832000	11.00517000
23.89999876	0.00000000	22.17027000	11.00517000
24.09999875	0.00000000	8.72293300	10.67298000
24.29999873	0.00000000	3.00812000	10.21776000
24.49999872	0.00000000	7.69562000	9.79330600
24.69999871	0.00000000	21.56742000	8.21850300
24.89999870	0.00000000	41.75689000	6.40378900
25.09999869	0.00000000	64.13631000	5.15501900
25.29999867	0.00000000	83.77214000	4.40452700
25.49999866	0.00000000	95.31249000	4.04158400
25.69999865	0.00000000	95.73080000	4.91510800
25.89999864	0.00000000	85.21776000	7.19734200
26.09999863	0.00000000	65.48966000	10.72219000
26.29999862	0.00000000	40.45890000	14.53617000
26.49999860	0.00000000	16.91068000	18.06102000
26.69999859	0.00000000	0.25836610	20.30020000
26.89999858	0.00000000	-6.29921200	20.66929000
27.09999857	0.00000000	-0.86122040	18.25787000
27.29999856	0.00000000	15.32972000	13.23819000
27.49999854	0.00000000	38.50270000	6.22539300
27.69999853	0.00000000	63.16436000	-1.44562000
27.89999852	0.00000000	83.26156000	-7.94783400
28.09999851	0.00000000	94.14984000	-10.96826000
28.29999850	0.00000000	94.24212000	-9.43036400
28.49999848	0.00000000	84.19044000	-3.58021600
28.69999847	0.00000000	66.37549000	5.70866100
28.89999846	0.00000000	44.40821000	16.94759000
29.09999845	0.00000000	23.56668000	27.73130000
29.29999844	0.00000000	9.23351300	35.81446000
29.49999843	0.00000000	3.70324800	38.79183000
29.69999841	0.00000000	7.51722400	35.30389000
29.89999840	0.00000000	19.05758000	25.59670000
30.09999839	0.00000000	35.29773000	11.70029000
30.29999838	0.00000000	52.74360000	-3.76476400
30.49999837	0.00000000	67.82111000	-17.24286000
30.69999835	0.00000000	77.54060000	-25.69513000
30.89999834	0.00000000	79.91510000	-26.80856000
31.09999833	0.00000000	75.35064000	-19.84498000
31.29999832	0.00000000	65.29897000	-6.32381900
31.49999831	0.00000000	52.17765000	11.05438000
31.69999829	0.00000000	39.01329000	28.42643000
31.89999828	0.00000000	28.49409000	41.94759000
32.09999827	0.00000000	22.26255000	48.87426000
32.29999826	0.00000000	21.09990000	47.33637000
32.49999825	0.00000000	25.28912000	37.72145000
32.69999824	0.00000000	33.42765000	22.66855000
32.89999822	0.00000000	43.48548000	5.24729300
33.09999821	0.00000000	53.94316000	-11.01132000
33.29999820	0.00000000	62.00172000	-23.00074000
33.49999819	0.00000000	65.95103000	-28.43258000
33.69999818	0.00000000	65.16363000	-26.07037000
33.89999816	0.00000000	60.22392000	-16.40010000
34.09999815	0.00000000	52.50984000	-1.02116100
34.29999814	0.00000000	44.40821000	15.93258000
34.49999813	0.00000000	37.38312000	30.29035000
34.69999812	0.00000000	32.81865000	39.99754000
34.89999810	0.00000000	31.98819000	43.06717000
35.09999809	0.00000000	35.05782000	38.84104000
35.29999808	0.00000000	40.41584000	28.43258000
35.49999807	0.00000000	46.96727000	14.16708000
35.69999806	0.00000000	52.69439000	-0.51673230
35.89999805	0.00000000	55.81324000	-12.45694000
36.09999803	0.00000000	55.89936000	-19.00837000
36.29999802	0.00000000	53.58022000	-18.26402000
36.49999801	0.00000000	49.71087000	-11.01132000
36.69999800	0.00000000	44.69119000	0.55364170
36.89999799	0.00000000	40.12672000	13.61343000
37.09999797	0.00000000	37.38927000	24.71703000
37.29999796	0.00000000	37.01402000	30.52411000
37.49999795	0.00000000	38.97022000	29.87205000
37.69999794	0.00000000	43.15945000	24.15723000
37.89999793	0.00000000	48.12992000	15.28051000
38.09999791	0.00000000	51.99926000	5.29035400
38.29999790	0.00000000	54.36761000	-3.11884800
38.49999789	0.00000000	54.74286000	-7.30191900
38.69999788	0.00000000	53.20496000	-5.81323800
38.89999787	0.00000000	50.08612000	0.68897630
39.09999786	0.00000000	45.85384000	9.84867000
39.29999784	0.00000000	41.57849000	19.04527000
39.49999783	0.00000000	38.12746000	25.13533000
39.69999782	0.00000000	36.18356000	26.29183000
39.89999781	0.00000000	36.54650000	22.10876000
40.09999780	0.00000000	38.45964000	14.07480000
40.29999778	0.00000000	41.57849000	4.82898600
40.49999777	0.00000000	45.47859000	-3.67249000
40.69999776	0.00000000	49.39099000	-9.30118100
40.89999775	0.00000000	53.24803000	-9.66412400
41.09999774	0.00000000	55.85630000	-3.95546200
41.29999772	0.00000000	55.94857000	5.15501900
41.49999771	0.00000000	54.04158000	14.85605000
41.69999770	0.00000000	51.29183000	22.90231000
41.89999769	0.00000000	47.39173000	27.54675000
42.09999768	0.00000000	43.20251000	27.17766000
42.29999767	0.00000000	40.04060000	22.61934000
42.49999765	0.00000000	38.08440000	15.27436000
42.69999764	0.00000000	37.34006000	6.82209600
42.89999763	0.00000000	38.50270000	-0.46751960
43.09999762	0.00000000	41.15403000	-4.74286400
43.29999761	0.00000000	44.22982000	-5.16117100
43.49999759	0.00000000	46.96727000	-2.14074800
43.69999758	0.00000000	48.92347000	3.24803100
43.89999757	0.00000000	50.12918000	9.38115100
44.09999756	0.00000000	50.50443000	14.81299000
44.29999755	0.00000000	50.12918000	18.30093000
44.49999753	0.00000000	49.01575000	19.50664000
44.69999752	0.00000000	47.90231000	18.35015000
44.89999751	0.00000000	47.47785000	15.27436000
45.09999750	0.00000000	47.43479000	11.09129000
45.29999749	0.00000000	47.39173000	7.24040300
45.49999748	0.00000000	46.92421000	4.87204700
45.69999746	0.00000000	45.34325000	3.66633800
45.89999745	0.00000000	42.64886000	3.66633800
46.09999744	0.00000000	39.57308000	4.82283400
46.29999743	0.00000000	36.92175000	6.77903500
46.49999742	0.00000000	35.80832000	9.47342500
46.69999740	0.00000000	37.01402000	12.11860000
46.89999739	0.00000000	40.50196000	13.65650000
47.09999738	0.00000000	45.94611000	13.69956000
47.29999737	0.00000000	52.08538000	12.58612000
47.49999736	0.00000000	57.52953000	11.04823000
47.69999734	0.00000000	60.97440000	9.38115100
47.89999733	0.00000000	61.66953000	7.09891700
48.09999732	0.00000000	58.50763000	4.50295200
48.29999731	0.00000000	51.62401000	3.75246000
48.49999730	0.00000000	43.11023000	4.77977300
48.69999729	0.00000000	34.96555000	6.31151500
48.89999727	0.00000000	28.49409000	7.98474400
49.09999726	0.00000000	26.21801000	10.31004000
49.29999725	0.00000000	29.23843000	13.37352000
49.49999724	0.00000000	35.80217000	15.60654000
49.69999723	0.00000000	44.74040000	16.39395000
49.89999721	0.00000000	54.31840000	15.23130000
50.09999720	0.00000000	61.62647000	12.53691000
50.29999719	0.00000000	64.74532000	9.05511800
50.49999718	0.00000000	63.20743000	5.19808000
50.69999717	0.00000000	57.43725000	2.12844500
50.89999715	0.00000000	48.97269000	0.59670270
51.09999714	0.00000000	40.08366000	1.01501000
51.29999713	0.00000000	32.77559000	3.66633800
51.49999712	0.00000000	28.96161000	7.51722400
51.69999711	0.00000000	30.07505000	11.42347000
51.89999710	0.00000000	35.42692000	15.27436000
52.09999708	0.00000000	43.11023000	17.92569000
52.29999707	0.00000000	51.20571000	18.30093000
52.49999706	0.00000000	57.34498000	16.43701000
52.69999705	0.00000000	60.04552000	12.96137000
52.89999704	0.00000000	58.50763000	9.09817800
53.09999702	0.00000000	53.20496000	5.24729300
53.29999701	0.00000000	46.27214000	2.54675200
53.49999700	0.00000000	39.70842000	1.75319900
53.69999699	0.00000000	34.73179000	2.50369100
53.89999698	0.00000000	33.19390000	4.82283400
54.09999696	0.00000000	35.47613000	7.84940900
54.29999695	0.00000000	40.41584000	10.53765000
54.49999694	0.00000000	46.59818000	12.11860000
54.69999693	0.00000000	51.95005000	12.53691000
54.89999692	0.00000000	55.48105000	12.11860000
55.09999691	0.00000000	56.18848000	10.58686000
55.29999689	0.00000000	53.94316000	8.35383800
55.49999688	0.00000000	49.34793000	6.86515700
55.69999687	0.00000000	44.31594000	6.86515700
55.89999686	0.00000000	39.66535000	8.31077700
56.09999685	0.00000000	36.26968000	10.21161000
56.29999683	0.00000000	35.89444000	11.38041000
56.49999682	0.00000000	38.50270000	12.16166000
56.69999681	0.00000000	42.73499000	12.07554000
56.89999680	0.00000000	47.34252000	10.53765000
57.09999679	0.00000000	51.20571000	7.84940900
57.29999677	0.00000000	53.16190000	4.77977300
57.49999676	0.00000000	53.20496000	2.12844500
57.69999675	0.00000000	51.62401000	1.01501000
57.89999674	0.00000000	48.59744000	2.22071800
58.09999673	0.00000000	45.10950000	5.66560000
58.29999672	0.00000000	42.40895000	10.67298000
58.49999670	0.00000000	40.45890000	15.64960000
58.69999669	0.00000000	40.08366000	19.46358000
58.89999668	0.00000000	41.20325000	20.57702000
59.09999667	0.00000000	43.11023000	18.30093000
59.29999666	0.00000000	45.43553000	13.69956000
59.49999664	0.00000000	47.34252000	7.84940900
59.69999663	0.00000000	48.50517000	1.71013800
59.89999662	0.00000000	48.50517000	-3.25418300
60.09999661	0.00000000	47.43479000	-5.16117100
60.29999660	0.00000000	46.27214000	-3.62942900
60.49999658	0.00000000	45.47859000	1.01501000
60.69999657	0.00000000	44.69119000	7.98474400
60.89999656	0.00000000	44.31594000	15.60654000
61.09999655	0.00000000	44.31594000	21.73966000
61.29999654	0.00000000	44.74040000	24.10802000
61.49999653	0.00000000	45.81078000	22.99459000
61.69999651	0.00000000	46.54896000	19.04527000
61.89999650	0.00000000	46.22908000	12.07554000
62.09999649	0.00000000	45.85384000	3.70939900
62.29999648	0.00000000	45.38631000	-3.21112200
62.49999647	0.00000000	44.27288000	-6.74212600
62.69999645	0.00000000	43.15945000	-6.69291300
62.89999644	0.00000000	42.78420000	-2.83587600
63.09999643	0.00000000	43.15945000	4.40452700
63.29999642	0.00000000	44.31594000	12.07554000
63.49999641	0.00000000	45.85384000	18.35015000
63.69999639	0.00000000	47.39173000	22.61934000
63.89999638	0.00000000	48.54823000	24.10802000
64.09999637	0.00000000	48.92347000	22.20103000
64.29999636	0.00000000	48.54823000	17.23056000
64.49999635	0.00000000	47.39173000	11.04823000
64.69999634	0.00000000	45.85384000	4.82898600
64.89999632	0.00000000	44.31594000	-0.55979330
65.09999631	0.00000000	43.15945000	-3.62942900
65.29999630	0.00000000	42.78420000	-3.67249000
65.49999629	0.00000000	43.15945000	-1.02116100
65.69999628	0.00000000	44.31594000	3.20497000
65.89999626	0.00000000	45.81078000	7.84940900
66.09999625	0.00000000	46.96727000	12.16166000
66.29999624	0.00000000	47.34252000	15.64960000
66.49999623	0.00000000	46.96727000	17.97490000
66.69999622	0.00000000	45.81078000	18.39321000
66.89999620	0.00000000	44.31594000	17.27362000
67.09999619	0.00000000	43.15945000	15.32357000
67.29999618	0.00000000	42.78420000	12.58612000
67.49999617	0.00000000	43.15945000	9.47342500
67.69999616	0.00000000	44.36515000	6.36072800
67.89999615	0.00000000	46.27214000	3.61712600
68.09999613	0.00000000	48.59744000	1.66707700
68.29999612	0.00000000	50.46136000	0.51058070
68.49999611	0.00000000	51.20571000	0.55364170
68.69999610	0.00000000	50.04306000	2.08538400
68.89999609	0.00000000	47.34252000	4.82283400
69.09999607	0.00000000	43.85457000	8.35998900
69.29999606	0.00000000	39.99754000	12.58612000
69.49999605	0.00000000	36.96481000	16.43701000
69.69999604	0.00000000	35.80832000	18.76845000
69.89999603	0.00000000	36.96481000	19.55585000
70.09999601	0.00000000	40.08366000	18.35015000
70.29999600	0.00000000	44.74040000	15.23130000
70.49999599	0.00000000	50.08612000	10.58686000
70.69999598	0.00000000	54.31840000	5.19808000
70.89999597	0.00000000	56.27460000	0.59670270
71.09999596	0.00000000	55.89936000	-2.09153500
71.29999594	0.00000000	53.16190000	-2.14074800
71.49999593	0.00000000	48.50517000	0.17839570
71.69999592	0.00000000	42.69193000	4.04158400
71.89999591	0.00000000	36.96481000	9.05511800
72.09999590	0.00000000	33.10162000	13.65650000
72.29999588	0.00000000	32.30807000	16.72613000
72.49999587	0.00000000	34.22121000	17.55044000
72.69999586	0.00000000	38.50270000	16.07406000
72.89999585	0.00000000	44.22982000	13.79183000
73.09999584	0.00000000	49.66781000	11.00517000
73.29999582	0.00000000	53.58022000	7.98474400
73.49999581	0.00000000	55.89936000	5.66560000
73.69999580	0.00000000	55.85630000	4.87204700
73.89999579	0.00000000	53.20496000	5.19808000
74.09999578	0.00000000	48.97269000	6.36072800
74.29999577	0.00000000	44.31594000	7.84940900
74.49999575	0.00000000	40.08366000	9.00590400
74.69999574	0.00000000	37.38927000	9.38115100
74.89999573	0.00000000	36.92175000	9.00590400
75.09999572	0.00000000	38.04134000	7.84940900
75.29999571	0.00000000	40.04060000	6.40378900
75.49999569	0.00000000	43.11023000	5.66560000
75.69999568	0.00000000	46.54896000	6.44685000
75.89999567	0.00000000	48.88041000	8.35383800
76.09999566	0.00000000	50.08612000	11.04823000
76.29999565	0.00000000	50.08612000	13.69956000
76.49999563	0.00000000	48.97269000	15.27436000
76.69999562	0.00000000	47.43479000	15.60654000
76.89999561	0.00000000	45.89690000	14.39468000
77.09999560	0.00000000	44.74040000	10.91289000
77.29999559	0.00000000	44.31594000	6.35457700
77.49999558	0.00000000	44.31594000	2.12844500
77.69999556	0.00000000	44.64813000	-0.60285430
77.89999555	0.00000000	45.01722000	-1.39640700
78.09999554	0.00000000	44.60506000	-0.55979330
78.29999553	0.00000000	43.89763000	2.59596400
78.49999552	0.00000000	43.11023000	7.93553100
78.69999550	0.00000000	42.73499000	13.69956000
78.89999549	0.00000000	42.73499000	18.30093000
79.09999548	0.00000000	43.20251000	20.62008000
79.29999547	0.00000000	44.74040000	19.88189000
79.49999546	0.00000000	47.01648000	16.81225000
79.69999544	0.00000000	48.92347000	12.16166000
79.89999543	0.00000000	50.08612000	6.77903500
80.09999542	0.00000000	50.04306000	2.12844500
80.29999541	0.00000000	48.50517000	-0.97810030
80.49999540	0.00000000	45.85384000	-2.13459600
80.69999539	0.00000000	43.15945000	-1.02116100
80.89999537	0.00000000	41.20325000	1.66707700
81.09999536	0.00000000	40.04060000	5.15501900
81.29999535	0.00000000	40.04060000	9.05511800
81.49999534	0.00000000	41.20325000	12.53691000
81.69999533	0.00000000	43.11023000	15.27436000
81.89999531	0.00000000	45.47859000	16.81225000
82.09999530	0.00000000	47.76698000	16.85531000
82.29999529	0.00000000	49.66781000	15.69882000
82.49999528	0.00000000	50.04306000	13.74262000
82.69999527	0.00000000	48.97269000	11.00517000
82.89999525	0.00000000	47.43479000	7.89247000
83.09999524	0.00000000	45.85384000	4.82283400
83.29999523	0.00000000	44.27288000	2.46063000
83.49999522	0.00000000	42.73499000	1.29183100
83.69999521	0.00000000	41.62155000	0.92888770
83.89999520	0.00000000	41.62155000	2.12844500
84.09999518	0.00000000	42.69193000	4.77977300
84.29999517	0.00000000	43.85457000	7.93553100
84.49999516	0.00000000	44.64813000	11.42347000
84.69999515	0.00000000	45.43553000	14.90526000
84.89999514	0.00000000	45.81078000	17.18750000
85.09999512	0.00000000	45.85384000	17.97490000
85.29999511	0.00000000	45.85384000	16.76919000
85.49999510	0.00000000	45.85384000	13.65650000
85.69999509	0.00000000	45.85384000	9.05511800
85.89999508	0.00000000	45.85384000	4.08464600
86.09999506	0.00000000	45.85384000	0.59670270
86.29999505	0.00000000	45.81078000	-1.02116100
86.49999504	0.00000000	45.38631000	-0.97810030
86.69999503	0.00000000	44.22982000	1.02116100
86.89999502	0.00000000	42.73499000	5.24729300
87.09999501	0.00000000	41.52928000	10.58686000
87.29999499	0.00000000	40.82800000	15.23130000
87.49999498	0.00000000	40.83415000	18.30093000
87.69999497	0.00000000	42.35974000	19.08834000
87.89999496	0.00000000	44.22982000	17.14444000
88.09999495	0.00000000	45.81078000	13.32431000
88.29999493	0.00000000	46.96727000	8.26771600
88.49999492	0.00000000	47.39173000	3.29109200
88.69999491	0.00000000	47.39173000	-0.51673230
88.89999490	0.00000000	46.96727000	-1.67322800
89.09999489	0.00000000	45.81078000	0.22760820
89.29999487	0.00000000	44.27288000	4.04158400
89.49999486	0.00000000	42.73499000	9.09817800
89.69999485	0.00000000	41.57849000	14.03174000
89.89999484	0.00000000	41.20325000	17.55659000
90.09999483	0.00000000	41.62155000	18.67618000
90.29999482	0.00000000	43.11023000	17.50738000
90.49999480	0.00000000	44.96801000	13.65650000
90.69999479	0.00000000	45.76156000	8.31077700
90.89999478	0.00000000	45.85384000	3.33415300
91.09999477	0.00000000	45.85384000	-0.18454720
91.29999476	0.00000000	45.81078000	-1.30413400
91.49999474	0.00000000	45.43553000	-0.14148620
91.69999473	0.00000000	44.69119000	3.75861200
91.89999472	0.00000000	44.31594000	9.42421200
92.09999471	0.00000000	44.31594000	14.76993000
92.29999470	0.00000000	44.69119000	17.88263000
92.49999468	0.00000000	45.43553000	18.25787000
92.69999467	0.00000000	45.76156000	15.97564000
92.89999466	0.00000000	45.38631000	11.38041000
93.09999465	0.00000000	44.27288000	6.44685000
93.29999464	0.00000000	43.11023000	2.50369100
93.49999463	0.00000000	42.31668000	0.17839570
93.69999461	0.00000000	41.57849000	-0.55979330
93.89999460	0.00000000	41.66461000	1.06422200
94.09999459	0.00000000	43.15945000	5.19808000
94.29999458	0.00000000	45.43553000	10.16855000
94.49999457	0.00000000	47.39173000	14.03174000
94.69999455	0.00000000	48.97269000	16.35089000
94.89999454	0.00000000	50.08612000	16.30167000
95.09999453	0.00000000	50.04306000	13.69956000
95.29999452	0.00000000	48.50517000	9.84867000
95.49999451	0.00000000	45.81078000	6.02854300
95.69999449	0.00000000	42.73499000	2.92199800
95.89999448	0.00000000	39.99754000	1.75319900
96.09999447	0.00000000	38.08440000	2.12844500
96.29999446	0.00000000	37.34006000	4.08464600
96.49999445	0.00000000	38.50270000	7.47416300
96.69999444	0.00000000	41.20325000	10.53765000
96.89999442	0.00000000	44.69119000	12.53691000
97.09999441	0.00000000	48.54823000	13.65650000
97.29999440	0.00000000	51.62401000	13.28125000
97.49999439	0.00000000	53.20496000	11.38041000
97.69999438	0.00000000	53.16190000	9.09817800
97.89999436	0.00000000	51.24877000	6.77903500
98.09999435	0.00000000	47.76698000	5.24729300
98.29999434	0.00000000	43.89763000	4.82898600
98.49999433	0.00000000	39.99754000	5.19808000
98.69999432	0.00000000	36.96481000	6.36072800
98.89999430	0.00000000	35.80832000	7.84940900
99.09999429	0.00000000	36.92175000	9.00590400
99.29999428	0.00000000	39.57308000	9.43036400
99.49999427	0.00000000	42.69193000	9.47342500
99.69999426	0.00000000	45.85384000	9.47342500
99.89999425	0.00000000	48.92347000	9.47342500
100.09999423	0.00000000	51.24877000	9.51648500
100.29999422	0.00000000	51.99926000	9.89173200
100.49999421	0.00000000	51.24877000	10.62992000
100.69999420	0.00000000	48.92347000	10.95595000
100.89999419	0.00000000	45.89690000	10.58686000
101.09999417	0.00000000	43.15945000	9.42421200
101.29999416	0.00000000	41.15403000	7.89247000
101.49999415	0.00000000	39.57308000	6.31151500
101.69999414	0.00000000	38.45964000	4.77977300
101.89999413	0.00000000	38.50270000	3.70939900
102.09999411	0.00000000	39.99754000	4.08464600
102.29999410	0.00000000	42.31668000	5.98548200
102.49999409	0.00000000	44.64813000	8.31077700
102.69999408	0.00000000	46.96727000	11.04823000
102.89999407	0.00000000	48.50517000	13.69956000
103.09999406	0.00000000	48.92347000	15.18824000
103.29999404	0.00000000	48.54823000	14.81299000
103.49999403	0.00000000	47.34252000	12.53691000
103.69999402	0.00000000	45.43553000	9.51648500
103.89999401	0.00000000	43.11023000	6.72982200
104.09999400	0.00000000	41.20325000	4.40452700
104.29999398	0.00000000	40.04060000	2.50369100
104.49999397	0.00000000	40.04060000	2.17150600
104.69999396	0.00000000	41.15403000	3.66633800
104.89999395	0.00000000	42.69193000	6.31151500
105.09999394	0.00000000	44.22982000	9.05511800
105.29999392	0.00000000	45.43553000	11.38041000
105.49999391	0.00000000	46.22908000	13.28125000
105.69999390	0.00000000	46.96727000	13.65650000
105.89999389	0.00000000	46.92421000	12.53691000
106.09999388	0.00000000	45.81078000	10.62992000
106.29999387	0.00000000	44.31594000	8.31077700
106.49999385	0.00000000	43.15945000	6.40378900
106.69999384	0.00000000	42.73499000	5.24729300
106.89999383	0.00000000	42.69193000	5.24729300
107.09999382	0.00000000	42.73499000	6.36072800
107.29999381	0.00000000	43.15945000	7.89247000
107.49999379	0.00000000	44.27288000	9.47342500
107.69999378	0.00000000	45.38631000	11.00517000
107.89999377	0.00000000	45.76156000	12.11860000
108.09999376	0.00000000	45.43553000	12.07554000
108.29999375	0.00000000	44.64813000	10.58686000
108.49999374	0.00000000	43.85457000	8.31077700
108.69999372	0.00000000	42.73499000	6.40378900
108.89999371	0.00000000	41.99680000	5.19808000
109.09999370	0.00000000	42.31668000	4.82898600
109.29999369	0.00000000	42.69193000	5.24729300
109.49999368	0.00000000	43.11023000	6.77903500
109.69999366	0.00000000	43.89763000	9.00590400
109.89999365	0.00000000	44.64813000	10.58686000
110.09999364	0.00000000	45.43553000	11.38041000
110.29999363	0.00000000	45.81078000	11.74336000
110.49999362	0.00000000	45.81078000	10.96211000
110.69999360	0.00000000	45.38631000	9.47342500
110.89999359	0.00000000	44.27288000	7.89247000
111.09999358	0.00000000	43.15945000	6.36072800
111.29999357	0.00000000	42.73499000	5.19808000
111.49999356	0.00000000	42.69193000	4.82898600
111.69999355	0.00000000	42.69193000	5.19808000
111.89999353	0.00000000	42.73499000	6.31151500
112.09999352	0.00000000	43.11023000	7.47416300
112.29999351	0.00000000	43.85457000	8.26771600
112.49999350	0.00000000	44.22982000	9.05511800
112.69999349	0.00000000	44.31594000	9.43036400
112.89999347	0.00000000	44.64813000	9.47342500
113.09999346	0.00000000	45.01722000	9.47342500
113.29999345	0.00000000	44.64813000	9.43036400
113.49999344	0.00000000	44.27288000	9.05511800
113.69999343	0.00000000	43.89763000	8.31077700
113.89999341	0.00000000	43.52854000	7.93553100
114.09999340	0.00000000	43.89763000	7.89247000
114.29999339	0.00000000	44.22982000	7.89247000
114.49999338	0.00000000	44.27288000	7.84940900
114.69999337	0.00000000	44.27288000	7.47416300
114.89999336	0.00000000	44.27288000	6.72982200
115.09999334	0.00000000	44.27288000	6.35457700
115.29999333	0.00000000	44.27288000	6.35457700
115.49999332	0.00000000	44.27288000	6.72982200
115.69999331	0.00000000	44.27288000	7.51722400
115.89999330	0.00000000	44.27288000	8.26771600
116.09999328	0.00000000	44.27288000	9.09817800
116.29999327	0.00000000	44.22982000	9.84867000
116.49999326	0.00000000	43.85457000	10.58686000
116.69999325	0.00000000	43.11023000	10.58686000
116.89999324	0.00000000	42.78420000	9.84867000
117.09999322	0.00000000	43.11023000	9.09817800
117.29999321	0.00000000	43.85457000	8.26771600
117.49999320	0.00000000	44.27288000	7.51722400
117.69999319	0.00000000	44.69119000	6.72982200
117.89999318	0.00000000	45.43553000	6.35457700
118.09999317	0.00000000	45.81078000	6.31151500
118.29999315	0.00000000	45.81078000	6.35457700
118.49999314	0.00000000	45.38631000	6.72982200
118.69999313	0.00000000	44.27288000	7.56028500
118.89999312	0.00000000	43.11023000	8.68602300
119.09999311	0.00000000	42.31668000	10.16855000
119.29999309	0.00000000	41.52928000	10.58686000
119.49999308	0.00000000	41.20325000	10.26698000
119.69999307	0.00000000	41.52928000	10.25467000
119.89999306	0.00000000	42.31668000	9.84867000
120.09999305	0.00000000	43.11023000	9.47342500
120.29999303	0.00000000	44.31594000	9.05511800
120.49999302	0.00000000	45.81078000	8.26771600
120.69999301	0.00000000	46.92421000	7.51722400
120.89999300	0.00000000	46.96727000	6.72982200
121.09999299	0.00000000	46.22908000	6.35457700
121.29999298	0.00000000	45.43553000	6.31151500
121.49999296	0.00000000	44.22982000	6.35457700
121.69999295	0.00000000	42.73499000	6.72982200
121.89999294	0.00000000	41.57849000	7.47416300
122.09999293	0.00000000	41.15403000	7.89247000
122.29999292	0.00000000	41.11097000	8.31077700
122.49999290	0.00000000	41.15403000	9.05511800
122.69999289	0.00000000	41.57849000	9.43036400
122.89999288	0.00000000	42.73499000	9.47342500
123.09999287	0.00000000	44.22982000	9.47342500
123.29999286	0.00000000	45.38631000	9.43036400
123.49999284	0.00000000	45.81078000	9.05511800
123.69999283	0.00000000	45.85384000	8.31077700
123.89999282	0.00000000	45.81078000	7.89247000
124.09999281	0.00000000	45.38631000	7.47416300
124.29999280	0.00000000	44.27288000	6.72982200
124.49999279	0.00000000	43.15945000	6.35457700
124.69999277	0.00000000	42.69193000	6.35457700
124.89999276	0.00000000	42.27362000	6.72982200
125.09999275	0.00000000	41.52928000	7.51722400
125.29999274	0.00000000	41.20325000	8.26771600
125.49999273	0.00000000	41.52928000	9.05511800
125.69999271	0.00000000	42.31668000	9.43036400
125.89999270	0.00000000	43.11023000	9.47342500
126.09999269	0.00000000	44.27288000	9.47342500
126.29999268	0.00000000	45.38631000	9.47342500
126.49999267	0.00000000	45.81078000	9.43036400
126.69999265	0.00000000	45.81078000	9.05511800
126.89999264	0.00000000	45.43553000	8.31077700
127.09999263	0.00000000	44.64813000	7.89247000
127.29999262	0.00000000	43.89763000	7.51722400
127.49999261	0.00000000	43.06717000	7.14812900
127.69999260	0.00000000	42.31668000	7.51722400
127.89999258	0.00000000	41.52928000	7.84940900
128.09999257	0.00000000	41.20325000	7.89247000
128.29999256	0.00000000	41.57849000	7.89247000
128.49999255	0.00000000	42.69193000	7.93553100
128.69999254	0.00000000	43.85457000	8.26771600
128.89999252	0.00000000	44.64813000	8.63681000
129.09999251	0.00000000	45.43553000	8.26771600
129.29999250	0.00000000	45.76156000	7.93553100
129.49999249	0.00000000	45.38631000	7.89247000
129.69999248	0.00000000	44.27288000	7.89247000
129.89999246	0.00000000	43.11023000	7.89247000
130.09999245	0.00000000	42.31668000	7.89247000
130.29999244	0.00000000	41.52928000	7.89247000
130.49999243	0.00000000	41.20325000	7.89247000
130.69999242	0.00000000	41.52928000	7.93553100
130.89999241	0.00000000	42.31668000	8.26771600
131.09999239	0.00000000	43.06717000	8.63681000
131.29999238	0.00000000	43.89763000	8.26771600
131.49999237	0.00000000	44.60506000	7.93553100
131.69999236	0.00000000	45.01722000	7.84940900
131.89999235	0.00000000	44.64813000	7.51722400
132.09999233	0.00000000	44.27288000	7.10506800
132.29999232	0.00000000	43.85457000	7.14197800
132.49999231	0.00000000	43.11023000	7.10506800
132.69999230	0.00000000	42.73499000	7.51722400
132.89999229	0.00000000	42.69193000	7.89247000
133.09999227	0.00000000	42.69193000	8.31077700
133.29999226	0.00000000	42.69193000	9.05511800
133.49999225	0.00000000	42.69193000	9.43036400
133.69999224	0.00000000	42.69193000	9.47342500
133.89999223	0.00000000	42.69193000	9.43036400
134.09999222	0.00000000	42.69193000	9.05511800
134.29999220	0.00000000	42.73499000	8.26771600
134.49999219	0.00000000	43.11023000	7.51722400
134.69999218	0.00000000	43.85457000	6.72982200
134.89999217	0.00000000	44.22982000	6.35457700
135.09999216	0.00000000	44.27288000	6.31151500
135.29999214	0.00000000	44.27288000	6.31151500
135.49999213	0.00000000	44.27288000	6.35457700
135.69999212	0.00000000	44.22982000	6.72982200
135.89999211	0.00000000	43.85457000	7.51722400
136.09999210	0.00000000	43.11023000	8.26771600
136.29999208	0.00000000	42.73499000	9.05511800
136.49999207	0.00000000	42.64886000	9.43036400
136.69999206	0.00000000	42.31668000	9.47342500
136.89999205	0.00000000	41.94759000	9.43036400
137.09999204	0.00000000	42.35974000	9.00590400
137.29999203	0.00000000	43.06717000	7.89247000
137.49999201	0.00000000	43.85457000	6.77903500
137.69999200	0.00000000	44.27288000	6.35457700
137.89999199	0.00000000	44.64813000	6.31151500
138.09999198	0.00000000	45.01722000	6.31151500
138.29999197	0.00000000	44.60506000	6.31151500
138.49999195	0.00000000	43.89763000	6.35457700
138.69999194	0.00000000	43.11023000	6.72982200
138.89999193	0.00000000	42.69193000	7.51722400
139.09999192	0.00000000	42.31668000	8.26771600
139.29999191	0.00000000	41.94759000	9.05511800
139.49999189	0.00000000	42.31668000	9.43036400
139.69999188	0.00000000	42.69193000	9.47342500
139.89999187	0.00000000	43.11023000	9.43036400
140.09999186	0.00000000	43.85457000	9.05511800
140.29999185	0.00000000	44.22982000	8.31077700
140.49999184	0.00000000	44.27288000	7.89247000
140.69999182	0.00000000	44.22982000	7.47416300
140.89999181	0.00000000	43.85457000	6.72982200
141.09999180	0.00000000	43.11023000	6.35457700
141.29999179	0.00000000	42.73499000	6.35457700
141.49999178	0.00000000	42.69193000	6.72982200
141.69999176	0.00000000	42.69193000	7.47416300
141.89999175	0.00000000	42.69193000	7.89247000
142.09999174	0.00000000	42.73499000	8.31077700
142.29999173	0.00000000	43.11023000	9.05511800
142.49999172	0.00000000	43.85457000	9.43036400
142.69999170	0.00000000	44.22982000	9.43036400
142.89999169	0.00000000	44.22982000	9.05511800
143.09999168	0.00000000	43.85457000	8.26771600
143.29999167	0.00000000	43.11023000	7.51722400
143.49999166	0.00000000	42.73499000	6.72982200
143.69999165	0.00000000	42.69193000	6.35457700
143.89999163	0.00000000	42.69193000	6.35457700
144.09999162	0.00000000	42.69193000	6.72982200
144.29999161	0.00000000	42.73499000	7.51722400
144.49999160	0.00000000	43.11023000	8.26771600
144.69999159	0.00000000	43.85457000	9.05511800
144.89999157	0.00000000	44.22982000	9.43036400
145.09999156	0.00000000	44.22982000	9.47342500
145.29999155	0.00000000	43.85457000	9.43036400
145.49999154	0.00000000	43.11023000	9.05511800
145.69999153	0.00000000	42.73499000	8.31077700
145.89999151	0.00000000	42.69193000	7.89247000
146.09999150	0.00000000	42.69193000	7.47416300
146.29999149	0.00000000	42.69193000	6.72982200
146.49999148	0.00000000	42.69193000	6.35457700
146.69999147	0.00000000	42.69193000	6.35457700
146.89999146	0.00000000	42.73499000	6.72982200
147.09999144	0.00000000	43.11023000	7.47416300
147.29999143	0.00000000	43.85457000	7.84940900
147.49999142	0.00000000	44.18061000	7.93553100
147.69999141	0.00000000	43.85457000	8.31077700
147.89999140	0.00000000	43.11023000	9.00590400
148.09999138	0.00000000	42.73499000	9.00590400
148.29999137	0.00000000	42.69193000	8.31077700
148.49999136	0.00000000	42.69193000	7.93553100
148.69999135	0.00000000	42.69193000	7.84940900
148.89999134	0.00000000	42.69193000	7.47416300
149.09999132	0.00000000	42.69193000	6.72982200
149.29999131	0.00000000	42.73499000	6.35457700
149.49999130	0.00000000	43.11023000	6.35457700
149.69999129	0.00000000	43.85457000	6.72982200
149.89999128	0.00000000	44.22982000	7.47416300
150.09999127	0.00000000	44.22982000	7.84940900
150.29999125	0.00000000	43.85457000	7.89247000
150.49999124	0.00000000	43.11023000	7.89247000
150.69999123	0.00000000	42.73499000	7.93553100
150.89999122	0.00000000	42.69193000	8.26771600
151.09999121	0.00000000	42.69193000	8.63681000
151.29999119	0.00000000	42.69193000	8.26771600
151.49999118	0.00000000	42.69193000	7.93553100
151.69999117	0.00000000	42.69193000	7.89247000
151.89999116	0.00000000	42.69193000	7.84940900
152.09999115	0.00000000	42.69193000	7.47416300
152.29999113	0.00000000	42.69193000	6.77903500
152.49999112	0.00000000	42.73499000	6.77903500
152.69999111	0.00000000	43.11023000	7.47416300
152.89999110	0.00000000	43.85457000	7.84940900
153.09999109	0.00000000	44.18061000	7.89247000
153.29999108	0.00000000	43.85457000	7.89247000
153.49999106	0.00000000	43.11023000	7.89247000
153.69999105	0.00000000	42.73499000	7.89247000
153.89999104	0.00000000	42.69193000	7.89247000
154.09999103	0.00000000	42.69193000	7.89247000
154.29999102	0.00000000	42.64886000	7.89247000
154.49999100	0.00000000	42.31668000	7.89247000
154.69999099	0.00000000	41.94759000	7.89247000
154.89999098	0.00000000	42.31668000	7.89247000
155.09999097	0.00000000	42.69193000	7.89247000
155.29999096	0.00000000	43.11023000	7.89247000
155.49999094	0.00000000	43.85457000	7.84940900
155.69999093	0.00000000	44.22982000	7.51722400
155.89999092	0.00000000	44.27288000	7.14812900
156.09999091	0.00000000	44.22982000	7.51722400
156.29999090	0.00000000	43.85457000	7.84940900
156.49999089	0.00000000	43.11023000	7.89247000
156.69999087	0.00000000	42.69193000	7.89247000
156.89999086	0.00000000	42.27362000	7.93553100
157.09999085	0.00000000	41.52928000	8.26771600
157.29999084	0.00000000	41.20325000	8.63681000
157.49999083	0.00000000	41.48622000	8.26771600
157.69999081	0.00000000	41.89838000	7.93553100
157.89999080	0.00000000	41.90453000	7.84940900
158.09999079	0.00000000	42.31668000	7.47416300
158.29999078	0.00000000	42.64886000	6.72982200
158.49999077	0.00000000	42.73499000	6.35457700
158.69999075	0.00000000	43.06717000	6.35457700
158.89999074	0.00000000	43.43627000	6.72982200
159.09999073	0.00000000	43.06717000	7.47416300
159.29999072	0.00000000	42.73499000	7.84940900
159.49999071	0.00000000	42.69193000	7.89247000
159.69999070	0.00000000	42.69193000	7.93553100
159.89999068	0.00000000	42.69193000	8.26771600
160.09999067	0.00000000	42.69193000	8.63681000
160.29999066	0.00000000	42.69193000	8.26771600
160.49999065	0.00000000	42.69193000	7.93553100
160.69999064	0.00000000	42.69193000	7.84940900
160.89999062	0.00000000	42.69193000	7.47416300
161.09999061	0.00000000	42.69193000	6.72982200
161.29999060	0.00000000	42.69193000	6.35457700
161.49999059	0.00000000	42.69193000	6.31151500
161.69999058	0.00000000	42.73499000	6.35457700
161.89999056	0.00000000	43.06717000	6.72982200
162.09999055	0.00000000	43.43627000	7.47416300
162.29999054	0.00000000	43.06717000	7.84940900
162.49999053	0.00000000	42.73499000	7.89247000
162.69999052	0.00000000	42.69193000	7.89247000
162.89999051	0.00000000	42.69193000	7.89247000
163.09999049	0.00000000	42.64886000	7.89247000
163.29999048	0.00000000	42.27362000	7.89247000
163.49999047	0.00000000	41.57849000	7.89247000
163.69999046	0.00000000	41.52928000	7.89247000
163.89999045	0.00000000	41.85531000	7.89247000
164.09999043	0.00000000	41.52928000	7.89247000
164.29999042	0.00000000	41.57849000	7.89247000
164.49999041	0.00000000	42.27362000	7.84940900
164.69999040	0.00000000	42.64886000	7.51722400
164.89999039	0.00000000	42.73499000	7.14812900
165.09999037	0.00000000	43.06717000	7.51722400
165.29999036	0.00000000	43.43627000	7.84940900
165.49999035	0.00000000	43.02411000	7.84940900
165.69999034	0.00000000	42.35974000	7.51722400
165.89999033	0.00000000	41.90453000	7.14812900
166.09999032	0.00000000	41.89838000	7.51722400
166.29999030	0.00000000	41.48622000	7.84940900
166.49999029	0.00000000	41.20325000	7.89247000
166.69999028	0.00000000	41.48622000	7.89247000
166.89999027	0.00000000	41.89838000	7.89247000
167.09999026	0.00000000	41.90453000	7.84940900
167.29999024	0.00000000	42.31668000	7.47416300
167.49999023	0.00000000	42.64886000	6.77903500
167.69999022	0.00000000	42.69193000	6.77903500
167.89999021	0.00000000	42.69193000	7.47416300
168.09999020	0.00000000	42.69193000	7.84940900
168.29999018	0.00000000	42.69193000	7.89247000
168.49999017	0.00000000	42.69193000	7.89247000
168.69999016	0.00000000	42.69193000	7.89247000
168.89999015	0.00000000	42.69193000	7.89247000
169.09999014	0.00000000	42.69193000	7.89247000
169.29999013	0.00000000	42.69193000	7.89247000
169.49999011	0.00000000	42.69193000	7.89247000
169.69999010	0.00000000	42.69193000	7.89247000
169.89999009	0.00000000	42.69193000	7.89247000
170.09999008	0.00000000	42.69193000	7.89247000
170.29999007	0.00000000	42.69193000	7.89247000
170.49999005	0.00000000	42.69193000	7.89247000
170.69999004	0.00000000	42.69193000	7.84940900
170.89999003	0.00000000	42.69193000	7.51722400
171.09999002	0.00000000	42.69193000	7.14812900
171.29999001	0.00000000	42.69193000	7.51722400
171.49998999	0.00000000	42.69193000	7.84940900
171.69998998	0.00000000	42.69193000	7.89247000
171.89998997	0.00000000	42.69193000	7.89247000
172.09998996	0.00000000	42.69193000	7.89247000
172.29998995	0.00000000	42.69193000	7.89247000
172.49998994	0.00000000	42.69193000	7.89247000
172.69998992	0.00000000	42.64886000	7.89247000
172.89998991	0.00000000	42.31668000	7.89247000
173.09998990	0.00000000	41.94759000	7.89247000
173.29998989	0.00000000	42.31668000	7.89247000
173.49998988	0.00000000	42.64886000	7.84940900
173.69998986	0.00000000	42.69193000	7.51722400
173.89998985	0.00000000	42.69193000	7.10506800
174.09998984	0.00000000	42.69193000	7.14197800
174.29998983	0.00000000	42.69193000	7.10506800
174.49998982	0.00000000	42.69193000	7.51722400
174.69998980	0.00000000	42.69193000	7.84940900
174.89998979	0.00000000	42.69193000	7.84940900
175.09998978	0.00000000	42.64886000	7.51722400
175.29998977	0.00000000	42.31668000	7.14812900
175.49998976	0.00000000	41.94759000	7.51722400
175.69998975	0.00000000	42.31668000	7.84940900
175.89998973	0.00000000	42.64886000	7.89247000
176.09998972	0.00000000	42.69193000	7.89247000
176.29998971	0.00000000	42.69193000	7.89247000
176.49998970	0.00000000	42.69193000	7.89247000
176.69998969	0.00000000	42.69193000	7.89247000
176.89998967	0.00000000	42.69193000	7.89247000
177.09998966	0.00000000	42.69193000	7.89247000
177.29998965	0.00000000	42.69193000	7.89247000
177.49998964	0.00000000	42.64886000	7.89247000
177.69998963	0.00000000	42.31668000	7.84940900
177.89998961	0.00000000	41.90453000	7.47416300
178.09998960	0.00000000	41.89838000	6.77903500
178.29998959	0.00000000	41.48622000	6.77903500
178.49998958	0.00000000	41.15403000	7.47416300
178.69998957	0.00000000	41.15403000	7.84940900
178.89998956	0.00000000	41.52928000	7.89247000
179.09998954	0.00000000	42.27362000	7.89247000
179.29998953	0.00000000	42.59965000	7.84940900
179.49998952	0.00000000	42.31668000	7.51722400
179.69998951	0.00000000	41.94759000	7.10506800
179.89998950	0.00000000	42.31668000	7.09891700
180.09998948	0.00000000	42.64886000	6.72982200
180.29998947	0.00000000	42.64886000	6.72982200
180.49998946	0.00000000	42.31668000	7.09891700
180.69998945	0.00000000	41.94759000	7.10506800
180.89998944	0.00000000	42.27362000	7.51722400
181.09998942	0.00000000	42.27362000	7.84940900
181.29998941	0.00000000	41.90453000	7.89247000
181.49998940	0.00000000	41.89838000	7.89247000
181.69998939	0.00000000	41.52928000	7.89247000
181.89998938	0.00000000	41.57849000	7.89247000
182.09998937	0.00000000	42.27362000	7.89247000
182.29998935	0.00000000	42.59965000	7.84940900
182.49998934	0.00000000	42.31668000	7.51722400
182.69998933	0.00000000	41.94759000	7.10506800
182.89998932	0.00000000	42.31668000	7.09891700
183.09998931	0.00000000	42.64886000	6.68676100
183.29998929	0.00000000	42.69193000	6.35457700
183.49998928	0.00000000	42.64886000	6.31151500
183.69998927	0.00000000	42.27362000	6.31151500
183.89998926	0.00000000	41.52928000	6.35457700
184.09998925	0.00000000	41.15403000	6.72982200
184.29998923	0.00000000	41.11097000	7.47416300
184.49998922	0.00000000	41.11097000	7.84940900
184.69998921	0.00000000	41.11097000	7.89247000
184.89998920	0.00000000	41.11097000	7.89247000
185.09998919	0.00000000	41.15403000	7.89247000
185.29998918	0.00000000	41.52928000	7.89247000
185.49998916	0.00000000	42.27362000	7.84940900
185.69998915	0.00000000	42.64886000	7.47416300
185.89998914	0.00000000	42.69193000	6.72982200
186.09998913	0.00000000	42.69193000	6.35457700
186.29998912	0.00000000	42.64886000	6.31151500
186.49998910	0.00000000	42.31668000	6.31151500
186.69998909	0.00000000	41.90453000	6.31151500
186.89998908	0.00000000	41.89838000	6.35457700
187.09998907	0.00000000	41.48622000	6.72982200
187.29998906	0.00000000	41.15403000	7.47416300
187.49998904	0.00000000	41.11097000	7.84940900
187.69998903	0.00000000	41.11097000	7.89247000
187.89998902	0.00000000	41.11097000	7.89247000
188.09998901	0.00000000	41.15403000	7.89247000
188.29998900	0.00000000	41.48622000	7.89247000
188.49998899	0.00000000	41.89838000	7.84940900
188.69998897	0.00000000	41.90453000	7.47416300
188.89998896	0.00000000	42.31668000	6.72982200
189.09998895	0.00000000	42.64886000	6.35457700
189.29998894	0.00000000	42.64886000	6.31151500
189.49998893	0.00000000	42.27362000	6.31151500
189.69998891	0.00000000	41.52928000	6.31151500
189.89998890	0.00000000	41.15403000	6.35457700
190.09998889	0.00000000	41.11097000	6.72982200
190.29998888	0.00000000	41.11097000	7.47416300
190.49998887	0.00000000	41.11097000	7.84940900
190.69998885	0.00000000	41.11097000	7.89247000
190.89998884	0.00000000	41.15403000	7.89247000
191.09998883	0.00000000	41.52928000	7.89247000
191.29998882	0.00000000	42.27362000	7.89247000
191.49998881	0.00000000	42.64886000	7.89247000
191.69998880	0.00000000	42.69193000	7.89247000
191.89998878	0.00000000	42.69193000	7.89247000
192.09998877	0.00000000	42.69193000	7.89247000
192.29998876	0.00000000	42.64886000	7.89247000
192.49998875	0.00000000	42.27362000	7.84940900
192.69998874	0.00000000	41.52928000	7.47416300
192.89998872	0.00000000	41.15403000	6.72982200
193.09998871	0.00000000	41.11097000	6.35457700
193.29998870	0.00000000	41.11097000	6.31151500
193.49998869	0.00000000	41.11097000	6.35457700
193.69998868	0.00000000	41.11097000	6.68676100
193.89998866	0.00000000	41.11097000	7.09891700
194.09998865	0.00000000	41.11097000	7.10506800
194.29998864	0.00000000	41.15403000	7.51722400
194.49998863	0.00000000	41.52928000	7.84940900
194.69998862	0.00000000	42.27362000	7.84940900
194.89998861	0.00000000	42.59965000	7.51722400
195.09998859	0.00000000	42.27362000	7.10506800
195.29998858	0.00000000	41.52928000	7.09891700
195.49998857	0.00000000	41.15403000	6.72982200
195.69998856	0.00000000	41.11097000	6.72982200
195.89998855	0.00000000	41.11097000	7.05585600
196.09998853	0.00000000	41.11097000	6.68676100
