Time	Channel A	Channel B	Channel C
(us)	(V)	(mV)	(mV)

-4.49999956	0.00000000	15.80955000	-2.36220500
-4.29999957	0.00000000	15.80955000	-2.32529500
-4.09999958	0.00000000	15.80955000	-2.40526600
-3.89999959	0.00000000	15.80955000	-2.32529500
-3.69999960	0.00000000	15.80955000	-2.36220500
-3.49999962	0.00000000	15.80955000	-1.95004900
-3.29999963	0.00000000	15.80955000	-1.66707700
-3.09999964	0.00000000	15.80955000	-1.95004900
-2.89999965	0.00000000	15.76649000	-2.36220500
-2.69999966	0.00000000	15.43430000	-2.36835600
-2.49999968	0.00000000	15.06521000	-2.78051200
-2.29999969	0.00000000	15.43430000	-3.11269700
-2.09999970	0.00000000	15.76649000	-3.11269700
-1.89999971	0.00000000	15.80955000	-2.73745100
-1.69999972	0.00000000	15.80955000	-1.99311000
-1.49999973	0.00000000	15.80955000	-1.61786400
-1.29999975	0.00000000	15.80955000	-1.57480300
-1.09999976	0.00000000	15.80955000	-1.57480300
-0.89999977	0.00000000	15.80955000	-1.57480300
-0.69999978	0.00000000	15.80955000	-1.61786400
-0.49999979	0.00000000	15.80955000	-1.95004900
-0.29999981	0.31803640	15.80955000	-2.36220500
-0.09999982	0.63668800	15.80955000	-2.32529500
0.10000017	0.95533960	15.80955000	-2.36220500
0.30000016	1.11466500	15.80955000	-1.95004900
0.50000015	0.95533960	15.80955000	-1.66707700
0.70000013	0.47736220	15.80955000	-1.99311000
0.90000012	-0.31803640	15.80955000	-2.73745100
1.10000011	-1.27399100	15.80955000	-3.06348400
1.30000010	-2.22994600	15.80955000	-2.73745100
1.50000009	-2.70792300	15.80955000	-1.99311000
1.70000008	-2.54859700	15.80955000	-1.61786400
1.90000006	-1.59264300	15.80955000	-1.57480300
2.10000005	0.15871060	15.80955000	-1.57480300
2.30000004	2.38927200	15.80955000	-1.57480300
2.50000003	4.30056600	15.80955000	-1.61786400
2.70000002	5.25652100	15.80955000	-1.99311000
2.90000000	5.09719500	15.76649000	-2.73745100
3.09999999	3.34522600	15.39124000	-3.11269700
3.29999998	0.31803640	14.69611000	-3.15575800
3.49999997	-3.02657500	14.69611000	-3.15575800
3.69999996	-6.05315000	15.39124000	-3.11269700
3.89999994	-7.80511800	15.76649000	-2.73745100
4.09999993	-7.64579200	15.80955000	-1.99311000
4.29999992	-5.41584600	15.80955000	-1.61786400
4.49999991	-1.75196900	15.80955000	-1.57480300
4.69999990	2.70792300	15.80955000	-1.57480300
4.89999989	6.69045300	15.80955000	-1.61786400
5.09999987	9.07972400	15.80955000	-1.99311000
5.29999986	9.23905000	15.76649000	-2.73745100
5.49999985	7.00848900	15.43430000	-3.11269700
5.69999984	3.02657500	15.06521000	-3.15575800
5.89999983	-1.59264300	15.43430000	-3.11269700
6.09999981	-6.05315000	15.76649000	-2.73745100
6.29999980	-8.76107300	15.80955000	-1.99311000
6.49999979	-9.39837600	15.80955000	-1.61786400
6.69999978	-7.64579200	15.80955000	-1.57480300
6.89999977	-3.98191400	15.80955000	-1.57480300
7.09999975	0.31803640	15.80955000	-1.57480300
7.29999974	4.30056600	15.80955000	-1.57480300
7.49999973	7.00848900	15.80955000	-1.61786400
7.69999972	7.64579200	15.80955000	-1.99311000
7.89999971	6.53112700	15.76649000	-2.73745100
8.09999970	3.98191400	15.43430000	-3.11269700
8.29999968	0.63668800	15.06521000	-3.15575800
8.49999967	-2.38927200	15.43430000	-3.15575800
8.69999966	-4.45989200	15.76649000	-3.11269700
8.89999965	-5.25652100	15.76649000	-2.78051200
9.09999964	-4.61921700	15.43430000	-2.36835600
9.29999962	-3.02657500	15.02214000	-2.36220500
9.49999961	-0.95533960	15.05905000	-1.95004900
9.69999960	0.79601380	15.02214000	-1.66707700
9.89999959	2.07062000	15.43430000	-1.95004900
10.09999958	2.54859700	15.76649000	-2.36220500
10.29999956	2.22994600	15.80955000	-2.36835600
10.49999955	1.59264300	15.80955000	-2.78051200
10.69999954	0.63668800	15.80955000	-3.06348400
10.89999953	-0.15871060	15.76649000	-2.73745100
11.09999952	-0.63668800	15.39124000	-2.04232300
11.29999951	-0.95533960	14.69611000	-1.99311000
11.49999949	-0.95533960	14.69611000	-2.31914400
11.69999948	-0.79601380	15.39124000	-1.99311000
11.89999947	-0.47736220	15.76649000	-1.99311000
12.09999946	-0.15871060	15.80955000	-2.31914400
12.29999945	-0.15871060	15.80955000	-1.95004900
12.49999943	-0.15871060	15.76649000	-1.66707700
12.69999942	0.00000000	15.43430000	-1.95004900
12.89999941	0.00000000	15.02214000	-2.31914400
13.09999940	0.15871060	15.05905000	-1.99311000
13.29999939	0.15871060	15.02214000	-1.99311000
13.49999937	0.00000000	15.43430000	-2.31914400
13.69999936	0.00000000	15.76649000	-1.95004900
13.89999935	0.00000000	15.80955000	-1.61786400
14.09999934	0.00000000	15.80955000	-1.57480300
14.29999933	-0.15871060	15.80955000	-1.61786400
14.49999932	-0.15871060	15.80955000	-1.95004900
14.69999930	0.00000000	15.76649000	-2.36220500
14.89999929	0.00000000	15.43430000	-2.36835600
15.09999928	0.00000000	15.02214000	-2.73745100
15.29999927	0.00000000	15.01599000	-2.73745100
15.49999926	0.00000000	14.60384000	-2.36835600
15.69999924	0.00000000	14.27165000	-2.36220500
15.89999923	0.00000000	14.22859000	-1.99311000
16.09999922	0.00000000	14.22859000	-1.99311000
16.29999921	0.00000000	14.27165000	-2.36220500
16.49999920	0.00000000	14.64690000	-2.32529500
16.69999919	0.00000000	15.39124000	-2.40526600
16.89999917	0.00000000	15.80955000	-2.36835600
17.09999916	0.00000000	16.22785000	-2.78051200
17.29999915	0.00000000	16.97219000	-3.06348400
17.49999914	0.00000000	17.34744000	-2.78051200
17.69999913	0.00000000	17.34744000	-2.36835600
17.89999911	0.00000000	16.92298000	-2.36220500
18.09999910	0.00000000	15.76649000	-1.99311000
18.29999909	0.00000000	14.18553000	-1.99311000
18.49999908	0.00000000	12.27239000	-2.31914400
18.69999907	0.00000000	10.37155000	-1.99311000
18.89999905	0.00000000	9.62106200	-1.99311000
19.09999904	0.00000000	9.95324800	-2.36220500
19.29999903	0.00000000	11.20202000	-2.36835600
19.49999902	0.00000000	13.53346000	-2.78051200
19.69999901	0.00000000	17.01525000	-3.11269700
19.89999900	0.00000000	20.55241000	-3.11269700
20.09999898	0.00000000	23.99729000	-2.73745100
20.29999897	0.00000000	26.59941000	-1.99311000
20.49999896	0.00000000	26.14419000	-1.66707700
20.69999895	0.00000000	22.69316000	-1.95004900
20.89999894	0.00000000	16.83686000	-2.31914400
21.09999892	0.00000000	9.48572700	-1.99311000
21.29999891	0.00000000	2.13459600	-2.04232300
21.49999890	0.00000000	-3.58636800	-2.73745100
21.69999889	0.00000000	-5.81938900	-3.11269700
21.89999888	0.00000000	-3.03272600	-3.15575800
22.09999886	0.00000000	4.69365100	-3.15575800
22.29999885	0.00000000	15.94488000	-3.15575800
22.49999884	0.00000000	28.32185000	-3.11269700
22.69999883	0.00000000	39.49311000	-2.73745100
22.89999882	0.00000000	46.33366000	-1.99311000
23.09999881	0.00000000	46.24139000	-1.61786400
23.29999879	0.00000000	38.47195000	-1.53174200
23.49999878	0.00000000	24.14493000	-1.15649600
23.69999877	0.00000000	6.36687900	-0.41830710
23.89999876	0.00000000	-10.98671000	-0.04306102
24.09999875	0.00000000	-23.64050000	-0.04306102
24.29999873	0.00000000	-27.87278000	-0.46136810
24.49999872	0.00000000	-22.43479000	-1.62401600
24.69999871	0.00000000	-8.42765700	-3.15575800
24.89999870	0.00000000	12.08784000	-4.73671200
25.09999869	0.00000000	34.83636000	-6.26845500
25.29999867	0.00000000	54.06004000	-7.42495000
25.49999866	0.00000000	64.84989000	-7.75713500
25.69999865	0.00000000	64.06249000	-6.96358300
25.89999864	0.00000000	52.10384000	-4.60137700
26.09999863	0.00000000	31.58218000	-1.11343500
26.29999862	0.00000000	6.87746000	3.11269700
26.49999860	0.00000000	-16.28937000	6.92052100
26.69999859	0.00000000	-32.48646000	8.82750900
26.89999858	0.00000000	-37.88139000	8.45226300
27.09999857	0.00000000	-30.94857000	5.67175200
27.29999856	0.00000000	-13.59498000	0.60285430
27.49999854	0.00000000	9.95324800	-6.36072800
27.69999853	0.00000000	34.28272000	-13.69956000
27.89999852	0.00000000	53.64173000	-19.83883000
28.09999851	0.00000000	64.11170000	-23.18528000
28.29999850	0.00000000	63.73647000	-21.60433000
28.49999848	0.00000000	52.57135000	-15.05290000
28.69999847	0.00000000	33.67372000	-5.33956700
28.89999846	0.00000000	11.66954000	6.26845500
29.09999845	0.00000000	-8.47071800	17.42126000
29.29999844	0.00000000	-22.43479000	25.09227000
29.49999843	0.00000000	-27.91584000	27.36835000
29.69999841	0.00000000	-24.05881000	23.04995000
29.89999840	0.00000000	-12.14321000	12.59227000
30.09999839	0.00000000	4.83513700	-2.04232300
30.29999838	0.00000000	22.60704000	-17.50738000
30.49999837	0.00000000	37.35236000	-30.24729000
30.69999835	0.00000000	46.33366000	-37.95522000
30.89999834	0.00000000	48.33292000	-38.23819000
31.09999833	0.00000000	43.72539000	-30.56717000
31.29999832	0.00000000	33.67372000	-16.63386000
31.49999831	0.00000000	20.50935000	0.37524600
31.69999829	0.00000000	6.96973400	17.37820000
31.89999828	0.00000000	-4.23843500	30.48105000
32.09999827	0.00000000	-10.47613000	36.65723000
32.29999826	0.00000000	-10.93750000	34.75024000
32.49999825	0.00000000	-6.28690900	25.04306000
32.69999824	0.00000000	2.60211600	9.61491000
32.89999822	0.00000000	13.76107000	-8.54453700
33.09999821	0.00000000	24.18799000	-25.13533000
33.29999820	0.00000000	31.58218000	-36.74950000
33.49999819	0.00000000	34.70103000	-41.02485000
33.69999818	0.00000000	33.21235000	-37.16781000
33.89999816	0.00000000	27.81742000	-26.38410000
34.09999815	0.00000000	20.13410000	-10.91905000
34.29999814	0.00000000	11.99557000	5.67175200
34.49999813	0.00000000	5.43184000	20.02337000
34.69999812	0.00000000	1.53174200	29.31840000
34.89999810	0.00000000	1.15649600	32.01279000
35.09999809	0.00000000	4.22613100	27.36835000
35.29999808	0.00000000	9.95324800	16.16634000
35.49999807	0.00000000	16.46161000	1.20570900
35.69999806	0.00000000	21.53666000	-13.84104000
35.89999805	0.00000000	24.64936000	-25.04306000
36.09999803	0.00000000	25.34449000	-30.52411000
36.29999802	0.00000000	22.69316000	-29.31840000
36.49999801	0.00000000	17.76575000	-21.69045000
36.69999800	0.00000000	12.73991000	-9.80561000
36.89999799	0.00000000	8.45841400	2.51599400
37.09999797	0.00000000	5.80708600	12.59227000
37.29999796	0.00000000	5.80708600	18.31324000
37.49999795	0.00000000	8.45841400	17.93799000
37.69999794	0.00000000	12.69070000	11.47884000
37.89999793	0.00000000	17.29823000	1.53174200
38.09999791	0.00000000	21.20448000	-8.78444900
38.29999790	0.00000000	23.48671000	-16.49237000
38.49999789	0.00000000	23.89887000	-19.19291000
38.69999788	0.00000000	21.95497000	-16.95374000
38.89999787	0.00000000	18.50394000	-10.35925000
39.09999786	0.00000000	14.22859000	-1.19955700
39.29999784	0.00000000	9.99630800	7.94783400
39.49999783	0.00000000	6.87746000	13.66265000
39.69999782	0.00000000	5.29650500	14.08095000
39.89999781	0.00000000	5.33956700	9.52263600
40.09999780	0.00000000	7.29576700	1.43946800
40.29999778	0.00000000	11.10974000	-7.80634800
40.49999777	0.00000000	15.39124000	-16.21555000
40.69999776	0.00000000	19.30364000	-21.13681000
40.89999775	0.00000000	22.78543000	-20.39862000
41.09999774	0.00000000	24.69857000	-14.67766000
41.29999772	0.00000000	24.74163000	-5.85014700
41.49999771	0.00000000	23.16068000	3.76476400
41.69999770	0.00000000	20.04183000	11.47884000
41.89999769	0.00000000	15.80955000	15.70497000
42.09999768	0.00000000	11.57726000	15.32972000
42.29999767	0.00000000	8.45841400	10.35925000
42.49999765	0.00000000	6.87746000	2.69439000
42.69999764	0.00000000	6.87746000	-5.75787400
42.89999763	0.00000000	8.37229300	-12.72761000
43.09999762	0.00000000	10.69144000	-16.59080000
43.29999761	0.00000000	13.06594000	-17.00295000
43.49999759	0.00000000	15.76649000	-13.56422000
43.69999758	0.00000000	18.04257000	-7.84940900
43.89999757	0.00000000	18.87918000	-1.66707700
44.09999756	0.00000000	18.97145000	3.72170300
44.29999755	0.00000000	18.92839000	6.82824800
44.49999753	0.00000000	18.55315000	7.29576700
44.69999752	0.00000000	17.80881000	5.75787400
44.89999751	0.00000000	17.43356000	2.69439000
45.09999750	0.00000000	17.34744000	-1.15649600
45.29999749	0.00000000	16.92298000	-4.60137700
45.49999748	0.00000000	15.71727000	-6.96358300
45.69999746	0.00000000	13.76107000	-7.75713500
45.89999745	0.00000000	11.06668000	-7.42495000
46.09999744	0.00000000	8.37229300	-6.22539300
46.29999743	0.00000000	6.45915300	-4.31840500
46.49999742	0.00000000	5.71481200	-1.99311000
46.69999740	0.00000000	6.92052100	-0.09227362
46.89999739	0.00000000	10.03937000	1.11343500
47.09999738	0.00000000	14.73917000	1.48253000
47.29999737	0.00000000	20.55241000	1.06422200
47.49999736	0.00000000	26.27953000	-0.46751960
47.69999734	0.00000000	30.08735000	-2.73745100
47.89999733	0.00000000	30.41954000	-4.68750000
48.09999732	0.00000000	26.92544000	-6.26845500
48.29999731	0.00000000	19.95571000	-7.38188900
48.49999730	0.00000000	11.10974000	-7.33882900
48.69999729	0.00000000	2.64517700	-5.80093500
48.89999727	0.00000000	-3.12500000	-3.15575800
49.09999726	0.00000000	-4.66289300	-0.41830710
49.29999725	0.00000000	-1.58710600	1.90698800
49.49999724	0.00000000	5.38877900	3.80782500
49.69999723	0.00000000	14.64690000	4.14000900
49.89999721	0.00000000	24.27411000	2.64517700
50.09999720	0.00000000	31.58218000	-0.09227362
50.29999719	0.00000000	34.65797000	-3.53100400
50.49999718	0.00000000	32.74483000	-7.05585600
50.69999717	0.00000000	26.18725000	-9.71333600
50.89999715	0.00000000	17.01525000	-11.23893000
51.09999714	0.00000000	7.72022600	-10.40846000
51.29999713	0.00000000	0.82431100	-7.42495000
51.49999712	0.00000000	-2.28223400	-3.53100400
51.69999711	0.00000000	-0.38139760	0.33218500
51.89999710	0.00000000	5.33956700	3.85088600
52.09999708	0.00000000	13.06594000	6.09005900
52.29999707	0.00000000	21.11220000	6.50221400
52.49999706	0.00000000	26.88238000	4.55831700
52.69999705	0.00000000	28.83858000	1.15649600
52.89999704	0.00000000	26.92544000	-2.73745100
53.09999702	0.00000000	21.57972000	-6.22539300
53.29999701	0.00000000	14.64690000	-8.91978400
53.49999700	0.00000000	8.13238100	-10.03322000
53.69999699	0.00000000	3.48179100	-8.91978400
53.89999698	0.00000000	2.36220500	-6.26845500
54.09999696	0.00000000	4.64443900	-3.19881900
54.29999695	0.00000000	9.99630800	-0.51058070
54.49999694	0.00000000	16.50467000	1.06422200
54.69999693	0.00000000	21.90576000	1.43946800
54.89999692	0.00000000	25.39370000	0.69512790
55.09999691	0.00000000	25.76895000	-1.20570900
55.29999689	0.00000000	23.11762000	-3.06348400
55.49999688	0.00000000	18.46087000	-4.22613100
55.69999687	0.00000000	12.73991000	-4.22613100
55.89999686	0.00000000	7.76328700	-3.11269700
56.09999685	0.00000000	5.43184000	-1.57480300
56.29999683	0.00000000	5.76402500	-0.04306102
56.49999682	0.00000000	8.45841400	1.02116100
56.69999681	0.00000000	12.69070000	0.64591530
56.89999680	0.00000000	17.29823000	-1.29183100
57.09999679	0.00000000	21.16142000	-3.94931100
57.29999677	0.00000000	23.11762000	-7.05585600
57.49999676	0.00000000	23.11762000	-9.29502900
57.69999675	0.00000000	21.16142000	-10.03322000
57.89999674	0.00000000	17.34744000	-8.45226300
58.09999673	0.00000000	13.20128000	-4.60137700
58.29999672	0.00000000	10.45768000	0.37524600
58.49999670	0.00000000	9.57800100	5.38262700
58.69999669	0.00000000	9.57800100	8.78444900
58.89999668	0.00000000	10.41462000	9.52263600
59.09999667	0.00000000	12.69070000	6.82824800
59.29999666	0.00000000	15.29897000	1.48868100
59.49999664	0.00000000	16.87992000	-4.69365100
59.69999663	0.00000000	17.34744000	-10.49459000
59.89999662	0.00000000	17.34744000	-14.72072000
60.09999661	0.00000000	16.92298000	-16.25861000
60.29999660	0.00000000	15.76649000	-14.63459000
60.49999658	0.00000000	14.27165000	-9.60875900
60.69999657	0.00000000	13.15822000	-1.99311000
60.89999656	0.00000000	13.11516000	5.29650500
61.09999655	0.00000000	13.81028000	10.35925000
61.29999654	0.00000000	14.22859000	12.63533000
61.49999653	0.00000000	14.64690000	11.10359000
61.69999651	0.00000000	15.39124000	6.09005900
61.89999650	0.00000000	15.71727000	-0.83661410
62.09999649	0.00000000	15.34203000	-8.58759800
62.29999648	0.00000000	14.22859000	-15.10212000
62.49999647	0.00000000	13.06594000	-18.95300000
62.69999645	0.00000000	12.31545000	-18.90994000
62.89999644	0.00000000	11.90330000	-14.72687000
63.09999643	0.00000000	12.31545000	-7.80019600
63.29999642	0.00000000	13.06594000	-0.09227362
63.49999641	0.00000000	14.27165000	6.82824800
63.69999639	0.00000000	15.80955000	11.10359000
63.89999638	0.00000000	17.29823000	11.94021000
64.09999637	0.00000000	18.08563000	9.98400600
64.29999636	0.00000000	17.67347000	5.33956700
64.49999635	0.00000000	16.55389000	-1.20570900
64.69999634	0.00000000	14.60384000	-7.71407400
64.89999632	0.00000000	12.73991000	-12.77067000
65.09999631	0.00000000	11.53420000	-15.09596000
65.29999630	0.00000000	11.15896000	-14.76993000
65.49999629	0.00000000	11.53420000	-12.07554000
65.69999628	0.00000000	12.69070000	-7.84940900
65.89999626	0.00000000	14.22859000	-3.20497000
66.09999625	0.00000000	15.76649000	1.11343500
66.29999624	0.00000000	16.87992000	4.60137700
66.49999623	0.00000000	16.87992000	6.92052100
66.69999622	0.00000000	15.76649000	7.29576700
66.89999620	0.00000000	14.22859000	5.80093500
67.09999619	0.00000000	12.69070000	3.11269700
67.29999618	0.00000000	11.57726000	0.04306102
67.49999617	0.00000000	11.62032000	-2.78051200
67.69999616	0.00000000	13.15822000	-5.53026500
67.89999615	0.00000000	15.80955000	-8.58759800
68.09999613	0.00000000	18.46087000	-10.49459000
68.29999612	0.00000000	19.99877000	-10.95595000
68.49999611	0.00000000	19.99877000	-10.58686000
68.69999610	0.00000000	18.46087000	-9.33809000
68.89999609	0.00000000	15.71727000	-6.96358300
69.09999607	0.00000000	12.27239000	-3.06963600
69.29999606	0.00000000	8.79060000	1.48868100
69.49999605	0.00000000	6.50221400	5.38262700
69.69999604	0.00000000	5.71481200	7.71407400
69.89999603	0.00000000	6.92052100	8.45226300
70.09999601	0.00000000	10.03937000	6.87746000
70.29999600	0.00000000	14.64690000	3.06963600
70.49999599	0.00000000	19.66658000	-1.57480300
70.69999598	0.00000000	23.53592000	-6.26845500
70.89999597	0.00000000	25.81201000	-10.49459000
71.09999596	0.00000000	25.39370000	-13.14591000
71.29999594	0.00000000	21.95497000	-13.18898000
71.49999593	0.00000000	16.92298000	-10.86983000
71.69999592	0.00000000	11.10974000	-7.00664300
71.89999591	0.00000000	5.76402500	-1.99311000
72.09999590	0.00000000	2.64517700	2.60211600
72.29999588	0.00000000	2.22687000	5.71481200
72.49999587	0.00000000	4.18307100	6.87130900
72.69999586	0.00000000	8.45841400	5.71481200
72.89999585	0.00000000	14.18553000	2.69439000
73.09999584	0.00000000	19.62352000	-1.11343500
73.29999582	0.00000000	23.48671000	-4.22613100
73.49999581	0.00000000	25.43676000	-6.22539300
73.69999580	0.00000000	24.69857000	-7.33882900
73.89999579	0.00000000	21.99803000	-6.96358300
74.09999578	0.00000000	18.13484000	-5.11195900
74.29999577	0.00000000	13.44119000	-3.24803100
74.49999575	0.00000000	9.24581600	-2.08538400
74.69999574	0.00000000	6.13927100	-2.04232300
74.89999573	0.00000000	5.38877900	-2.78051200
75.09999572	0.00000000	6.83439900	-3.53100400
75.29999571	0.00000000	9.57800100	-4.31840500
75.49999569	0.00000000	13.02288000	-4.64443900
75.69999568	0.00000000	16.46161000	-4.22613100
75.89999567	0.00000000	18.41781000	-2.64517700
76.09999566	0.00000000	18.87918000	0.00000000
76.29999565	0.00000000	18.50394000	2.64517700
76.49999563	0.00000000	17.34744000	4.18307100
76.69999562	0.00000000	15.85261000	4.14000900
76.89999561	0.00000000	14.69611000	2.18380900
77.09999560	0.00000000	14.27165000	-1.66707700
77.29999559	0.00000000	14.22859000	-6.26845500
77.49999558	0.00000000	14.22859000	-10.49459000
77.69999556	0.00000000	14.22859000	-13.18898000
77.89999555	0.00000000	14.18553000	-13.56422000
78.09999554	0.00000000	13.81028000	-11.61417000
78.29999553	0.00000000	13.02288000	-7.38188900
78.49999552	0.00000000	12.27239000	-1.99311000
78.69999550	0.00000000	11.53420000	3.02042300
78.89999549	0.00000000	11.57726000	6.92052100
79.09999548	0.00000000	12.69070000	8.82750900
79.29999547	0.00000000	14.27165000	8.45226300
79.49999546	0.00000000	16.22785000	5.71481200
79.69999544	0.00000000	18.50394000	1.11343500
79.89999543	0.00000000	19.99877000	-4.27534400
80.09999542	0.00000000	19.99877000	-8.91978400
80.29999541	0.00000000	18.46087000	-12.03248000
80.49999540	0.00000000	15.76649000	-13.18898000
80.69999539	0.00000000	12.69070000	-12.07554000
80.89999537	0.00000000	9.99630800	-9.38115100
81.09999536	0.00000000	8.45841400	-5.85014700
81.29999535	0.00000000	8.45841400	-1.62401600
81.49999534	0.00000000	9.99630800	2.22687000
81.69999533	0.00000000	12.64764000	4.60137700
81.89999531	0.00000000	15.34203000	5.80093500
82.09999530	0.00000000	17.34744000	5.75787400
82.29999529	0.00000000	18.87918000	4.22613100
82.49999528	0.00000000	19.62352000	1.53174200
82.69999527	0.00000000	18.83612000	-1.58095500
82.89999525	0.00000000	16.97219000	-4.68750000
83.09999524	0.00000000	14.64690000	-7.43110200
83.29999523	0.00000000	12.73991000	-9.38115100
83.49999522	0.00000000	11.53420000	-10.53765000
83.69999521	0.00000000	11.15896000	-10.49459000
83.89999520	0.00000000	11.53420000	-8.96284400
84.09999518	0.00000000	12.64764000	-6.22539300
84.29999517	0.00000000	13.76107000	-2.73745100
84.49999516	0.00000000	14.22859000	1.11343500
84.69999515	0.00000000	14.60384000	4.22613100
84.89999514	0.00000000	15.01599000	6.13312000
85.09999512	0.00000000	15.02214000	6.50221400
85.29999511	0.00000000	15.43430000	4.55831700
85.49999510	0.00000000	15.76649000	1.11343500
85.69999509	0.00000000	15.80955000	-3.15575800
85.89999508	0.00000000	15.80955000	-7.43110200
86.09999506	0.00000000	15.80955000	-10.86983000
86.29999505	0.00000000	15.76649000	-12.77067000
86.49999504	0.00000000	15.34203000	-12.03248000
86.69999503	0.00000000	14.18553000	-9.33809000
86.89999502	0.00000000	12.69070000	-5.43184000
87.09999501	0.00000000	11.53420000	-0.41830710
87.29999499	0.00000000	11.15896000	4.14000900
87.49999498	0.00000000	11.53420000	6.87746000
87.69999497	0.00000000	12.69070000	7.24655500
87.89999496	0.00000000	14.22859000	5.29650500
88.09999495	0.00000000	15.76649000	1.06422200
88.29999493	0.00000000	16.92298000	-4.27534400
88.49999492	0.00000000	17.34744000	-8.91978400
88.69999491	0.00000000	17.29823000	-12.03248000
88.89999490	0.00000000	16.55389000	-13.14591000
89.09999489	0.00000000	14.97908000	-11.56496000
89.29999487	0.00000000	13.47810000	-7.38188900
89.49999486	0.00000000	11.90330000	-1.99311000
89.69999485	0.00000000	11.20202000	2.97736200
89.89999484	0.00000000	11.48499000	6.45300100
90.09999483	0.00000000	12.27239000	7.20349400
90.29999482	0.00000000	13.06594000	5.33956700
90.49999480	0.00000000	14.22859000	1.48868100
90.69999479	0.00000000	15.34203000	-3.15575800
90.89999478	0.00000000	15.76649000	-7.80019600
91.09999477	0.00000000	15.80955000	-11.56496000
91.29999476	0.00000000	15.76649000	-12.72761000
91.49999474	0.00000000	15.39124000	-10.82677000
91.69999473	0.00000000	14.64690000	-6.96358300
91.89999472	0.00000000	14.27165000	-1.57480300
92.09999471	0.00000000	14.22859000	3.72170300
92.29999470	0.00000000	14.22859000	6.78518600
92.49999468	0.00000000	14.22859000	6.87746000
92.69999467	0.00000000	14.18553000	4.55831700
92.89999466	0.00000000	13.81028000	0.69512790
93.09999465	0.00000000	13.02288000	-4.31840500
93.29999464	0.00000000	12.27239000	-8.87672100
93.49999463	0.00000000	11.48499000	-11.56496000
93.69999461	0.00000000	11.15896000	-11.56496000
93.89999460	0.00000000	11.53420000	-8.91978400
94.09999459	0.00000000	12.73991000	-4.73671200
94.29999458	0.00000000	14.64690000	-0.51058070
94.49999457	0.00000000	16.97219000	2.60211600
94.69999455	0.00000000	18.83612000	4.18307100
94.89999454	0.00000000	19.66658000	4.14000900
95.09999453	0.00000000	19.25443000	2.18380900
95.29999452	0.00000000	18.08563000	-1.62401600
95.49999451	0.00000000	15.71727000	-5.80093500
95.69999449	0.00000000	12.64764000	-8.87057000
95.89999448	0.00000000	9.57800100	-10.03322000
96.09999447	0.00000000	7.29576700	-8.91978400
96.29999446	0.00000000	6.87746000	-6.26845500
96.49999445	0.00000000	8.04010800	-3.19881900
96.69999444	0.00000000	10.41462000	-0.46751960
96.89999442	0.00000000	14.27165000	1.43946800
97.09999441	0.00000000	18.46087000	2.22687000
97.29999440	0.00000000	21.57972000	1.43946800
97.49999439	0.00000000	23.11762000	-0.41830710
97.69999438	0.00000000	22.74237000	-2.73745100
97.89999436	0.00000000	20.41708000	-4.64443900
98.09999435	0.00000000	16.97219000	-5.80093500
98.29999434	0.00000000	13.06594000	-5.85014700
98.49999433	0.00000000	9.57800100	-5.11195900
98.69999432	0.00000000	6.87746000	-4.31840500
98.89999430	0.00000000	5.71481200	-3.15575800
99.09999429	0.00000000	6.50221400	-2.04232300
99.29999428	0.00000000	8.79060000	-1.61786400
99.49999427	0.00000000	12.27239000	-1.57480300
99.69999426	0.00000000	15.76649000	-1.57480300
99.89999425	0.00000000	18.87918000	-1.53174200
100.09999423	0.00000000	21.20448000	-1.15649600
100.29999422	0.00000000	21.95497000	-0.41830710
100.49999421	0.00000000	21.20448000	-0.04306102
100.69999420	0.00000000	18.87918000	-0.04306102
100.89999419	0.00000000	15.80955000	-0.46136810
101.09999417	0.00000000	12.69070000	-1.62401600
101.29999416	0.00000000	9.99630800	-3.19881900
101.49999415	0.00000000	8.41535400	-5.11195900
101.69999414	0.00000000	7.99704600	-6.96358300
101.89999413	0.00000000	8.41535400	-7.33882900
102.09999411	0.00000000	9.99630800	-6.22539300
102.29999410	0.00000000	12.64764000	-4.31840500
102.49999409	0.00000000	15.34203000	-1.95004900
102.69999408	0.00000000	17.29823000	0.37524600
102.89999407	0.00000000	18.50394000	2.64517700
103.09999406	0.00000000	18.87918000	3.76476400
103.29999404	0.00000000	18.50394000	3.02042300
103.49999403	0.00000000	17.29823000	1.11343500
103.69999402	0.00000000	15.39124000	-1.62401600
103.89999401	0.00000000	13.06594000	-4.68750000
104.09999400	0.00000000	11.15896000	-7.38188900
104.29999398	0.00000000	9.99630800	-8.91978400
104.49999397	0.00000000	9.99630800	-8.91978400
104.69999396	0.00000000	11.10974000	-7.38188900
104.89999395	0.00000000	12.64764000	-4.68750000
105.09999394	0.00000000	14.22859000	-1.62401600
105.29999392	0.00000000	15.76649000	1.07037400
105.49999391	0.00000000	16.92298000	2.60211600
105.69999390	0.00000000	17.29823000	2.60211600
105.89999389	0.00000000	16.92298000	1.11343500
106.09999388	0.00000000	15.76649000	-1.20570900
106.29999387	0.00000000	14.27165000	-3.53100400
106.49999385	0.00000000	13.06594000	-5.80093500
106.69999384	0.00000000	12.31545000	-6.96358300
106.89999383	0.00000000	11.90330000	-6.59448800
107.09999382	0.00000000	12.36466000	-5.47490100
107.29999381	0.00000000	13.44119000	-3.53100400
107.49999379	0.00000000	14.97293000	-1.66707700
107.69999378	0.00000000	15.71727000	-0.46136810
107.89999377	0.00000000	15.76649000	-0.09227362
108.09999376	0.00000000	15.39124000	-0.46136810
108.29999375	0.00000000	14.60384000	-1.62401600
108.49999374	0.00000000	13.81028000	-3.15575800
108.69999372	0.00000000	12.64764000	-4.68750000
108.89999371	0.00000000	11.57726000	-5.80093500
109.09999370	0.00000000	11.53420000	-5.80093500
109.29999369	0.00000000	12.27239000	-4.68750000
109.49999368	0.00000000	13.06594000	-3.15575800
109.69999366	0.00000000	14.22859000	-1.57480300
109.89999365	0.00000000	15.34203000	-0.04306102
110.09999364	0.00000000	15.76649000	1.06422200
110.29999363	0.00000000	15.80955000	1.06422200
110.49999362	0.00000000	15.76649000	-0.04306102
110.69999360	0.00000000	15.34203000	-1.57480300
110.89999359	0.00000000	14.22859000	-3.15575800
111.09999358	0.00000000	13.11516000	-4.68750000
111.29999357	0.00000000	12.69070000	-5.85014700
111.49999356	0.00000000	12.64764000	-6.21924200
111.69999355	0.00000000	12.64764000	-5.85014700
111.89999353	0.00000000	12.69070000	-4.73671200
112.09999352	0.00000000	13.06594000	-3.57406500
112.29999351	0.00000000	13.81028000	-2.78051200
112.49999350	0.00000000	14.18553000	-1.99311000
112.69999349	0.00000000	14.22859000	-1.61786400
112.89999347	0.00000000	14.22859000	-1.57480300
113.09999346	0.00000000	14.22859000	-1.61786400
113.29999345	0.00000000	14.22859000	-1.95004900
113.49999344	0.00000000	14.22859000	-2.36220500
113.69999343	0.00000000	14.18553000	-2.36835600
113.89999341	0.00000000	13.81028000	-2.78051200
114.09999340	0.00000000	13.11516000	-3.11269700
114.29999339	0.00000000	13.11516000	-3.19881900
114.49999338	0.00000000	13.81028000	-3.57406500
114.69999337	0.00000000	14.18553000	-4.31840500
114.89999336	0.00000000	14.22859000	-4.69365100
115.09999334	0.00000000	14.22859000	-4.73671200
115.29999333	0.00000000	14.22859000	-4.69365100
115.49999332	0.00000000	14.22859000	-4.31840500
115.69999331	0.00000000	14.22859000	-3.53100400
115.89999330	0.00000000	14.18553000	-2.78051200
116.09999328	0.00000000	13.85334000	-1.95004900
116.29999327	0.00000000	13.44119000	-1.19955700
116.49999326	0.00000000	13.43504000	-0.41830710
116.69999325	0.00000000	13.06594000	-0.09227362
116.89999324	0.00000000	13.11516000	-0.41830710
117.09999322	0.00000000	13.81028000	-1.19955700
117.29999321	0.00000000	14.18553000	-1.99311000
117.49999320	0.00000000	14.27165000	-3.15575800
117.69999319	0.00000000	14.64690000	-4.31840500
117.89999318	0.00000000	15.39124000	-5.06274600
118.09999317	0.00000000	15.71727000	-5.47490100
118.29999315	0.00000000	15.39124000	-5.06274600
118.49999314	0.00000000	14.60384000	-4.31840500
118.69999313	0.00000000	13.85334000	-3.15575800
118.89999312	0.00000000	13.02288000	-2.04232300
119.09999311	0.00000000	12.27239000	-1.57480300
119.29999309	0.00000000	11.48499000	-1.19955700
119.49999308	0.00000000	11.15896000	-0.83661410
119.69999307	0.00000000	11.48499000	-1.19955700
119.89999306	0.00000000	12.27239000	-1.53174200
120.09999305	0.00000000	13.06594000	-1.61786400
120.29999303	0.00000000	14.27165000	-1.99311000
120.49999302	0.00000000	15.76649000	-2.78051200
120.69999301	0.00000000	16.92298000	-3.53100400
120.89999300	0.00000000	17.29823000	-4.31840500
121.09999299	0.00000000	16.92298000	-4.69365100
121.29999298	0.00000000	15.76649000	-4.69365100
121.49999296	0.00000000	14.22859000	-4.31840500
121.69999295	0.00000000	12.69070000	-3.57406500
121.89999294	0.00000000	11.53420000	-3.19881900
122.09999293	0.00000000	11.10974000	-3.11269700
122.29999292	0.00000000	11.06668000	-2.73745100
122.49999290	0.00000000	11.10974000	-1.99311000
122.69999289	0.00000000	11.53420000	-1.61786400
122.89999288	0.00000000	12.69070000	-1.57480300
123.09999287	0.00000000	14.18553000	-1.57480300
123.29999286	0.00000000	15.34203000	-1.61786400
123.49999284	0.00000000	15.76649000	-1.95004900
123.69999283	0.00000000	15.80955000	-2.40526600
123.89999282	0.00000000	15.76649000	-2.74360200
124.09999281	0.00000000	15.39124000	-3.52485200
124.29999280	0.00000000	14.60384000	-3.48794300
124.49999279	0.00000000	13.85334000	-3.19881900
124.69999277	0.00000000	13.02288000	-3.15575800
124.89999276	0.00000000	12.27239000	-3.15575800
125.09999275	0.00000000	11.48499000	-3.15575800
125.29999274	0.00000000	11.15896000	-3.11269700
125.49999273	0.00000000	11.48499000	-2.73745100
125.69999271	0.00000000	12.27239000	-1.99311000
125.89999270	0.00000000	13.06594000	-1.61786400
126.09999269	0.00000000	14.22859000	-1.57480300
126.29999268	0.00000000	15.34203000	-1.57480300
126.49999267	0.00000000	15.76649000	-1.61786400
126.69999265	0.00000000	15.76649000	-1.99311000
126.89999264	0.00000000	15.39124000	-2.73745100
127.09999263	0.00000000	14.60384000	-3.15575800
127.29999262	0.00000000	13.81028000	-3.57406500
127.49999261	0.00000000	12.64764000	-4.26919300
127.69999260	0.00000000	11.53420000	-4.26919300
127.89999258	0.00000000	11.10974000	-3.57406500
128.09999257	0.00000000	11.10974000	-3.15575800
128.29999256	0.00000000	11.53420000	-2.73745100
128.49999255	0.00000000	12.69070000	-1.99311000
128.69999254	0.00000000	14.18553000	-1.61786400
128.89999252	0.00000000	15.34203000	-1.61786400
129.09999251	0.00000000	15.76649000	-1.99311000
129.29999250	0.00000000	15.76649000	-2.73745100
129.49999249	0.00000000	15.39124000	-3.11269700
129.69999248	0.00000000	14.60384000	-3.15575800
129.89999246	0.00000000	13.85334000	-3.15575800
130.09999245	0.00000000	13.02288000	-3.15575800
130.29999244	0.00000000	12.27239000	-3.15575800
130.49999243	0.00000000	11.53420000	-3.11269700
130.69999242	0.00000000	11.57726000	-2.73745100
130.89999241	0.00000000	12.64764000	-1.99311000
131.09999239	0.00000000	13.81028000	-1.61786400
131.29999238	0.00000000	14.60384000	-1.61786400
131.49999237	0.00000000	15.39124000	-1.99311000
131.69999236	0.00000000	15.71727000	-2.73745100
131.89999235	0.00000000	15.39124000	-3.15575800
132.09999233	0.00000000	14.60384000	-3.57406500
132.29999232	0.00000000	13.85334000	-4.31840500
132.49999231	0.00000000	13.06594000	-4.64443900
132.69999230	0.00000000	12.69070000	-4.31840500
132.89999229	0.00000000	12.64764000	-3.53100400
133.09999227	0.00000000	12.69070000	-2.78051200
133.29999226	0.00000000	13.06594000	-1.99311000
133.49999225	0.00000000	13.81028000	-1.61786400
133.69999224	0.00000000	14.18553000	-1.57480300
133.89999223	0.00000000	14.22859000	-1.57480300
134.09999222	0.00000000	14.22859000	-1.61786400
134.29999220	0.00000000	14.22859000	-2.04232300
134.49999219	0.00000000	14.22859000	-3.15575800
134.69999218	0.00000000	14.22859000	-4.26919300
134.89999217	0.00000000	14.22859000	-4.69365100
135.09999216	0.00000000	14.22859000	-4.73671200
135.29999214	0.00000000	14.22859000	-4.69365100
135.49999213	0.00000000	14.22859000	-4.26919300
135.69999212	0.00000000	14.22859000	-3.15575800
135.89999211	0.00000000	14.18553000	-2.04232300
136.09999210	0.00000000	13.81028000	-1.61786400
136.29999208	0.00000000	13.06594000	-1.57480300
136.49999207	0.00000000	12.64764000	-1.57480300
136.69999206	0.00000000	12.27239000	-1.61786400
136.89999205	0.00000000	11.90330000	-1.99311000
137.09999204	0.00000000	12.31545000	-2.73745100
137.29999203	0.00000000	13.02288000	-3.11269700
137.49999201	0.00000000	13.81028000	-3.19881900
137.69999200	0.00000000	14.22859000	-3.57406500
137.89999199	0.00000000	14.60384000	-4.31840500
138.09999198	0.00000000	14.97293000	-4.69365100
138.29999197	0.00000000	14.56078000	-4.73671200
138.49999195	0.00000000	13.85334000	-4.69365100
138.69999194	0.00000000	13.06594000	-4.26919300
138.89999193	0.00000000	12.64764000	-3.15575800
139.09999192	0.00000000	12.22933000	-2.04232300
139.29999191	0.00000000	11.57726000	-1.61786400
139.49999189	0.00000000	11.95251000	-1.57480300
139.69999188	0.00000000	13.39198000	-1.57480300
139.89999187	0.00000000	14.13632000	-1.57480300
140.09999186	0.00000000	14.22859000	-1.61786400
140.29999185	0.00000000	14.22859000	-1.99311000
140.49999184	0.00000000	14.22859000	-2.78051200
140.69999182	0.00000000	14.22859000	-3.53100400
140.89999181	0.00000000	14.18553000	-4.31840500
141.09999180	0.00000000	13.81028000	-4.69365100
141.29999179	0.00000000	13.06594000	-4.69365100
141.49999178	0.00000000	12.69070000	-4.31840500
141.69999176	0.00000000	12.69070000	-3.53100400
141.89999175	0.00000000	13.06594000	-2.78051200
142.09999174	0.00000000	13.81028000	-1.99311000
142.29999173	0.00000000	14.18553000	-1.61786400
142.49999172	0.00000000	14.22859000	-1.57480300
142.69999170	0.00000000	14.22859000	-1.61786400
142.89999169	0.00000000	14.22859000	-1.99311000
143.09999168	0.00000000	14.22859000	-2.78051200
143.29999167	0.00000000	14.18553000	-3.53100400
143.49999166	0.00000000	13.81028000	-4.31840500
143.69999165	0.00000000	13.06594000	-4.69365100
143.89999163	0.00000000	12.69070000	-4.69365100
144.09999162	0.00000000	12.69070000	-4.31840500
144.29999161	0.00000000	13.06594000	-3.53100400
144.49999160	0.00000000	13.81028000	-2.78051200
144.69999159	0.00000000	14.18553000	-1.99311000
144.89999157	0.00000000	14.22859000	-1.61786400
145.09999156	0.00000000	14.22859000	-1.57480300
145.29999155	0.00000000	14.18553000	-1.57480300
145.49999154	0.00000000	13.81028000	-1.61786400
145.69999153	0.00000000	13.06594000	-1.99311000
145.89999151	0.00000000	12.69070000	-2.78051200
146.09999150	0.00000000	12.64764000	-3.53100400
146.29999149	0.00000000	12.64764000	-4.31840500
146.49999148	0.00000000	12.64764000	-4.64443900
146.69999147	0.00000000	12.69070000	-4.31840500
146.89999146	0.00000000	13.06594000	-3.57406500
147.09999144	0.00000000	13.81028000	-3.19881900
147.29999143	0.00000000	14.18553000	-3.11269700
147.49999142	0.00000000	14.22859000	-2.73745100
147.69999141	0.00000000	14.22859000	-1.99311000
147.89999140	0.00000000	14.18553000	-1.61786400
148.09999138	0.00000000	13.81028000	-1.57480300
148.29999137	0.00000000	13.11516000	-1.61786400
148.49999136	0.00000000	13.06594000	-1.99311000
148.69999135	0.00000000	13.39198000	-2.73745100
148.89999134	0.00000000	13.02288000	-3.15575800
149.09999132	0.00000000	12.69070000	-3.53100400
149.29999131	0.00000000	12.69070000	-3.90009800
149.49999130	0.00000000	13.06594000	-3.53100400
149.69999129	0.00000000	13.81028000	-3.19881900
149.89999128	0.00000000	14.18553000	-3.15575800
150.09999127	0.00000000	14.22859000	-3.11269700
150.29999125	0.00000000	14.22859000	-2.73745100
150.49999124	0.00000000	14.22859000	-1.99311000
150.69999123	0.00000000	14.18553000	-1.61786400
150.89999122	0.00000000	13.81028000	-1.61786400
151.09999121	0.00000000	13.06594000	-1.99311000
151.29999119	0.00000000	12.69070000	-2.73745100
151.49999118	0.00000000	12.64764000	-3.11269700
151.69999117	0.00000000	12.64764000	-3.15575800
151.89999116	0.00000000	12.64764000	-3.15575800
152.09999115	0.00000000	12.69070000	-3.15575800
152.29999113	0.00000000	13.06594000	-3.15575800
152.49999112	0.00000000	13.81028000	-3.15575800
152.69999111	0.00000000	14.18553000	-3.15575800
152.89999110	0.00000000	14.22859000	-3.15575800
153.09999109	0.00000000	14.22859000	-3.15575800
153.29999108	0.00000000	14.18553000	-3.15575800
153.49999106	0.00000000	13.81028000	-3.15575800
153.69999105	0.00000000	13.06594000	-3.11269700
153.89999104	0.00000000	12.64764000	-2.78051200
154.09999103	0.00000000	12.27239000	-2.41141700
154.29999102	0.00000000	11.90330000	-2.73745100
154.49999100	0.00000000	12.27239000	-2.73745100
154.69999099	0.00000000	12.60458000	-2.41141700
154.89999098	0.00000000	12.69070000	-2.78051200
155.09999097	0.00000000	13.06594000	-3.11269700
155.29999096	0.00000000	13.81028000	-3.15575800
155.49999094	0.00000000	14.18553000	-3.15575800
155.69999093	0.00000000	14.22859000	-3.15575800
155.89999092	0.00000000	14.22859000	-3.15575800
156.09999091	0.00000000	14.22859000	-3.15575800
156.29999090	0.00000000	14.18553000	-3.15575800
156.49999089	0.00000000	13.81028000	-3.11269700
156.69999087	0.00000000	13.06594000	-2.73745100
156.89999086	0.00000000	12.69070000	-1.99311000
157.09999085	0.00000000	12.64764000	-1.61786400
157.29999084	0.00000000	12.64764000	-1.61786400
157.49999083	0.00000000	12.64764000	-1.99311000
157.69999081	0.00000000	12.69070000	-2.73745100
157.89999080	0.00000000	13.06594000	-3.11269700
158.09999079	0.00000000	13.81028000	-3.15575800
158.29999078	0.00000000	14.18553000	-3.19881900
158.49999077	0.00000000	14.22859000	-3.53100400
158.69999075	0.00000000	14.22859000	-3.90009800
158.89999074	0.00000000	14.22859000	-3.53100400
159.09999073	0.00000000	14.22859000	-3.19881900
159.29999072	0.00000000	14.18553000	-3.11269700
159.49999071	0.00000000	13.85334000	-2.73745100
159.69999070	0.00000000	13.44119000	-1.99311000
159.89999068	0.00000000	13.43504000	-1.61786400
160.09999067	0.00000000	13.02288000	-1.61786400
160.29999066	0.00000000	12.69070000	-1.99311000
160.49999065	0.00000000	12.64764000	-2.73745100
160.69999064	0.00000000	12.64764000	-3.11269700
160.89999062	0.00000000	12.64764000	-3.15575800
161.09999061	0.00000000	12.64764000	-3.15575800
161.29999060	0.00000000	12.69070000	-3.15575800
161.49999059	0.00000000	13.06594000	-3.15575800
161.69999058	0.00000000	13.81028000	-3.15575800
161.89999056	0.00000000	14.18553000	-3.15575800
162.09999055	0.00000000	14.22859000	-3.15575800
162.29999054	0.00000000	14.18553000	-3.15575800
162.49999053	0.00000000	13.85334000	-3.15575800
162.69999052	0.00000000	13.44119000	-3.15575800
162.89999051	0.00000000	13.43504000	-3.15575800
163.09999049	0.00000000	13.02288000	-3.15575800
163.29999048	0.00000000	12.69070000	-3.15575800
163.49999047	0.00000000	12.64764000	-3.15575800
163.69999046	0.00000000	12.64764000	-3.15575800
163.89999045	0.00000000	12.64764000	-3.15575800
164.09999043	0.00000000	12.64764000	-3.15575800
164.29999042	0.00000000	12.64764000	-3.15575800
164.49999041	0.00000000	12.69070000	-3.15575800
164.69999040	0.00000000	13.06594000	-3.15575800
164.89999039	0.00000000	13.81028000	-3.15575800
165.09999037	0.00000000	14.18553000	-3.15575800
165.29999036	0.00000000	14.22859000	-3.15575800
165.49999035	0.00000000	14.18553000	-3.15575800
165.69999034	0.00000000	13.81028000	-3.11269700
165.89999033	0.00000000	13.06594000	-2.78051200
166.09999032	0.00000000	12.69070000	-2.41141700
166.29999030	0.00000000	12.64764000	-2.78051200
166.49999029	0.00000000	12.64764000	-3.11269700
166.69999028	0.00000000	12.64764000	-3.15575800
166.89999027	0.00000000	12.64764000	-3.15575800
167.09999026	0.00000000	12.64764000	-3.15575800
167.29999024	0.00000000	12.64764000	-3.15575800
167.49999023	0.00000000	12.69070000	-3.15575800
167.69999022	0.00000000	13.06594000	-3.15575800
167.89999021	0.00000000	13.81028000	-3.15575800
168.09999020	0.00000000	14.18553000	-3.15575800
168.29999018	0.00000000	14.18553000	-3.15575800
168.49999017	0.00000000	13.85334000	-3.15575800
168.69999016	0.00000000	13.44119000	-3.15575800
168.89999015	0.00000000	13.43504000	-3.15575800
169.09999014	0.00000000	13.02288000	-3.15575800
169.29999013	0.00000000	12.69070000	-3.15575800
169.49999011	0.00000000	12.64764000	-3.15575800
169.69999010	0.00000000	12.64764000	-3.15575800
169.89999009	0.00000000	12.64764000	-3.15575800
170.09999008	0.00000000	12.64764000	-3.15575800
170.29999007	0.00000000	12.64764000	-3.15575800
170.49999005	0.00000000	12.64764000	-3.15575800
170.69999004	0.00000000	12.64764000	-3.15575800
170.89999003	0.00000000	12.69070000	-3.15575800
171.09999002	0.00000000	13.06594000	-3.15575800
171.29999001	0.00000000	13.81028000	-3.15575800
171.49998999	0.00000000	14.13632000	-3.15575800
171.69998998	0.00000000	13.85334000	-3.15575800
171.89998997	0.00000000	13.44119000	-3.15575800
172.09998996	0.00000000	13.43504000	-3.15575800
172.29998995	0.00000000	13.02288000	-3.15575800
172.49998994	0.00000000	12.69070000	-3.15575800
172.69998992	0.00000000	12.64764000	-3.15575800
172.89998991	0.00000000	12.64764000	-3.15575800
173.09998990	0.00000000	12.64764000	-3.15575800
173.29998989	0.00000000	12.64764000	-3.15575800
173.49998988	0.00000000	12.64764000	-3.15575800
173.69998986	0.00000000	12.64764000	-3.15575800
173.89998985	0.00000000	12.64764000	-3.15575800
174.09998984	0.00000000	12.64764000	-3.15575800
174.29998983	0.00000000	12.64764000	-3.15575800
174.49998982	0.00000000	12.64764000	-3.15575800
174.69998980	0.00000000	12.64764000	-3.15575800
174.89998979	0.00000000	12.64764000	-3.15575800
175.09998978	0.00000000	12.64764000	-3.15575800
175.29998977	0.00000000	12.64764000	-3.15575800
175.49998976	0.00000000	12.64764000	-3.15575800
175.69998975	0.00000000	12.64764000	-3.15575800
175.89998973	0.00000000	12.64764000	-3.15575800
176.09998972	0.00000000	12.64764000	-3.15575800
176.29998971	0.00000000	12.64764000	-3.15575800
176.49998970	0.00000000	12.64764000	-3.15575800
176.69998969	0.00000000	12.64764000	-3.15575800
176.89998967	0.00000000	12.64764000	-3.15575800
177.09998966	0.00000000	12.64764000	-3.15575800
177.29998965	0.00000000	12.64764000	-3.15575800
177.49998964	0.00000000	12.64764000	-3.15575800
177.69998963	0.00000000	12.64764000	-3.15575800
177.89998961	0.00000000	12.64764000	-3.15575800
178.09998960	0.00000000	12.64764000	-3.15575800
178.29998959	0.00000000	12.64764000	-3.15575800
178.49998958	0.00000000	12.64764000	-3.15575800
178.69998957	0.00000000	12.64764000	-3.15575800
178.89998956	0.00000000	12.64764000	-3.15575800
179.09998954	0.00000000	12.64764000	-3.15575800
179.29998953	0.00000000	12.64764000	-3.15575800
179.49998952	0.00000000	12.64764000	-3.15575800
179.69998951	0.00000000	12.64764000	-3.15575800
179.89998950	0.00000000	12.64764000	-3.15575800
180.09998948	0.00000000	12.60458000	-3.15575800
180.29998947	0.00000000	12.31545000	-3.15575800
180.49998946	0.00000000	12.27854000	-3.15575800
180.69998945	0.00000000	13.01673000	-3.15575800
180.89998944	0.00000000	12.97982000	-3.15575800
181.09998942	0.00000000	12.69070000	-3.15575800
181.29998941	0.00000000	12.64764000	-3.15575800
181.49998940	0.00000000	12.64764000	-3.15575800
181.69998939	0.00000000	12.64764000	-3.15575800
181.89998938	0.00000000	12.64764000	-3.15575800
182.09998937	0.00000000	12.64764000	-3.15575800
182.29998935	0.00000000	12.64764000	-3.15575800
182.49998934	0.00000000	12.69070000	-3.15575800
182.69998933	0.00000000	13.02288000	-3.15575800
182.89998932	0.00000000	13.39198000	-3.15575800
183.09998931	0.00000000	13.02288000	-3.15575800
183.29998929	0.00000000	12.69070000	-3.15575800
183.49998928	0.00000000	12.64764000	-3.15575800
183.69998927	0.00000000	12.64764000	-3.15575800
183.89998926	0.00000000	12.64764000	-3.15575800
184.09998925	0.00000000	12.64764000	-3.15575800
184.29998923	0.00000000	12.64764000	-3.15575800
184.49998922	0.00000000	12.64764000	-3.11269700
184.69998921	0.00000000	12.64764000	-2.73745100
184.89998920	0.00000000	12.64764000	-2.04232300
185.09998919	0.00000000	12.64764000	-2.04232300
185.29998918	0.00000000	12.69070000	-2.73745100
185.49998916	0.00000000	13.02288000	-3.11269700
185.69998915	0.00000000	13.39198000	-3.15575800
185.89998914	0.00000000	13.02288000	-3.19881900
186.09998913	0.00000000	12.69070000	-3.53100400
186.29998912	0.00000000	12.64764000	-3.90009800
186.49998910	0.00000000	12.64764000	-3.53100400
186.69998909	0.00000000	12.64764000	-3.19881900
186.89998908	0.00000000	12.64764000	-3.15575800
187.09998907	0.00000000	12.64764000	-3.11269700
187.29998906	0.00000000	12.64764000	-2.73745100
187.49998904	0.00000000	12.64764000	-1.99311000
187.69998903	0.00000000	12.64764000	-1.66707700
187.89998902	0.00000000	12.64764000	-1.99311000
188.09998901	0.00000000	12.64764000	-2.73745100
188.29998900	0.00000000	12.64764000	-3.11269700
188.49998899	0.00000000	12.69070000	-3.15575800
188.69998897	0.00000000	13.02288000	-3.19881900
188.89998896	0.00000000	13.39198000	-3.53100400
189.09998895	0.00000000	13.06594000	-3.90009800
189.29998894	0.00000000	13.02288000	-3.53100400
189.49998893	0.00000000	13.01673000	-3.24803100
189.69998891	0.00000000	12.27854000	-3.53100400
189.89998890	0.00000000	12.31545000	-3.90009800
190.09998889	0.00000000	12.60458000	-3.53100400
190.29998888	0.00000000	12.64764000	-3.19881900
190.49998887	0.00000000	12.64764000	-3.15575800
190.69998885	0.00000000	12.64764000	-3.15575800
190.89998884	0.00000000	12.64764000	-3.15575800
191.09998883	0.00000000	12.64764000	-3.15575800
191.29998882	0.00000000	12.69070000	-3.15575800
191.49998881	0.00000000	13.02288000	-3.15575800
191.69998880	0.00000000	13.39198000	-3.15575800
191.89998878	0.00000000	13.02288000	-3.15575800
192.09998877	0.00000000	12.69070000	-3.15575800
192.29998876	0.00000000	12.64764000	-3.15575800
192.49998875	0.00000000	12.64764000	-3.15575800
192.69998874	0.00000000	12.64764000	-3.15575800
192.89998872	0.00000000	12.64764000	-3.15575800
193.09998871	0.00000000	12.64764000	-3.15575800
193.29998870	0.00000000	12.64764000	-3.15575800
193.49998869	0.00000000	12.64764000	-3.15575800
193.69998868	0.00000000	12.64764000	-3.15575800
193.89998866	0.00000000	12.64764000	-3.15575800
194.09998865	0.00000000	12.64764000	-3.15575800
194.29998864	0.00000000	12.69070000	-3.15575800
194.49998863	0.00000000	13.02288000	-3.15575800
194.69998862	0.00000000	13.39198000	-3.15575800
194.89998861	0.00000000	13.02288000	-3.15575800
195.09998859	0.00000000	12.69070000	-3.15575800
195.29998858	0.00000000	12.64764000	-3.15575800
195.49998857	0.00000000	12.64764000	-3.15575800
195.69998856	0.00000000	12.64764000	-3.15575800
195.89998855	0.00000000	12.64764000	-3.15575800
196.09998853	0.00000000	12.64764000	-3.15575800
