Time	Channel A	Channel B	Channel C
(us)	(V)	(mV)	(mV)

-4.49999956	0.00000000	12.64764000	-3.15575800
-4.29999957	0.00000000	12.64764000	-3.15575800
-4.09999958	0.00000000	12.64764000	-3.15575800
-3.89999959	0.00000000	12.64764000	-3.15575800
-3.69999960	0.00000000	12.64764000	-3.15575800
-3.49999962	0.00000000	12.64764000	-3.15575800
-3.29999963	0.00000000	12.60458000	-3.15575800
-3.09999964	0.00000000	12.27239000	-3.15575800
-2.89999965	0.00000000	11.86024000	-3.15575800
-2.69999966	0.00000000	11.89715000	-3.15575800
-2.49999968	0.00000000	11.86024000	-3.15575800
-2.29999969	0.00000000	12.27239000	-3.15575800
-2.09999970	0.00000000	12.60458000	-3.15575800
-1.89999971	0.00000000	12.64764000	-3.15575800
-1.69999972	0.00000000	12.60458000	-3.15575800
-1.49999973	0.00000000	12.22933000	-3.15575800
-1.29999975	0.00000000	11.53420000	-3.15575800
-1.09999976	0.00000000	11.53420000	-3.15575800
-0.89999977	0.00000000	12.22933000	-3.15575800
-0.69999978	0.00000000	12.60458000	-3.15575800
-0.49999979	0.00000000	12.64764000	-3.15575800
-0.29999981	0.31803640	12.64764000	-3.15575800
-0.09999982	0.63668800	12.64764000	-3.15575800
0.10000017	0.95533960	12.64764000	-3.15575800
0.30000016	1.11466500	12.64764000	-3.15575800
0.50000015	0.79601380	12.64764000	-3.15575800
0.70000013	0.15871060	12.64764000	-3.15575800
0.90000012	-0.63668800	12.64764000	-3.15575800
1.10000011	-1.59264300	12.60458000	-3.15575800
1.30000010	-2.38927200	12.27239000	-3.15575800
1.50000009	-2.70792300	11.90330000	-3.11269700
1.70000008	-2.38927200	12.27239000	-2.73745100
1.90000006	-1.11466500	12.60458000	-2.04232300
2.10000005	0.79601380	12.64764000	-2.04232300
2.30000004	2.86724900	12.64764000	-2.73745100
2.50000003	4.61921700	12.60458000	-3.11269700
2.70000002	5.41584600	12.27239000	-3.15575800
2.90000000	4.77854300	11.86024000	-3.15575800
3.09999999	2.70792300	11.89715000	-3.15575800
3.29999998	-0.47736220	11.86024000	-3.15575800
3.49999997	-3.98191400	12.27239000	-3.15575800
3.69999996	-6.69045300	12.60458000	-3.15575800
3.89999994	-7.96444400	12.64764000	-3.11269700
4.09999993	-7.32714100	12.60458000	-2.78051200
4.29999992	-4.61921700	12.27239000	-2.36835600
4.49999991	-0.47736220	11.90330000	-2.40526600
4.69999990	3.82258900	12.22933000	-2.36835600
4.89999989	7.48646600	12.22933000	-2.78051200
5.09999987	9.39837600	11.90330000	-3.11269700
5.29999986	8.92039900	12.22933000	-3.19881900
5.49999985	6.21247500	12.18012000	-3.57406500
5.69999984	1.91129400	11.53420000	-4.26919300
5.89999983	-2.86724900	11.53420000	-4.26919300
6.09999981	-6.84916400	12.22933000	-3.57406500
6.29999980	-9.23905000	12.60458000	-3.15575800
6.49999979	-9.07972400	12.64764000	-2.78051200
6.69999978	-6.84916400	12.64764000	-2.41141700
6.89999977	-2.86724900	12.64764000	-2.78051200
7.09999975	1.43331700	12.64764000	-3.11269700
7.29999974	5.25652100	12.64764000	-3.15575800
7.49999973	7.32714100	12.60458000	-3.15575800
7.69999972	7.64579200	12.27239000	-3.15575800
7.89999971	6.05315000	11.90330000	-3.15575800
8.09999970	3.18590100	12.27239000	-3.15575800
8.29999968	-0.31803640	12.60458000	-3.15575800
8.49999967	-3.02657500	12.60458000	-3.15575800
8.69999966	-4.77854300	12.27239000	-3.15575800
8.89999965	-5.09719500	11.90330000	-3.15575800
9.09999964	-4.30056600	12.27239000	-3.15575800
9.29999962	-2.38927200	12.60458000	-3.15575800
9.49999961	-0.47736220	12.64764000	-3.15575800
9.69999960	1.27399100	12.64764000	-3.15575800
9.89999959	2.22994600	12.64764000	-3.15575800
10.09999958	2.54859700	12.64764000	-3.15575800
10.29999956	2.07062000	12.64764000	-3.15575800
10.49999955	1.27399100	12.64764000	-3.15575800
10.69999954	0.47736220	12.64764000	-3.15575800
10.89999953	-0.31803640	12.64764000	-3.15575800
11.09999952	-0.79601380	12.60458000	-3.15575800
11.29999951	-0.95533960	12.27239000	-3.15575800
11.49999949	-0.95533960	11.90330000	-3.15575800
11.69999948	-0.63668800	12.27239000	-3.15575800
11.89999947	-0.31803640	12.60458000	-3.15575800
12.09999946	-0.15871060	12.64764000	-3.15575800
12.29999945	-0.15871060	12.64764000	-3.15575800
12.49999943	0.00000000	12.60458000	-3.15575800
12.69999942	0.00000000	12.27239000	-3.15575800
12.89999941	0.00000000	11.90330000	-3.15575800
13.09999940	0.15871060	12.27239000	-3.15575800
13.29999939	0.15871060	12.60458000	-3.15575800
13.49999937	0.00000000	12.64764000	-3.15575800
13.69999936	0.00000000	12.64764000	-3.15575800
13.89999935	0.00000000	12.64764000	-3.15575800
14.09999934	-0.15871060	12.64764000	-3.15575800
14.29999933	-0.15871060	12.64764000	-3.15575800
14.49999932	-0.15871060	12.60458000	-3.15575800
14.69999930	0.00000000	12.27239000	-3.15575800
14.89999929	0.00000000	11.86024000	-3.15575800
15.09999928	0.00000000	11.89715000	-3.15575800
15.29999927	0.00000000	11.81717000	-3.15575800
15.49999926	0.00000000	11.85408000	-3.15575800
15.69999924	0.00000000	11.44193000	-3.15575800
15.89999923	0.00000000	11.15896000	-3.15575800
16.09999922	0.00000000	11.44193000	-3.15575800
16.29999921	0.00000000	11.85408000	-3.15575800
16.49999920	-0.15871060	11.86024000	-3.15575800
16.69999919	-0.15871060	12.27239000	-3.15575800
16.89999917	0.00000000	12.64764000	-3.15575800
17.09999916	0.00000000	13.06594000	-3.15575800
17.29999915	0.00000000	13.81028000	-3.15575800
17.49999914	0.00000000	14.18553000	-3.15575800
17.69999913	0.00000000	14.18553000	-3.15575800
17.89999911	0.00000000	13.76107000	-3.15575800
18.09999910	0.00000000	12.60458000	-3.15575800
18.29999909	0.00000000	11.06668000	-3.15575800
18.49999908	0.00000000	9.48572700	-3.15575800
18.69999907	0.00000000	7.94783400	-3.15575800
18.89999905	0.00000000	6.83439900	-3.15575800
19.09999904	0.00000000	6.87746000	-3.19881900
19.29999903	0.00000000	8.41535400	-3.48794300
19.49999902	0.00000000	11.15896000	-3.52485200
19.69999901	0.00000000	14.64690000	-2.78666300
19.89999900	0.00000000	18.55315000	-2.82357300
20.09999898	0.00000000	21.95497000	-3.11269700
20.29999897	0.00000000	23.81275000	-3.15575800
20.49999896	0.00000000	22.60704000	-3.15575800
20.69999895	0.00000000	18.37475000	-3.15575800
20.89999894	0.00000000	12.13706000	-3.15575800
21.09999892	0.00000000	4.74286400	-3.15575800
21.29999891	0.00000000	-2.56520700	-3.15575800
21.49999890	0.00000000	-7.86786400	-3.15575800
21.69999889	0.00000000	-8.93823700	-3.15575800
21.89999888	0.00000000	-4.66289300	-3.15575800
22.09999886	0.00000000	4.22613100	-3.15575800
22.29999885	0.00000000	15.90182000	-3.15575800
22.49999884	0.00000000	28.23573000	-3.15575800
22.69999883	0.00000000	38.60728000	-3.15575800
22.89999882	0.00000000	43.54699000	-3.15575800
23.09999881	0.00000000	41.54773000	-3.11269700
23.29999879	0.00000000	32.19119000	-2.73745100
23.49999878	0.00000000	16.70152000	-1.99311000
23.69999877	0.00000000	-1.40255900	-1.61786400
23.89999876	0.00000000	-17.95645000	-1.57480300
24.09999875	0.00000000	-28.38337000	-1.61786400
24.29999873	0.00000000	-30.24729000	-2.04232300
24.49999872	0.00000000	-22.79773000	-3.19881900
24.69999871	0.00000000	-6.15157400	-4.73671200
24.89999870	0.00000000	15.76649000	-6.26845500
25.09999869	0.00000000	37.44463000	-7.42495000
25.29999867	0.00000000	54.06004000	-7.84940900
25.49999866	0.00000000	62.10630000	-7.75713500
25.69999865	0.00000000	58.94439000	-6.54527500
25.89999864	0.00000000	44.61737000	-3.48794300
26.09999863	0.00000000	22.23179000	0.00000000
26.29999862	0.00000000	-3.21112200	3.53100400
26.49999860	0.00000000	-25.22145000	6.92052100
26.69999859	0.00000000	-38.76107000	8.40920300
26.89999858	0.00000000	-41.04330000	7.25270600
27.09999857	0.00000000	-31.04084000	3.72170300
27.29999856	0.00000000	-11.36196000	-2.12844500
27.49999854	0.00000000	12.93676000	-9.47342500
27.69999853	0.00000000	36.51574000	-16.76919000
27.89999852	0.00000000	53.54945000	-22.10876000
28.09999851	0.00000000	60.98671000	-23.60359000
28.29999850	0.00000000	57.87401000	-20.48474000
28.49999848	0.00000000	44.75270000	-13.10285000
28.69999847	0.00000000	24.69857000	-2.64517700
28.89999846	0.00000000	2.68823800	8.91978400
29.09999845	0.00000000	-16.24631000	18.95300000
29.29999844	0.00000000	-27.91584000	25.09227000
29.49999843	0.00000000	-30.33957000	25.78740000
29.69999841	0.00000000	-24.19414000	19.93110000
29.89999840	0.00000000	-11.02977000	8.32308000
30.09999839	0.00000000	6.32381900	-6.72982200
30.29999838	0.00000000	23.72047000	-22.15797000
30.49999837	0.00000000	37.26624000	-34.09818000
30.69999835	0.00000000	44.37746000	-39.86220000
30.89999834	0.00000000	44.38361000	-37.91216000
31.09999833	0.00000000	38.23203000	-28.24803000
31.29999832	0.00000000	26.65477000	-13.19513000
31.49999831	0.00000000	13.15822000	4.22613100
31.69999829	0.00000000	0.68897630	20.44168000
31.89999828	0.00000000	-9.03051100	32.01279000
32.09999827	0.00000000	-14.01329000	36.23893000
32.29999826	0.00000000	-13.30585000	32.01279000
32.49999825	0.00000000	-7.12352300	20.44168000
32.69999824	0.00000000	2.46678100	4.18307100
32.89999822	0.00000000	13.34276000	-13.61343000
33.09999821	0.00000000	22.98228000	-29.40452000
33.29999820	0.00000000	29.58292000	-39.48696000
33.49999819	0.00000000	31.53912000	-41.81841000
33.69999818	0.00000000	28.93085000	-36.42347000
33.89999816	0.00000000	23.11762000	-24.06496000
34.09999815	0.00000000	15.39124000	-7.89247000
34.29999814	0.00000000	7.29576700	8.40920300
34.49999813	0.00000000	1.10728300	21.93036000
34.69999812	0.00000000	-2.00541300	30.01353000
34.89999810	0.00000000	-1.63016700	30.43184000
35.09999809	0.00000000	2.17765700	23.51132000
35.29999808	0.00000000	7.94783400	11.14665000
35.49999807	0.00000000	14.13632000	-4.22613100
35.69999806	0.00000000	19.44513000	-18.44857000
35.89999805	0.00000000	21.81348000	-27.82972000
36.09999803	0.00000000	20.70005000	-31.31767000
36.29999802	0.00000000	17.66732000	-28.61097000
36.49999801	0.00000000	12.97982000	-19.74655000
36.69999800	0.00000000	8.04010800	-7.52337600
36.89999799	0.00000000	4.18307100	4.82898600
37.09999797	0.00000000	2.64517700	14.08095000
37.29999796	0.00000000	3.71555100	18.31324000
37.49999795	0.00000000	6.45915300	16.40010000
37.69999794	0.00000000	10.32234000	8.78444900
37.89999793	0.00000000	14.97293000	-1.53174200
38.09999791	0.00000000	18.79306000	-11.52190000
38.29999790	0.00000000	21.11220000	-18.44242000
38.49999789	0.00000000	21.06914000	-20.35556000
38.69999788	0.00000000	18.41781000	-16.91068000
38.89999787	0.00000000	14.22859000	-8.87672100
39.09999786	0.00000000	9.95324800	1.02116100
39.29999784	0.00000000	6.41609200	9.47957600
39.49999783	0.00000000	3.71555100	14.03174000
39.69999782	0.00000000	2.55290300	13.28740000
39.89999781	0.00000000	3.34030500	7.16043300
40.09999780	0.00000000	5.62869100	-1.99926200
40.29999778	0.00000000	9.15354300	-11.61417000
40.49999777	0.00000000	13.02288000	-18.90994000
40.69999776	0.00000000	16.92298000	-21.97957000
40.89999775	0.00000000	19.99877000	-20.06643000
41.09999774	0.00000000	21.53666000	-13.52116000
41.29999772	0.00000000	21.16142000	-4.31840500
41.49999771	0.00000000	18.83612000	5.29650500
41.69999770	0.00000000	15.39124000	12.59227000
41.89999769	0.00000000	11.48499000	15.70497000
42.09999768	0.00000000	7.99704600	14.16708000
42.29999767	0.00000000	5.25344500	8.40920300
42.49999765	0.00000000	3.71555100	-0.04306102
42.69999764	0.00000000	3.71555100	-8.87672100
42.89999763	0.00000000	5.25344500	-15.79724000
43.09999762	0.00000000	7.94783400	-18.90994000
43.29999761	0.00000000	11.02362000	-17.83957000
43.49999759	0.00000000	13.71801000	-13.61343000
43.69999758	0.00000000	15.29897000	-7.47416300
43.89999757	0.00000000	15.76649000	-0.92888770
44.09999756	0.00000000	15.76649000	4.09079700
44.29999755	0.00000000	15.39124000	6.82824800
44.49999753	0.00000000	14.64690000	6.87746000
44.69999752	0.00000000	14.27165000	4.60137700
44.89999751	0.00000000	14.22859000	1.15649600
45.09999750	0.00000000	14.18553000	-2.73745100
45.29999749	0.00000000	13.71801000	-6.17618100
45.49999748	0.00000000	12.18012000	-8.54453700
45.69999746	0.00000000	9.86097400	-9.29502900
45.89999745	0.00000000	7.48646600	-8.58759800
46.09999744	0.00000000	4.78592500	-6.64370100
46.29999743	0.00000000	2.55290300	-4.36146600
46.49999742	0.00000000	2.22687000	-1.99311000
46.69999740	0.00000000	4.13385800	-0.09227362
46.89999739	0.00000000	8.08316900	1.06422200
47.09999738	0.00000000	13.48425000	1.06422200
47.29999737	0.00000000	19.66658000	-0.04306102
47.49999736	0.00000000	24.60630000	-1.62401600
47.69999734	0.00000000	26.92544000	-3.57406500
47.89999733	0.00000000	25.71973000	-5.85014700
48.09999732	0.00000000	21.06914000	-7.38188900
48.29999731	0.00000000	13.71801000	-7.80019600
48.49999730	0.00000000	5.25344500	-7.38188900
48.69999729	0.00000000	-2.09768700	-5.80093500
48.89999727	0.00000000	-6.70521600	-3.11269700
49.09999726	0.00000000	-7.40034400	-0.09227362
49.29999725	0.00000000	-3.16806100	2.22687000
49.49999724	0.00000000	4.87819900	3.02042300
49.69999723	0.00000000	14.18553000	2.64517700
49.89999721	0.00000000	23.06841000	1.07037400
50.09999720	0.00000000	29.53371000	-1.66707700
50.29999719	0.00000000	31.07160000	-5.11195900
50.49999718	0.00000000	27.30069000	-8.58759800
50.69999717	0.00000000	19.95571000	-10.86983000
50.89999715	0.00000000	10.69144000	-11.70029000
51.09999714	0.00000000	1.48253000	-10.82677000
51.29999713	0.00000000	-4.61368100	-8.12622900
51.49999712	0.00000000	-5.86860200	-3.53100400
51.69999711	0.00000000	-2.42987200	1.02116100
51.89999710	0.00000000	4.09079700	4.18307100
52.09999708	0.00000000	12.22933000	5.71481200
52.29999707	0.00000000	19.86343000	5.33956700
52.49999706	0.00000000	24.88312000	3.02042300
52.69999705	0.00000000	25.67667000	-0.46751960
52.89999704	0.00000000	22.65010000	-4.69365100
53.09999702	0.00000000	16.87992000	-8.50147600
53.29999701	0.00000000	9.95324800	-10.45152000
53.49999700	0.00000000	3.80782500	-10.49459000
53.69999699	0.00000000	-0.04921259	-8.96284400
53.89999698	0.00000000	-0.42445860	-6.26845500
54.09999696	0.00000000	2.60211600	-3.19881900
54.29999695	0.00000000	7.99704600	-0.51058070
54.49999694	0.00000000	14.13632000	1.02116100
54.69999693	0.00000000	19.48819000	1.02116100
54.89999692	0.00000000	22.18258000	-0.46751960
55.09999691	0.00000000	21.44439000	-2.73745100
55.29999689	0.00000000	18.04257000	-4.60137700
55.49999688	0.00000000	13.02288000	-5.43184000
55.69999687	0.00000000	7.99704600	-5.01968500
55.89999686	0.00000000	3.75861200	-3.90009800
56.09999685	0.00000000	1.48253000	-1.99311000
56.29999683	0.00000000	2.26993100	-0.51058070
56.49999682	0.00000000	5.67175200	-0.09227362
56.69999681	0.00000000	10.64838000	-0.55364170
56.89999680	0.00000000	15.25591000	-2.50369100
57.09999679	0.00000000	18.37475000	-5.89320800
57.29999677	0.00000000	19.58046000	-8.91978400
57.49999676	0.00000000	18.79306000	-10.49459000
57.69999675	0.00000000	16.50467000	-10.45152000
57.89999674	0.00000000	13.02288000	-8.50147600
58.09999673	0.00000000	9.57800100	-4.60137700
58.29999672	0.00000000	6.87746000	0.32603340
58.49999670	0.00000000	5.71481200	4.96432100
58.69999669	0.00000000	6.41609200	7.62180000
58.89999668	0.00000000	7.94783400	7.99089500
59.09999667	0.00000000	9.90403500	5.25344500
59.29999666	0.00000000	12.18012000	-0.09227362
59.49999664	0.00000000	13.71801000	-6.26845500
59.69999663	0.00000000	14.13632000	-12.03248000
59.89999662	0.00000000	13.81028000	-15.84030000
60.09999661	0.00000000	13.02288000	-16.25861000
60.29999660	0.00000000	12.22933000	-13.56422000
60.49999658	0.00000000	11.06668000	-8.50147600
60.69999657	0.00000000	9.99630800	-1.53174200
60.89999656	0.00000000	9.95324800	5.71481200
61.09999655	0.00000000	10.69144000	11.06053000
61.29999654	0.00000000	11.44193000	12.59227000
61.49999653	0.00000000	12.22933000	9.94094400
61.69999651	0.00000000	12.60458000	4.18307100
61.89999650	0.00000000	12.60458000	-3.15575800
62.09999649	0.00000000	12.18012000	-10.49459000
62.29999648	0.00000000	11.06668000	-16.25861000
62.49999647	0.00000000	9.95324800	-18.95300000
62.69999645	0.00000000	9.52879000	-17.79650000
62.89999644	0.00000000	9.52879000	-13.18898000
63.09999643	0.00000000	9.95324800	-6.26845500
63.29999642	0.00000000	11.10974000	1.07037400
63.49999641	0.00000000	12.60458000	7.24655500
63.69999639	0.00000000	13.81028000	11.10359000
63.89999638	0.00000000	14.56078000	11.47884000
64.09999637	0.00000000	14.92372000	8.45226300
64.29999636	0.00000000	14.13632000	3.02042300
64.49999635	0.00000000	12.64764000	-3.53100400
64.69999634	0.00000000	11.06668000	-10.07628000
64.89999632	0.00000000	9.52879000	-14.67766000
65.09999631	0.00000000	8.41535400	-16.30167000
65.29999630	0.00000000	8.41535400	-15.18824000
65.49999629	0.00000000	9.52879000	-12.11860000
65.69999628	0.00000000	11.02362000	-7.84940900
65.89999626	0.00000000	12.22933000	-3.20497000
66.09999625	0.00000000	13.02288000	1.07037400
66.29999624	0.00000000	13.71801000	4.18307100
66.49999623	0.00000000	13.29970000	5.75787400
66.69999622	0.00000000	11.44193000	5.80093500
66.89999620	0.00000000	9.57800100	4.64443900
67.09999619	0.00000000	8.41535400	2.64517700
67.29999618	0.00000000	8.41535400	-0.41830710
67.49999617	0.00000000	9.52879000	-3.90009800
67.69999616	0.00000000	11.10974000	-6.64370100
67.89999615	0.00000000	13.06594000	-9.05511800
68.09999613	0.00000000	15.34203000	-10.96211000
68.29999612	0.00000000	16.83686000	-12.07554000
68.49999611	0.00000000	16.83686000	-11.65723000
68.69999610	0.00000000	15.25591000	-9.38115100
68.89999609	0.00000000	12.18012000	-6.26845500
69.09999607	0.00000000	8.32308000	-2.69439000
69.29999606	0.00000000	4.87819900	1.53174200
69.49999605	0.00000000	2.55290300	5.33956700
69.69999604	0.00000000	2.22687000	7.24655500
69.89999603	0.00000000	4.13385800	6.92052100
70.09999601	0.00000000	8.04010800	4.60137700
70.29999600	0.00000000	13.02288000	1.07037400
70.49999599	0.00000000	18.04257000	-3.57406500
70.69999598	0.00000000	21.48745000	-8.58759800
70.89999597	0.00000000	22.69316000	-12.40773000
71.09999596	0.00000000	21.48745000	-14.35162000
71.29999594	0.00000000	17.99951000	-13.56422000
71.49999593	0.00000000	12.60458000	-10.53765000
71.69999592	0.00000000	6.83439900	-6.26845500
71.89999591	0.00000000	2.17765700	-1.66707700
72.09999590	0.00000000	-0.51673230	2.22687000
72.29999588	0.00000000	-0.51673230	4.55831700
72.49999587	0.00000000	2.17765700	5.33956700
72.69999586	0.00000000	6.79133800	4.13385800
72.89999585	0.00000000	12.22933000	1.15649600
73.09999584	0.00000000	17.25517000	-2.31914400
73.29999582	0.00000000	21.11220000	-5.01968500
73.49999581	0.00000000	22.65010000	-6.96358300
73.69999580	0.00000000	21.53666000	-7.33882900
73.89999579	0.00000000	18.41781000	-6.26845500
74.09999578	0.00000000	13.81028000	-4.77977300
74.29999577	0.00000000	8.83366100	-3.62327700
74.49999575	0.00000000	5.33956700	-3.19881900
74.69999574	0.00000000	3.71555100	-3.19881900
74.89999573	0.00000000	3.71555100	-3.62327700
75.09999572	0.00000000	5.25344500	-4.73671200
75.29999571	0.00000000	7.94783400	-5.80093500
75.49999569	0.00000000	11.02362000	-5.80093500
75.69999568	0.00000000	13.71801000	-4.64443900
75.89999567	0.00000000	15.29897000	-2.69439000
76.09999566	0.00000000	15.71727000	0.00000000
76.29999565	0.00000000	15.34203000	2.60211600
76.49999563	0.00000000	14.18553000	3.76476400
76.69999562	0.00000000	12.69070000	2.97736200
76.89999561	0.00000000	11.53420000	0.64591530
77.09999560	0.00000000	11.10974000	-3.24803100
77.29999559	0.00000000	11.06668000	-7.80019600
77.49999558	0.00000000	11.06668000	-11.65723000
77.69999556	0.00000000	11.02362000	-13.61343000
77.89999555	0.00000000	10.64838000	-13.61343000
78.09999554	0.00000000	9.86097400	-11.61417000
78.29999553	0.00000000	9.11048200	-7.33882900
78.49999552	0.00000000	8.32308000	-1.62401600
78.69999550	0.00000000	7.99704600	3.76476400
78.89999549	0.00000000	8.41535400	7.25270600
79.09999548	0.00000000	9.95324800	8.45226300
79.29999547	0.00000000	12.27239000	7.25270600
79.49999546	0.00000000	14.56078000	3.80782500
79.69999544	0.00000000	16.46161000	-1.19955700
79.89999543	0.00000000	16.83686000	-6.21924200
80.09999542	0.00000000	15.71727000	-10.49459000
80.29999541	0.00000000	13.76107000	-13.18898000
80.49999540	0.00000000	11.06668000	-13.61343000
80.69999539	0.00000000	8.37229300	-12.07554000
80.89999537	0.00000000	6.45915300	-8.96284400
81.09999536	0.00000000	5.67175200	-4.77977300
81.29999535	0.00000000	6.41609200	-0.88582670
81.49999534	0.00000000	7.94783400	1.90698800
81.69999533	0.00000000	9.95324800	4.22613100
81.89999531	0.00000000	12.64764000	5.33956700
82.09999530	0.00000000	15.25591000	4.60137700
82.29999529	0.00000000	16.46161000	2.69439000
82.49999528	0.00000000	16.09252000	-0.04306102
82.69999527	-0.15871060	14.97293000	-3.15575800
82.89999525	0.00000000	13.02288000	-6.26845500
83.09999524	0.00000000	11.10974000	-8.96284400
83.29999523	0.00000000	9.52879000	-10.53765000
83.49999522	0.00000000	8.37229300	-10.95595000
83.69999521	0.00000000	7.99704600	-10.53765000
83.89999520	0.00000000	8.37229300	-8.96284400
84.09999518	0.00000000	9.48572700	-6.22539300
84.29999517	0.00000000	10.59916000	-2.73745100
84.49999516	0.00000000	11.02362000	1.11343500
84.69999515	0.00000000	11.06668000	4.18307100
84.89999514	0.00000000	11.10974000	5.71481200
85.09999512	0.00000000	11.48499000	5.33956700
85.29999511	0.00000000	12.22933000	3.02042300
85.49999510	0.00000000	12.60458000	-0.46751960
85.69999509	0.00000000	12.64764000	-4.73671200
85.89999508	0.00000000	12.64764000	-8.96284400
86.09999506	0.00000000	12.60458000	-12.03248000
86.29999505	0.00000000	12.22933000	-13.18898000
86.49999504	0.00000000	11.44193000	-12.03248000
86.69999503	0.00000000	10.64838000	-8.96284400
86.89999502	0.00000000	9.48572700	-4.69365100
87.09999501	0.00000000	8.37229300	-0.04306102
87.29999499	0.00000000	7.99704600	4.14000900
87.49999498	0.00000000	8.37229300	6.45300100
87.69999497	0.00000000	9.52879000	6.09005900
87.89999496	0.00000000	11.06668000	3.76476400
88.09999495	0.00000000	12.60458000	-0.51058070
88.29999493	0.00000000	13.76107000	-5.85014700
88.49999492	0.00000000	14.13632000	-10.45152000
88.69999491	0.00000000	13.76107000	-13.14591000
88.89999490	0.00000000	12.60458000	-13.14591000
89.09999489	0.00000000	11.06668000	-10.49459000
89.29999487	0.00000000	9.52879000	-6.21924200
89.49999486	0.00000000	8.37229300	-1.19955700
89.69999485	0.00000000	7.99704600	3.76476400
89.89999484	0.00000000	8.37229300	6.78518600
90.09999483	0.00000000	9.48572700	6.82824800
90.29999482	0.00000000	10.64838000	4.14000900
90.49999480	0.00000000	11.44193000	-0.46136810
90.69999479	0.00000000	12.22933000	-5.85014700
90.89999478	0.00000000	12.60458000	-10.45152000
91.09999477	0.00000000	12.60458000	-13.14591000
91.29999476	0.00000000	12.22933000	-13.14591000
91.49999474	0.00000000	11.48499000	-10.45152000
91.69999473	0.00000000	11.10974000	-5.85014700
91.89999472	0.00000000	11.06668000	-0.46136810
92.09999471	0.00000000	11.10974000	4.09079700
92.29999470	0.00000000	11.44193000	6.40994000
92.49999468	0.00000000	11.81102000	5.67175200
92.69999467	0.00000000	11.39887000	2.64517700
92.89999466	0.00000000	10.69144000	-1.62401600
93.09999465	0.00000000	9.86097400	-6.21924200
93.29999464	0.00000000	9.11048200	-10.07628000
93.49999463	0.00000000	8.32308000	-11.98327000
93.69999461	0.00000000	8.04010800	-11.61417000
93.89999460	0.00000000	8.74138700	-8.91978400
94.09999459	0.00000000	10.31619000	-4.69365100
94.29999458	0.00000000	11.86024000	-0.13533460
94.49999457	0.00000000	13.85334000	3.34645700
94.69999455	0.00000000	15.71727000	4.50910400
94.89999454	0.00000000	16.83686000	3.76476400
95.09999453	0.00000000	16.41855000	1.02116100
95.29999452	0.00000000	14.13632000	-3.11269700
95.49999451	0.00000000	11.06668000	-6.96358300
95.69999449	0.00000000	7.94783400	-9.29502900
95.89999448	0.00000000	5.25344500	-10.07628000
96.09999447	0.00000000	3.71555100	-8.91978400
96.29999446	0.00000000	3.71555100	-6.26845500
96.49999445	0.00000000	5.29650500	-3.19881900
96.69999444	0.00000000	8.37229300	-0.51058070
96.89999442	0.00000000	12.22933000	1.02116100
97.09999441	0.00000000	15.71727000	1.06422200
97.29999440	0.00000000	18.41781000	-0.09227362
97.49999439	0.00000000	19.58046000	-1.99311000
97.69999438	0.00000000	18.83612000	-4.31840500
97.89999436	0.00000000	16.83686000	-6.22539300
98.09999435	0.00000000	13.34276000	-7.38188900
98.29999434	0.00000000	8.74138700	-7.38188900
98.49999433	0.00000000	4.92125900	-6.26845500
98.69999432	0.00000000	2.55290300	-4.77977300
98.89999430	0.00000000	2.17765700	-3.62327700
99.09999429	0.00000000	3.67249000	-3.19881900
99.29999428	0.00000000	6.41609200	-3.11269700
99.49999427	0.00000000	9.90403500	-2.73745100
99.69999426	0.00000000	13.71801000	-2.04232300
99.89999425	0.00000000	16.46161000	-1.99311000
100.09999423	0.00000000	17.67347000	-2.31914400
100.29999422	0.00000000	18.08563000	-1.90698800
100.49999421	0.00000000	17.21210000	-1.24877000
100.69999420	0.00000000	14.92372000	-0.87967510
100.89999419	0.00000000	11.48499000	-1.66707700
101.09999417	0.00000000	8.41535400	-3.15575800
101.29999416	0.00000000	6.41609200	-4.73671200
101.49999415	0.00000000	5.21038300	-6.26845500
101.69999414	0.00000000	4.87819900	-7.42495000
101.89999413	0.00000000	5.62869100	-7.75713500
102.09999411	0.00000000	7.57258800	-6.96358300
102.29999410	0.00000000	9.86097400	-4.68750000
102.49999409	0.00000000	12.22933000	-1.99311000
102.69999408	0.00000000	14.13632000	0.33218500
102.89999407	0.00000000	15.29897000	2.27608300
103.09999406	0.00000000	15.34203000	2.97736200
103.29999404	0.00000000	14.56078000	2.22687000
103.49999403	0.00000000	13.39198000	-0.09227362
103.69999402	0.00000000	11.44193000	-3.15575800
103.89999401	0.00000000	9.52879000	-6.26845500
104.09999400	0.00000000	7.94783400	-8.91978400
104.29999398	0.00000000	6.83439900	-10.07628000
104.49999397	0.00000000	6.83439900	-9.33809000
104.69999396	0.00000000	7.94783400	-7.43110200
104.89999395	0.00000000	9.48572700	-4.68750000
105.09999394	0.00000000	11.02362000	-1.66707700
105.29999392	0.00000000	12.22933000	0.64591530
105.49999391	0.00000000	12.97982000	1.43946800
105.69999390	0.00000000	13.39198000	1.06422200
105.89999389	0.00000000	12.97982000	-0.46751960
106.09999388	0.00000000	12.22933000	-2.73745100
106.29999387	0.00000000	11.06668000	-4.68750000
106.49999385	0.00000000	9.90403500	-6.26845500
106.69999384	0.00000000	9.15354300	-7.38188900
106.89999383	0.00000000	8.79060000	-7.33882900
107.09999382	0.00000000	9.52879000	-5.85014700
107.29999381	0.00000000	10.64838000	-3.57406500
107.49999379	0.00000000	11.44193000	-1.66707700
107.69999378	0.00000000	12.22933000	-0.46136810
107.89999377	0.00000000	12.55536000	-0.09227362
108.09999376	0.00000000	12.22933000	-0.51058070
108.29999375	0.00000000	11.44193000	-2.04232300
108.49999374	0.00000000	10.64838000	-4.26919300
108.69999372	0.00000000	9.48572700	-5.80093500
108.89999371	0.00000000	8.41535400	-6.21924200
109.09999370	0.00000000	8.37229300	-5.85014700
109.29999369	0.00000000	9.11048200	-4.68750000
109.49999368	0.00000000	9.90403500	-3.15575800
109.69999366	0.00000000	11.06668000	-1.62401600
109.89999365	0.00000000	12.18012000	-0.46136810
110.09999364	0.00000000	12.60458000	-0.09227362
110.29999363	0.00000000	12.60458000	-0.41830710
110.49999362	0.00000000	12.18012000	-1.24877000
110.69999360	0.00000000	11.06668000	-2.41141700
110.89999359	0.00000000	9.95324800	-4.31840500
111.09999358	0.00000000	9.52879000	-5.80093500
111.29999357	0.00000000	9.48572700	-6.26845500
111.49999356	0.00000000	9.48572700	-6.26845500
111.69999355	0.00000000	9.52879000	-5.89320800
111.89999353	0.00000000	9.90403500	-5.11195900
112.09999352	0.00000000	10.64838000	-4.31840500
112.29999351	0.00000000	11.02362000	-3.15575800
112.49999350	0.00000000	11.06668000	-2.04232300
112.69999349	0.00000000	11.10974000	-1.66707700
112.89999347	0.00000000	11.44193000	-1.95004900
113.09999346	0.00000000	11.81102000	-2.36220500
113.29999345	0.00000000	11.44193000	-2.36835600
113.49999344	0.00000000	11.10974000	-2.82357300
113.69999343	0.00000000	11.06668000	-3.48794300
113.89999341	0.00000000	11.06668000	-3.94315900
114.09999340	0.00000000	11.06668000	-3.94931100
114.29999339	0.00000000	11.06668000	-4.36146600
114.49999338	0.00000000	11.06668000	-4.69365100
114.69999337	0.00000000	11.06668000	-4.73671200
114.89999336	0.00000000	11.06668000	-4.73671200
115.09999334	0.00000000	11.06668000	-4.73671200
115.29999333	0.00000000	11.06668000	-4.69365100
115.49999332	0.00000000	11.06668000	-4.31840500
115.69999331	0.00000000	11.06668000	-3.57406500
115.89999330	0.00000000	11.06668000	-3.15575800
116.09999328	0.00000000	11.06668000	-2.73745100
116.29999327	0.00000000	11.02362000	-1.99311000
116.49999326	0.00000000	10.64838000	-1.61786400
116.69999325	0.00000000	9.90403500	-1.61786400
116.89999324	0.00000000	9.57800100	-1.99311000
117.09999322	0.00000000	9.90403500	-2.78051200
117.29999321	0.00000000	10.64838000	-3.53100400
117.49999320	0.00000000	11.06668000	-4.36146600
117.69999319	0.00000000	11.48499000	-5.11195900
117.89999318	0.00000000	12.22933000	-5.89320800
118.09999317	0.00000000	12.60458000	-6.21924200
118.29999315	0.00000000	12.60458000	-5.85014700
118.49999314	0.00000000	12.18012000	-4.73671200
118.69999313	0.00000000	11.06668000	-3.57406500
118.89999312	0.00000000	9.90403500	-2.78051200
119.09999311	0.00000000	9.11048200	-1.99311000
119.29999309	0.00000000	8.32308000	-1.61786400
119.49999308	0.00000000	7.99704600	-1.57480300
119.69999307	0.00000000	8.37229300	-1.61786400
119.89999306	0.00000000	9.52879000	-1.99311000
120.09999305	0.00000000	11.02362000	-2.73745100
120.29999303	0.00000000	12.22933000	-3.15575800
120.49999302	0.00000000	13.02288000	-3.57406500
120.69999301	0.00000000	13.76107000	-4.31840500
120.89999300	0.00000000	13.76107000	-4.69365100
121.09999299	0.00000000	13.02288000	-4.73671200
121.29999298	0.00000000	12.22933000	-4.73671200
121.49999296	0.00000000	11.02362000	-4.69365100
121.69999295	0.00000000	9.52879000	-4.31840500
121.89999294	0.00000000	8.37229300	-3.57406500
122.09999293	0.00000000	7.94783400	-3.19881900
122.29999292	0.00000000	7.94783400	-3.11269700
122.49999290	0.00000000	8.37229300	-2.73745100
122.69999289	0.00000000	9.48572700	-1.99311000
122.89999288	0.00000000	10.64838000	-1.66707700
123.09999287	0.00000000	11.44193000	-1.99311000
123.29999286	0.00000000	12.22933000	-2.73745100
123.49999284	0.00000000	12.60458000	-3.15575800
123.69999283	0.00000000	12.64764000	-3.57406500
123.89999282	0.00000000	12.60458000	-4.31840500
124.09999281	0.00000000	12.18012000	-4.69365100
124.29999280	0.00000000	11.06668000	-4.73671200
124.49999279	0.00000000	9.95324800	-4.73671200
124.69999277	0.00000000	9.48572700	-4.73671200
124.89999276	0.00000000	9.06742000	-4.69365100
125.09999275	0.00000000	8.37229300	-4.31840500
125.29999274	0.00000000	8.37229300	-3.57406500
125.49999273	0.00000000	9.11048200	-3.15575800
125.69999271	0.00000000	9.86097400	-2.78051200
125.89999270	0.00000000	10.69144000	-2.41141700
126.09999269	0.00000000	11.44193000	-2.78051200
126.29999268	0.00000000	12.22933000	-3.11269700
126.49999267	0.00000000	12.60458000	-3.19881900
126.69999265	0.00000000	12.64764000	-3.53100400
126.89999264	0.00000000	12.60458000	-3.94315900
127.09999263	0.00000000	12.18012000	-3.94931100
127.29999262	0.00000000	11.02362000	-4.36146600
127.49999261	0.00000000	9.52879000	-4.69365100
127.69999260	0.00000000	8.37229300	-4.69365100
127.89999258	0.00000000	7.99704600	-4.36146600
128.09999257	0.00000000	8.32308000	-3.94931100
128.29999256	0.00000000	9.11048200	-3.94315900
128.49999255	0.00000000	9.90403500	-3.48794300
128.69999254	0.00000000	11.06668000	-2.82357300
128.89999252	0.00000000	12.18012000	-2.41141700
129.09999251	0.00000000	12.60458000	-2.82357300
129.29999250	0.00000000	12.60458000	-3.53100400
129.49999249	0.00000000	12.18012000	-4.31840500
129.69999248	0.00000000	11.06668000	-4.69365100
129.89999246	0.00000000	9.90403500	-4.69365100
130.09999245	0.00000000	9.11048200	-4.31840500
130.29999244	0.00000000	8.32308000	-3.57406500
130.49999243	0.00000000	7.99704600	-3.19881900
130.69999242	0.00000000	8.37229300	-3.15575800
130.89999241	0.00000000	9.48572700	-3.15575800
131.09999239	0.00000000	10.64838000	-3.15575800
131.29999238	0.00000000	11.44193000	-3.15575800
131.49999237	0.00000000	12.18012000	-3.19881900
131.69999236	0.00000000	12.18012000	-3.57406500
131.89999235	0.00000000	11.48499000	-4.31840500
132.09999233	0.00000000	11.06668000	-4.69365100
132.29999232	0.00000000	10.64838000	-4.73671200
132.49999231	0.00000000	9.90403500	-4.73671200
132.69999230	0.00000000	9.52879000	-4.69365100
132.89999229	0.00000000	9.48572700	-4.31840500
133.09999227	0.00000000	9.52879000	-3.53100400
133.29999226	0.00000000	9.90403500	-2.78051200
133.49999225	0.00000000	10.64838000	-1.99311000
133.69999224	0.00000000	11.02362000	-1.66707700
133.89999223	0.00000000	11.06668000	-1.99311000
134.09999222	0.00000000	11.06668000	-2.78051200
134.29999220	0.00000000	11.06668000	-3.53100400
134.49999219	0.00000000	11.06668000	-4.31840500
134.69999218	0.00000000	11.06668000	-4.69365100
134.89999217	0.00000000	11.06668000	-4.77977300
135.09999216	0.00000000	11.06668000	-5.11195900
135.29999214	0.00000000	11.06668000	-5.43184000
135.49999213	0.00000000	11.06668000	-4.68750000
135.69999212	0.00000000	11.06668000	-3.62327700
135.89999211	0.00000000	11.02362000	-3.15575800
136.09999210	0.00000000	10.64838000	-2.73745100
136.29999208	0.00000000	9.90403500	-1.99311000
136.49999207	0.00000000	9.52879000	-1.66707700
136.69999206	0.00000000	9.48572700	-1.99311000
136.89999205	0.00000000	9.52879000	-2.73745100
137.09999204	0.00000000	9.90403500	-3.15575800
137.29999203	0.00000000	10.64838000	-3.57406500
137.49999201	0.00000000	11.02362000	-4.31840500
137.69999200	0.00000000	11.06668000	-4.69365100
137.89999199	0.00000000	11.06668000	-4.77977300
138.09999198	0.00000000	11.06668000	-5.11195900
138.29999197	0.00000000	11.02362000	-5.47490100
138.49999195	0.00000000	10.64838000	-5.06274600
138.69999194	0.00000000	9.90403500	-4.36146600
138.89999193	0.00000000	9.52879000	-3.53100400
139.09999192	0.00000000	9.48572700	-2.78051200
139.29999191	0.00000000	9.48572700	-1.99311000
139.49999189	0.00000000	9.52879000	-1.61786400
139.69999188	0.00000000	9.90403500	-1.61786400
139.89999187	0.00000000	10.64838000	-1.99311000
140.09999186	0.00000000	11.02362000	-2.78051200
140.29999185	0.00000000	11.06668000	-3.53100400
140.49999184	0.00000000	11.06668000	-4.31840500
140.69999182	0.00000000	11.06668000	-4.69365100
140.89999181	0.00000000	11.02362000	-4.73671200
141.09999180	0.00000000	10.64838000	-4.73671200
141.29999179	0.00000000	9.90403500	-4.69365100
141.49999178	0.00000000	9.52879000	-4.31840500
141.69999176	0.00000000	9.48572700	-3.53100400
141.89999175	0.00000000	9.52879000	-2.78051200
142.09999174	0.00000000	9.90403500	-1.99311000
142.29999173	0.00000000	10.64838000	-1.61786400
142.49999172	0.00000000	11.02362000	-1.61786400
142.69999170	0.00000000	11.02362000	-2.04232300
142.89999169	0.00000000	10.69144000	-3.11269700
143.09999168	0.00000000	10.27928000	-3.90009800
143.29999167	0.00000000	10.27313000	-3.99237200
143.49999166	0.00000000	9.86097400	-4.73671200
143.69999165	0.00000000	9.52879000	-5.43184000
143.89999163	0.00000000	9.52879000	-5.11195900
144.09999162	0.00000000	9.90403500	-4.73671200
144.29999161	0.00000000	10.64838000	-4.31840500
144.49999160	0.00000000	11.02362000	-3.53100400
144.69999159	0.00000000	11.06668000	-2.78051200
144.89999157	0.00000000	11.06668000	-1.99311000
145.09999156	0.00000000	11.06668000	-1.61786400
145.29999155	0.00000000	11.06668000	-1.61786400
145.49999154	0.00000000	11.02362000	-1.99311000
145.69999153	0.00000000	10.64838000	-2.78051200
145.89999151	0.00000000	9.90403500	-3.53100400
146.09999150	0.00000000	9.52879000	-4.31840500
146.29999149	0.00000000	9.48572700	-4.69365100
146.49999148	0.00000000	9.52879000	-4.73671200
146.69999147	0.00000000	9.90403500	-4.69365100
146.89999146	0.00000000	10.64838000	-4.31840500
147.09999144	0.00000000	11.02362000	-3.57406500
147.29999143	0.00000000	11.06668000	-3.19881900
147.49999142	0.00000000	11.06668000	-3.11269700
147.69999141	0.00000000	11.02362000	-2.78051200
147.89999140	0.00000000	10.64838000	-2.41141700
148.09999138	0.00000000	9.90403500	-2.78051200
148.29999137	0.00000000	9.52879000	-3.15575800
148.49999136	0.00000000	9.48572700	-3.57406500
148.69999135	0.00000000	9.48572700	-4.31840500
148.89999134	0.00000000	9.48572700	-4.69365100
149.09999132	0.00000000	9.52879000	-4.73671200
149.29999131	0.00000000	9.90403500	-4.73671200
149.49999130	0.00000000	10.64838000	-4.69365100
149.69999129	0.00000000	11.02362000	-4.31840500
149.89999128	0.00000000	11.06668000	-3.57406500
150.09999127	0.00000000	11.06668000	-3.19881900
150.29999125	0.00000000	11.02362000	-3.15575800
150.49999124	0.00000000	10.64838000	-3.15575800
150.69999123	0.00000000	9.90403500	-3.15575800
150.89999122	0.00000000	9.52879000	-3.15575800
151.09999121	0.00000000	9.48572700	-3.15575800
151.29999119	0.00000000	9.48572700	-3.15575800
151.49999118	0.00000000	9.48572700	-3.15575800
151.69999117	0.00000000	9.52879000	-3.19881900
151.89999116	0.00000000	9.90403500	-3.57406500
152.09999115	0.00000000	10.64838000	-4.31840500
152.29999113	0.00000000	11.02362000	-4.69365100
152.49999112	0.00000000	11.06668000	-4.69365100
152.69999111	0.00000000	11.06668000	-4.31840500
152.89999110	0.00000000	11.06668000	-3.57406500
153.09999109	0.00000000	11.06668000	-3.19881900
153.29999108	0.00000000	11.02362000	-3.15575800
153.49999106	0.00000000	10.64838000	-3.15575800
153.69999105	0.00000000	9.90403500	-3.15575800
153.89999104	0.00000000	9.52879000	-3.15575800
154.09999103	0.00000000	9.48572700	-3.15575800
154.29999102	0.00000000	9.48572700	-3.15575800
154.49999100	0.00000000	9.48572700	-3.19881900
154.69999099	0.00000000	9.48572700	-3.53100400
154.89999098	0.00000000	9.52879000	-3.90009800
155.09999097	0.00000000	9.90403500	-3.57406500
155.29999096	0.00000000	10.64838000	-3.62327700
155.49999094	0.00000000	11.02362000	-4.26919300
155.69999093	0.00000000	11.06668000	-4.26919300
155.89999092	0.00000000	11.06668000	-3.62327700
156.09999091	0.00000000	11.06668000	-3.57406500
156.29999090	0.00000000	11.02362000	-3.90009800
156.49999089	0.00000000	10.64838000	-3.53100400
156.69999087	0.00000000	9.90403500	-3.19881900
156.89999086	0.00000000	9.52879000	-3.15575800
157.09999085	0.00000000	9.48572700	-3.15575800
157.29999084	0.00000000	9.48572700	-3.15575800
157.49999083	0.00000000	9.48572700	-3.15575800
157.69999081	0.00000000	9.52879000	-3.19881900
157.89999080	0.00000000	9.90403500	-3.53100400
158.09999079	0.00000000	10.64838000	-3.94315900
158.29999078	0.00000000	11.02362000	-3.94931100
158.49999077	0.00000000	11.06668000	-4.36146600
158.69999075	0.00000000	11.06668000	-4.64443900
158.89999074	0.00000000	11.02362000	-4.31840500
159.09999073	0.00000000	10.64838000	-3.57406500
159.29999072	0.00000000	9.90403500	-3.19881900
159.49999071	0.00000000	9.52879000	-3.15575800
159.69999070	0.00000000	9.48572700	-3.15575800
159.89999068	0.00000000	9.48572700	-3.15575800
160.09999067	0.00000000	9.48572700	-3.15575800
160.29999066	0.00000000	9.48572700	-3.15575800
160.49999065	0.00000000	9.48572700	-3.15575800
160.69999064	0.00000000	9.48572700	-3.19881900
160.89999062	0.00000000	9.48572700	-3.57406500
161.09999061	0.00000000	9.52879000	-4.31840500
161.29999060	0.00000000	9.90403500	-4.69365100
161.49999059	0.00000000	10.64838000	-4.73671200
161.69999058	0.00000000	11.02362000	-4.69365100
161.89999056	0.00000000	11.06668000	-4.31840500
162.09999055	0.00000000	11.06668000	-3.57406500
162.29999054	0.00000000	11.06668000	-3.19881900
162.49999053	0.00000000	11.06668000	-3.15575800
162.69999052	0.00000000	11.02362000	-3.15575800
162.89999051	0.00000000	10.64838000	-3.15575800
163.09999049	0.00000000	9.90403500	-3.15575800
163.29999048	0.00000000	9.52879000	-3.19881900
163.49999047	0.00000000	9.48572700	-3.53100400
163.69999046	0.00000000	9.48572700	-3.90009800
163.89999045	0.00000000	9.48572700	-3.57406500
164.09999043	0.00000000	9.48572700	-3.57406500
164.29999042	0.00000000	9.52879000	-3.94315900
164.49999041	0.00000000	9.90403500	-3.90625000
164.69999040	0.00000000	10.64838000	-3.98622000
164.89999039	0.00000000	11.02362000	-3.94931100
165.09999037	0.00000000	11.06668000	-4.31840500
165.29999036	0.00000000	11.06668000	-4.26919300
165.49999035	0.00000000	11.02362000	-3.57406500
165.69999034	0.00000000	10.64838000	-3.19881900
165.89999033	0.00000000	9.90403500	-3.15575800
166.09999032	0.00000000	9.52879000	-3.15575800
166.29999030	0.00000000	9.48572700	-3.15575800
166.49999029	0.00000000	9.48572700	-3.15575800
166.69999028	0.00000000	9.48572700	-3.15575800
166.89999027	0.00000000	9.48572700	-3.15575800
167.09999026	0.00000000	9.52879000	-3.19881900
167.29999024	0.00000000	9.90403500	-3.57406500
167.49999023	0.00000000	10.64838000	-4.26919300
167.69999022	0.00000000	11.06668000	-4.26919300
167.89999021	0.00000000	11.39887000	-3.57406500
168.09999020	0.00000000	11.43578000	-3.19881900
168.29999018	0.00000000	10.69759000	-3.15575800
168.49999017	0.00000000	10.73450000	-3.15575800
168.69999016	0.00000000	10.97441000	-3.15575800
168.89999015	0.00000000	10.64838000	-3.15575800
169.09999014	0.00000000	9.90403500	-3.15575800
169.29999013	0.00000000	9.52879000	-3.19881900
169.49999011	0.00000000	9.48572700	-3.57406500
169.69999010	0.00000000	9.48572700	-4.26919300
169.89999009	0.00000000	9.48572700	-4.31840500
170.09999008	0.00000000	9.48572700	-3.94931100
170.29999007	0.00000000	9.48572700	-3.94315900
170.49999005	0.00000000	9.52879000	-3.53100400
170.69999004	0.00000000	9.90403500	-3.19881900
170.89999003	0.00000000	10.64838000	-3.15575800
171.09999002	0.00000000	11.02362000	-3.19881900
171.29999001	0.00000000	11.06668000	-3.53100400
171.49998999	0.00000000	11.06668000	-3.94315900
171.69998998	0.00000000	11.06668000	-3.94931100
171.89998997	0.00000000	11.02362000	-4.31840500
172.09998996	0.00000000	10.64838000	-4.31840500
172.29998995	0.00000000	9.90403500	-3.94931100
172.49998994	0.00000000	9.52879000	-3.94315900
172.69998992	0.00000000	9.48572700	-3.53100400
172.89998991	0.00000000	9.52879000	-3.24803100
173.09998990	0.00000000	9.86097400	-3.53100400
173.29998989	0.00000000	10.23007000	-3.94315900
173.49998988	0.00000000	9.86097400	-3.90625000
173.69998986	0.00000000	9.52879000	-3.98622000
173.89998985	0.00000000	9.48572700	-3.90625000
174.09998984	0.00000000	9.52879000	-3.94315900
174.29998983	0.00000000	9.86097400	-3.53100400
174.49998982	0.00000000	10.23007000	-3.19881900
174.69998980	0.00000000	9.90403500	-3.19881900
174.89998979	0.00000000	9.90403500	-3.57406500
175.09998978	0.00000000	10.27313000	-4.26919300
175.29998977	0.00000000	10.23622000	-4.26919300
175.49998976	0.00000000	10.27313000	-3.57406500
175.69998975	0.00000000	9.86097400	-3.19881900
175.89998973	0.00000000	9.52879000	-3.15575800
176.09998972	0.00000000	9.48572700	-3.15575800
176.29998971	0.00000000	9.52879000	-3.15575800
176.49998970	0.00000000	9.86097400	-3.15575800
176.69998969	0.00000000	10.23007000	-3.15575800
176.89998967	0.00000000	9.86097400	-3.15575800
177.09998966	0.00000000	9.52879000	-3.15575800
177.29998965	0.00000000	9.48572700	-3.15575800
177.49998964	0.00000000	9.48572700	-3.19881900
177.69998963	0.00000000	9.48572700	-3.53100400
177.89998961	0.00000000	9.48572700	-3.90009800
178.09998960	0.00000000	9.48572700	-3.53100400
178.29998959	0.00000000	9.48572700	-3.19881900
178.49998958	0.00000000	9.48572700	-3.15575800
178.69998957	0.00000000	9.48572700	-3.15575800
178.89998956	0.00000000	9.48572700	-3.15575800
179.09998954	0.00000000	9.48572700	-3.15575800
179.29998953	0.00000000	9.48572700	-3.15575800
179.49998952	0.00000000	9.52879000	-3.15575800
179.69998951	0.00000000	9.86097400	-3.19881900
179.89998950	0.00000000	10.23007000	-3.57406500
180.09998948	0.00000000	9.86097400	-4.31840500
180.29998947	0.00000000	9.52879000	-4.64443900
180.49998946	0.00000000	9.48572700	-4.36146600
180.69998945	0.00000000	9.48572700	-3.99237200
180.89998944	0.00000000	9.48572700	-4.31840500
181.09998942	0.00000000	9.48572700	-4.26919300
181.29998941	0.00000000	9.48572700	-3.57406500
181.49998940	0.00000000	9.48572700	-3.19881900
181.69998939	0.00000000	9.48572700	-3.15575800
181.89998938	0.00000000	9.48572700	-3.15575800
182.09998937	0.00000000	9.48572700	-3.15575800
182.29998935	0.00000000	9.48572700	-3.15575800
182.49998934	0.00000000	9.48572700	-3.19881900
182.69998933	0.00000000	9.52879000	-3.57406500
182.89998932	0.00000000	9.86097400	-4.31840500
183.09998931	0.00000000	10.23007000	-4.69365100
183.29998929	0.00000000	9.90403500	-4.73671200
183.49998928	0.00000000	9.90403500	-4.73671200
183.69998927	0.00000000	10.23007000	-4.73671200
183.89998926	0.00000000	9.86097400	-4.69365100
184.09998925	0.00000000	9.52879000	-4.31840500
184.29998923	0.00000000	9.48572700	-3.57406500
184.49998922	0.00000000	9.48572700	-3.19881900
184.69998921	0.00000000	9.48572700	-3.15575800
184.89998920	0.00000000	9.48572700	-3.15575800
185.09998919	0.00000000	9.48572700	-3.15575800
185.29998918	0.00000000	9.52879000	-3.15575800
185.49998916	0.00000000	9.90403500	-3.19881900
185.69998915	0.00000000	10.64838000	-3.57406500
185.89998914	0.00000000	10.97441000	-4.31840500
186.09998913	0.00000000	10.64838000	-4.69365100
186.29998912	0.00000000	9.90403500	-4.73671200
186.49998910	0.00000000	9.52879000	-4.73671200
186.69998909	0.00000000	9.48572700	-4.69365100
186.89998908	0.00000000	9.48572700	-4.31840500
187.09998907	0.00000000	9.48572700	-3.57406500
187.29998906	0.00000000	9.48572700	-3.19881900
187.49998904	0.00000000	9.48572700	-3.15575800
187.69998903	0.00000000	9.48572700	-3.15575800
187.89998902	0.00000000	9.48572700	-3.15575800
188.09998901	0.00000000	9.52879000	-3.11269700
188.29998900	0.00000000	9.90403500	-2.78051200
188.49998899	0.00000000	10.59916000	-2.46063000
188.69998897	0.00000000	10.64838000	-3.19881900
188.89998896	0.00000000	10.32234000	-4.26919300
189.09998895	0.00000000	10.64838000	-4.69365100
189.29998894	0.00000000	10.59916000	-4.73671200
189.49998893	0.00000000	9.90403500	-4.73671200
189.69998891	0.00000000	9.52879000	-4.69365100
189.89998890	0.00000000	9.48572700	-4.31840500
190.09998889	0.00000000	9.48572700	-3.57406500
190.29998888	0.00000000	9.48572700	-3.19881900
190.49998887	0.00000000	9.48572700	-3.15575800
190.69998885	0.00000000	9.48572700	-3.15575800
190.89998884	0.00000000	9.48572700	-3.15575800
191.09998883	0.00000000	9.48572700	-3.15575800
191.29998882	0.00000000	9.52879000	-3.15575800
191.49998881	0.00000000	9.86097400	-3.15575800
191.69998880	0.00000000	10.23007000	-3.19881900
191.89998878	0.00000000	9.86097400	-3.57406500
192.09998877	0.00000000	9.52879000	-4.31840500
192.29998876	0.00000000	9.48572700	-4.69365100
192.49998875	0.00000000	9.48572700	-4.69365100
192.69998874	0.00000000	9.48572700	-4.36146600
192.89998872	0.00000000	9.48572700	-3.94931100
193.09998871	0.00000000	9.48572700	-3.94315900
193.29998870	0.00000000	9.48572700	-3.53100400
193.49998869	0.00000000	9.48572700	-3.19881900
193.69998868	0.00000000	9.48572700	-3.15575800
193.89998866	0.00000000	9.48572700	-3.15575800
194.09998865	0.00000000	9.52879000	-3.15575800
194.29998864	0.00000000	9.86097400	-3.15575800
194.49998863	0.00000000	10.23007000	-3.15575800
194.69998862	0.00000000	9.86097400	-3.15575800
194.89998861	0.00000000	9.52879000	-3.15575800
195.09998859	0.00000000	9.48572700	-3.19881900
195.29998858	0.00000000	9.48572700	-3.57406500
195.49998857	0.00000000	9.48572700	-4.31840500
195.69998856	0.00000000	9.48572700	-4.69365100
195.89998855	0.00000000	9.48572700	-4.73671200
196.09998853	0.00000000	9.48572700	-4.73671200
