Time	Channel A	Channel B	Channel C
(us)	(V)	(mV)	(mV)

-4.49999956	0.00000000	45.85384000	9.43036400
-4.29999957	0.00000000	45.85384000	9.09817800
-4.09999958	0.00000000	45.85384000	8.72908400
-3.89999959	0.00000000	45.85384000	9.09817800
-3.69999960	0.00000000	45.85384000	9.43036400
-3.49999962	0.00000000	45.85384000	9.47342500
-3.29999963	0.00000000	45.85384000	9.47342500
-3.09999964	0.00000000	45.85384000	9.47342500
-2.89999965	0.00000000	45.85384000	9.47342500
-2.69999966	0.00000000	45.85384000	9.47342500
-2.49999968	0.00000000	45.85384000	9.47342500
-2.29999969	0.00000000	45.81078000	9.47342500
-2.09999970	0.00000000	45.47859000	9.47342500
-1.89999971	0.00000000	45.10950000	9.47342500
-1.69999972	0.00000000	45.47859000	9.47342500
-1.49999973	0.00000000	45.81078000	9.47342500
-1.29999975	0.00000000	45.85384000	9.47342500
-1.09999976	0.00000000	45.85384000	9.47342500
-0.89999977	0.00000000	45.85384000	9.47342500
-0.69999978	0.00000000	45.85384000	9.47342500
-0.49999979	0.00000000	45.85384000	9.47342500
-0.29999981	0.31803640	45.85384000	9.47342500
-0.09999982	0.63668800	45.85384000	9.47342500
0.10000017	0.95533960	45.85384000	9.43036400
0.30000016	1.11466500	45.85384000	9.09817800
0.50000015	0.79601380	45.85384000	8.68602300
0.70000013	0.31803640	45.85384000	8.72293300
0.90000012	-0.63668800	45.85384000	8.68602300
1.10000011	-1.59264300	45.85384000	9.09817800
1.30000010	-2.38927200	45.85384000	9.43036400
1.50000009	-2.70792300	45.85384000	9.43036400
1.70000008	-2.38927200	45.85384000	9.09817800
1.90000006	-1.11466500	45.85384000	8.72908400
2.10000005	0.79601380	45.85384000	9.09817800
2.30000004	2.86724900	45.85384000	9.38115100
2.50000003	4.61921700	45.81078000	9.05511800
2.70000002	5.41584600	45.47859000	8.31077700
2.90000000	4.77854300	45.10950000	7.93553100
3.09999999	2.70792300	45.47859000	7.89247000
3.29999998	-0.47736220	45.76156000	7.89247000
3.49999997	-3.82258900	45.47859000	7.93553100
3.69999996	-6.69045300	45.10950000	8.31077700
3.89999994	-7.96444400	45.47859000	9.05511800
4.09999993	-7.32714100	45.81078000	9.43036400
4.29999992	-4.77854300	45.85384000	9.47342500
4.49999991	-0.63668800	45.85384000	9.47342500
4.69999990	3.82258900	45.85384000	9.47342500
4.89999989	7.48646600	45.81078000	9.43036400
5.09999987	9.39837600	45.47859000	9.05511800
5.29999986	8.92039900	45.06644000	8.31077700
5.49999985	6.21247500	45.10334000	7.93553100
5.69999984	1.91129400	45.06644000	7.89247000
5.89999983	-2.86724900	45.47859000	7.89247000
6.09999981	-6.84916400	45.81078000	7.93553100
6.29999980	-9.23905000	45.85384000	8.31077700
6.49999979	-9.07972400	45.85384000	9.05511800
6.69999978	-6.84916400	45.85384000	9.43036400
6.89999977	-2.86724900	45.85384000	9.47342500
7.09999975	1.43331700	45.85384000	9.47342500
7.29999974	5.09719500	45.85384000	9.43036400
7.49999973	7.32714100	45.85384000	9.05511800
7.69999972	7.64579200	45.85384000	8.31077700
7.89999971	6.05315000	45.81078000	7.93553100
8.09999970	3.18590100	45.47859000	7.89247000
8.29999968	-0.15871060	45.10950000	7.89247000
8.49999967	-3.02657500	45.47859000	7.93553100
8.69999966	-4.77854300	45.81078000	8.31077700
8.89999965	-5.09719500	45.85384000	9.05511800
9.09999964	-4.30056600	45.85384000	9.43036400
9.29999962	-2.54859700	45.85384000	9.47342500
9.49999961	-0.47736220	45.85384000	9.43036400
9.69999960	1.27399100	45.85384000	9.09817800
9.89999959	2.22994600	45.85384000	8.72908400
10.09999958	2.54859700	45.85384000	9.09817800
10.29999956	2.07062000	45.85384000	9.43036400
10.49999955	1.27399100	45.85384000	9.47342500
10.69999954	0.47736220	45.85384000	9.47342500
10.89999953	-0.31803640	45.85384000	9.47342500
11.09999952	-0.79601380	45.85384000	9.47342500
11.29999951	-0.95533960	45.81078000	9.43036400
11.49999949	-0.95533960	45.47859000	9.05511800
11.69999948	-0.63668800	45.06644000	8.31077700
11.89999947	-0.31803640	45.10334000	7.98474400
12.09999946	-0.15871060	45.06644000	8.31077700
12.29999945	-0.15871060	45.43553000	9.00590400
12.49999943	0.00000000	45.43553000	9.00590400
12.69999942	0.00000000	45.06644000	8.31077700
12.89999941	0.00000000	45.06028000	7.93553100
13.09999940	0.00000000	44.64813000	7.89247000
13.29999939	0.00000000	44.31594000	7.89247000
13.49999937	0.00000000	44.31594000	7.89247000
13.69999936	0.00000000	44.64813000	7.89247000
13.89999935	0.00000000	45.06028000	7.93553100
14.09999934	-0.15871060	45.02337000	8.26771600
14.29999933	-0.15871060	45.10334000	8.67987200
14.49999932	-0.15871060	45.02337000	8.64296200
14.69999930	0.00000000	45.06028000	8.67987200
14.89999929	0.00000000	44.64813000	8.26771600
15.09999928	0.00000000	44.31594000	7.93553100
15.29999927	0.00000000	44.27288000	7.89247000
15.49999926	0.00000000	44.27288000	7.93553100
15.69999924	0.00000000	44.27288000	8.31077700
15.89999923	0.00000000	44.27288000	9.00590400
16.09999922	0.00000000	44.27288000	9.05511800
16.29999921	0.00000000	44.31594000	8.68602300
16.49999920	0.00000000	44.69119000	8.72293300
16.69999919	-0.15871060	45.43553000	8.68602300
16.89999917	0.00000000	45.81078000	9.09817800
17.09999916	0.00000000	45.89690000	9.38115100
17.29999915	0.00000000	46.22908000	9.05511800
17.49999914	0.00000000	46.59818000	8.35998900
17.69999913	0.00000000	46.22908000	8.35998900
17.89999911	0.00000000	45.85384000	9.05511800
18.09999910	0.00000000	45.38631000	9.43036400
18.29999909	0.00000000	44.22982000	9.47342500
18.49999908	0.00000000	42.69193000	9.47342500
18.69999907	0.00000000	41.15403000	9.43036400
18.89999905	0.00000000	40.04060000	9.09817800
19.09999904	0.00000000	40.08366000	8.72908400
19.29999903	0.00000000	41.62155000	9.05511800
19.49999902	0.00000000	44.36515000	9.00590400
19.69999901	0.00000000	47.85310000	8.35998900
19.89999900	0.00000000	51.71013000	8.31077700
20.09999898	0.00000000	54.78592000	8.63681000
20.29999897	0.00000000	56.27460000	8.31077700
20.49999896	0.00000000	55.43799000	8.35998900
20.69999895	0.00000000	51.53174000	9.05511800
20.89999894	0.00000000	45.30019000	9.38115100
21.09999892	0.00000000	37.57381000	9.05511800
21.29999891	0.00000000	29.89665000	8.31077700
21.49999890	0.00000000	24.91388000	7.93553100
21.69999889	0.00000000	23.79429000	7.89247000
21.89999888	0.00000000	27.42372000	7.89247000
22.09999886	0.00000000	36.31274000	7.89247000
22.29999885	0.00000000	48.68356000	7.93553100
22.49999884	0.00000000	61.39271000	8.26771600
22.69999883	0.00000000	71.81348000	8.67987200
22.89999882	0.00000000	76.75320000	8.68602300
23.09999881	0.00000000	74.79699000	9.09817800
23.29999879	0.00000000	65.77264000	9.43036400
23.49999878	0.00000000	50.69513000	9.51648500
23.69999877	0.00000000	32.54798000	9.89173200
23.89999876	0.00000000	15.98179000	10.58686000
24.09999875	0.00000000	4.81668300	10.58686000
24.29999873	0.00000000	2.20841500	9.84867000
24.49999872	0.00000000	9.60875900	9.05511800
24.69999871	0.00000000	25.84276000	7.84940900
24.89999870	0.00000000	47.47785000	6.31151500
25.09999869	0.00000000	69.53740000	4.77977300
25.29999867	0.00000000	87.22318000	3.66633800
25.49999866	0.00000000	96.00762000	3.70939900
25.69999865	0.00000000	92.48277000	5.24729300
25.89999864	0.00000000	77.49139000	7.98474400
26.09999863	0.00000000	54.69365000	11.46653000
26.29999862	0.00000000	29.61368000	15.32357000
26.49999860	0.00000000	7.93553100	18.39321000
26.69999859	0.00000000	-5.56102300	19.93110000
26.89999858	0.00000000	-7.88016700	19.46358000
27.09999857	0.00000000	1.79010800	16.25861000
27.29999856	0.00000000	21.05684000	10.11934000
27.49999854	0.00000000	45.38631000	2.41141700
27.69999853	0.00000000	68.93454000	-4.51525500
27.89999852	0.00000000	86.38041000	-9.56569900
28.09999851	0.00000000	94.10679000	-11.38656000
28.29999850	0.00000000	90.70496000	-9.01205700
28.49999848	0.00000000	77.21456000	-2.00541300
28.69999847	0.00000000	57.52953000	8.40305000
28.89999846	0.00000000	35.85138000	20.01722000
29.09999845	0.00000000	16.91068000	30.38263000
29.29999844	0.00000000	4.90895600	36.88484000
29.49999843	0.00000000	2.12229300	37.21087000
29.69999841	0.00000000	8.63065900	31.03469000
29.89999840	0.00000000	22.08415000	19.42052000
30.09999839	0.00000000	39.15477000	4.73671200
30.29999838	0.00000000	56.18848000	-9.94094400
30.49999837	0.00000000	70.14025000	-21.51206000
30.69999835	0.00000000	77.86663000	-27.27608000
30.89999834	0.00000000	77.95890000	-25.69513000
31.09999833	0.00000000	71.06914000	-16.73228000
31.29999832	0.00000000	59.48573000	-1.72244100
31.49999831	0.00000000	45.93996000	16.06791000
31.69999829	0.00000000	33.15083000	32.28962000
31.89999828	0.00000000	23.79429000	44.26673000
32.09999827	0.00000000	19.10064000	48.78198000
32.29999826	0.00000000	19.51895000	44.26673000
32.49999825	0.00000000	25.28912000	32.28962000
32.69999824	0.00000000	34.92249000	16.06791000
32.89999822	0.00000000	45.71850000	-1.76550200
33.09999821	0.00000000	55.43799000	-17.19365000
33.29999820	0.00000000	62.00172000	-27.27608000
33.49999819	0.00000000	64.37008000	-29.97047000
33.69999818	0.00000000	62.04478000	-24.53248000
33.89999816	0.00000000	55.94857000	-12.21703000
34.09999815	0.00000000	47.81004000	4.36146600
34.29999814	0.00000000	39.70842000	20.95226000
34.49999813	0.00000000	33.15083000	34.14124000
34.69999812	0.00000000	30.07505000	41.52928000
34.89999810	0.00000000	31.15157000	41.90453000
35.09999809	0.00000000	35.34079000	35.34695000
35.29999808	0.00000000	41.15403000	22.99459000
35.49999807	0.00000000	47.29946000	8.02780400
35.69999806	0.00000000	52.31914000	-5.90551100
35.89999805	0.00000000	54.65059000	-15.56963000
36.09999803	0.00000000	54.27534000	-19.46973000
36.29999802	0.00000000	51.20571000	-16.73228000
36.49999801	0.00000000	46.22908000	-7.94783400
36.69999800	0.00000000	41.24631000	4.36146600
36.89999799	0.00000000	37.34006000	16.63386000
37.09999797	0.00000000	35.43307000	25.91658000
37.29999796	0.00000000	35.80832000	29.77977000
37.49999795	0.00000000	38.54576000	27.87278000
37.69999794	0.00000000	43.11023000	20.57702000
37.89999793	0.00000000	48.08686000	9.94094400
38.09999791	0.00000000	51.58095000	-0.04921259
38.29999790	0.00000000	53.20496000	-6.60679100
38.49999789	0.00000000	53.16190000	-8.55068800
38.69999788	0.00000000	51.20571000	-5.06889700
38.89999787	0.00000000	47.39173000	2.55290300
39.09999786	0.00000000	43.11023000	12.11860000
39.29999784	0.00000000	39.24704000	20.52780000
39.49999783	0.00000000	36.13435000	25.13533000
39.69999782	0.00000000	35.01476000	24.76009000
39.89999781	0.00000000	35.71604000	19.37131000
40.09999780	0.00000000	38.08440000	10.54380000
40.29999778	0.00000000	41.57849000	0.59670270
40.49999777	0.00000000	45.85384000	-7.43725300
40.69999776	0.00000000	50.08612000	-10.87598000
40.89999775	0.00000000	53.16190000	-9.01205700
41.09999774	0.00000000	54.36761000	-2.46678100
41.29999772	0.00000000	53.62328000	6.73597400
41.49999771	0.00000000	51.66707000	16.35089000
41.69999770	0.00000000	48.50517000	23.64665000
41.89999769	0.00000000	44.27288000	26.75935000
42.09999768	0.00000000	40.08366000	25.22145000
42.29999767	0.00000000	37.34006000	19.46358000
42.49999765	0.00000000	36.50344000	11.04823000
42.69999764	0.00000000	36.83563000	2.59596400
42.89999763	0.00000000	38.08440000	-3.58636800
43.09999762	0.00000000	40.41584000	-6.36687900
43.29999761	0.00000000	43.80536000	-5.57947800
43.49999759	0.00000000	46.50590000	-1.76550200
43.69999758	0.00000000	47.76698000	4.36146600
43.89999757	0.00000000	48.54823000	10.49459000
44.09999756	0.00000000	48.54823000	15.18824000
44.29999755	0.00000000	47.85310000	17.92569000
44.49999753	0.00000000	47.43479000	18.30093000
44.69999752	0.00000000	47.01648000	16.39395000
44.89999751	0.00000000	46.27214000	12.58612000
45.09999750	0.00000000	45.89690000	8.40305000
45.29999749	0.00000000	45.76156000	5.24729300
45.49999748	0.00000000	44.96801000	3.29109200
45.69999746	0.00000000	42.97490000	2.50369100
45.89999745	0.00000000	40.31742000	3.29109200
46.09999744	0.00000000	37.20472000	5.11195900
46.29999743	0.00000000	35.00861000	7.09891700
46.49999742	0.00000000	34.59645000	8.68602300
46.69999740	0.00000000	36.58957000	10.67298000
46.89999739	0.00000000	40.45890000	12.45079000
47.09999738	0.00000000	45.94611000	12.86294000
47.29999737	0.00000000	52.08538000	11.38041000
47.49999736	0.00000000	57.43725000	9.47342500
47.69999734	0.00000000	60.08858000	7.47416300
47.89999733	0.00000000	58.92593000	5.19808000
48.09999732	0.00000000	54.27534000	3.66633800
48.29999731	0.00000000	46.92421000	3.24803100
48.49999730	0.00000000	38.41043000	3.66633800
48.69999729	0.00000000	30.77633000	5.24729300
48.89999727	0.00000000	26.12574000	7.93553100
49.09999726	0.00000000	26.11959000	11.00517000
49.29999725	0.00000000	29.98893000	13.69956000
49.49999724	0.00000000	37.38312000	15.23130000
49.69999723	0.00000000	46.96727000	15.23130000
49.89999721	0.00000000	55.81324000	13.65650000
50.09999720	0.00000000	61.62647000	10.58686000
50.29999719	0.00000000	63.16436000	6.72982200
50.49999718	0.00000000	60.08858000	3.29109200
50.69999717	0.00000000	53.11269000	0.92888770
50.89999715	0.00000000	43.89763000	0.17839570
51.09999714	0.00000000	34.68258000	0.97194880
51.29999713	0.00000000	28.53716000	3.70939900
51.49999712	0.00000000	26.91314000	7.89247000
51.69999711	0.00000000	29.61368000	12.11860000
51.89999710	0.00000000	35.75910000	15.23130000
52.09999708	0.00000000	43.85457000	16.76919000
52.29999707	0.00000000	51.53174000	16.39395000
52.49999706	0.00000000	56.92667000	14.07480000
52.69999705	0.00000000	58.50763000	10.62992000
52.89999704	0.00000000	56.18848000	6.72982200
53.09999702	0.00000000	50.78125000	3.29109200
53.29999701	0.00000000	43.15945000	0.97194880
53.49999700	0.00000000	36.26968000	0.59670270
53.69999699	0.00000000	32.40034000	2.08538400
53.89999698	0.00000000	31.94513000	4.77977300
54.09999696	0.00000000	35.05782000	7.84940900
54.29999695	0.00000000	40.41584000	10.53765000
54.49999694	0.00000000	46.92421000	12.07554000
54.69999693	0.00000000	52.27608000	12.11860000
54.89999692	0.00000000	54.65059000	10.96211000
55.09999691	0.00000000	54.27534000	9.09817800
55.29999689	0.00000000	51.15649000	7.19734200
55.49999688	0.00000000	45.81078000	6.44685000
55.69999687	0.00000000	40.08366000	6.77903500
55.89999686	0.00000000	35.85138000	7.93553100
56.09999685	0.00000000	34.27042000	9.47342500
56.29999683	0.00000000	35.38385000	10.96211000
56.49999682	0.00000000	38.45964000	11.70029000
56.69999681	0.00000000	42.69193000	10.91289000
56.89999680	0.00000000	46.92421000	9.00590400
57.09999679	0.00000000	50.04306000	6.26845500
57.29999677	0.00000000	51.58095000	3.24803100
57.49999676	0.00000000	51.20571000	1.01501000
57.69999675	0.00000000	48.92347000	1.01501000
57.89999674	0.00000000	45.85384000	3.33415300
58.09999673	0.00000000	42.73499000	7.19734200
58.29999672	0.00000000	40.04060000	12.21087000
58.49999670	0.00000000	38.50270000	16.76919000
58.69999669	0.00000000	38.50270000	19.46358000
58.89999668	0.00000000	39.99754000	19.42052000
59.09999667	0.00000000	42.27362000	16.35089000
59.29999666	0.00000000	44.22982000	10.96211000
59.49999664	0.00000000	45.81078000	4.77977300
59.69999663	0.00000000	46.92421000	-0.97810030
59.89999662	0.00000000	46.92421000	-4.78592500
60.09999661	0.00000000	45.81078000	-5.16117100
60.29999660	0.00000000	44.31594000	-2.09153500
60.49999658	0.00000000	43.15945000	3.70939900
60.69999657	0.00000000	42.73499000	11.00517000
60.89999656	0.00000000	42.69193000	17.92569000
61.09999655	0.00000000	42.73499000	22.57628000
61.29999654	0.00000000	43.15945000	24.10802000
61.49999653	0.00000000	44.27288000	22.10876000
61.69999651	0.00000000	45.34325000	16.30167000
61.89999650	0.00000000	45.34325000	7.94168200
62.09999649	0.00000000	44.27288000	-0.14148620
62.29999648	0.00000000	43.11023000	-5.57947800
62.49999647	0.00000000	42.31668000	-7.94783400
62.69999645	0.00000000	41.52928000	-6.74212600
62.89999644	0.00000000	41.20325000	-2.09153500
63.09999643	0.00000000	41.57849000	5.20423200
63.29999642	0.00000000	42.73499000	13.28125000
63.49999641	0.00000000	44.27288000	19.83883000
63.69999639	0.00000000	45.81078000	23.68971000
63.89999638	0.00000000	46.92421000	23.68971000
64.09999637	0.00000000	46.96727000	19.88189000
64.29999636	0.00000000	46.18602000	13.79183000
64.49999635	0.00000000	45.01722000	7.19734200
64.69999634	0.00000000	43.11023000	1.75319900
64.89999632	0.00000000	41.62155000	-2.18380900
65.09999631	0.00000000	41.15403000	-4.09079700
65.29999630	0.00000000	41.15403000	-3.71555100
65.49999629	0.00000000	41.57849000	-0.97810030
65.69999628	0.00000000	42.73499000	3.62327700
65.89999626	0.00000000	44.22982000	9.00590400
66.09999625	0.00000000	45.38631000	13.61343000
66.29999624	0.00000000	45.76156000	16.39395000
66.49999623	0.00000000	45.38631000	17.23056000
66.69999622	0.00000000	44.22982000	16.89837000
66.89999620	0.00000000	42.69193000	15.69882000
67.09999619	0.00000000	41.20325000	13.74262000
67.29999618	0.00000000	40.45890000	11.00517000
67.49999617	0.00000000	41.24631000	7.89247000
67.69999616	0.00000000	43.11023000	4.77977300
67.89999615	0.00000000	45.43553000	2.04232300
68.09999613	0.00000000	47.34252000	0.09227362
68.29999612	0.00000000	48.50517000	-1.02116100
68.49999611	0.00000000	48.46210000	-0.60285430
68.69999610	0.00000000	46.92421000	1.71013800
68.89999609	0.00000000	44.18061000	5.15501900
69.09999607	0.00000000	40.73573000	9.09817800
69.29999606	0.00000000	37.29700000	12.96137000
69.49999605	0.00000000	35.38385000	16.43701000
69.69999604	0.00000000	35.34079000	18.35015000
69.89999603	0.00000000	36.96481000	18.35015000
70.09999601	0.00000000	40.45890000	16.39395000
70.29999600	0.00000000	45.43553000	12.49385000
70.49999599	0.00000000	50.04306000	7.51722400
70.69999598	0.00000000	53.20496000	2.50369100
70.89999597	0.00000000	54.69365000	-0.97810030
71.09999596	0.00000000	53.85703000	-2.55905500
71.29999594	0.00000000	50.00000000	-2.14074800
71.49999593	0.00000000	44.27288000	0.55364170
71.69999592	0.00000000	38.45964000	4.77977300
71.89999591	0.00000000	33.80290000	9.43036400
72.09999590	0.00000000	31.10236000	13.65650000
72.29999588	0.00000000	31.10236000	16.35089000
72.49999587	0.00000000	33.80290000	16.76919000
72.69999586	0.00000000	38.45964000	15.27436000
72.89999585	0.00000000	44.22982000	12.58612000
73.09999584	0.00000000	49.62475000	9.47342500
73.29999582	0.00000000	53.11269000	6.40378900
73.49999581	0.00000000	54.31840000	4.12770700
73.69999580	0.00000000	53.16190000	3.70939900
73.89999579	0.00000000	50.08612000	4.77977300
74.09999578	0.00000000	45.81078000	6.31151500
74.29999577	0.00000000	41.20325000	7.80019600
74.49999575	0.00000000	37.34006000	8.58759800
74.69999574	0.00000000	35.38385000	8.22465500
74.89999573	0.00000000	35.34079000	7.47416300
75.09999572	0.00000000	36.87869000	6.31151500
75.29999571	0.00000000	39.57308000	5.24729300
75.49999569	0.00000000	42.69193000	5.29035400
75.69999568	0.00000000	45.71850000	6.72982200
75.89999567	0.00000000	47.66855000	8.72293300
76.09999566	0.00000000	47.71776000	10.68528000
76.29999565	0.00000000	47.01648000	13.37352000
76.49999563	0.00000000	45.81078000	15.14518000
76.69999562	0.00000000	44.31594000	14.76993000
76.89999561	0.00000000	43.20251000	12.07554000
77.09999560	0.00000000	43.11023000	7.89247000
77.29999559	0.00000000	43.43627000	3.62327700
77.49999558	0.00000000	43.06717000	0.13533460
77.69999556	0.00000000	42.73499000	-2.18380900
77.89999555	0.00000000	42.64886000	-2.50984200
78.09999554	0.00000000	42.27362000	-0.55979330
78.29999553	0.00000000	41.48622000	3.70939900
78.49999552	0.00000000	40.77879000	9.42421200
78.69999550	0.00000000	40.36663000	14.81299000
78.89999549	0.00000000	40.82800000	18.30093000
79.09999548	0.00000000	41.94759000	19.50664000
79.29999547	0.00000000	43.94069000	18.30093000
79.49999546	0.00000000	46.18602000	14.85605000
79.69999544	0.00000000	48.12992000	9.84867000
79.89999543	0.00000000	48.83735000	4.82898600
80.09999542	0.00000000	48.08686000	0.55364170
80.29999541	0.00000000	45.81078000	-2.14074800
80.49999540	0.00000000	43.11023000	-2.55905500
80.69999539	0.00000000	40.77879000	-1.02116100
80.89999537	0.00000000	38.83489000	2.08538400
81.09999536	0.00000000	38.08440000	6.31151500
81.29999535	0.00000000	38.45964000	10.53765000
81.49999534	0.00000000	40.04060000	13.69956000
81.69999533	0.00000000	42.69193000	15.64960000
81.89999531	0.00000000	45.38631000	16.43701000
82.09999530	0.00000000	47.34252000	15.64960000
82.29999529	0.00000000	48.50517000	13.74262000
82.49999528	0.00000000	48.46210000	11.00517000
82.69999527	0.00000000	46.96727000	7.93553100
82.89999525	0.00000000	44.69119000	5.15501900
83.09999524	0.00000000	42.73499000	2.82972400
83.29999523	0.00000000	41.15403000	0.87967510
83.49999522	0.00000000	40.04060000	0.13533460
83.69999521	0.00000000	39.99754000	0.51058070
83.89999520	0.00000000	40.73573000	2.12844500
84.09999518	0.00000000	41.48622000	5.19808000
84.29999517	0.00000000	42.27362000	9.05511800
84.49999516	0.00000000	42.69193000	12.53691000
84.69999515	0.00000000	43.06717000	15.27436000
84.89999514	0.00000000	43.47933000	16.81225000
85.09999512	0.00000000	43.44242000	16.76919000
85.29999511	0.00000000	43.52239000	14.81299000
85.49999510	0.00000000	43.52854000	10.95595000
85.69999509	0.00000000	44.27288000	6.35457700
85.89999508	0.00000000	44.96801000	2.08538400
86.09999506	0.00000000	44.60506000	-0.97810030
86.29999505	0.00000000	43.89763000	-2.13459600
86.49999504	0.00000000	43.06717000	-0.97810030
86.69999503	0.00000000	42.27362000	2.08538400
86.89999502	0.00000000	41.11097000	6.35457700
87.09999501	0.00000000	39.99754000	11.00517000
87.29999499	0.00000000	39.62229000	15.18824000
87.49999498	0.00000000	39.99754000	17.50738000
87.69999497	0.00000000	41.15403000	17.13829000
87.89999496	0.00000000	42.69193000	14.81299000
88.09999495	0.00000000	44.22982000	10.53765000
88.29999493	0.00000000	45.38631000	5.24729300
88.49999492	0.00000000	45.81078000	0.97194880
88.69999491	0.00000000	45.76156000	-1.35334600
88.89999490	0.00000000	44.96801000	-1.71628900
89.09999489	0.00000000	43.11023000	0.59670270
89.29999487	0.00000000	41.57849000	4.77977300
89.49999486	0.00000000	40.73573000	9.47342500
89.69999485	0.00000000	39.99754000	14.07480000
89.89999484	0.00000000	40.04060000	17.46432000
90.09999483	0.00000000	41.11097000	17.83957000
90.29999482	0.00000000	42.27362000	15.23130000
90.49999480	0.00000000	43.06717000	10.95595000
90.69999479	0.00000000	43.85457000	5.93626900
90.89999478	0.00000000	44.22982000	0.97194880
91.09999477	0.00000000	44.22982000	-2.04847400
91.29999476	0.00000000	43.85457000	-2.09153500
91.49999474	0.00000000	43.11023000	0.59670270
91.69999473	0.00000000	42.73499000	5.19808000
91.89999472	0.00000000	42.73499000	10.58686000
92.09999471	0.00000000	43.06717000	15.14518000
92.29999470	0.00000000	43.47933000	17.50738000
92.49999468	0.00000000	43.44242000	17.09523000
92.69999467	0.00000000	43.43627000	14.43775000
92.89999466	0.00000000	42.64886000	9.79945900
93.09999465	0.00000000	41.52928000	4.87204700
93.29999464	0.00000000	40.73573000	0.97194880
93.49999463	0.00000000	39.99754000	-0.93503930
93.69999461	0.00000000	40.04060000	-0.55979330
93.89999460	0.00000000	41.15403000	2.12844500
94.09999459	0.00000000	42.69193000	6.31151500
94.29999458	0.00000000	44.31594000	10.53765000
94.49999457	0.00000000	46.22908000	13.65650000
94.69999455	0.00000000	48.08686000	15.18824000
94.89999454	0.00000000	48.46210000	14.76993000
95.09999453	0.00000000	47.34252000	12.07554000
95.29999452	0.00000000	45.38631000	7.93553100
95.49999451	0.00000000	42.64886000	4.08464600
95.69999449	0.00000000	39.57308000	1.75319900
95.89999448	0.00000000	36.87869000	0.97194880
96.09999447	0.00000000	35.34079000	2.12844500
96.29999446	0.00000000	35.34079000	4.77977300
96.49999445	0.00000000	36.92175000	7.84940900
96.69999444	0.00000000	39.99754000	10.58686000
96.89999442	0.00000000	43.85457000	12.49385000
97.09999441	0.00000000	47.34252000	13.23819000
97.29999440	0.00000000	50.08612000	12.11860000
97.49999439	0.00000000	51.58095000	9.89173200
97.69999438	0.00000000	51.15649000	7.93553100
97.89999436	0.00000000	48.50517000	6.36072800
98.09999435	0.00000000	44.64813000	5.19808000
98.29999434	0.00000000	40.77879000	4.82898600
98.49999433	0.00000000	37.25394000	5.15501900
98.69999432	0.00000000	34.96555000	5.93626900
98.89999430	0.00000000	34.17815000	6.68676100
99.09999429	0.00000000	35.34079000	7.51722400
99.29999428	0.00000000	38.04134000	8.26771600
99.49999427	0.00000000	41.52928000	9.05511800
99.69999426	0.00000000	45.38631000	9.43036400
99.89999425	0.00000000	48.46210000	9.47342500
100.09999423	0.00000000	50.04306000	9.47342500
100.29999422	0.00000000	50.04306000	9.51648500
100.49999421	0.00000000	48.50517000	9.84867000
100.69999420	0.00000000	45.81078000	10.16855000
100.89999419	0.00000000	42.73499000	9.38115100
101.09999417	0.00000000	39.99754000	7.89247000
101.29999416	0.00000000	38.04134000	6.31151500
101.49999415	0.00000000	36.87869000	4.77977300
101.69999414	0.00000000	36.87869000	3.62327700
101.89999413	0.00000000	37.99213000	3.29109200
102.09999411	0.00000000	39.57308000	4.03543200
102.29999410	0.00000000	41.52928000	5.98548200
102.49999409	0.00000000	43.85457000	8.31077700
102.69999408	0.00000000	45.76156000	11.00517000
102.89999407	0.00000000	46.96727000	13.28125000
103.09999406	0.00000000	47.34252000	14.03174000
103.29999404	0.00000000	46.92421000	13.28125000
103.49999403	0.00000000	45.38631000	10.96211000
103.69999402	0.00000000	43.11023000	7.89247000
103.89999401	0.00000000	41.15403000	4.82283400
104.09999400	0.00000000	39.57308000	2.50369100
104.29999398	0.00000000	38.45964000	1.71013800
104.49999397	0.00000000	38.45964000	2.08538400
104.69999396	0.00000000	39.57308000	3.66633800
104.89999395	0.00000000	41.11097000	6.36072800
105.09999394	0.00000000	42.64886000	9.42421200
105.29999392	0.00000000	43.85457000	12.07554000
105.49999391	0.00000000	44.60506000	13.23819000
105.69999390	0.00000000	45.01722000	12.49385000
105.89999389	0.00000000	44.60506000	10.62992000
106.09999388	0.00000000	43.85457000	8.26771600
106.29999387	0.00000000	42.64886000	5.98548200
106.49999385	0.00000000	41.20325000	4.03543200
106.69999384	0.00000000	40.41584000	3.29109200
106.89999383	0.00000000	40.77879000	3.66633800
107.09999382	0.00000000	41.48622000	5.19808000
107.29999381	0.00000000	42.31668000	7.47416300
107.49999379	0.00000000	43.06717000	9.38115100
107.69999378	0.00000000	43.85457000	10.58686000
107.89999377	0.00000000	44.22982000	10.95595000
108.09999376	0.00000000	44.18061000	10.53765000
108.29999375	0.00000000	43.43627000	9.00590400
108.49999374	0.00000000	41.90453000	6.77903500
108.69999372	0.00000000	40.77879000	5.24729300
108.89999371	0.00000000	39.99754000	4.77977300
109.09999370	0.00000000	39.99754000	4.77977300
109.29999369	0.00000000	40.73573000	5.24729300
109.49999368	0.00000000	41.52928000	6.77903500
109.69999366	0.00000000	42.69193000	9.00590400
109.89999365	0.00000000	43.80536000	10.53765000
110.09999364	0.00000000	44.22982000	10.95595000
110.29999363	0.00000000	44.22982000	10.58686000
110.49999362	0.00000000	43.85457000	9.42421200
110.69999360	0.00000000	43.06717000	7.89247000
110.89999359	0.00000000	42.31668000	6.36072800
111.09999358	0.00000000	41.52928000	5.19808000
111.29999357	0.00000000	41.15403000	4.77977300
111.49999356	0.00000000	41.11097000	4.73671200
111.69999355	0.00000000	41.15403000	4.77977300
111.89999353	0.00000000	41.52928000	5.19808000
112.09999352	0.00000000	42.27362000	6.36072800
112.29999351	0.00000000	42.64886000	7.84940900
112.49999350	0.00000000	42.69193000	9.00590400
112.69999349	0.00000000	42.69193000	9.43036400
112.89999347	0.00000000	42.69193000	9.43036400
113.09999346	0.00000000	42.69193000	9.05511800
113.29999345	0.00000000	42.69193000	8.31077700
113.49999344	0.00000000	42.69193000	7.89247000
113.69999343	0.00000000	42.69193000	7.47416300
113.89999341	0.00000000	42.69193000	6.72982200
114.09999340	0.00000000	42.64886000	6.35457700
114.29999339	0.00000000	42.31668000	6.31151500
114.49999338	0.00000000	41.94759000	6.31151500
114.69999337	0.00000000	42.31668000	6.31151500
114.89999336	0.00000000	42.59965000	6.31151500
115.09999334	0.00000000	42.31668000	6.31151500
115.29999333	0.00000000	41.94759000	6.31151500
115.49999332	0.00000000	42.31668000	6.35457700
115.69999331	0.00000000	42.64886000	6.72982200
115.89999330	0.00000000	42.69193000	7.51722400
116.09999328	0.00000000	42.64886000	8.26771600
116.29999327	0.00000000	42.27362000	9.05511800
116.49999326	0.00000000	41.52928000	9.43036400
116.69999325	0.00000000	41.15403000	9.43036400
116.89999324	0.00000000	41.15403000	9.05511800
117.09999322	0.00000000	41.52928000	8.26771600
117.29999321	0.00000000	42.27362000	7.47416300
117.49999320	0.00000000	42.69193000	6.31151500
117.69999319	0.00000000	43.11023000	5.19808000
117.89999318	0.00000000	43.85457000	4.77977300
118.09999317	0.00000000	44.18061000	4.77977300
118.29999315	0.00000000	43.85457000	5.19808000
118.49999314	0.00000000	43.06717000	6.31151500
118.69999313	0.00000000	42.27362000	7.47416300
118.89999312	0.00000000	41.11097000	8.26771600
119.09999311	0.00000000	39.99754000	9.05511800
119.29999309	0.00000000	39.57308000	9.43036400
119.49999308	0.00000000	39.57308000	9.43036400
119.69999307	0.00000000	39.99754000	9.05511800
119.89999306	0.00000000	41.11097000	8.26771600
120.09999305	0.00000000	42.27362000	7.51722400
120.29999303	0.00000000	43.11023000	6.77903500
120.49999302	0.00000000	44.27288000	6.72982200
120.69999301	0.00000000	45.34325000	7.05585600
120.89999300	0.00000000	45.38631000	6.68676100
121.09999299	0.00000000	44.64813000	6.35457700
121.29999298	0.00000000	43.85457000	6.31151500
121.49999296	0.00000000	42.64886000	6.31151500
121.69999295	0.00000000	41.15403000	6.35457700
121.89999294	0.00000000	39.99754000	6.72982200
122.09999293	0.00000000	39.57308000	7.47416300
122.29999292	0.00000000	39.57308000	7.84940900
122.49999290	0.00000000	39.99754000	7.93553100
122.69999289	0.00000000	41.11097000	8.31077700
122.89999288	0.00000000	42.27362000	9.00590400
123.09999287	0.00000000	43.06717000	9.00590400
123.29999286	0.00000000	43.85457000	8.31077700
123.49999284	0.00000000	44.22982000	7.93553100
123.69999283	0.00000000	44.27288000	7.84940900
123.89999282	0.00000000	44.22982000	7.47416300
124.09999281	0.00000000	43.80536000	6.72982200
124.29999280	0.00000000	42.69193000	6.35457700
124.49999279	0.00000000	41.52928000	6.31151500
124.69999277	0.00000000	40.73573000	6.35457700
124.89999276	0.00000000	39.94832000	6.72982200
125.09999275	0.00000000	39.57308000	7.47416300
125.29999274	0.00000000	39.57308000	7.89247000
125.49999273	0.00000000	39.94832000	8.31077700
125.69999271	0.00000000	40.73573000	9.00590400
125.89999270	0.00000000	41.52928000	9.00590400
126.09999269	0.00000000	42.69193000	8.31077700
126.29999268	0.00000000	43.80536000	7.93553100
126.49999267	0.00000000	44.18061000	7.89247000
126.69999265	0.00000000	43.85457000	7.84940900
126.89999264	0.00000000	43.11023000	7.47416300
127.09999263	0.00000000	42.69193000	6.72982200
127.29999262	0.00000000	42.22441000	6.35457700
127.49999261	0.00000000	41.11097000	6.31151500
127.69999260	0.00000000	39.99754000	6.31151500
127.89999258	0.00000000	39.57308000	6.35457700
128.09999257	0.00000000	39.57308000	6.72982200
128.29999256	0.00000000	39.99754000	7.47416300
128.49999255	0.00000000	41.15403000	7.84940900
128.69999254	0.00000000	42.64886000	7.89247000
128.89999252	0.00000000	43.80536000	7.89247000
129.09999251	0.00000000	44.22982000	7.89247000
129.29999250	0.00000000	44.22982000	7.84940900
129.49999249	0.00000000	43.80536000	7.47416300
129.69999248	0.00000000	42.69193000	6.72982200
129.89999246	0.00000000	41.52928000	6.35457700
130.09999245	0.00000000	40.73573000	6.35457700
130.29999244	0.00000000	39.94832000	6.68676100
130.49999243	0.00000000	39.62229000	7.09891700
130.69999242	0.00000000	39.94832000	7.10506800
130.89999241	0.00000000	40.73573000	7.51722400
131.09999239	0.00000000	41.48622000	7.84940900
131.29999238	0.00000000	42.27362000	7.89247000
131.49999237	0.00000000	42.64886000	7.84940900
131.69999236	0.00000000	42.69193000	7.47416300
131.89999235	0.00000000	42.64886000	6.72982200
132.09999233	0.00000000	42.27362000	6.35457700
132.29999232	0.00000000	41.52928000	6.31151500
132.49999231	0.00000000	41.15403000	6.31151500
132.69999230	0.00000000	41.11097000	6.35457700
132.89999229	0.00000000	41.11097000	6.72982200
133.09999227	0.00000000	41.11097000	7.47416300
133.29999226	0.00000000	41.11097000	7.89247000
133.49999225	0.00000000	41.11097000	8.31077700
133.69999224	0.00000000	41.11097000	9.00590400
133.89999223	0.00000000	41.11097000	9.00590400
134.09999222	0.00000000	41.11097000	8.26771600
134.29999220	0.00000000	41.11097000	7.51722400
134.49999219	0.00000000	41.15403000	6.72982200
134.69999218	0.00000000	41.52928000	6.26845500
134.89999217	0.00000000	42.27362000	5.51796200
135.09999216	0.00000000	42.64886000	4.45989200
135.29999214	0.00000000	42.69193000	4.82283400
135.49999213	0.00000000	42.64886000	5.89320800
135.69999212	0.00000000	42.27362000	6.68676100
135.89999211	0.00000000	41.52928000	7.47416300
136.09999210	0.00000000	41.15403000	7.89247000
136.29999208	0.00000000	41.06791000	8.31077700
136.49999207	0.00000000	40.69267000	9.00590400
136.69999206	0.00000000	39.99754000	9.00590400
136.89999205	0.00000000	39.99754000	8.26771600
137.09999204	0.00000000	40.73573000	7.51722400
137.29999203	0.00000000	41.48622000	6.72982200
137.49999201	0.00000000	42.27362000	6.35457700
137.69999200	0.00000000	42.64886000	6.31151500
137.89999199	0.00000000	42.69193000	6.31151500
138.09999198	0.00000000	42.64886000	6.31151500
138.29999197	0.00000000	42.27362000	6.31151500
138.49999195	0.00000000	41.52928000	6.31151500
138.69999194	0.00000000	41.11097000	6.35457700
138.89999193	0.00000000	40.69267000	6.72982200
139.09999192	0.00000000	39.99754000	7.47416300
139.29999191	0.00000000	39.99754000	7.89247000
139.49999189	0.00000000	40.73573000	8.26771600
139.69999188	0.00000000	41.48622000	8.63681000
139.89999187	0.00000000	42.27362000	8.26771600
140.09999186	0.00000000	42.64886000	7.93553100
140.29999185	0.00000000	42.69193000	7.80019600
140.49999184	0.00000000	42.64886000	7.09891700
140.69999182	0.00000000	42.27362000	5.99163300
140.89999181	0.00000000	41.52928000	5.98548200
141.09999180	0.00000000	41.15403000	6.26845500
141.29999179	0.00000000	41.11097000	6.35457700
141.49999178	0.00000000	41.11097000	6.72982200
141.69999176	0.00000000	41.11097000	7.47416300
141.89999175	0.00000000	41.11097000	7.89247000
142.09999174	0.00000000	41.15403000	8.31077700
142.29999173	0.00000000	41.52928000	9.00590400
142.49999172	0.00000000	42.27362000	9.00590400
142.69999170	0.00000000	42.64886000	8.31077700
142.89999169	0.00000000	42.64886000	7.89247000
143.09999168	0.00000000	42.27362000	7.47416300
143.29999167	0.00000000	41.52928000	6.68676100
143.49999166	0.00000000	41.15403000	5.93626900
143.69999165	0.00000000	41.11097000	5.19808000
143.89999163	0.00000000	41.11097000	5.19808000
144.09999162	0.00000000	41.11097000	5.93626900
144.29999161	0.00000000	41.15403000	6.68676100
144.49999160	0.00000000	41.52928000	7.51722400
144.69999159	0.00000000	42.22441000	8.26771600
144.89999157	0.00000000	42.22441000	9.00590400
145.09999156	0.00000000	41.52928000	9.00590400
145.29999155	0.00000000	41.15403000	8.31077700
145.49999154	0.00000000	41.11097000	7.89247000
145.69999153	0.00000000	41.11097000	7.47416300
145.89999151	0.00000000	41.11097000	6.72982200
146.09999150	0.00000000	41.11097000	6.31151500
146.29999149	0.00000000	41.11097000	5.93626900
146.49999148	0.00000000	41.11097000	5.57332700
146.69999147	0.00000000	41.11097000	5.93626900
146.89999146	0.00000000	41.11097000	6.26845500
147.09999144	0.00000000	41.15403000	6.35457700
147.29999143	0.00000000	41.48622000	6.72982200
147.49999142	0.00000000	41.85531000	7.47416300
147.69999141	0.00000000	41.48622000	7.84940900
147.89999140	0.00000000	41.15403000	7.89247000
148.09999138	0.00000000	41.11097000	7.89247000
148.29999137	0.00000000	41.11097000	7.84940900
148.49999136	0.00000000	41.11097000	7.47416300
148.69999135	0.00000000	41.11097000	6.72982200
148.89999134	0.00000000	41.15403000	6.35457700
149.09999132	0.00000000	41.48622000	6.31151500
149.29999131	0.00000000	41.89838000	6.31151500
149.49999130	0.00000000	41.86147000	6.31151500
149.69999129	0.00000000	41.94144000	6.35457700
149.89999128	0.00000000	41.90453000	6.72982200
150.09999127	0.00000000	42.27362000	7.47416300
150.29999125	0.00000000	42.22441000	7.84940900
150.49999124	0.00000000	41.52928000	7.89247000
150.69999123	0.00000000	41.15403000	7.89247000
150.89999122	0.00000000	41.11097000	7.89247000
151.09999121	0.00000000	41.11097000	7.89247000
151.29999119	0.00000000	41.11097000	7.84940900
151.49999118	0.00000000	41.11097000	7.47416300
151.69999117	0.00000000	41.11097000	6.72982200
151.89999116	0.00000000	41.11097000	6.35457700
152.09999115	0.00000000	41.11097000	6.31151500
152.29999113	0.00000000	41.11097000	6.31151500
152.49999112	0.00000000	41.15403000	6.31151500
152.69999111	0.00000000	41.52928000	6.35457700
152.89999110	0.00000000	42.22441000	6.68676100
153.09999109	0.00000000	42.22441000	7.09891700
153.29999108	0.00000000	41.52928000	7.10506800
153.49999106	0.00000000	41.15403000	7.51722400
153.69999105	0.00000000	41.06791000	7.84940900
153.89999104	0.00000000	40.69267000	7.89247000
154.09999103	0.00000000	39.94832000	7.89247000
154.29999102	0.00000000	39.57308000	7.84940900
154.49999100	0.00000000	39.57308000	7.47416300
154.69999099	0.00000000	39.94832000	6.72982200
154.89999098	0.00000000	40.69267000	6.35457700
155.09999097	0.00000000	41.11097000	6.31151500
155.29999096	0.00000000	41.48622000	6.31151500
155.49999094	0.00000000	41.89838000	6.31151500
155.69999093	0.00000000	41.90453000	6.31151500
155.89999092	0.00000000	42.27362000	6.31151500
156.09999091	0.00000000	42.22441000	6.35457700
156.29999090	0.00000000	41.52928000	6.72982200
156.49999089	0.00000000	41.11097000	7.47416300
156.69999087	0.00000000	40.69267000	7.84940900
156.89999086	0.00000000	39.94832000	7.89247000
157.09999085	0.00000000	39.57308000	7.89247000
157.29999084	0.00000000	39.53002000	7.89247000
157.49999083	0.00000000	39.57308000	7.84940900
157.69999081	0.00000000	39.94832000	7.47416300
157.89999080	0.00000000	40.69267000	6.72982200
158.09999079	0.00000000	41.06791000	6.35457700
158.29999078	0.00000000	41.15403000	6.31151500
158.49999077	0.00000000	41.48622000	6.31151500
158.69999075	0.00000000	41.85531000	6.31151500
158.89999074	0.00000000	41.48622000	6.35457700
159.09999073	0.00000000	41.15403000	6.72982200
159.29999072	0.00000000	41.11097000	7.47416300
159.49999071	0.00000000	41.11097000	7.84940900
159.69999070	0.00000000	41.11097000	7.89247000
159.89999068	0.00000000	41.06791000	7.89247000
160.09999067	0.00000000	40.69267000	7.89247000
160.29999066	0.00000000	39.99754000	7.84940900
160.49999065	0.00000000	39.94832000	7.47416300
160.69999064	0.00000000	40.31742000	6.72982200
160.89999062	0.00000000	40.32357000	6.35457700
161.09999061	0.00000000	40.73573000	6.31151500
161.29999060	0.00000000	41.06791000	6.31151500
161.49999059	0.00000000	41.11097000	6.31151500
161.69999058	0.00000000	41.11097000	6.31151500
161.89999056	0.00000000	41.11097000	6.31151500
162.09999055	0.00000000	41.11097000	6.35457700
162.29999054	0.00000000	41.11097000	6.72982200
162.49999053	0.00000000	41.11097000	7.47416300
162.69999052	0.00000000	41.11097000	7.84940900
162.89999051	0.00000000	41.11097000	7.89247000
163.09999049	0.00000000	41.06791000	7.89247000
163.29999048	0.00000000	40.69267000	7.84940900
163.49999047	0.00000000	39.94832000	7.47416300
163.69999046	0.00000000	39.57308000	6.72982200
163.89999045	0.00000000	39.53002000	6.35457700
164.09999043	0.00000000	39.53002000	6.35457700
164.29999042	0.00000000	39.57308000	6.68676100
164.49999041	0.00000000	39.94832000	7.05585600
164.69999040	0.00000000	40.69267000	6.68676100
164.89999039	0.00000000	41.06791000	6.35457700
165.09999037	0.00000000	41.11097000	6.31151500
165.29999036	0.00000000	41.11097000	6.31151500
165.49999035	0.00000000	41.11097000	6.31151500
165.69999034	0.00000000	41.11097000	6.31151500
165.89999033	0.00000000	41.06791000	6.35457700
166.09999032	0.00000000	40.69267000	6.68676100
166.29999030	0.00000000	39.94832000	7.09891700
166.49999029	0.00000000	39.57308000	7.06200700
166.69999028	0.00000000	39.53002000	7.09891700
166.89999027	0.00000000	39.57308000	6.68676100
167.09999026	0.00000000	39.94832000	6.35457700
167.29999024	0.00000000	40.69267000	6.31151500
167.49999023	0.00000000	41.06791000	6.31151500
167.69999022	0.00000000	41.11097000	6.31151500
167.89999021	0.00000000	41.11097000	6.31151500
168.09999020	0.00000000	41.11097000	6.31151500
168.29999018	0.00000000	41.11097000	6.35457700
168.49999017	0.00000000	41.11097000	6.68676100
168.69999016	0.00000000	41.11097000	7.05585600
168.89999015	0.00000000	41.11097000	6.68676100
169.09999014	0.00000000	41.11097000	6.35457700
169.29999013	0.00000000	41.11097000	6.31151500
169.49999011	0.00000000	41.11097000	6.31151500
169.69999010	0.00000000	41.11097000	6.31151500
169.89999009	0.00000000	41.11097000	6.31151500
170.09999008	0.00000000	41.11097000	6.31151500
170.29999007	0.00000000	41.11097000	6.31151500
170.49999005	0.00000000	41.11097000	6.31151500
170.69999004	0.00000000	41.11097000	6.31151500
170.89999003	0.00000000	41.11097000	6.35457700
171.09999002	0.00000000	41.11097000	6.68676100
171.29999001	0.00000000	41.11097000	7.05585600
171.49998999	0.00000000	41.11097000	6.68676100
171.69998998	0.00000000	41.11097000	6.35457700
171.89998997	0.00000000	41.06791000	6.31151500
172.09998996	0.00000000	40.73573000	6.31151500
172.29998995	0.00000000	40.36663000	6.31151500
172.49998994	0.00000000	40.69267000	6.31151500
172.69998992	0.00000000	40.69267000	6.31151500
172.89998991	0.00000000	40.36663000	6.31151500
173.09998990	0.00000000	40.73573000	6.31151500
173.29998989	0.00000000	41.06791000	6.31151500
173.49998988	0.00000000	41.11097000	6.31151500
173.69998986	0.00000000	41.11097000	6.31151500
173.89998985	0.00000000	41.11097000	6.31151500
174.09998984	0.00000000	41.06791000	6.31151500
174.29998983	0.00000000	40.73573000	6.31151500
174.49998982	0.00000000	40.36663000	6.31151500
174.69998980	0.00000000	40.73573000	6.31151500
174.89998979	0.00000000	41.01870000	6.31151500
175.09998978	0.00000000	40.73573000	6.31151500
175.29998977	0.00000000	40.36663000	6.31151500
175.49998976	0.00000000	40.73573000	6.35457700
175.69998975	0.00000000	41.06791000	6.72982200
175.89998973	0.00000000	41.11097000	7.47416300
176.09998972	0.00000000	41.11097000	7.84940900
176.29998971	0.00000000	41.11097000	7.89247000
176.49998970	0.00000000	41.11097000	7.84940900
176.69998969	0.00000000	41.11097000	7.51722400
176.89998967	0.00000000	41.11097000	7.10506800
177.09998966	0.00000000	41.06791000	7.09891700
177.29998965	0.00000000	40.69267000	6.68676100
177.49998964	0.00000000	39.94832000	6.35457700
177.69998963	0.00000000	39.57308000	6.31151500
177.89998961	0.00000000	39.57308000	6.31151500
178.09998960	0.00000000	39.90526000	6.31151500
178.29998959	0.00000000	40.27436000	6.31151500
178.49998958	0.00000000	39.94832000	6.31151500
178.69998957	0.00000000	39.99754000	6.31151500
178.89998956	0.00000000	40.64345000	6.35457700
179.09998954	0.00000000	40.69267000	6.72982200
179.29998953	0.00000000	40.36663000	7.42495000
179.49998952	0.00000000	40.73573000	7.42495000
179.69998951	0.00000000	41.06791000	6.72982200
179.89998950	0.00000000	41.11097000	6.35457700
180.09998948	0.00000000	41.11097000	6.31151500
180.29998947	0.00000000	41.11097000	6.31151500
180.49998946	0.00000000	41.06791000	6.31151500
180.69998945	0.00000000	40.69267000	6.31151500
180.89998944	0.00000000	39.99754000	6.31151500
181.09998942	0.00000000	39.94832000	6.31151500
181.29998941	0.00000000	40.27436000	6.31151500
181.49998940	0.00000000	39.94832000	6.35457700
181.69998939	0.00000000	39.94832000	6.72982200
181.89998938	0.00000000	40.31742000	7.47416300
182.09998937	0.00000000	40.32357000	7.80019600
182.29998935	0.00000000	40.73573000	7.47416300
182.49998934	0.00000000	41.06791000	6.72982200
182.69998933	0.00000000	41.11097000	6.35457700
182.89998932	0.00000000	41.11097000	6.31151500
183.09998931	0.00000000	41.11097000	6.31151500
183.29998929	0.00000000	41.11097000	6.31151500
183.49998928	0.00000000	41.06791000	6.31151500
183.69998927	0.00000000	40.69267000	6.31151500
183.89998926	0.00000000	39.94832000	6.31151500
184.09998925	0.00000000	39.57308000	6.35457700
184.29998923	0.00000000	39.53002000	6.72982200
184.49998922	0.00000000	39.53002000	7.47416300
184.69998921	0.00000000	39.57308000	7.80019600
184.89998920	0.00000000	39.90526000	7.51722400
185.09998919	0.00000000	40.31742000	7.10506800
185.29998918	0.00000000	40.32357000	7.09891700
185.49998916	0.00000000	40.73573000	6.68676100
185.69998915	0.00000000	41.06791000	6.35457700
185.89998914	0.00000000	41.11097000	6.31151500
186.09998913	0.00000000	41.11097000	6.31151500
186.29998912	0.00000000	41.11097000	6.31151500
186.49998910	0.00000000	41.06791000	6.31151500
186.69998909	0.00000000	40.69267000	6.31151500
186.89998908	0.00000000	39.94832000	6.31151500
187.09998907	0.00000000	39.62229000	6.35457700
187.29998906	0.00000000	39.90526000	6.72982200
187.49998904	0.00000000	40.27436000	7.47416300
187.69998903	0.00000000	39.90526000	7.84940900
187.89998902	0.00000000	39.57308000	7.89247000
188.09998901	0.00000000	39.57308000	7.84940900
188.29998900	0.00000000	39.94832000	7.47416300
188.49998899	0.00000000	40.69267000	6.72982200
188.69998897	0.00000000	41.06791000	6.35457700
188.89998896	0.00000000	41.11097000	6.31151500
189.09998895	0.00000000	41.11097000	6.31151500
189.29998894	0.00000000	41.06791000	6.31151500
189.49998893	0.00000000	40.69267000	6.31151500
189.69998891	0.00000000	39.94832000	6.31151500
189.89998890	0.00000000	39.57308000	6.31151500
190.09998889	0.00000000	39.53002000	6.31151500
190.29998888	0.00000000	39.53002000	6.31151500
190.49998887	0.00000000	39.53002000	6.31151500
190.69998885	0.00000000	39.53002000	6.35457700
190.89998884	0.00000000	39.53002000	6.68676100
191.09998883	0.00000000	39.53002000	7.05585600
191.29998882	0.00000000	39.53002000	6.68676100
191.49998881	0.00000000	39.57308000	6.35457700
191.69998880	0.00000000	39.90526000	6.31151500
191.89998878	0.00000000	40.31742000	6.31151500
192.09998877	0.00000000	40.28051000	6.31151500
192.29998876	0.00000000	40.36048000	6.31151500
192.49998875	0.00000000	40.28051000	6.31151500
192.69998874	0.00000000	40.31742000	6.31151500
192.89998872	0.00000000	39.90526000	6.31151500
193.09998871	0.00000000	39.57308000	6.31151500
193.29998870	0.00000000	39.53002000	6.31151500
193.49998869	0.00000000	39.53002000	6.35457700
193.69998868	0.00000000	39.53002000	6.72982200
193.89998866	0.00000000	39.53002000	7.47416300
194.09998865	0.00000000	39.53002000	7.80019600
194.29998864	0.00000000	39.53002000	7.51722400
194.49998863	0.00000000	39.57308000	7.10506800
194.69998862	0.00000000	39.94832000	7.09891700
194.89998861	0.00000000	40.64345000	6.68676100
195.09998859	0.00000000	40.64345000	6.35457700
195.29998858	0.00000000	39.94832000	6.31151500
195.49998857	0.00000000	39.57308000	6.31151500
195.69998856	0.00000000	39.53002000	6.31151500
195.89998855	0.00000000	39.53002000	6.31151500
196.09998853	0.00000000	39.53002000	6.31151500
