Time	Channel A	Channel B	Channel C
(us)	(V)	(mV)	(mV)

-4.49999956	0.00000000	39.94832000	6.31151500
-4.29999957	0.00000000	39.57308000	6.31151500
-4.09999958	0.00000000	39.53002000	6.31151500
-3.89999959	0.00000000	39.53002000	6.31151500
-3.69999960	0.00000000	39.53002000	6.31151500
-3.49999962	0.00000000	39.53002000	6.31151500
-3.29999963	0.00000000	39.53002000	6.31151500
-3.09999964	0.00000000	39.53002000	6.31151500
-2.89999965	0.00000000	39.53002000	6.31151500
-2.69999966	0.00000000	39.53002000	6.31151500
-2.49999968	0.00000000	39.57308000	6.31151500
-2.29999969	0.00000000	39.90526000	6.31151500
-2.09999970	0.00000000	40.27436000	6.31151500
-1.89999971	0.00000000	39.94832000	6.31151500
-1.69999972	0.00000000	39.94832000	6.31151500
-1.49999973	0.00000000	40.27436000	6.31151500
-1.29999975	0.00000000	39.94832000	6.31151500
-1.09999976	0.00000000	39.94832000	6.31151500
-0.89999977	0.00000000	40.27436000	6.31151500
-0.69999978	0.00000000	39.90526000	6.31151500
-0.49999979	0.00000000	39.57308000	6.31151500
-0.29999981	0.31803640	39.53002000	6.31151500
-0.09999982	0.63668800	39.53002000	6.31151500
0.10000017	0.95533960	39.53002000	6.31151500
0.30000016	0.95533960	39.53002000	6.31151500
0.50000015	0.79601380	39.53002000	6.31151500
0.70000013	0.31803640	39.53002000	6.31151500
0.90000012	-0.47736220	39.53002000	6.31151500
1.10000011	-1.59264300	39.53002000	6.31151500
1.30000010	-2.38927200	39.53002000	6.31151500
1.50000009	-2.70792300	39.57308000	6.31151500
1.70000008	-2.38927200	39.90526000	6.31151500
1.90000006	-1.27399100	40.27436000	6.31151500
2.10000005	0.63668800	39.90526000	6.31151500
2.30000004	2.70792300	39.57308000	6.31151500
2.50000003	4.45989200	39.53002000	6.31151500
2.70000002	5.41584600	39.53002000	6.31151500
2.90000000	4.77854300	39.53002000	6.31151500
3.09999999	2.86724900	39.53002000	6.26845500
3.29999998	-0.15871060	39.53002000	5.93626900
3.49999997	-3.50393700	39.53002000	5.57332700
3.69999996	-6.37180100	39.53002000	5.93626900
3.89999994	-7.96444400	39.57308000	6.31151500
4.09999993	-7.32714100	39.90526000	6.72982200
4.29999992	-4.93786900	40.27436000	7.47416300
4.49999991	-0.95533960	39.90526000	7.80019600
4.69999990	3.34522600	39.62229000	7.47416300
4.89999989	7.16781500	39.90526000	6.72982200
5.09999987	9.23905000	40.27436000	6.35457700
5.29999986	9.07972400	39.90526000	6.26845500
5.49999985	6.53112700	39.57308000	5.89320800
5.69999984	2.38927200	39.53002000	5.19808000
5.89999983	-2.54859700	39.53002000	5.19808000
6.09999981	-6.69045300	39.53002000	5.89320800
6.29999980	-9.07972400	39.53002000	6.31151500
6.49999979	-9.23905000	39.53002000	6.72982200
6.69999978	-7.16781500	39.53002000	7.42495000
6.89999977	-3.18590100	39.53002000	7.47416300
7.09999975	1.11466500	39.53002000	7.10506800
7.29999974	4.93786900	39.53002000	7.09891700
7.49999973	7.32714100	39.53002000	6.72982200
7.69999972	7.64579200	39.53002000	6.72982200
7.89999971	6.21247500	39.53002000	7.05585600
8.09999970	3.34522600	39.53002000	6.68676100
8.29999968	0.00000000	39.53002000	6.35457700
8.49999967	-2.86724900	39.53002000	6.31151500
8.69999966	-4.77854300	39.53002000	6.31151500
8.89999965	-5.09719500	39.53002000	6.31151500
9.09999964	-4.30056600	39.53002000	6.31151500
9.29999962	-2.70792300	39.53002000	6.31151500
9.49999961	-0.63668800	39.53002000	6.31151500
9.69999960	1.11466500	39.53002000	6.31151500
9.89999959	2.22994600	39.53002000	6.31151500
10.09999958	2.54859700	39.53002000	6.31151500
10.29999956	2.22994600	39.53002000	6.31151500
10.49999955	1.43331700	39.53002000	6.31151500
10.69999954	0.47736220	39.53002000	6.31151500
10.89999953	-0.15871060	39.53002000	6.31151500
11.09999952	-0.79601380	39.53002000	6.31151500
11.29999951	-0.95533960	39.53002000	6.31151500
11.49999949	-0.95533960	39.53002000	6.31151500
11.69999948	-0.63668800	39.53002000	6.31151500
11.89999947	-0.47736220	39.53002000	6.31151500
12.09999946	-0.15871060	39.53002000	6.31151500
12.29999945	-0.15871060	39.53002000	6.31151500
12.49999943	0.00000000	39.53002000	6.31151500
12.69999942	0.00000000	39.53002000	6.31151500
12.89999941	0.00000000	39.53002000	6.31151500
13.09999940	0.00000000	39.53002000	6.31151500
13.29999939	0.00000000	39.53002000	6.31151500
13.49999937	0.00000000	39.53002000	6.31151500
13.69999936	0.00000000	39.53002000	6.31151500
13.89999935	0.00000000	39.53002000	6.31151500
14.09999934	0.00000000	39.53002000	6.31151500
14.29999933	-0.15871060	39.53002000	6.31151500
14.49999932	-0.15871060	39.53002000	6.31151500
14.69999930	0.00000000	39.53002000	6.31151500
14.89999929	0.00000000	39.53002000	6.31151500
15.09999928	0.00000000	39.53002000	6.31151500
15.29999927	0.00000000	39.53002000	6.31151500
15.49999926	0.00000000	39.53002000	6.31151500
15.69999924	0.00000000	39.53002000	6.31151500
15.89999923	0.00000000	39.53002000	6.31151500
16.09999922	0.00000000	39.53002000	6.31151500
16.29999921	0.00000000	39.53002000	6.31151500
16.49999920	-0.15871060	39.53002000	6.31151500
16.69999919	0.00000000	39.57308000	6.31151500
16.89999917	0.00000000	39.94832000	6.31151500
17.09999916	0.00000000	40.69267000	6.31151500
17.29999915	0.00000000	41.06791000	6.31151500
17.49999914	0.00000000	41.11097000	6.31151500
17.69999913	0.00000000	41.06791000	6.31151500
17.89999911	0.00000000	40.69267000	6.31151500
18.09999910	0.00000000	39.86220000	6.31151500
18.29999909	0.00000000	38.69341000	6.31151500
18.49999908	0.00000000	36.74335000	6.31151500
18.69999907	0.00000000	34.87328000	6.31151500
18.89999905	0.00000000	33.71063000	6.31151500
19.09999904	0.00000000	33.75369000	6.31151500
19.29999903	0.00000000	35.29773000	6.31151500
19.49999902	0.00000000	38.04134000	6.31151500
19.69999901	0.00000000	41.57849000	6.31151500
19.89999900	0.00000000	45.81078000	6.31151500
20.09999898	0.00000000	49.57554000	6.31151500
20.29999897	0.00000000	51.11343000	6.31151500
20.49999896	0.00000000	49.95078000	6.31151500
20.69999895	0.00000000	46.41363000	6.31151500
20.89999894	0.00000000	40.50812000	6.31151500
21.09999892	0.00000000	32.82480000	6.31151500
21.29999891	0.00000000	25.15379000	6.31151500
21.49999890	0.00000000	20.17101000	6.31151500
21.69999889	0.00000000	19.05143000	6.35457700
21.89999888	0.00000000	22.58858000	6.64370100
22.09999886	0.00000000	30.77633000	6.68061000
22.29999885	0.00000000	42.03986000	5.94857300
22.49999884	0.00000000	54.78592000	5.98548200
22.69999883	0.00000000	65.86491000	6.26845500
22.89999882	0.00000000	71.59202000	6.31151500
23.09999881	0.00000000	70.00491000	6.31151500
23.29999879	0.00000000	61.07283000	6.35457700
23.49999878	0.00000000	46.32135000	6.72982200
23.69999877	0.00000000	28.54946000	7.47416300
23.89999876	0.00000000	11.57111000	7.84940900
24.09999875	0.00000000	-0.30142710	7.84940900
24.29999873	0.00000000	-3.69094500	7.42495000
24.49999872	0.00000000	3.28494100	6.26845500
24.69999871	0.00000000	19.14370000	4.73671200
24.89999870	0.00000000	40.41584000	3.15575800
25.09999869	0.00000000	62.78912000	1.62401600
25.29999867	0.00000000	80.51796000	0.51058070
25.49999866	0.00000000	89.36392000	0.55364170
25.69999865	0.00000000	86.98941000	2.08538400
25.89999864	0.00000000	73.08070000	4.82283400
26.09999863	0.00000000	51.11343000	8.31077700
26.29999862	0.00000000	26.35950000	12.21087000
26.49999860	0.00000000	4.35531500	15.64960000
26.69999859	0.00000000	-9.92864100	17.88263000
26.89999858	0.00000000	-13.04134000	17.42126000
27.09999857	0.00000000	-4.53371000	13.56422000
27.29999856	0.00000000	13.61343000	7.38188900
27.49999854	0.00000000	37.57381000	0.04306102
27.69999853	0.00000000	61.49114000	-6.92052100
27.89999852	0.00000000	80.05659000	-11.89715000
28.09999851	0.00000000	88.93946000	-13.79798000
28.29999850	0.00000000	86.33734000	-11.38656000
28.49999848	0.00000000	73.63435000	-4.78592500
28.69999847	0.00000000	54.31840000	5.29035400
28.89999846	0.00000000	32.64025000	16.85531000
29.09999845	0.00000000	13.33046000	27.26378000
29.29999844	0.00000000	0.54133860	34.14124000
29.49999843	0.00000000	-2.99581700	35.26082000
29.69999841	0.00000000	2.68208600	29.82899000
29.89999840	0.00000000	15.42815000	18.95300000
30.09999839	0.00000000	32.08661000	4.27534400
30.29999838	0.00000000	49.48326000	-11.10359000
30.49999837	0.00000000	63.81643000	-23.09301000
30.69999835	0.00000000	72.01033000	-29.26919000
30.89999834	0.00000000	73.21604000	-28.43258000
31.09999833	0.00000000	67.39665000	-19.88804000
31.29999832	0.00000000	55.85630000	-5.25344500
31.49999831	0.00000000	41.62155000	12.16781000
31.69999829	0.00000000	28.40797000	28.75861000
31.89999828	0.00000000	18.68233000	41.11097000
32.09999827	0.00000000	13.61343000	46.08759000
32.29999826	0.00000000	14.35777000	42.64886000
32.49999825	0.00000000	20.07874000	31.45300000
32.69999824	0.00000000	29.01082000	15.23130000
32.89999822	0.00000000	39.48080000	-2.55905500
33.09999821	0.00000000	49.48942000	-18.39936000
33.29999820	0.00000000	56.41609000	-28.85088000
33.49999819	0.00000000	58.46457000	-31.96973000
33.69999818	0.00000000	56.23154000	-27.31914000
33.89999816	0.00000000	51.15649000	-15.74803000
34.09999815	0.00000000	43.76230000	0.04306102
34.29999814	0.00000000	35.34079000	16.35089000
34.49999813	0.00000000	28.40797000	30.24729000
34.69999812	0.00000000	24.91388000	39.11171000
34.89999810	0.00000000	25.24606000	40.23745000
35.09999809	0.00000000	29.06004000	33.76599000
35.29999808	0.00000000	34.83022000	21.41363000
35.49999807	0.00000000	41.01870000	6.40378900
35.69999806	0.00000000	46.37057000	-7.90477300
35.89999805	0.00000000	49.06496000	-18.31324000
36.09999803	0.00000000	48.36983000	-22.58243000
36.29999802	0.00000000	45.30019000	-19.93110000
36.49999801	0.00000000	40.69267000	-11.42962000
36.69999800	0.00000000	35.71604000	0.83661410
36.89999799	0.00000000	32.22195000	13.88410000
37.09999797	0.00000000	30.63484000	23.51132000
37.29999796	0.00000000	31.05930000	27.82972000
37.49999795	0.00000000	33.75369000	26.29798000
37.69999794	0.00000000	37.99213000	19.37131000
37.89999793	0.00000000	42.59965000	9.09817800
38.09999791	0.00000000	46.46284000	-1.25492100
38.29999790	0.00000000	48.36983000	-8.18774500
38.49999789	0.00000000	48.04380000	-10.50689000
38.69999788	0.00000000	45.71850000	-7.43725300
38.89999787	0.00000000	42.22441000	0.17839570
39.09999786	0.00000000	37.94907000	9.38115100
39.29999784	0.00000000	33.71063000	17.79650000
39.49999783	0.00000000	30.63484000	22.76083000
39.69999782	0.00000000	29.42913000	22.39788000
39.89999781	0.00000000	30.17347000	17.42126000
40.09999780	0.00000000	32.12967000	8.91978400
40.29999778	0.00000000	35.29773000	-0.97810030
40.49999777	0.00000000	39.53002000	-9.01205700
40.69999776	0.00000000	43.76230000	-12.50000000
40.89999775	0.00000000	46.88115000	-10.96826000
41.09999774	0.00000000	48.46210000	-4.82898600
41.29999772	0.00000000	48.41904000	4.36146600
41.49999771	0.00000000	46.50590000	13.61343000
41.69999770	0.00000000	43.02411000	20.95226000
41.89999769	0.00000000	39.15477000	24.76009000
42.09999768	0.00000000	35.24852000	23.60359000
42.29999767	0.00000000	32.17273000	17.88263000
42.49999765	0.00000000	30.59178000	9.47342500
42.69999764	0.00000000	30.59178000	1.02116100
42.89999763	0.00000000	32.12967000	-5.20423200
43.09999762	0.00000000	34.83022000	-8.31692900
43.29999761	0.00000000	37.90600000	-7.94783400
43.49999759	0.00000000	40.60039000	-4.14000900
43.69999758	0.00000000	42.22441000	1.62401600
43.89999757	0.00000000	43.02411000	7.75713500
44.09999756	0.00000000	43.38705000	12.81373000
44.29999755	0.00000000	42.64886000	15.51427000
44.49999753	0.00000000	41.57849000	15.97564000
44.69999752	0.00000000	41.15403000	14.03174000
44.89999751	0.00000000	41.11097000	10.62992000
45.09999750	0.00000000	41.06791000	6.77903500
45.29999749	0.00000000	40.64345000	3.66633800
45.49999748	0.00000000	39.43774000	1.66707700
45.69999746	0.00000000	37.48154000	0.51058070
45.89999745	0.00000000	34.78716000	0.55364170
46.09999744	0.00000000	32.08661000	2.08538400
46.29999743	0.00000000	30.17347000	4.73671200
46.49999742	0.00000000	29.42913000	7.43110200
46.69999740	0.00000000	30.68405000	9.38115100
46.89999739	0.00000000	34.17815000	10.53765000
47.09999738	0.00000000	39.61614000	10.53765000
47.29999737	0.00000000	45.76156000	9.42421200
47.49999736	0.00000000	51.15649000	7.84940900
47.69999734	0.00000000	54.18307000	5.89320800
47.89999733	0.00000000	53.76476000	3.57406500
48.09999732	0.00000000	49.48942000	1.66707700
48.29999731	0.00000000	42.18134000	0.55364170
48.49999730	0.00000000	33.66756000	0.92888770
48.69999729	0.00000000	25.98425000	2.87278500
48.89999727	0.00000000	20.96457000	5.53026500
49.09999726	0.00000000	20.21407000	8.63681000
49.29999725	0.00000000	23.70817000	10.91289000
49.49999724	0.00000000	31.05930000	12.11860000
49.69999723	0.00000000	40.69267000	12.07554000
49.89999721	0.00000000	49.90772000	10.53765000
50.09999720	0.00000000	56.46530000	7.80019600
50.29999719	0.00000000	58.37229000	4.36146600
50.49999718	0.00000000	55.34571000	0.88582670
50.69999717	0.00000000	48.36983000	-1.39640700
50.89999715	0.00000000	39.15477000	-2.18380900
51.09999714	0.00000000	29.93971000	-1.02116100
51.29999713	0.00000000	23.75123000	1.66707700
51.49999712	0.00000000	21.79503000	5.19808000
51.69999711	0.00000000	24.08341000	9.43036400
51.89999710	0.00000000	30.26575000	13.18898000
52.09999708	0.00000000	38.32431000	14.76993000
52.29999707	0.00000000	46.41363000	14.07480000
52.49999706	0.00000000	52.14074000	12.11860000
52.69999705	0.00000000	53.72170000	9.00590400
52.89999704	0.00000000	51.07037000	5.15501900
53.09999702	0.00000000	45.30019000	1.71013800
53.29999701	0.00000000	37.99213000	-0.60285430
53.49999700	0.00000000	31.10236000	-0.97810030
53.69999699	0.00000000	26.87008000	0.51058070
53.89999698	0.00000000	26.40256000	3.19881900
54.09999696	0.00000000	29.10310000	6.26845500
54.29999695	0.00000000	34.12894000	8.91978400
54.49999694	0.00000000	40.64345000	10.11934000
54.69999693	0.00000000	46.37057000	9.75639700
54.89999692	0.00000000	49.48942000	8.63681000
55.09999691	0.00000000	49.48942000	6.72982200
55.29999689	0.00000000	46.41363000	5.24729300
55.49999688	0.00000000	41.06791000	4.77977300
55.69999687	0.00000000	35.34079000	4.82898600
55.89999686	0.00000000	31.05930000	5.61638700
56.09999685	0.00000000	29.10310000	7.47416300
56.29999683	0.00000000	29.47835000	8.96284400
56.49999682	0.00000000	32.22195000	9.33809000
56.69999681	0.00000000	36.78642000	8.54453700
56.89999680	0.00000000	41.76304000	6.22539300
57.09999679	0.00000000	45.20792000	3.19881900
57.29999677	0.00000000	46.46284000	0.51058070
57.49999676	0.00000000	45.71850000	-1.02116100
57.69999675	0.00000000	43.76230000	-1.02116100
57.89999674	0.00000000	40.64345000	0.59670270
58.09999673	0.00000000	36.87869000	4.08464600
58.29999672	0.00000000	34.17815000	9.05511800
58.49999670	0.00000000	33.33538000	13.61343000
58.69999669	0.00000000	33.66756000	16.35089000
58.89999668	0.00000000	34.87328000	16.67692000
59.09999667	0.00000000	36.78642000	14.35162000
59.29999666	0.00000000	39.11171000	9.33809000
59.49999664	0.00000000	40.97564000	3.20497000
59.69999663	0.00000000	41.80610000	-2.60211600
59.89999662	0.00000000	41.44316000	-6.78518600
60.09999661	0.00000000	40.69267000	-7.89862200
60.29999660	0.00000000	39.53002000	-5.20423200
60.49999658	0.00000000	38.36737000	0.55364170
60.69999657	0.00000000	37.61687000	7.84940900
60.89999656	0.00000000	37.20472000	14.76993000
61.09999655	0.00000000	37.61687000	19.42052000
61.29999654	0.00000000	38.32431000	20.99532000
61.49999653	0.00000000	39.11171000	19.37131000
61.69999651	0.00000000	39.48696000	14.35162000
61.89999650	0.00000000	39.48696000	6.68676100
62.09999649	0.00000000	39.06250000	-1.02116100
62.29999648	0.00000000	37.90600000	-7.20349400
62.49999647	0.00000000	36.46038000	-10.59301000
62.69999645	0.00000000	35.67298000	-9.47957600
62.89999644	0.00000000	35.99286000	-4.55831700
63.09999643	0.00000000	36.41117000	2.04232300
63.29999642	0.00000000	37.25394000	9.42421200
63.49999641	0.00000000	39.15477000	16.30167000
63.69999639	0.00000000	40.97564000	20.53395000
63.89999638	0.00000000	41.80610000	20.95226000
64.09999637	0.00000000	41.44316000	17.92569000
64.29999636	0.00000000	40.69267000	12.53691000
64.49999635	0.00000000	39.48696000	6.31151500
64.69999634	0.00000000	37.94907000	0.13533460
64.89999632	0.00000000	36.41117000	-4.87819900
65.09999631	0.00000000	35.29773000	-7.16043300
65.29999630	0.00000000	35.29773000	-6.45300100
65.49999629	0.00000000	36.41117000	-3.02042300
65.69999628	0.00000000	37.90600000	1.57480300
65.89999626	0.00000000	39.11171000	6.26845500
66.09999625	0.00000000	39.86220000	10.49459000
66.29999624	0.00000000	40.27436000	13.28125000
66.49999623	0.00000000	39.81299000	14.49311000
66.69999622	0.00000000	38.69341000	14.90526000
66.89999620	0.00000000	36.78642000	14.03174000
67.09999619	0.00000000	35.34079000	11.74951000
67.29999618	0.00000000	35.29773000	8.31077700
67.49999617	0.00000000	36.41117000	5.19808000
67.69999616	0.00000000	37.99213000	2.78051200
67.89999615	0.00000000	39.94832000	0.41830710
68.09999613	0.00000000	42.22441000	-1.48868100
68.29999612	0.00000000	43.71924000	-2.64517700
68.49999611	0.00000000	43.71924000	-2.60211600
68.69999610	0.00000000	42.18134000	-1.02116100
68.89999609	0.00000000	39.43774000	2.08538400
69.09999607	0.00000000	35.94980000	6.31151500
69.29999606	0.00000000	32.12967000	10.58686000
69.49999605	0.00000000	29.47835000	14.07480000
69.69999604	0.00000000	29.10310000	16.39395000
69.89999603	0.00000000	31.01624000	16.71998000
70.09999601	0.00000000	34.92249000	14.81299000
70.29999600	0.00000000	39.90526000	10.91289000
70.49999599	0.00000000	44.92495000	5.93626900
70.69999598	0.00000000	48.36983000	0.87967510
70.89999597	0.00000000	49.57554000	-2.97736200
71.09999596	0.00000000	48.36983000	-5.29650500
71.29999594	0.00000000	44.88189000	-5.24729300
71.49999593	0.00000000	39.48080000	-2.55905500
71.69999592	0.00000000	33.71063000	1.99311000
71.89999591	0.00000000	29.05389000	7.00664300
72.09999590	0.00000000	26.31643000	10.91289000
72.29999588	0.00000000	25.94119000	13.65650000
72.49999587	0.00000000	27.89739000	14.76993000
72.69999586	0.00000000	32.17273000	13.60728000
72.89999585	0.00000000	37.94907000	10.58686000
73.09999584	0.00000000	43.71924000	6.77903500
73.29999582	0.00000000	47.95152000	3.70939900
73.49999581	0.00000000	49.53248000	2.08538400
73.69999580	0.00000000	48.41904000	1.66707700
73.89999579	0.00000000	45.34325000	2.08538400
74.09999578	0.00000000	41.06791000	3.57406500
74.29999577	0.00000000	36.45423000	5.43184000
74.49999575	0.00000000	32.54798000	6.17618100
74.69999574	0.00000000	30.21653000	5.89320800
74.89999573	0.00000000	29.47835000	5.11195900
75.09999572	0.00000000	31.01624000	4.36146600
75.29999571	0.00000000	34.41191000	3.62327700
75.49999569	0.00000000	37.85679000	3.66633800
75.69999568	0.00000000	40.60039000	4.82283400
75.89999567	0.00000000	42.18134000	6.77903500
76.09999566	0.00000000	42.59965000	9.47342500
76.29999565	0.00000000	42.22441000	12.07554000
76.49999563	0.00000000	41.06791000	13.23819000
76.69999562	0.00000000	39.57308000	12.45079000
76.89999561	0.00000000	38.41658000	10.11934000
77.09999560	0.00000000	37.99213000	6.21924200
77.29999559	0.00000000	37.94907000	1.62401600
77.49999558	0.00000000	37.94907000	-2.55905500
77.69999556	0.00000000	37.90600000	-4.87819900
77.89999555	0.00000000	37.53075000	-4.50910400
78.09999554	0.00000000	36.74335000	-2.22687000
78.29999553	0.00000000	35.99286000	1.71013800
78.49999552	0.00000000	35.20546000	6.72982200
78.69999550	0.00000000	34.87943000	12.11860000
78.89999549	0.00000000	35.25467000	16.30167000
79.09999548	0.00000000	36.46038000	17.88263000
79.29999547	0.00000000	38.36737000	16.72613000
79.49999546	0.00000000	40.69267000	13.28125000
79.69999544	0.00000000	42.55659000	8.26771600
79.89999543	0.00000000	43.34399000	3.24803100
80.09999542	0.00000000	42.55659000	-1.02116100
80.29999541	0.00000000	40.69267000	-3.76476400
80.49999540	0.00000000	38.32431000	-4.55831700
80.69999539	0.00000000	35.99286000	-3.76476400
80.89999537	0.00000000	33.66756000	-1.02116100
81.09999536	0.00000000	32.22195000	3.15575800
81.29999535	0.00000000	32.54798000	7.43110200
81.49999534	0.00000000	34.45497000	10.91289000
81.69999533	0.00000000	36.78642000	13.28125000
81.89999531	0.00000000	39.48696000	14.07480000
82.09999530	0.00000000	41.76304000	13.69956000
82.29999529	0.00000000	42.59965000	12.11860000
82.49999528	0.00000000	42.59965000	9.42421200
82.69999527	0.00000000	41.80610000	6.31151500
82.89999525	0.00000000	39.90526000	3.19881900
83.09999524	0.00000000	37.99213000	0.46751960
83.29999523	0.00000000	36.41117000	-1.48868100
83.49999522	0.00000000	35.25467000	-2.60211600
83.69999521	0.00000000	34.87943000	-2.22687000
83.89999520	0.00000000	35.25467000	-0.28297240
84.09999518	0.00000000	36.36811000	2.41141700
84.29999517	0.00000000	37.48154000	5.93626900
84.49999516	0.00000000	37.90600000	9.38115100
84.69999515	0.00000000	37.94907000	12.16781000
84.89999514	0.00000000	37.94907000	14.07480000
85.09999512	0.00000000	37.94907000	14.76993000
85.29999511	0.00000000	37.99213000	13.18898000
85.49999510	0.00000000	38.36737000	9.38115100
85.69999509	0.00000000	39.11171000	4.77977300
85.89999508	0.00000000	39.48696000	0.51058070
86.09999506	0.00000000	39.48696000	-2.60211600
86.29999505	0.00000000	39.06250000	-4.14000900
86.49999504	0.00000000	37.90600000	-3.71555100
86.69999503	0.00000000	36.41117000	-1.02116100
86.89999502	0.00000000	35.25467000	3.24803100
87.09999501	0.00000000	34.83022000	8.22465500
87.29999499	0.00000000	34.83022000	12.81373000
87.49999498	0.00000000	35.25467000	15.14518000
87.69999497	0.00000000	36.41117000	15.18824000
87.89999496	0.00000000	37.94907000	13.18898000
88.09999495	0.00000000	39.48696000	8.96284400
88.29999493	0.00000000	40.64345000	3.62327700
88.49999492	0.00000000	41.01870000	-0.97810030
88.69999491	0.00000000	40.64345000	-3.71555100
88.89999490	0.00000000	39.48696000	-4.09079700
89.09999489	0.00000000	37.94907000	-2.14074800
89.29999487	0.00000000	36.41117000	2.08538400
89.49999486	0.00000000	35.25467000	7.42495000
89.69999485	0.00000000	34.87943000	12.07554000
89.89999484	0.00000000	35.20546000	15.14518000
90.09999483	0.00000000	35.99286000	15.88336000
90.29999482	0.00000000	36.78642000	13.61343000
90.49999480	0.00000000	37.94907000	9.38115100
90.69999479	0.00000000	39.06250000	4.36146600
90.89999478	0.00000000	39.48696000	-0.60285430
91.09999477	0.00000000	39.48696000	-3.67249000
91.29999476	0.00000000	39.11171000	-4.09079700
91.49999474	0.00000000	38.36737000	-2.14074800
91.69999473	0.00000000	37.99213000	2.08538400
91.89999472	0.00000000	37.94907000	7.42495000
92.09999471	0.00000000	37.94907000	12.03248000
92.29999470	0.00000000	37.94907000	14.72072000
92.49999468	0.00000000	37.94907000	14.72072000
92.69999467	0.00000000	37.90600000	12.07554000
92.89999466	0.00000000	37.48154000	7.84940900
93.09999465	0.00000000	36.36811000	3.20497000
93.29999464	0.00000000	35.25467000	-1.02116100
93.49999463	0.00000000	34.83022000	-3.67249000
93.69999461	0.00000000	34.83022000	-3.62942900
93.89999460	0.00000000	35.25467000	-0.64591530
94.09999459	0.00000000	36.46038000	3.94315900
94.29999458	0.00000000	38.36737000	8.17544300
94.49999457	0.00000000	40.69267000	11.70029000
94.69999455	0.00000000	42.55659000	13.52116000
94.89999454	0.00000000	43.34399000	12.81988000
95.09999453	0.00000000	42.55659000	9.75639700
95.29999452	0.00000000	40.64345000	5.93626900
95.49999451	0.00000000	37.90600000	2.08538400
95.69999449	0.00000000	34.83022000	-0.55979330
95.89999448	0.00000000	32.12967000	-0.97810030
96.09999447	0.00000000	30.59178000	0.51058070
96.29999446	0.00000000	30.59178000	3.15575800
96.49999445	0.00000000	32.12967000	5.89320800
96.69999444	0.00000000	34.87328000	8.21850300
96.89999442	0.00000000	38.36737000	10.11934000
97.09999441	0.00000000	42.22441000	10.49459000
97.29999440	0.00000000	45.25713000	9.42421200
97.49999439	0.00000000	46.46284000	7.84940900
97.69999438	0.00000000	45.67544000	5.89320800
97.89999436	0.00000000	43.38705000	3.61712600
98.09999435	0.00000000	39.86220000	2.12844500
98.29999434	0.00000000	36.03592000	2.04232300
98.49999433	0.00000000	32.50492000	2.78051200
98.69999432	0.00000000	30.17347000	3.57406500
98.89999430	0.00000000	29.01082000	4.73671200
99.09999429	0.00000000	29.47835000	5.85014700
99.29999428	0.00000000	32.12967000	6.26845500
99.49999427	0.00000000	35.99286000	6.31151500
99.69999426	0.00000000	39.86220000	6.35457700
99.89999425	0.00000000	43.34399000	6.72982200
100.09999423	0.00000000	45.25713000	7.47416300
100.29999422	0.00000000	45.30019000	7.84940900
100.49999421	0.00000000	43.76230000	7.89247000
100.69999420	0.00000000	41.06791000	7.84940900
100.89999419	0.00000000	37.99213000	7.42495000
101.09999417	0.00000000	35.24852000	6.26845500
101.29999416	0.00000000	33.29232000	4.73671200
101.49999415	0.00000000	32.08661000	3.15575800
101.69999414	0.00000000	31.75443000	1.71013800
101.89999413	0.00000000	32.50492000	1.29798200
102.09999411	0.00000000	34.45497000	2.45447800
102.29999410	0.00000000	36.74335000	3.99237200
102.49999409	0.00000000	39.11171000	6.36072800
102.69999408	0.00000000	41.01870000	9.00590400
102.89999407	0.00000000	42.18134000	10.91289000
103.09999406	0.00000000	42.18134000	11.70029000
103.29999404	0.00000000	41.06791000	10.91289000
103.49999403	0.00000000	39.53002000	9.00590400
103.69999402	0.00000000	37.94907000	6.26845500
103.89999401	0.00000000	36.36811000	3.19881900
104.09999400	0.00000000	34.83022000	0.51058070
104.29999398	0.00000000	33.71063000	-0.97810030
104.49999397	0.00000000	33.66756000	-0.60285430
104.69999396	0.00000000	34.45497000	1.66707700
104.89999395	0.00000000	35.62377000	4.68750000
105.09999394	0.00000000	37.53075000	7.43110200
105.29999392	0.00000000	39.01944000	9.38115100
105.49999391	0.00000000	39.48696000	10.53765000
105.69999390	0.00000000	39.48696000	10.49459000
105.89999389	0.00000000	39.06250000	9.00590400
106.09999388	0.00000000	37.94907000	6.68676100
106.29999387	0.00000000	36.78642000	4.36146600
106.49999385	0.00000000	36.03592000	2.08538400
106.69999384	0.00000000	35.62377000	0.97194880
106.89999383	0.00000000	35.99286000	1.66707700
107.09999382	0.00000000	36.36811000	3.19881900
107.29999381	0.00000000	36.83563000	5.15501900
107.49999379	0.00000000	37.94907000	7.43110200
107.69999378	0.00000000	39.01944000	8.91978400
107.89999377	0.00000000	39.06250000	8.96284400
108.09999376	0.00000000	38.32431000	7.84940900
108.29999375	0.00000000	37.57381000	6.31151500
108.49999374	0.00000000	36.74335000	4.73671200
108.69999372	0.00000000	35.99286000	3.19881900
108.89999371	0.00000000	35.20546000	2.08538400
109.09999370	0.00000000	34.87943000	2.08538400
109.29999369	0.00000000	35.25467000	3.19881900
109.49999368	0.00000000	36.41117000	4.73671200
109.69999366	0.00000000	37.90600000	6.31151500
109.89999365	0.00000000	39.06250000	7.84940900
110.09999364	0.00000000	39.48696000	8.96284400
110.29999363	0.00000000	39.48696000	8.96284400
110.49999362	0.00000000	39.11171000	7.84940900
110.69999360	0.00000000	38.32431000	6.31151500
110.89999359	0.00000000	37.53075000	4.77977300
111.09999358	0.00000000	36.36811000	3.57406500
111.29999357	0.00000000	35.29773000	2.78051200
111.49999356	0.00000000	35.25467000	2.04232300
111.69999355	0.00000000	35.94980000	2.08538400
111.89999353	0.00000000	36.36811000	3.19881900
112.09999352	0.00000000	36.78642000	4.68750000
112.29999351	0.00000000	37.53075000	5.89320800
112.49999350	0.00000000	37.90600000	6.68676100
112.69999349	0.00000000	37.94907000	7.42495000
112.89999347	0.00000000	37.94907000	7.42495000
113.09999346	0.00000000	37.94907000	6.72982200
113.29999345	0.00000000	37.94907000	6.35457700
113.49999344	0.00000000	37.90600000	6.26845500
113.69999343	0.00000000	37.53075000	5.89320800
113.89999341	0.00000000	36.78642000	5.15501900
114.09999340	0.00000000	36.41117000	4.77977300
114.29999339	0.00000000	36.36811000	4.73671200
114.49999338	0.00000000	36.36811000	4.69365100
114.69999337	0.00000000	36.36811000	4.31840500
114.89999336	0.00000000	36.41117000	3.57406500
115.09999334	0.00000000	36.74335000	3.24803100
115.29999333	0.00000000	37.15551000	3.57406500
115.49999332	0.00000000	37.16166000	4.31840500
115.69999331	0.00000000	37.57381000	4.73671200
115.89999330	0.00000000	37.85679000	5.15501900
116.09999328	0.00000000	37.57381000	5.93626900
116.29999327	0.00000000	37.16166000	6.68676100
116.49999326	0.00000000	37.15551000	7.47416300
116.69999325	0.00000000	36.78642000	7.80019600
116.89999324	0.00000000	36.78642000	7.42495000
117.09999322	0.00000000	37.15551000	6.31151500
117.29999321	0.00000000	37.16166000	5.15501900
117.49999320	0.00000000	37.57381000	4.36146600
117.69999319	0.00000000	37.90600000	3.57406500
117.89999318	0.00000000	37.99213000	3.19881900
118.09999317	0.00000000	38.32431000	3.19881900
118.29999315	0.00000000	38.69341000	3.57406500
118.49999314	0.00000000	38.28125000	4.36146600
118.69999313	0.00000000	37.53075000	5.11195900
118.89999312	0.00000000	36.36811000	5.89320800
119.09999311	0.00000000	35.25467000	6.31151500
119.29999309	0.00000000	34.83022000	6.72982200
119.49999308	0.00000000	34.83022000	7.42495000
119.69999307	0.00000000	35.20546000	7.42495000
119.89999306	0.00000000	35.99286000	6.72982200
120.09999305	0.00000000	36.78642000	6.31151500
120.29999303	0.00000000	37.94907000	5.89320800
120.49999302	0.00000000	39.06250000	5.15501900
120.69999301	0.00000000	39.48696000	4.77977300
120.89999300	0.00000000	39.48696000	4.69365100
121.09999299	0.00000000	39.11171000	4.36146600
121.29999298	0.00000000	38.28125000	3.99237200
121.49999296	0.00000000	37.15551000	4.36146600
121.69999295	0.00000000	35.58071000	4.69365100
121.89999294	0.00000000	34.49803000	4.77977300
122.09999293	0.00000000	34.04282000	5.15501900
122.29999292	0.00000000	34.41191000	5.89320800
122.49999290	0.00000000	34.78716000	6.26845500
122.69999289	0.00000000	35.25467000	6.31151500
122.89999288	0.00000000	36.41117000	6.31151500
123.09999287	0.00000000	37.90600000	6.26845500
123.29999286	0.00000000	39.06250000	5.89320800
123.49999284	0.00000000	39.48696000	5.15501900
123.69999283	0.00000000	39.53002000	4.77977300
123.89999282	0.00000000	39.48696000	4.73671200
124.09999281	0.00000000	39.06250000	4.73671200
124.29999280	0.00000000	37.94907000	4.69365100
124.49999279	0.00000000	36.78642000	4.36146600
124.69999277	0.00000000	35.99286000	3.99237200
124.89999276	0.00000000	35.20546000	4.36146600
125.09999275	0.00000000	34.83022000	4.73671200
125.29999274	0.00000000	34.78716000	5.15501900
125.49999273	0.00000000	34.83022000	5.89320800
125.69999271	0.00000000	35.25467000	6.26845500
125.89999270	0.00000000	36.36811000	6.31151500
126.09999269	0.00000000	37.53075000	6.31151500
126.29999268	0.00000000	38.32431000	6.31151500
126.49999267	0.00000000	39.11171000	6.26845500
126.69999265	0.00000000	39.43774000	5.89320800
126.89999264	0.00000000	39.06250000	5.15501900
127.09999263	0.00000000	37.94907000	4.77977300
127.29999262	0.00000000	36.78642000	4.73671200
127.49999261	0.00000000	35.99286000	4.73671200
127.69999260	0.00000000	35.20546000	4.73671200
127.89999258	0.00000000	34.83022000	4.73671200
128.09999257	0.00000000	34.83022000	4.77977300
128.29999256	0.00000000	35.25467000	5.15501900
128.49999255	0.00000000	36.36811000	5.89320800
128.69999254	0.00000000	37.53075000	6.26845500
128.89999252	0.00000000	38.32431000	6.31151500
129.09999251	0.00000000	39.11171000	6.26845500
129.29999250	0.00000000	39.43774000	5.89320800
129.49999249	0.00000000	39.06250000	5.15501900
129.69999248	0.00000000	37.90600000	4.77977300
129.89999246	0.00000000	36.41117000	4.73671200
130.09999245	0.00000000	35.25467000	4.73671200
130.29999244	0.00000000	34.83022000	4.73671200
130.49999243	0.00000000	34.83022000	4.77977300
130.69999242	0.00000000	35.20546000	5.15501900
130.89999241	0.00000000	35.99286000	5.89320800
131.09999239	0.00000000	36.74335000	6.26845500
131.29999238	0.00000000	37.53075000	6.26845500
131.49999237	0.00000000	37.90600000	5.89320800
131.69999236	0.00000000	37.94907000	5.11195900
131.89999235	0.00000000	37.94907000	4.45374000
132.09999233	0.00000000	37.90600000	4.32455700
132.29999232	0.00000000	37.53075000	4.72440900
132.49999231	0.00000000	36.78642000	4.32455700
132.69999230	0.00000000	36.41117000	4.40452700
132.89999229	0.00000000	36.36811000	4.69365100
133.09999227	0.00000000	36.36811000	4.77977300
133.29999226	0.00000000	36.36811000	5.15501900
133.49999225	0.00000000	36.36811000	5.89320800
133.69999224	0.00000000	36.36811000	6.26845500
133.89999223	0.00000000	36.36811000	6.31151500
134.09999222	0.00000000	36.36811000	6.26845500
134.29999220	0.00000000	36.36811000	5.89320800
134.49999219	0.00000000	36.36811000	5.11195900
134.69999218	0.00000000	36.36811000	4.36146600
134.89999217	0.00000000	36.41117000	3.57406500
135.09999216	0.00000000	36.74335000	3.19881900
135.29999214	0.00000000	37.15551000	3.19881900
135.49999213	0.00000000	37.11860000	3.57406500
135.69999212	0.00000000	37.15551000	4.36146600
135.89999211	0.00000000	36.74335000	5.11195900
136.09999210	0.00000000	36.41117000	5.89320800
136.29999208	0.00000000	36.32505000	6.26845500
136.49999207	0.00000000	35.94980000	6.31151500
136.69999206	0.00000000	35.25467000	6.31151500
136.89999205	0.00000000	35.25467000	6.26845500
137.09999204	0.00000000	35.99286000	5.89320800
137.29999203	0.00000000	36.74335000	5.15501900
137.49999201	0.00000000	37.53075000	4.73671200
137.69999200	0.00000000	37.90600000	4.31840500
137.89999199	0.00000000	37.94907000	3.57406500
138.09999198	0.00000000	37.90600000	3.24803100
138.29999197	0.00000000	37.53075000	3.57406500
138.49999195	0.00000000	36.78642000	4.31840500
138.69999194	0.00000000	36.36811000	4.73671200
138.89999193	0.00000000	35.94980000	5.15501900
139.09999192	0.00000000	35.25467000	5.89320800
139.29999191	0.00000000	35.25467000	6.26845500
139.49999189	0.00000000	35.94980000	6.31151500
139.69999188	0.00000000	36.32505000	6.31151500
139.89999187	0.00000000	36.41117000	6.31151500
140.09999186	0.00000000	36.78642000	6.26845500
140.29999185	0.00000000	37.53075000	5.89320800
140.49999184	0.00000000	37.85679000	5.11195900
140.69999182	0.00000000	37.53075000	4.36146600
140.89999181	0.00000000	36.78642000	3.57406500
141.09999180	0.00000000	36.41117000	3.19881900
141.29999179	0.00000000	36.36811000	3.19881900
141.49999178	0.00000000	36.36811000	3.62327700
141.69999176	0.00000000	36.36811000	4.73671200
141.89999175	0.00000000	36.36811000	5.85014700
142.09999174	0.00000000	36.41117000	6.31151500
142.29999173	0.00000000	36.74335000	6.68676100
142.49999172	0.00000000	37.11245000	7.05585600
142.69999170	0.00000000	36.74335000	6.64370100
142.89999169	0.00000000	36.41117000	5.93626900
143.09999168	0.00000000	36.36811000	5.11195900
143.29999167	0.00000000	36.36811000	4.36146600
143.49999166	0.00000000	36.32505000	3.57406500
143.69999165	0.00000000	35.99286000	3.19881900
143.89999163	0.00000000	35.62377000	3.19881900
144.09999162	0.00000000	35.99286000	3.57406500
144.29999161	0.00000000	36.36811000	4.36146600
144.49999160	0.00000000	36.74335000	5.11195900
144.69999159	0.00000000	37.15551000	5.89320800
144.89999157	0.00000000	37.11860000	6.26845500
145.09999156	0.00000000	37.15551000	6.31151500
145.29999155	0.00000000	36.74335000	6.26845500
145.49999154	0.00000000	36.41117000	5.89320800
145.69999153	0.00000000	36.36811000	5.15501900
145.89999151	0.00000000	36.36811000	4.77977300
146.09999150	0.00000000	36.36811000	4.69365100
146.29999149	0.00000000	36.36811000	4.31840500
146.49999148	0.00000000	36.36811000	3.57406500
146.69999147	0.00000000	36.36811000	3.24803100
146.89999146	0.00000000	36.41117000	3.62327700
147.09999144	0.00000000	36.78642000	4.68750000
147.29999143	0.00000000	37.48154000	5.47490100
147.49999142	0.00000000	37.48154000	5.53026500
147.69999141	0.00000000	36.78642000	5.93626900
147.89999140	0.00000000	36.41117000	6.26845500
148.09999138	0.00000000	36.36811000	6.31151500
148.29999137	0.00000000	36.36811000	6.26845500
148.49999136	0.00000000	36.36811000	5.89320800
148.69999135	0.00000000	36.36811000	5.15501900
148.89999134	0.00000000	36.36811000	4.77977300
149.09999132	0.00000000	36.36811000	4.73671200
149.29999131	0.00000000	36.36811000	4.69365100
149.49999130	0.00000000	36.36811000	4.36146600
149.69999129	0.00000000	36.36811000	3.99237200
149.89999128	0.00000000	36.36811000	4.40452700
150.09999127	0.00000000	36.36811000	5.11195900
150.29999125	0.00000000	36.36811000	5.89320800
150.49999124	0.00000000	36.36811000	6.26845500
150.69999123	0.00000000	36.36811000	6.31151500
150.89999122	0.00000000	36.32505000	6.26845500
151.09999121	0.00000000	35.94980000	5.89320800
151.29999119	0.00000000	35.25467000	5.15501900
151.49999118	0.00000000	35.25467000	4.77977300
151.69999117	0.00000000	35.94980000	4.73671200
151.89999116	0.00000000	36.32505000	4.73671200
152.09999115	0.00000000	36.36811000	4.73671200
152.29999113	0.00000000	36.36811000	4.73671200
152.49999112	0.00000000	36.41117000	4.73671200
152.69999111	0.00000000	36.78642000	4.73671200
152.89999110	0.00000000	37.48154000	4.73671200
153.09999109	0.00000000	37.48154000	4.77977300
153.29999108	0.00000000	36.78642000	5.11195900
153.49999106	0.00000000	36.36811000	5.51796200
153.69999105	0.00000000	35.94980000	5.48105300
153.89999104	0.00000000	35.20546000	5.51796200
154.09999103	0.00000000	34.83022000	5.15501900
154.29999102	0.00000000	34.78716000	5.15501900
154.49999100	0.00000000	34.78716000	5.47490100
154.69999099	0.00000000	34.83022000	5.11195900
154.89999098	0.00000000	35.20546000	4.77977300
155.09999097	0.00000000	35.94980000	4.73671200
155.29999096	0.00000000	36.32505000	4.73671200
155.49999094	0.00000000	36.41117000	4.73671200
155.69999093	0.00000000	36.78642000	4.73671200
155.89999092	0.00000000	37.48154000	4.73671200
156.09999091	0.00000000	37.48154000	4.73671200
156.29999090	0.00000000	36.74335000	4.77977300
156.49999089	0.00000000	35.99286000	5.15501900
156.69999087	0.00000000	35.20546000	5.89320800
156.89999086	0.00000000	34.83022000	6.26845500
157.09999085	0.00000000	34.78716000	6.31151500
157.29999084	0.00000000	34.78716000	6.31151500
157.49999083	0.00000000	34.83022000	6.26845500
157.69999081	0.00000000	35.20546000	5.89320800
157.89999080	0.00000000	35.94980000	5.15501900
158.09999079	0.00000000	36.32505000	4.77977300
158.29999078	0.00000000	36.36811000	4.73671200
158.49999077	0.00000000	36.36811000	4.73671200
158.69999075	0.00000000	36.36811000	4.73671200
158.89999074	0.00000000	36.36811000	4.73671200
159.09999073	0.00000000	36.36811000	4.77977300
159.29999072	0.00000000	36.36811000	5.15501900
159.49999071	0.00000000	36.32505000	5.89320800
159.69999070	0.00000000	35.94980000	6.26845500
159.89999068	0.00000000	35.20546000	6.26845500
160.09999067	0.00000000	34.83022000	5.89320800
160.29999066	0.00000000	34.78716000	5.15501900
160.49999065	0.00000000	34.83022000	4.77977300
160.69999064	0.00000000	35.16240000	4.73671200
160.89999062	0.00000000	35.57455000	4.73671200
161.09999061	0.00000000	35.58071000	4.73671200
161.29999060	0.00000000	35.99286000	4.73671200
161.49999059	0.00000000	36.32505000	4.73671200
161.69999058	0.00000000	36.36811000	4.73671200
161.89999056	0.00000000	36.41117000	4.73671200
162.09999055	0.00000000	36.74335000	4.77977300
162.29999054	0.00000000	37.11245000	5.15501900
162.49999053	0.00000000	36.74335000	5.89320800
162.69999052	0.00000000	36.41117000	6.21924200
162.89999051	0.00000000	36.32505000	5.89320800
163.09999049	0.00000000	35.94980000	5.15501900
163.29999048	0.00000000	35.20546000	4.77977300
163.49999047	0.00000000	34.83022000	4.73671200
163.69999046	0.00000000	34.78716000	4.73671200
163.89999045	0.00000000	34.83022000	4.73671200
164.09999043	0.00000000	35.20546000	4.73671200
164.29999042	0.00000000	35.94980000	4.73671200
164.49999041	0.00000000	36.32505000	4.73671200
164.69999040	0.00000000	36.36811000	4.73671200
164.89999039	0.00000000	36.36811000	4.73671200
165.09999037	0.00000000	36.36811000	4.73671200
165.29999036	0.00000000	36.36811000	4.73671200
165.49999035	0.00000000	36.36811000	4.73671200
165.69999034	0.00000000	36.32505000	4.73671200
165.89999033	0.00000000	35.99286000	4.73671200
166.09999032	0.00000000	35.58071000	4.73671200
166.29999030	0.00000000	35.57455000	4.73671200
166.49999029	0.00000000	35.16240000	4.73671200
166.69999028	0.00000000	34.87943000	4.77977300
166.89999027	0.00000000	35.20546000	5.11195900
167.09999026	0.00000000	35.94980000	5.47490100
167.29999024	0.00000000	36.32505000	5.11195900
167.49999023	0.00000000	36.36811000	4.77977300
167.69999022	0.00000000	36.36811000	4.73671200
167.89999021	0.00000000	36.36811000	4.73671200
168.09999020	0.00000000	36.36811000	4.73671200
168.29999018	0.00000000	36.36811000	4.73671200
168.49999017	0.00000000	36.36811000	4.73671200
168.69999016	0.00000000	36.36811000	4.73671200
168.89999015	0.00000000	36.36811000	4.73671200
169.09999014	0.00000000	36.32505000	4.73671200
169.29999013	0.00000000	35.99286000	4.73671200
169.49999011	0.00000000	35.58071000	4.73671200
169.69999010	0.00000000	35.61762000	4.73671200
169.89999009	0.00000000	35.53765000	4.73671200
170.09999008	0.00000000	35.57455000	4.73671200
170.29999007	0.00000000	35.16240000	4.73671200
170.49999005	0.00000000	34.83022000	4.73671200
170.69999004	0.00000000	34.78716000	4.73671200
170.89999003	0.00000000	34.83022000	4.73671200
171.09999002	0.00000000	35.20546000	4.73671200
171.29999001	0.00000000	35.94980000	4.73671200
171.49998999	0.00000000	36.32505000	4.73671200
171.69998998	0.00000000	36.36811000	4.73671200
171.89998997	0.00000000	36.36811000	4.73671200
172.09998996	0.00000000	36.32505000	4.73671200
172.29998995	0.00000000	35.99286000	4.73671200
172.49998994	0.00000000	35.62377000	4.73671200
172.69998992	0.00000000	35.99286000	4.73671200
172.89998991	0.00000000	36.32505000	4.73671200
173.09998990	0.00000000	36.32505000	4.73671200
173.29998989	0.00000000	35.99286000	4.73671200
173.49998988	0.00000000	35.62377000	4.73671200
173.69998986	0.00000000	35.99286000	4.73671200
173.89998985	0.00000000	36.32505000	4.73671200
174.09998984	0.00000000	36.36811000	4.73671200
174.29998983	0.00000000	36.36811000	4.73671200
174.49998982	0.00000000	36.36811000	4.73671200
174.69998980	0.00000000	36.32505000	4.73671200
174.89998979	0.00000000	35.99286000	4.73671200
175.09998978	0.00000000	35.62377000	4.73671200
175.29998977	0.00000000	35.99286000	4.73671200
175.49998976	0.00000000	36.27584000	4.73671200
175.69998975	0.00000000	35.99286000	4.73671200
175.89998973	0.00000000	35.62377000	4.73671200
176.09998972	0.00000000	35.99286000	4.73671200
176.29998971	0.00000000	36.32505000	4.73671200
176.49998970	0.00000000	36.36811000	4.73671200
176.69998969	0.00000000	36.36811000	4.73671200
176.89998967	0.00000000	36.36811000	4.73671200
177.09998966	0.00000000	36.36811000	4.73671200
177.29998965	0.00000000	36.32505000	4.73671200
177.49998964	0.00000000	35.94980000	4.73671200
177.69998963	0.00000000	35.25467000	4.73671200
177.89998961	0.00000000	35.20546000	4.73671200
178.09998960	0.00000000	35.53149000	4.73671200
178.29998959	0.00000000	35.20546000	4.73671200
178.49998958	0.00000000	35.20546000	4.73671200
178.69998957	0.00000000	35.53149000	4.73671200
178.89998956	0.00000000	35.20546000	4.73671200
179.09998954	0.00000000	35.25467000	4.73671200
179.29998953	0.00000000	35.94980000	4.73671200
179.49998952	0.00000000	36.32505000	4.73671200
179.69998951	0.00000000	36.36811000	4.73671200
179.89998950	0.00000000	36.36811000	4.73671200
180.09998948	0.00000000	36.36811000	4.73671200
180.29998947	0.00000000	36.32505000	4.73671200
180.49998946	0.00000000	35.99286000	4.73671200
180.69998945	0.00000000	35.58071000	4.73671200
180.89998944	0.00000000	35.57455000	4.73671200
181.09998942	0.00000000	35.16240000	4.73671200
181.29998941	0.00000000	34.83022000	4.73671200
181.49998940	0.00000000	34.78716000	4.73671200
181.69998939	0.00000000	34.78716000	4.73671200
181.89998938	0.00000000	34.83022000	4.73671200
182.09998937	0.00000000	35.20546000	4.73671200
182.29998935	0.00000000	35.94980000	4.73671200
182.49998934	0.00000000	36.32505000	4.73671200
182.69998933	0.00000000	36.36811000	4.73671200
182.89998932	0.00000000	36.36811000	4.73671200
183.09998931	0.00000000	36.36811000	4.73671200
183.29998929	0.00000000	36.32505000	4.73671200
183.49998928	0.00000000	35.94980000	4.73671200
183.69998927	0.00000000	35.20546000	4.73671200
183.89998926	0.00000000	34.83022000	4.73671200
184.09998925	0.00000000	34.78716000	4.73671200
184.29998923	0.00000000	34.78716000	4.73671200
184.49998922	0.00000000	34.78716000	4.73671200
184.69998921	0.00000000	34.78716000	4.73671200
184.89998920	0.00000000	34.78716000	4.73671200
185.09998919	0.00000000	34.83022000	4.73671200
185.29998918	0.00000000	35.20546000	4.73671200
185.49998916	0.00000000	35.94980000	4.73671200
185.69998915	0.00000000	36.32505000	4.69365100
185.89998914	0.00000000	36.36811000	4.31840500
186.09998913	0.00000000	36.36811000	3.62327700
186.29998912	0.00000000	36.36811000	3.57406500
186.49998910	0.00000000	36.32505000	3.94315900
186.69998909	0.00000000	35.94980000	3.94931100
186.89998908	0.00000000	35.20546000	4.36146600
187.09998907	0.00000000	34.83022000	4.73671200
187.29998906	0.00000000	34.78716000	5.15501900
187.49998904	0.00000000	34.78716000	5.85014700
187.69998903	0.00000000	34.78716000	5.85014700
187.89998902	0.00000000	34.78716000	5.15501900
188.09998901	0.00000000	34.83022000	4.77977300
188.29998900	0.00000000	35.16240000	4.73671200
188.49998899	0.00000000	35.53149000	4.73671200
188.69998897	0.00000000	35.20546000	4.69365100
188.89998896	0.00000000	35.25467000	4.36146600
189.09998895	0.00000000	35.94980000	3.99237200
189.29998894	0.00000000	36.27584000	4.36146600
189.49998893	0.00000000	35.94980000	4.69365100
189.69998891	0.00000000	35.20546000	4.73671200
189.89998890	0.00000000	34.83022000	4.73671200
190.09998889	0.00000000	34.78716000	4.73671200
190.29998888	0.00000000	34.78716000	4.73671200
190.49998887	0.00000000	34.78716000	4.73671200
190.69998885	0.00000000	34.78716000	4.73671200
190.89998884	0.00000000	34.78716000	4.73671200
191.09998883	0.00000000	34.78716000	4.73671200
191.29998882	0.00000000	34.83022000	4.73671200
191.49998881	0.00000000	35.20546000	4.73671200
191.69998880	0.00000000	35.94980000	4.73671200
191.89998878	0.00000000	36.32505000	4.73671200
192.09998877	0.00000000	36.32505000	4.73671200
192.29998876	0.00000000	35.99286000	4.69365100
192.49998875	0.00000000	35.58071000	4.36146600
192.69998874	0.00000000	35.57455000	3.99237200
192.89998872	0.00000000	35.16240000	4.36146600
193.09998871	0.00000000	34.83022000	4.69365100
193.29998870	0.00000000	34.78716000	4.73671200
193.49998869	0.00000000	34.78716000	4.73671200
193.69998868	0.00000000	34.78716000	4.73671200
193.89998866	0.00000000	34.78716000	4.73671200
194.09998865	0.00000000	34.78716000	4.73671200
194.29998864	0.00000000	34.83022000	4.73671200
194.49998863	0.00000000	35.20546000	4.73671200
194.69998862	0.00000000	35.94980000	4.73671200
194.89998861	0.00000000	36.32505000	4.73671200
195.09998859	0.00000000	36.32505000	4.73671200
195.29998858	0.00000000	35.94980000	4.73671200
195.49998857	0.00000000	35.20546000	4.73671200
195.69998856	0.00000000	34.83022000	4.73671200
195.89998855	0.00000000	34.78716000	4.73671200
196.09998853	0.00000000	34.78716000	4.73671200
