Time	Channel A	Channel B	Channel C
(us)	(V)	(mV)	(mV)

-4.59999956	0.00000000	42.22441000	7.42495000
-4.39999957	0.00000000	41.52928000	6.72982200
-4.19999958	0.00000000	41.20325000	6.40378900
-3.99999959	0.00000000	41.48622000	6.68676100
-3.79999960	0.00000000	41.85531000	7.05585600
-3.59999962	0.00000000	41.48622000	6.68676100
-3.39999963	0.00000000	41.15403000	6.35457700
-3.19999964	0.00000000	41.11097000	6.35457700
-2.99999965	0.00000000	41.15403000	6.72982200
-2.79999966	0.00000000	41.48622000	7.47416300
-2.59999968	0.00000000	41.85531000	7.80019600
-2.39999969	0.00000000	41.48622000	7.47416300
-2.19999970	0.00000000	41.15403000	6.72982200
-1.99999971	0.00000000	41.11097000	6.35457700
-1.79999972	0.00000000	41.11097000	6.31151500
-1.59999973	0.00000000	41.15403000	6.31151500
-1.39999975	0.00000000	41.48622000	6.31151500
-1.19999976	0.00000000	41.85531000	6.31151500
-0.99999977	0.00000000	41.48622000	6.31151500
-0.79999978	0.00000000	41.15403000	6.35457700
-0.59999979	0.00000000	41.11097000	6.68676100
-0.39999981	0.15871060	41.15403000	7.05585600
-0.19999982	0.47736220	41.48622000	6.68676100
0.00000017	0.79601380	41.85531000	6.35457700
0.20000016	1.11466500	41.48622000	6.31151500
0.40000015	0.95533960	41.15403000	6.31151500
0.60000013	0.47736220	41.11097000	6.31151500
0.80000012	-0.31803640	41.11097000	6.31151500
1.00000011	-1.27399100	41.11097000	6.31151500
1.20000010	-2.22994600	41.11097000	6.35457700
1.40000009	-2.70792300	41.15403000	6.72982200
1.60000008	-2.70792300	41.48622000	7.47416300
1.80000006	-1.59264300	41.85531000	7.84940900
2.00000005	0.00000000	41.48622000	7.89247000
2.20000004	2.07062000	41.15403000	7.84940900
2.40000003	3.98191400	41.11097000	7.47416300
2.60000002	5.25652100	41.11097000	6.72982200
2.80000000	5.09719500	41.11097000	6.35457700
2.99999999	3.50393700	41.11097000	6.31151500
3.19999998	0.79601380	41.11097000	6.31151500
3.39999997	-2.54859700	41.11097000	6.31151500
3.59999996	-5.73449800	41.11097000	6.35457700
3.79999994	-7.64579200	41.11097000	6.72982200
3.99999993	-7.80511800	41.11097000	7.47416300
4.19999992	-5.73449800	41.15403000	7.89247000
4.39999991	-2.22994600	41.48622000	8.26771600
4.59999990	2.22994600	41.85531000	8.58759800
4.79999989	6.21247500	41.52928000	7.84940900
4.99999987	8.92039900	41.52928000	6.77903500
5.19999986	9.39837600	41.85531000	6.35457700
5.39999985	7.48646600	41.48622000	6.31151500
5.59999984	3.66326300	41.15403000	6.31151500
5.79999983	-1.11466500	41.11097000	6.31151500
5.99999981	-5.57517200	41.11097000	6.35457700
6.19999980	-8.60174700	41.15403000	6.68676100
6.39999979	-9.39837600	41.48622000	7.09891700
6.59999978	-7.96444400	41.85531000	7.10506800
6.79999977	-4.61921700	41.48622000	7.51722400
6.99999975	-0.15871060	41.15403000	7.80019600
7.19999974	3.98191400	41.11097000	7.47416300
7.39999973	6.84916400	41.11097000	6.72982200
7.59999972	7.80511800	41.11097000	6.35457700
7.79999971	6.84916400	41.11097000	6.31151500
7.99999970	4.30056600	41.11097000	6.31151500
8.19999968	0.95533960	41.11097000	6.31151500
8.39999967	-2.07062000	41.11097000	6.31151500
8.59999966	-4.30056600	41.11097000	6.35457700
8.79999965	-5.25652100	41.11097000	6.72982200
8.99999964	-4.61921700	41.11097000	7.47416300
9.19999962	-3.18590100	41.11097000	7.80019600
9.39999961	-1.11466500	41.11097000	7.47416300
9.59999960	0.63668800	41.11097000	6.77903500
9.79999959	1.91129400	41.11097000	6.72982200
9.99999958	2.54859700	41.11097000	7.05585600
10.19999956	2.38927200	41.11097000	6.68676100
10.39999955	1.59264300	41.11097000	6.35457700
10.59999954	0.79601380	41.11097000	6.31151500
10.79999953	0.00000000	41.11097000	6.31151500
10.99999952	-0.63668800	41.11097000	6.31151500
11.19999951	-0.95533960	41.11097000	6.31151500
11.39999949	-0.95533960	41.11097000	6.31151500
11.59999948	-0.79601380	41.11097000	6.31151500
11.79999947	-0.47736220	41.11097000	6.31151500
11.99999946	-0.15871060	41.11097000	6.31151500
12.19999945	-0.15871060	41.11097000	6.31151500
12.39999943	-0.15871060	41.11097000	6.31151500
12.59999942	0.00000000	41.11097000	6.31151500
12.79999941	0.00000000	41.15403000	6.35457700
12.99999940	0.15871060	41.48622000	6.68676100
13.19999939	0.00000000	41.89838000	7.09891700
13.39999937	0.00000000	41.86147000	7.06200700
13.59999936	0.00000000	41.89838000	7.09891700
13.79999935	0.00000000	41.48622000	6.68676100
13.99999934	0.00000000	41.15403000	6.35457700
14.19999933	-0.15871060	41.11097000	6.31151500
14.39999932	-0.15871060	41.11097000	6.31151500
14.59999930	0.00000000	41.11097000	6.31151500
14.79999929	0.00000000	41.11097000	6.31151500
14.99999928	0.00000000	41.11097000	6.31151500
15.19999927	0.00000000	41.11097000	6.31151500
15.39999926	0.00000000	41.11097000	6.31151500
15.59999924	0.00000000	41.11097000	6.31151500
15.79999923	0.00000000	41.11097000	6.31151500
15.99999922	0.00000000	41.11097000	6.31151500
16.19999921	0.00000000	41.11097000	6.31151500
16.39999920	0.00000000	41.11097000	6.31151500
16.59999919	-0.15871060	41.15403000	6.31151500
16.79999917	0.00000000	41.52928000	6.31151500
16.99999916	0.00000000	42.27362000	6.31151500
17.19999915	0.00000000	42.64886000	6.35457700
17.39999914	0.00000000	42.69193000	6.68676100
17.59999913	0.00000000	42.69193000	7.05585600
17.79999911	0.00000000	42.64886000	6.68676100
17.99999910	0.00000000	42.22441000	6.35457700
18.19999909	0.00000000	41.01870000	6.35457700
18.39999908	0.00000000	39.15477000	6.68676100
18.59999907	0.00000000	37.25394000	7.05585600
18.79999905	0.00000000	36.46038000	6.68676100
18.99999904	0.00000000	36.46038000	6.35457700
19.19999903	0.00000000	37.29700000	6.31151500
19.39999902	0.00000000	39.66535000	6.31151500
19.59999901	0.00000000	43.11023000	6.31151500
19.79999900	0.00000000	47.01648000	6.31151500
19.99999898	0.00000000	50.46136000	6.31151500
20.19999897	0.00000000	52.73745000	6.31151500
20.39999896	0.00000000	52.65133000	6.31151500
20.59999895	0.00000000	49.53248000	6.31151500
20.79999894	0.00000000	43.71924000	6.31151500
20.99999892	0.00000000	36.36811000	6.31151500
21.19999891	0.00000000	29.01082000	6.31151500
21.39999890	0.00000000	23.24065000	6.31151500
21.59999889	0.00000000	20.63238000	6.31151500
21.79999888	0.00000000	22.63779000	6.31151500
21.99999886	0.00000000	29.65674000	6.31151500
22.19999885	0.00000000	40.45890000	6.31151500
22.39999884	0.00000000	52.87278000	6.31151500
22.59999883	0.00000000	64.05019000	6.31151500
22.79999882	0.00000000	71.67814000	6.31151500
22.99999881	0.00000000	72.70546000	6.35457700
23.19999879	0.00000000	65.72957000	6.72982200
23.39999878	0.00000000	52.18381000	7.47416300
23.59999877	0.00000000	34.78716000	7.89247000
23.79999876	0.00000000	17.42741000	8.26771600
23.99999875	0.00000000	4.30610200	8.63681000
24.19999873	0.00000000	-1.41486200	8.17544300
24.39999872	0.00000000	2.16535400	7.09891700
24.59999871	0.00000000	15.37894000	5.53026500
24.79999870	0.00000000	35.80217000	4.36146600
24.99999869	0.00000000	58.55684000	3.15575800
25.19999867	0.00000000	77.86663000	2.04232300
25.39999866	0.00000000	89.45004000	1.71013800
25.59999865	0.00000000	90.52042000	2.50369100
25.79999864	0.00000000	80.05659000	4.87204700
25.99999863	0.00000000	60.00246000	8.31077700
26.19999862	0.00000000	35.29773000	12.21087000
26.39999860	0.00000000	11.74951000	15.64960000
26.59999859	0.00000000	-5.27189900	17.92569000
26.79999858	0.00000000	-11.83563000	17.88263000
26.99999857	0.00000000	-6.80979300	15.14518000
27.19999856	0.00000000	9.04896600	10.07628000
27.39999854	0.00000000	32.17273000	3.11269700
27.59999853	0.00000000	56.88361000	-4.22613100
27.79999852	0.00000000	77.35605000	-10.35925000
27.99999851	0.00000000	88.98868000	-13.74877000
28.19999850	0.00000000	89.45004000	-12.54921000
28.39999848	0.00000000	79.44759000	-6.74212600
28.59999847	0.00000000	61.66953000	2.59596400
28.79999846	0.00000000	40.04060000	14.16092000
28.99999845	0.00000000	19.56816000	25.35679000
29.19999844	0.00000000	4.81668300	33.40305000
29.39999843	0.00000000	-1.41486200	36.42347000
29.59999841	0.00000000	1.61171300	32.52337000
29.79999840	0.00000000	12.77682000	22.48400000
29.99999839	0.00000000	28.96776000	8.54453700
30.19999838	0.00000000	46.41363000	-6.92052100
30.39999837	0.00000000	61.53420000	-20.34941000
30.59999835	0.00000000	71.63509000	-28.47564000
30.79999834	0.00000000	74.75394000	-29.22613000
30.99999833	0.00000000	70.55856000	-22.62549000
31.19999832	0.00000000	60.55610000	-9.43651600
31.39999831	0.00000000	47.38558000	7.89247000
31.59999829	0.00000000	33.84596000	25.27067000
31.79999828	0.00000000	22.58858000	38.79183000
31.99999827	0.00000000	15.98179000	45.76156000
32.19999826	0.00000000	14.77608000	44.59892000
32.39999825	0.00000000	19.00837000	35.72219000
32.59999824	0.00000000	27.47908000	20.99532000
32.79999822	0.00000000	37.94907000	3.24803100
32.99999821	0.00000000	48.36983000	-13.75492000
33.19999820	0.00000000	56.50836000	-26.11343000
33.39999819	0.00000000	60.37155000	-31.54527000
33.59999818	0.00000000	59.67027000	-28.85088000
33.79999816	0.00000000	54.65059000	-18.86688000
33.99999815	0.00000000	46.96727000	-4.14000900
34.19999814	0.00000000	38.45964000	12.49385000
34.39999813	0.00000000	31.15157000	27.92200000
34.59999812	0.00000000	26.87008000	38.33046000
34.79999810	0.00000000	26.45177000	41.44316000
34.99999809	0.00000000	29.47835000	36.84178000
35.19999808	0.00000000	34.87328000	25.68897000
35.39999807	0.00000000	41.01870000	11.04823000
35.59999806	0.00000000	46.46284000	-3.62942900
35.79999805	0.00000000	49.90772000	-15.24360000
35.99999803	0.00000000	50.69513000	-21.37672000
36.19999802	0.00000000	48.41904000	-20.63238000
36.39999801	0.00000000	44.22982000	-13.01058000
36.59999800	0.00000000	39.53002000	-1.48868100
36.79999799	0.00000000	34.96555000	10.86983000
36.99999797	0.00000000	31.89591000	21.64739000
37.19999796	0.00000000	31.88976000	27.78666000
37.39999795	0.00000000	34.12894000	27.82972000
37.59999794	0.00000000	38.03519000	22.06570000
37.79999793	0.00000000	42.64886000	12.16781000
37.99999791	0.00000000	46.88115000	1.43946800
38.19999790	0.00000000	49.57554000	-6.64985200
38.39999789	0.00000000	50.00000000	-10.50074000
38.59999788	0.00000000	48.46210000	-8.96899500
38.79999787	0.00000000	45.34325000	-2.46678100
38.99999786	0.00000000	41.11097000	6.68676100
39.19999784	0.00000000	36.82948000	15.88336000
39.39999783	0.00000000	33.33538000	22.02264000
39.59999782	0.00000000	31.05930000	23.55438000
39.79999781	0.00000000	31.05930000	20.06643000
39.99999780	0.00000000	33.33538000	12.03248000
40.19999778	0.00000000	36.78642000	2.12844500
40.39999777	0.00000000	40.69267000	-6.36687900
40.59999776	0.00000000	44.22982000	-11.34350000
40.79999775	0.00000000	47.34252000	-11.70645000
40.99999774	0.00000000	49.62475000	-6.69906400
41.19999772	0.00000000	50.00000000	2.08538400
41.39999771	0.00000000	48.46210000	12.07554000
41.59999770	0.00000000	45.38631000	20.52780000
41.79999769	0.00000000	41.48622000	25.13533000
41.99999768	0.00000000	37.61687000	24.80315000
42.19999767	0.00000000	34.12894000	19.83883000
42.39999765	0.00000000	32.21579000	12.16781000
42.59999764	0.00000000	32.12967000	3.66633800
42.79999763	0.00000000	33.29232000	-3.62942900
42.99999762	0.00000000	35.24852000	-7.89862200
43.19999761	0.00000000	37.99213000	-8.31692900
43.39999759	0.00000000	41.01870000	-5.29650500
43.59999758	0.00000000	43.34399000	0.09227362
43.79999757	0.00000000	44.18061000	6.22539300
43.99999756	0.00000000	44.27288000	11.65723000
44.19999755	0.00000000	44.22982000	15.14518000
44.39999753	0.00000000	43.85457000	16.34473000
44.59999752	0.00000000	43.11023000	15.18824000
44.79999751	0.00000000	42.73499000	12.16166000
44.99999750	0.00000000	42.64886000	8.31077700
45.19999749	0.00000000	42.22441000	4.82283400
45.39999748	0.00000000	41.06791000	2.08538400
45.59999746	0.00000000	39.48696000	0.55364170
45.79999745	0.00000000	37.48154000	0.55364170
45.99999744	0.00000000	34.78716000	2.08538400
46.19999743	0.00000000	32.12967000	4.73671200
46.39999742	0.00000000	30.63484000	7.43110200
46.59999740	0.00000000	31.10236000	9.38115100
46.79999739	0.00000000	34.22121000	10.58686000
46.99999738	0.00000000	39.61614000	10.91289000
47.19999737	0.00000000	45.81078000	10.16855000
47.39999736	0.00000000	51.58095000	8.21850300
47.59999734	0.00000000	55.38877000	5.93626900
47.79999733	0.00000000	55.76402000	3.61712600
47.99999732	0.00000000	52.65133000	2.08538400
48.19999731	0.00000000	46.41363000	1.66707700
48.39999730	0.00000000	37.94907000	2.04232300
48.59999729	0.00000000	29.47835000	3.24803100
48.79999727	0.00000000	23.33292000	5.19808000
48.99999726	0.00000000	21.00763000	7.93553100
49.19999725	0.00000000	23.37598000	10.96211000
49.39999724	0.00000000	29.89665000	13.23819000
49.59999723	0.00000000	39.15477000	13.61343000
49.79999721	0.00000000	48.41904000	12.11860000
49.99999720	0.00000000	55.76402000	9.38115100
50.19999719	0.00000000	59.57800000	5.89320800
50.39999718	0.00000000	58.42150000	2.04232300
50.59999717	0.00000000	52.65133000	-0.97810030
50.79999715	0.00000000	43.80536000	-2.18380900
50.99999714	0.00000000	34.22121000	-1.39640700
51.19999713	0.00000000	26.87008000	0.92888770
51.39999712	0.00000000	23.37598000	4.77977300
51.59999711	0.00000000	24.12647000	9.00590400
51.79999710	0.00000000	29.14616000	12.49385000
51.99999708	0.00000000	36.82948000	14.81299000
52.19999707	0.00000000	45.30019000	15.18824000
52.39999706	0.00000000	52.14074000	13.65650000
52.59999705	0.00000000	54.88435000	10.53765000
52.79999704	0.00000000	53.02657000	6.35457700
52.99999702	0.00000000	48.08686000	2.54675200
53.19999701	0.00000000	41.48622000	0.55364170
53.39999700	0.00000000	34.96555000	0.09227362
53.59999699	0.00000000	29.93971000	0.51058070
53.79999698	0.00000000	28.03272000	2.08538400
53.99999696	0.00000000	29.56447000	4.77977300
54.19999695	0.00000000	34.17815000	7.80019600
54.39999694	0.00000000	40.64345000	10.07628000
54.59999693	0.00000000	46.41363000	10.49459000
54.79999692	0.00000000	49.90772000	9.42421200
54.99999691	0.00000000	50.69513000	7.89247000
55.19999689	0.00000000	48.36983000	6.31151500
55.39999688	0.00000000	43.80536000	4.82283400
55.59999687	0.00000000	38.41043000	4.08464600
55.79999686	0.00000000	33.80290000	4.87204700
55.99999685	0.00000000	31.10236000	6.68676100
56.19999683	0.00000000	31.05930000	8.58759800
56.39999682	0.00000000	33.37844000	9.33809000
56.59999681	0.00000000	37.20472000	8.96284400
56.79999680	0.00000000	41.85531000	7.38188900
56.99999679	0.00000000	45.67544000	4.68750000
57.19999677	0.00000000	47.99458000	1.66707700
57.39999676	0.00000000	47.99458000	-0.60285430
57.59999675	0.00000000	45.76156000	-0.97810030
57.79999674	0.00000000	42.69193000	0.55364170
57.99999673	0.00000000	39.57308000	3.70939900
58.19999672	0.00000000	36.87869000	8.31077700
58.39999670	0.00000000	35.29773000	13.28125000
58.59999669	0.00000000	34.92249000	16.67692000
58.79999668	0.00000000	35.67298000	17.50738000
58.99999667	0.00000000	37.61687000	15.51427000
59.19999666	0.00000000	39.90526000	11.28199000
59.39999664	0.00000000	42.22441000	5.11195900
59.59999663	0.00000000	43.71924000	-1.02116100
59.79999662	0.00000000	43.76230000	-5.62253900
59.99999661	0.00000000	42.64886000	-7.52337600
60.19999660	0.00000000	41.15403000	-5.57947800
60.39999658	0.00000000	39.94832000	-0.60285430
60.59999657	0.00000000	39.15477000	6.31766700
60.79999656	0.00000000	38.41658000	13.28125000
60.99999655	0.00000000	38.45964000	18.67618000
61.19999654	0.00000000	39.53002000	21.73966000
61.39999653	0.00000000	40.64345000	20.90305000
61.59999651	0.00000000	41.06791000	16.30167000
61.79999650	0.00000000	41.06791000	9.00590400
61.99999649	0.00000000	40.64345000	0.92888770
62.19999648	0.00000000	39.53002000	-5.62253900
62.39999647	0.00000000	38.36737000	-9.52263600
62.59999645	0.00000000	37.61687000	-9.84867000
62.79999644	0.00000000	37.20472000	-6.40994000
62.99999643	0.00000000	37.61687000	0.13533460
63.19999642	0.00000000	38.36737000	7.80019600
63.39999641	0.00000000	39.57308000	14.76993000
63.59999639	0.00000000	41.06791000	19.42052000
63.79999638	0.00000000	42.22441000	20.99532000
63.99999637	0.00000000	42.59965000	19.42052000
64.19999636	0.00000000	42.22441000	14.81299000
64.39999635	0.00000000	41.06791000	8.26771600
64.59999634	0.00000000	39.53002000	1.71013800
64.79999632	0.00000000	37.99213000	-3.72170300
64.99999631	0.00000000	36.87869000	-6.78518600
65.19999630	0.00000000	36.83563000	-6.82824800
65.39999629	0.00000000	37.57381000	-4.18307100
65.59999628	0.00000000	38.36737000	0.04306102
65.79999626	0.00000000	39.57308000	4.73671200
65.99999625	0.00000000	41.01870000	9.38115100
66.19999624	0.00000000	41.80610000	13.23819000
66.39999623	0.00000000	41.39394000	15.23130000
66.59999622	0.00000000	40.31742000	15.64960000
66.79999620	0.00000000	38.74261000	14.85605000
66.99999619	0.00000000	37.61687000	12.53691000
67.19999618	0.00000000	36.83563000	9.47342500
67.39999617	0.00000000	36.92175000	6.31151500
67.59999616	0.00000000	38.41658000	3.19881900
67.79999615	0.00000000	40.73573000	0.46751960
67.99999613	0.00000000	43.02411000	-1.43946800
68.19999612	0.00000000	44.92495000	-2.26993100
68.39999611	0.00000000	45.30019000	-1.85777500
68.59999610	0.00000000	44.13755000	-0.64591530
68.79999609	0.00000000	41.80610000	2.08538400
68.99999607	0.00000000	38.32431000	5.93626900
69.19999606	0.00000000	34.87328000	9.84867000
69.39999605	0.00000000	32.12967000	13.69956000
69.59999604	0.00000000	30.68405000	16.35089000
69.79999603	0.00000000	31.47761000	16.76919000
69.99999601	0.00000000	34.92249000	15.23130000
70.19999600	0.00000000	39.53002000	12.07554000
70.39999599	0.00000000	44.22982000	7.42495000
70.59999598	0.00000000	48.46210000	2.08538400
70.79999597	0.00000000	51.11343000	-2.18380900
70.99999596	0.00000000	51.07037000	-4.50910400
71.19999594	0.00000000	47.99458000	-4.92125900
71.39999593	0.00000000	42.64886000	-2.93430100
71.59999592	0.00000000	36.82948000	0.87967510
71.79999591	0.00000000	31.75443000	5.89320800
71.99999590	0.00000000	27.94045000	10.49459000
72.19999588	0.00000000	26.77780000	13.60728000
72.39999587	0.00000000	28.68479000	14.81299000
72.59999586	0.00000000	32.54798000	14.03174000
72.79999585	0.00000000	37.99213000	11.74951000
72.99999584	0.00000000	43.76230000	8.26771600
73.19999582	0.00000000	48.36983000	4.87204700
73.39999581	0.00000000	50.69513000	2.50369100
73.59999580	0.00000000	50.00000000	1.75319900
73.79999579	0.00000000	47.29946000	2.41141700
73.99999578	0.00000000	43.43627000	3.94315900
74.19999577	0.00000000	38.78568000	5.06274600
74.39999575	0.00000000	34.92249000	5.89320800
74.59999574	0.00000000	32.17273000	6.21924200
74.79999573	0.00000000	31.05930000	5.85014700
74.99999572	0.00000000	32.17273000	4.73671200
75.19999571	0.00000000	34.83022000	3.62327700
75.39999569	0.00000000	37.94907000	3.29109200
75.59999568	0.00000000	41.01870000	4.08464600
75.79999567	0.00000000	43.34399000	6.36072800
75.99999566	0.00000000	44.13755000	9.05511800
76.19999565	0.00000000	43.80536000	11.38041000
76.39999563	0.00000000	42.64886000	13.28125000
76.59999562	0.00000000	41.15403000	13.56422000
76.79999561	0.00000000	39.99754000	11.65723000
76.99999560	0.00000000	39.57308000	7.80019600
77.19999559	0.00000000	39.53002000	3.20497000
77.39999558	0.00000000	39.53002000	-1.07037400
77.59999556	0.00000000	39.53002000	-4.13385800
77.79999555	0.00000000	39.48696000	-5.25344500
77.99999554	0.00000000	39.06250000	-3.67249000
78.19999553	0.00000000	37.94907000	0.51058070
78.39999552	0.00000000	36.83563000	5.89320800
78.59999550	0.00000000	36.46038000	10.95595000
78.79999549	0.00000000	36.83563000	15.23130000
78.99999548	0.00000000	37.99213000	17.88263000
79.19999547	0.00000000	39.57308000	17.88263000
79.39999546	0.00000000	41.48622000	15.18824000
79.59999544	0.00000000	43.38705000	10.58686000
79.79999543	0.00000000	44.13755000	5.15501900
79.99999542	0.00000000	43.80536000	0.17839570
80.19999541	0.00000000	42.59965000	-3.34645700
80.39999540	0.00000000	40.64345000	-4.50910400
80.59999539	0.00000000	37.94907000	-3.76476400
80.79999537	0.00000000	35.29773000	-1.07037400
80.99999536	0.00000000	33.75369000	2.78051200
81.19999535	0.00000000	33.75369000	6.68676100
81.39999534	0.00000000	35.24852000	10.53765000
81.59999533	0.00000000	37.57381000	13.23819000
81.79999531	0.00000000	39.90526000	14.07480000
81.99999530	0.00000000	42.22441000	13.74262000
82.19999529	0.00000000	43.76230000	12.53691000
82.39999528	0.00000000	44.13755000	10.58686000
82.59999527	0.00000000	43.38705000	7.84940900
82.79999525	0.00000000	41.48622000	4.77977300
82.99999524	0.00000000	39.57308000	2.04232300
83.19999523	0.00000000	37.99213000	0.04306102
83.39999522	0.00000000	36.83563000	-1.53174200
83.59999521	0.00000000	36.46038000	-2.55905500
83.79999520	0.00000000	36.78642000	-1.72244100
83.99999518	0.00000000	37.57381000	1.66707700
84.19999517	0.00000000	38.32431000	5.85014700
84.39999516	0.00000000	39.11171000	9.42421200
84.59999515	0.00000000	39.53002000	12.53691000
84.79999514	0.00000000	39.90526000	14.81299000
84.99999512	0.00000000	40.27436000	15.18824000
85.19999511	0.00000000	39.90526000	13.65650000
85.39999510	0.00000000	39.62229000	10.53765000
85.59999509	0.00000000	39.94832000	6.26845500
85.79999508	0.00000000	40.69267000	1.66707700
85.99999506	0.00000000	41.01870000	-2.18380900
86.19999505	0.00000000	40.64345000	-4.09079700
86.39999504	0.00000000	39.53002000	-3.76476400
86.59999503	0.00000000	38.36737000	-1.39640700
86.79999502	0.00000000	37.57381000	2.46063000
86.99999501	0.00000000	36.78642000	7.47416300
87.19999499	0.00000000	36.41117000	12.07554000
87.39999498	0.00000000	36.41117000	15.18824000
87.59999497	0.00000000	36.83563000	16.30167000
87.79999496	0.00000000	38.04134000	14.72072000
87.99999495	0.00000000	39.90526000	10.53765000
88.19999493	0.00000000	41.80610000	5.19808000
88.39999492	0.00000000	42.55659000	0.55364170
88.59999491	0.00000000	42.22441000	-2.55905500
88.79999490	0.00000000	41.06791000	-3.71555100
88.99999489	0.00000000	39.53002000	-2.51599400
89.19999487	0.00000000	37.99213000	0.92888770
89.39999486	0.00000000	36.83563000	5.93626900
89.59999485	0.00000000	36.41117000	10.91289000
89.79999484	0.00000000	36.41117000	14.76993000
89.99999483	0.00000000	36.83563000	16.25861000
90.19999482	0.00000000	37.94907000	14.76993000
90.39999480	0.00000000	39.11171000	10.91289000
90.59999479	0.00000000	39.90526000	5.93626900
90.79999478	0.00000000	40.64345000	0.92888770
90.99999477	0.00000000	40.64345000	-2.51599400
91.19999476	0.00000000	39.94832000	-3.67249000
91.39999474	0.00000000	39.57308000	-2.14074800
91.59999473	0.00000000	39.53002000	1.71013800
91.79999472	0.00000000	39.53002000	6.68676100
91.99999471	0.00000000	39.53002000	11.70029000
92.19999470	0.00000000	39.53002000	15.09596000
92.39999468	0.00000000	39.53002000	15.92642000
92.59999467	0.00000000	39.48696000	13.98253000
92.79999466	0.00000000	39.06250000	10.16855000
92.99999465	0.00000000	37.94907000	5.15501900
93.19999464	0.00000000	36.83563000	0.55364170
93.39999463	0.00000000	36.41117000	-2.51599400
93.59999461	0.00000000	36.41117000	-3.25418300
93.79999460	0.00000000	36.83563000	-1.02116100
93.99999459	0.00000000	37.99213000	2.82972400
94.19999458	0.00000000	39.57308000	7.06200700
94.39999457	0.00000000	41.48622000	11.28199000
94.59999455	0.00000000	43.38705000	13.52116000
94.79999454	0.00000000	44.13755000	13.23819000
94.99999453	0.00000000	43.80536000	10.91289000
95.19999452	0.00000000	42.55659000	7.47416300
95.39999451	0.00000000	40.22515000	3.62327700
95.59999449	0.00000000	36.78642000	0.55364170
95.79999448	0.00000000	33.75369000	-0.97810030
95.99999447	0.00000000	32.12967000	-0.60285430
96.19999446	0.00000000	31.75443000	1.66707700
96.39999445	0.00000000	32.59719000	4.73671200
96.59999444	0.00000000	35.29773000	7.84940900
96.79999442	0.00000000	39.15477000	10.49459000
96.99999441	0.00000000	42.97490000	11.65723000
97.19999440	0.00000000	46.08759000	10.91289000
97.39999439	0.00000000	47.25640000	9.05511800
97.59999438	0.00000000	46.92421000	6.72982200
97.79999436	0.00000000	45.30019000	4.77977300
97.99999435	0.00000000	42.18134000	3.24803100
98.19999434	0.00000000	37.99213000	2.50369100
98.39999433	0.00000000	34.12894000	3.19881900
98.59999432	0.00000000	31.75443000	4.31840500
98.79999430	0.00000000	30.59178000	5.11195900
98.99999429	0.00000000	31.01009000	5.89320800
99.19999428	0.00000000	33.33538000	6.26845500
99.39999427	0.00000000	36.78642000	6.31151500
99.59999426	0.00000000	40.64345000	6.35457700
99.79999425	0.00000000	43.76230000	6.72982200
99.99999423	0.00000000	45.71850000	7.47416300
100.19999422	0.00000000	46.50590000	7.84940900
100.39999421	0.00000000	45.71850000	7.89247000
100.59999420	0.00000000	43.76230000	7.89247000
100.79999419	0.00000000	40.69267000	7.80019600
100.99999417	0.00000000	37.25394000	7.01279500
101.19999416	0.00000000	34.87328000	5.11195900
101.39999415	0.00000000	33.29232000	3.19881900
101.59999414	0.00000000	32.54798000	1.66707700
101.79999413	0.00000000	33.33538000	0.92888770
101.99999411	0.00000000	35.20546000	1.71013800
102.19999410	0.00000000	37.53075000	3.57406500
102.39999409	0.00000000	39.53002000	5.93626900
102.59999408	0.00000000	41.48622000	8.26771600
102.79999407	0.00000000	43.38705000	10.58686000
102.99999406	0.00000000	44.13755000	12.03248000
103.19999404	0.00000000	43.76230000	11.70029000
103.39999403	0.00000000	42.22441000	9.79945900
103.59999402	0.00000000	39.94832000	7.47416300
103.79999401	0.00000000	37.99213000	4.73671200
103.99999400	0.00000000	36.36811000	2.04232300
104.19999398	0.00000000	34.87328000	0.13533460
104.39999397	0.00000000	34.13509000	-0.60285430
104.59999396	0.00000000	34.87328000	0.55364170
104.79999395	0.00000000	36.36811000	3.19881900
104.99999394	0.00000000	37.94907000	6.26845500
105.19999392	0.00000000	39.48696000	8.96284400
105.39999391	0.00000000	40.64345000	10.53765000
105.59999390	0.00000000	41.01870000	10.91289000
105.79999389	0.00000000	40.69267000	10.16855000
105.99999388	0.00000000	39.90526000	8.21850300
106.19999387	0.00000000	39.11171000	5.93626900
106.39999385	0.00000000	37.94907000	3.61712600
106.59999384	0.00000000	36.83563000	2.12844500
106.79999383	0.00000000	36.46038000	2.08538400
106.99999382	0.00000000	36.83563000	3.19881900
107.19999381	0.00000000	37.94907000	4.77977300
107.39999379	0.00000000	39.11171000	6.68676100
107.59999378	0.00000000	39.86220000	8.58759800
107.79999377	0.00000000	40.27436000	9.33809000
107.99999376	0.00000000	39.86220000	9.00590400
108.19999375	0.00000000	39.15477000	7.84940900
108.39999374	0.00000000	38.32431000	6.26845500
108.59999372	0.00000000	37.57381000	4.36146600
108.79999371	0.00000000	36.78642000	2.50369100
108.99999370	0.00000000	36.46038000	2.12844500
109.19999369	0.00000000	36.78642000	3.19881900
109.39999368	0.00000000	37.61687000	4.73671200
109.59999366	0.00000000	38.74261000	6.31151500
109.79999365	0.00000000	40.27436000	7.84940900
109.99999364	0.00000000	41.01870000	9.00590400
110.19999363	0.00000000	41.06791000	9.38115100
110.39999362	0.00000000	40.69267000	9.00590400
110.59999360	0.00000000	39.90526000	7.84940900
110.79999359	0.00000000	39.11171000	6.31151500
110.99999358	0.00000000	37.94907000	4.73671200
111.19999357	0.00000000	36.83563000	3.19881900
111.39999356	0.00000000	36.46038000	2.08538400
111.59999355	0.00000000	36.78642000	2.08538400
111.79999353	0.00000000	37.53075000	3.19881900
111.99999352	0.00000000	37.94907000	4.68750000
112.19999351	0.00000000	38.36737000	5.89320800
112.39999350	0.00000000	39.11171000	6.68676100
112.59999349	0.00000000	39.48696000	7.47416300
112.79999347	0.00000000	39.53002000	7.80019600
112.99999346	0.00000000	39.53002000	7.42495000
113.19999345	0.00000000	39.48696000	6.36072800
113.39999344	0.00000000	39.11171000	5.61638700
113.59999343	0.00000000	38.36737000	5.93626900
113.79999341	0.00000000	37.99213000	6.21924200
113.99999340	0.00000000	37.94907000	5.89320800
114.19999339	0.00000000	37.94907000	5.15501900
114.39999338	0.00000000	37.94907000	4.77977300
114.59999337	0.00000000	37.94907000	4.69365100
114.79999336	0.00000000	37.94907000	4.36146600
114.99999334	0.00000000	37.94907000	3.99237200
115.19999333	0.00000000	37.94907000	4.36146600
115.39999332	0.00000000	37.99213000	4.73671200
115.59999331	0.00000000	38.36737000	5.15501900
115.79999330	0.00000000	39.06250000	5.93626900
115.99999328	0.00000000	39.06250000	6.68676100
116.19999327	0.00000000	38.36737000	7.47416300
116.39999326	0.00000000	37.99213000	7.84940900
116.59999325	0.00000000	37.94907000	7.89247000
116.79999324	0.00000000	37.94907000	7.84940900
116.99999322	0.00000000	37.99213000	7.42495000
117.19999321	0.00000000	38.36737000	6.31151500
117.39999320	0.00000000	39.11171000	5.15501900
117.59999319	0.00000000	39.48696000	4.36146600
117.79999318	0.00000000	39.53002000	3.57406500
117.99999317	0.00000000	39.53002000	3.24803100
118.19999315	0.00000000	39.53002000	3.57406500
118.39999314	0.00000000	39.48696000	4.36146600
118.59999313	0.00000000	39.06250000	5.11195900
118.79999312	0.00000000	37.94907000	5.93626900
118.99999311	0.00000000	36.78642000	6.68676100
119.19999309	0.00000000	36.03592000	7.47416300
119.39999308	0.00000000	35.62377000	7.84940900
119.59999307	0.00000000	36.03592000	7.84940900
119.79999306	0.00000000	36.78642000	7.47416300
119.99999305	0.00000000	37.99213000	6.72982200
120.19999303	0.00000000	39.48696000	6.31151500
120.39999302	0.00000000	40.64345000	5.89320800
120.59999301	0.00000000	41.06791000	5.15501900
120.79999300	0.00000000	41.06791000	4.77977300
120.99999299	0.00000000	40.69267000	4.73671200
121.19999298	0.00000000	39.90526000	4.73671200
121.39999296	0.00000000	39.11171000	4.73671200
121.59999295	0.00000000	37.90600000	4.73671200
121.79999294	0.00000000	36.41117000	4.77977300
121.99999293	0.00000000	35.29773000	5.15501900
122.19999292	0.00000000	35.25467000	5.89320800
122.39999290	0.00000000	35.99286000	6.31151500
122.59999289	0.00000000	36.78642000	6.72982200
122.79999288	0.00000000	37.94907000	7.42495000
122.99999287	0.00000000	39.11171000	7.42495000
123.19999286	0.00000000	39.90526000	6.72982200
123.39999284	0.00000000	40.69267000	6.31151500
123.59999283	0.00000000	41.01870000	5.89320800
123.79999282	0.00000000	40.69267000	5.15501900
123.99999281	0.00000000	39.90526000	4.77977300
124.19999280	0.00000000	39.15477000	4.73671200
124.39999279	0.00000000	38.32431000	4.73671200
124.59999277	0.00000000	37.57381000	4.73671200
124.79999276	0.00000000	36.78642000	4.77977300
124.99999275	0.00000000	36.41117000	5.15501900
125.19999274	0.00000000	36.36811000	5.89320800
125.39999273	0.00000000	36.41117000	6.26845500
125.59999271	0.00000000	36.78642000	6.31151500
125.79999270	0.00000000	37.57381000	6.31151500
125.99999269	0.00000000	38.36737000	6.31151500
126.19999268	0.00000000	39.53002000	6.31151500
126.39999267	0.00000000	40.64345000	6.31151500
126.59999265	0.00000000	41.01870000	6.26845500
126.79999264	0.00000000	40.64345000	5.89320800
126.99999263	0.00000000	39.53002000	5.15501900
127.19999262	0.00000000	38.36737000	4.77977300
127.39999261	0.00000000	37.53075000	4.73671200
127.59999260	0.00000000	36.36811000	4.73671200
127.79999258	0.00000000	35.29773000	4.73671200
127.99999257	0.00000000	35.29773000	4.77977300
128.19999256	0.00000000	36.36811000	5.15501900
128.39999255	0.00000000	37.53075000	5.89320800
128.59999254	0.00000000	38.32431000	6.26845500
128.79999252	0.00000000	39.15477000	6.31151500
128.99999251	0.00000000	39.86220000	6.26845500
129.19999250	0.00000000	40.27436000	5.89320800
129.39999249	0.00000000	39.86220000	5.15501900
129.59999248	0.00000000	39.11171000	4.77977300
129.79999246	0.00000000	37.94907000	4.73671200
129.99999245	0.00000000	36.83563000	4.73671200
130.19999244	0.00000000	36.41117000	4.77977300
130.39999243	0.00000000	36.36811000	5.15501900
130.59999242	0.00000000	36.41117000	5.89320800
130.79999241	0.00000000	36.83563000	6.26845500
130.99999239	0.00000000	37.94907000	6.31151500
131.19999238	0.00000000	39.06250000	6.31151500
131.39999237	0.00000000	39.48696000	6.26845500
131.59999236	0.00000000	39.53002000	5.89320800
131.79999235	0.00000000	39.48696000	5.15501900
131.99999233	0.00000000	39.11171000	4.73671200
132.19999232	0.00000000	38.36737000	4.36146600
132.39999231	0.00000000	37.94907000	3.99237200
132.59999230	0.00000000	37.53075000	4.36146600
132.79999229	0.00000000	36.83563000	4.73671200
132.99999227	0.00000000	36.83563000	5.15501900
133.19999226	0.00000000	37.53075000	5.93626900
133.39999225	0.00000000	37.90600000	6.68676100
133.59999224	0.00000000	37.94907000	7.42495000
133.79999223	0.00000000	37.94907000	7.42495000
133.99999222	0.00000000	37.94907000	6.68676100
134.19999220	0.00000000	37.94907000	5.93626900
134.39999219	0.00000000	37.94907000	5.11195900
134.59999218	0.00000000	37.94907000	4.36146600
134.79999217	0.00000000	37.99213000	3.57406500
134.99999216	0.00000000	38.36737000	3.19881900
135.19999214	0.00000000	39.11171000	3.19881900
135.39999213	0.00000000	39.43774000	3.57406500
135.59999212	0.00000000	39.11171000	4.36146600
135.79999211	0.00000000	38.36737000	5.11195900
135.99999210	0.00000000	37.94907000	5.93626900
136.19999208	0.00000000	37.53075000	6.68676100
136.39999207	0.00000000	36.78642000	7.42495000
136.59999206	0.00000000	36.41117000	7.42495000
136.79999205	0.00000000	36.41117000	6.72982200
136.99999204	0.00000000	36.78642000	6.31151500
137.19999203	0.00000000	37.57381000	5.89320800
137.39999201	0.00000000	38.32431000	5.11195900
137.59999200	0.00000000	39.11171000	4.40452700
137.79999199	0.00000000	39.48696000	3.94931100
137.99999198	0.00000000	39.48696000	3.98622000
138.19999197	0.00000000	39.11171000	3.94931100
138.39999195	0.00000000	38.32431000	4.36146600
138.59999194	0.00000000	37.57381000	4.73671200
138.79999193	0.00000000	36.78642000	5.15501900
138.99999192	0.00000000	36.41117000	5.89320800
139.19999191	0.00000000	36.41117000	6.31151500
139.39999189	0.00000000	36.78642000	6.68676100
139.59999188	0.00000000	37.53075000	7.05585600
139.79999187	0.00000000	37.90600000	6.68676100
139.99999186	0.00000000	37.99213000	6.31151500
140.19999185	0.00000000	38.32431000	5.89320800
140.39999184	0.00000000	38.69341000	5.15501900
140.59999182	0.00000000	38.32431000	4.73671200
140.79999181	0.00000000	37.99213000	4.31840500
140.99999180	0.00000000	37.90600000	3.62327700
141.19999179	0.00000000	37.53075000	3.62327700
141.39999178	0.00000000	36.83563000	4.36146600
141.59999176	0.00000000	36.83563000	5.11195900
141.79999175	0.00000000	37.53075000	5.93626900
141.99999174	0.00000000	37.90600000	6.68676100
142.19999173	0.00000000	37.94907000	7.47416300
142.39999172	0.00000000	37.94907000	7.80019600
142.59999170	0.00000000	37.94907000	7.47416300
142.79999169	0.00000000	37.94907000	6.68676100
142.99999168	0.00000000	37.90600000	5.93626900
143.19999167	0.00000000	37.57381000	5.11195900
143.39999166	0.00000000	37.16166000	4.36146600
143.59999165	0.00000000	37.19857000	3.57406500
143.79999163	0.00000000	37.16166000	3.24803100
143.99999162	0.00000000	37.57381000	3.57406500
144.19999161	0.00000000	37.90600000	4.36146600
144.39999160	0.00000000	37.94907000	5.11195900
144.59999159	0.00000000	37.94907000	5.89320800
144.79999157	0.00000000	37.94907000	6.26845500
144.99999156	0.00000000	37.94907000	6.31151500
145.19999155	0.00000000	37.94907000	6.31151500
145.39999154	0.00000000	37.94907000	6.26845500
145.59999153	0.00000000	37.94907000	5.89320800
145.79999151	0.00000000	37.90600000	5.15501900
145.99999150	0.00000000	37.53075000	4.77977300
146.19999149	0.00000000	36.83563000	4.73671200
146.39999148	0.00000000	36.83563000	4.69365100
146.59999147	0.00000000	37.53075000	4.36146600
146.79999146	0.00000000	37.90600000	3.99237200
146.99999144	0.00000000	37.94907000	4.40452700
147.19999143	0.00000000	37.94907000	5.11195900
147.39999142	0.00000000	37.94907000	5.89320800
147.59999141	0.00000000	37.94907000	6.26845500
147.79999140	0.00000000	37.90600000	6.31151500
147.99999138	0.00000000	37.53075000	6.31151500
148.19999137	0.00000000	36.78642000	6.26845500
148.39999136	0.00000000	36.41117000	5.89320800
148.59999135	0.00000000	36.41117000	5.15501900
148.79999134	0.00000000	36.78642000	4.77977300
148.99999132	0.00000000	37.53075000	4.73671200
149.19999131	0.00000000	37.90600000	4.73671200
149.39999130	0.00000000	37.94907000	4.73671200
149.59999129	0.00000000	37.94907000	4.77977300
149.79999128	0.00000000	37.94907000	5.11195900
149.99999127	0.00000000	37.94907000	5.51796200
150.19999125	0.00000000	37.94907000	5.53026500
150.39999124	0.00000000	37.94907000	5.93626900
150.59999123	0.00000000	37.94907000	6.26845500
150.79999122	0.00000000	37.94907000	6.31151500
150.99999121	0.00000000	37.90600000	6.26845500
151.19999119	0.00000000	37.53075000	5.89320800
151.39999118	0.00000000	36.83563000	5.15501900
151.59999117	0.00000000	36.78642000	4.77977300
151.79999116	0.00000000	37.15551000	4.73671200
151.99999115	0.00000000	37.16166000	4.73671200
152.19999113	0.00000000	37.57381000	4.73671200
152.39999112	0.00000000	37.90600000	4.73671200
152.59999111	0.00000000	37.94907000	4.77977300
152.79999110	0.00000000	37.94907000	5.15501900
152.99999109	0.00000000	37.94907000	5.85014700
153.19999108	0.00000000	37.94907000	5.89320800
153.39999106	0.00000000	37.90600000	5.53026500
153.59999105	0.00000000	37.53075000	5.56717500
153.79999104	0.00000000	36.78642000	5.53026500
153.99999103	0.00000000	36.41117000	5.93626900
154.19999102	0.00000000	36.36811000	6.26845500
154.39999100	0.00000000	36.36811000	6.26845500
154.59999099	0.00000000	36.36811000	5.89320800
154.79999098	0.00000000	36.41117000	5.15501900
154.99999097	0.00000000	36.78642000	4.77977300
155.19999096	0.00000000	37.53075000	4.73671200
155.39999094	0.00000000	37.90600000	4.73671200
155.59999093	0.00000000	37.94907000	4.73671200
155.79999092	0.00000000	37.94907000	4.73671200
155.99999091	0.00000000	37.94907000	4.77977300
156.19999090	0.00000000	37.94907000	5.15501900
156.39999089	0.00000000	37.90600000	5.89320800
156.59999087	0.00000000	37.53075000	6.26845500
156.79999086	0.00000000	36.78642000	6.31151500
156.99999085	0.00000000	36.41117000	6.31151500
157.19999084	0.00000000	36.36811000	6.31151500
157.39999083	0.00000000	36.36811000	6.26845500
157.59999081	0.00000000	36.41117000	5.89320800
157.79999080	0.00000000	36.78642000	5.15501900
157.99999079	0.00000000	37.53075000	4.77977300
158.19999078	0.00000000	37.90600000	4.73671200
158.39999077	0.00000000	37.94907000	4.73671200
158.59999075	0.00000000	37.94907000	4.73671200
158.79999074	0.00000000	37.94907000	4.73671200
158.99999073	0.00000000	37.94907000	4.77977300
159.19999072	0.00000000	37.90600000	5.15501900
159.39999071	0.00000000	37.53075000	5.89320800
159.59999070	0.00000000	36.78642000	6.26845500
159.79999068	0.00000000	36.41117000	6.31151500
159.99999067	0.00000000	36.36811000	6.31151500
160.19999066	0.00000000	36.36811000	6.31151500
160.39999065	0.00000000	36.36811000	6.26845500
160.59999064	0.00000000	36.36811000	5.89320800
160.79999062	0.00000000	36.36811000	5.15501900
160.99999061	0.00000000	36.41117000	4.77977300
161.19999060	0.00000000	36.78642000	4.73671200
161.39999059	0.00000000	37.53075000	4.73671200
161.59999058	0.00000000	37.90600000	4.73671200
161.79999056	0.00000000	37.94907000	4.73671200
161.99999055	0.00000000	37.94907000	4.77977300
162.19999054	0.00000000	37.94907000	5.15501900
162.39999053	0.00000000	37.94907000	5.89320800
162.59999052	0.00000000	37.90600000	6.26845500
162.79999051	0.00000000	37.53075000	6.31151500
162.99999049	0.00000000	36.78642000	6.26845500
163.19999048	0.00000000	36.36811000	5.89320800
163.39999047	0.00000000	35.99286000	5.15501900
163.59999046	0.00000000	35.62377000	4.77977300
163.79999045	0.00000000	35.99286000	4.73671200
163.99999043	0.00000000	36.32505000	4.73671200
164.19999042	0.00000000	36.41117000	4.73671200
164.39999041	0.00000000	36.78642000	4.73671200
164.59999040	0.00000000	37.53075000	4.73671200
164.79999039	0.00000000	37.94907000	4.73671200
164.99999037	0.00000000	38.32431000	4.73671200
165.19999036	0.00000000	38.69341000	4.73671200
165.39999035	0.00000000	38.32431000	4.73671200
165.59999034	0.00000000	37.94907000	4.73671200
165.79999033	0.00000000	37.53075000	4.73671200
165.99999032	0.00000000	36.78642000	4.73671200
166.19999030	0.00000000	36.41117000	4.73671200
166.39999029	0.00000000	36.36811000	4.73671200
166.59999028	0.00000000	36.36811000	4.73671200
166.79999027	0.00000000	36.36811000	4.73671200
166.99999026	0.00000000	36.41117000	4.73671200
167.19999024	0.00000000	36.78642000	4.73671200
167.39999023	0.00000000	37.53075000	4.73671200
167.59999022	0.00000000	37.90600000	4.73671200
167.79999021	0.00000000	37.94907000	4.73671200
167.99999020	0.00000000	37.94907000	4.73671200
168.19999018	0.00000000	37.94907000	4.73671200
168.39999017	0.00000000	37.94907000	4.73671200
168.59999016	0.00000000	37.90600000	4.73671200
168.79999015	0.00000000	37.53075000	4.73671200
168.99999014	0.00000000	36.83563000	4.73671200
169.19999013	0.00000000	36.78642000	4.73671200
169.39999011	0.00000000	37.11245000	4.73671200
169.59999010	0.00000000	36.74335000	4.73671200
169.79999009	0.00000000	36.41117000	4.73671200
169.99999008	0.00000000	36.36811000	4.73671200
170.19999007	0.00000000	36.36811000	4.73671200
170.39999005	0.00000000	36.36811000	4.73671200
170.59999004	0.00000000	36.41117000	4.73671200
170.79999003	0.00000000	36.78642000	4.73671200
170.99999002	0.00000000	37.53075000	4.73671200
171.19999001	0.00000000	37.90600000	4.73671200
171.39998999	0.00000000	37.94907000	4.73671200
171.59998998	0.00000000	37.94907000	4.73671200
171.79998997	0.00000000	37.90600000	4.73671200
171.99998996	0.00000000	37.53075000	4.69365100
172.19998995	0.00000000	36.78642000	4.36146600
172.39998994	0.00000000	36.41117000	3.99237200
172.59998992	0.00000000	36.36811000	4.36146600
172.79998991	0.00000000	36.36811000	4.69365100
172.99998990	0.00000000	36.36811000	4.73671200
173.19998989	0.00000000	36.36811000	4.73671200
173.39998988	0.00000000	36.41117000	4.77977300
173.59998986	0.00000000	36.74335000	5.15501900
173.79998985	0.00000000	37.15551000	5.85014700
173.99998984	0.00000000	37.16166000	5.89320800
174.19998983	0.00000000	37.57381000	5.53026500
174.39998982	0.00000000	37.90600000	5.51796200
174.59998980	0.00000000	37.90600000	5.11195900
174.79998979	0.00000000	37.57381000	4.77977300
174.99998978	0.00000000	37.16166000	4.73671200
175.19998977	0.00000000	37.15551000	4.73671200
175.39998976	0.00000000	36.74335000	4.73671200
175.59998975	0.00000000	36.41117000	4.73671200
175.79998973	0.00000000	36.36811000	4.73671200
175.99998972	0.00000000	36.36811000	4.73671200
176.19998971	0.00000000	36.36811000	4.73671200
176.39998970	0.00000000	36.36811000	4.73671200
176.59998969	0.00000000	36.36811000	4.73671200
176.79998967	0.00000000	36.36811000	4.73671200
176.99998966	0.00000000	36.36811000	4.73671200
177.19998965	0.00000000	36.36811000	4.73671200
177.39998964	0.00000000	36.36811000	4.73671200
177.59998963	0.00000000	36.36811000	4.73671200
177.79998961	0.00000000	36.36811000	4.73671200
177.99998960	0.00000000	36.36811000	4.73671200
178.19998959	0.00000000	36.36811000	4.73671200
178.39998958	0.00000000	36.36811000	4.73671200
178.59998957	0.00000000	36.36811000	4.73671200
178.79998956	0.00000000	36.36811000	4.73671200
178.99998954	0.00000000	36.36811000	4.73671200
179.19998953	0.00000000	36.36811000	4.73671200
179.39998952	0.00000000	36.36811000	4.73671200
179.59998951	0.00000000	36.36811000	4.73671200
179.79998950	0.00000000	36.36811000	4.73671200
179.99998948	0.00000000	36.36811000	4.73671200
180.19998947	0.00000000	36.36811000	4.73671200
180.39998946	0.00000000	36.36811000	4.73671200
180.59998945	0.00000000	36.36811000	4.73671200
180.79998944	0.00000000	36.36811000	4.73671200
180.99998942	0.00000000	36.36811000	4.73671200
181.19998941	0.00000000	36.36811000	4.73671200
181.39998940	0.00000000	36.36811000	4.73671200
181.59998939	0.00000000	36.36811000	4.77977300
181.79998938	0.00000000	36.36811000	5.11195900
181.99998937	0.00000000	36.36811000	5.51796200
182.19998935	0.00000000	36.36811000	5.48105300
182.39998934	0.00000000	36.36811000	5.51796200
182.59998933	0.00000000	36.36811000	5.11195900
182.79998932	0.00000000	36.36811000	4.77977300
182.99998931	0.00000000	36.36811000	4.73671200
183.19998929	0.00000000	36.36811000	4.69365100
183.39998928	0.00000000	36.36811000	4.36146600
183.59998927	0.00000000	36.36811000	3.99237200
183.79998926	0.00000000	36.36811000	4.36146600
183.99998925	0.00000000	36.36811000	4.69365100
184.19998923	0.00000000	36.36811000	4.77977300
184.39998922	0.00000000	36.36811000	5.15501900
184.59998921	0.00000000	36.36811000	5.89320800
184.79998920	0.00000000	36.36811000	6.26845500
184.99998919	0.00000000	36.36811000	6.26845500
185.19998918	0.00000000	36.36811000	5.89320800
185.39998916	0.00000000	36.36811000	5.15501900
185.59998915	0.00000000	36.36811000	4.77977300
185.79998914	0.00000000	36.36811000	4.73671200
185.99998913	0.00000000	36.36811000	4.73671200
186.19998912	0.00000000	36.41117000	4.69365100
186.39998910	0.00000000	36.74335000	4.36146600
186.59998909	0.00000000	37.11245000	3.99237200
186.79998908	0.00000000	36.74335000	4.40452700
186.99998907	0.00000000	36.41117000	5.11195900
187.19998906	0.00000000	36.36811000	5.89320800
187.39998904	0.00000000	36.36811000	6.26845500
187.59998903	0.00000000	36.36811000	6.31151500
187.79998902	0.00000000	36.36811000	6.26845500
187.99998901	0.00000000	36.36811000	5.93626900
188.19998900	0.00000000	36.36811000	5.53026500
188.39998899	0.00000000	36.41117000	5.51796200
188.59998897	0.00000000	36.74335000	5.11195900
188.79998896	0.00000000	37.11245000	4.77977300
188.99998895	0.00000000	36.74335000	4.73671200
189.19998894	0.00000000	36.41117000	4.73671200
189.39998893	0.00000000	36.36811000	4.73671200
189.59998891	0.00000000	36.36811000	4.73671200
189.79998890	0.00000000	36.36811000	4.73671200
189.99998889	0.00000000	36.36811000	4.73671200
190.19998888	0.00000000	36.36811000	4.73671200
190.39998887	0.00000000	36.36811000	4.73671200
190.59998885	0.00000000	36.36811000	4.77977300
190.79998884	0.00000000	36.36811000	5.11195900
190.99998883	0.00000000	36.36811000	5.47490100
191.19998882	0.00000000	36.36811000	5.11195900
191.39998881	0.00000000	36.36811000	4.77977300
191.59998880	0.00000000	36.36811000	4.73671200
191.79998878	0.00000000	36.36811000	4.73671200
191.99998877	0.00000000	36.36811000	4.73671200
192.19998876	0.00000000	36.36811000	4.73671200
192.39998875	0.00000000	36.36811000	4.73671200
192.59998874	0.00000000	36.36811000	4.73671200
192.79998872	0.00000000	36.36811000	4.73671200
192.99998871	0.00000000	36.36811000	4.73671200
193.19998870	0.00000000	36.36811000	4.73671200
193.39998869	0.00000000	36.36811000	4.73671200
193.59998868	0.00000000	36.36811000	4.73671200
193.79998866	0.00000000	36.36811000	4.73671200
193.99998865	0.00000000	36.36811000	4.73671200
194.19998864	0.00000000	36.36811000	4.73671200
194.39998863	0.00000000	36.36811000	4.73671200
194.59998862	0.00000000	36.36811000	4.73671200
194.79998861	0.00000000	36.36811000	4.73671200
194.99998859	0.00000000	36.36811000	4.73671200
195.19998858	0.00000000	36.36811000	4.73671200
195.39998857	0.00000000	36.36811000	4.73671200
195.59998856	0.00000000	36.36811000	4.73671200
195.79998855	0.00000000	36.36811000	4.73671200
195.99998853	0.00000000	36.36811000	4.73671200
