Time	Channel A	Channel B	Channel C
(us)	(V)	(mV)	(mV)

-4.49999956	0.00000000	9.48572700	-1.57480300
-4.29999957	0.00000000	9.48572700	-1.57480300
-4.09999958	0.00000000	9.48572700	-1.57480300
-3.89999959	0.00000000	9.48572700	-1.57480300
-3.69999960	0.00000000	9.48572700	-1.57480300
-3.49999962	0.00000000	9.48572700	-1.57480300
-3.29999963	0.00000000	9.48572700	-1.57480300
-3.09999964	-0.15871060	9.48572700	-1.57480300
-2.89999965	0.00000000	9.48572700	-1.57480300
-2.69999966	0.00000000	9.48572700	-1.57480300
-2.49999968	0.00000000	9.48572700	-1.57480300
-2.29999969	0.00000000	9.48572700	-1.57480300
-2.09999970	0.00000000	9.48572700	-1.57480300
-1.89999971	0.00000000	9.48572700	-1.57480300
-1.69999972	0.00000000	9.48572700	-1.57480300
-1.49999973	0.00000000	9.48572700	-1.57480300
-1.29999975	0.00000000	9.48572700	-1.57480300
-1.09999976	0.00000000	9.48572700	-1.57480300
-0.89999977	0.00000000	9.48572700	-1.57480300
-0.69999978	0.00000000	9.48572700	-1.57480300
-0.49999979	0.00000000	9.48572700	-1.57480300
-0.29999981	0.31803640	9.48572700	-1.57480300
-0.09999982	0.63668800	9.48572700	-1.57480300
0.10000017	0.95533960	9.48572700	-1.57480300
0.30000016	0.95533960	9.48572700	-1.57480300
0.50000015	0.79601380	9.48572700	-1.57480300
0.70000013	0.15871060	9.48572700	-1.57480300
0.90000012	-0.63668800	9.48572700	-1.57480300
1.10000011	-1.59264300	9.48572700	-1.57480300
1.30000010	-2.54859700	9.48572700	-1.57480300
1.50000009	-2.86724900	9.48572700	-1.57480300
1.70000008	-2.38927200	9.48572700	-1.57480300
1.90000006	-1.27399100	9.48572700	-1.57480300
2.10000005	0.63668800	9.48572700	-1.57480300
2.30000004	2.70792300	9.48572700	-1.57480300
2.50000003	4.61921700	9.48572700	-1.57480300
2.70000002	5.41584600	9.48572700	-1.57480300
2.90000000	4.77854300	9.48572700	-1.57480300
3.09999999	2.86724900	9.48572700	-1.57480300
3.29999998	-0.31803640	9.48572700	-1.57480300
3.49999997	-3.82258900	9.48572700	-1.57480300
3.69999996	-6.53112700	9.48572700	-1.57480300
3.89999994	-7.96444400	9.48572700	-1.53174200
4.09999993	-7.48646600	9.48572700	-1.19955700
4.29999992	-4.77854300	9.48572700	-0.79355310
4.49999991	-0.79601380	9.48572700	-0.83046260
4.69999990	3.50393700	9.48572700	-0.79355310
4.89999989	7.32714100	9.48572700	-1.19955700
5.09999987	9.23905000	9.48572700	-1.57480300
5.29999986	8.92039900	9.48572700	-1.99311000
5.49999985	6.37180100	9.48572700	-2.68823800
5.69999984	2.07062000	9.48572700	-2.68823800
5.89999983	-2.70792300	9.48572700	-1.99311000
6.09999981	-6.84916400	9.48572700	-1.61786400
6.29999980	-9.23905000	9.48572700	-1.53174200
6.49999979	-9.23905000	9.48572700	-1.15649600
6.69999978	-7.00848900	9.48572700	-0.41830710
6.89999977	-3.18590100	9.48572700	-0.04306102
7.09999975	1.11466500	9.48572700	-0.04306102
7.29999974	4.93786900	9.48572700	-0.41830710
7.49999973	7.32714100	9.48572700	-1.15649600
7.69999972	7.64579200	9.48572700	-1.53174200
7.89999971	6.05315000	9.48572700	-1.57480300
8.09999970	3.18590100	9.48572700	-1.57480300
8.29999968	-0.15871060	9.48572700	-1.57480300
8.49999967	-3.02657500	9.48572700	-1.57480300
8.69999966	-4.77854300	9.48572700	-1.57480300
8.89999965	-5.25652100	9.48572700	-1.57480300
9.09999964	-4.30056600	9.48572700	-1.57480300
9.29999962	-2.54859700	9.48572700	-1.57480300
9.49999961	-0.47736220	9.48572700	-1.57480300
9.69999960	1.11466500	9.48572700	-1.57480300
9.89999959	2.22994600	9.48572700	-1.57480300
10.09999958	2.54859700	9.48572700	-1.57480300
10.29999956	2.22994600	9.48572700	-1.57480300
10.49999955	1.43331700	9.48572700	-1.57480300
10.69999954	0.47736220	9.48572700	-1.57480300
10.89999953	-0.31803640	9.48572700	-1.57480300
11.09999952	-0.79601380	9.48572700	-1.57480300
11.29999951	-0.95533960	9.48572700	-1.57480300
11.49999949	-0.95533960	9.48572700	-1.57480300
11.69999948	-0.79601380	9.48572700	-1.57480300
11.89999947	-0.47736220	9.48572700	-1.57480300
12.09999946	-0.15871060	9.48572700	-1.57480300
12.29999945	-0.15871060	9.48572700	-1.57480300
12.49999943	-0.15871060	9.48572700	-1.57480300
12.69999942	0.00000000	9.48572700	-1.57480300
12.89999941	0.00000000	9.48572700	-1.57480300
13.09999940	0.00000000	9.48572700	-1.57480300
13.29999939	0.00000000	9.48572700	-1.57480300
13.49999937	0.00000000	9.48572700	-1.57480300
13.69999936	0.00000000	9.48572700	-1.57480300
13.89999935	-0.15871060	9.48572700	-1.57480300
14.09999934	-0.15871060	9.48572700	-1.57480300
14.29999933	-0.15871060	9.48572700	-1.57480300
14.49999932	-0.15871060	9.48572700	-1.57480300
14.69999930	-0.15871060	9.48572700	-1.57480300
14.89999929	-0.15871060	9.48572700	-1.57480300
15.09999928	0.00000000	9.48572700	-1.57480300
15.29999927	0.00000000	9.48572700	-1.57480300
15.49999926	0.00000000	9.48572700	-1.57480300
15.69999924	0.00000000	9.48572700	-1.57480300
15.89999923	0.00000000	9.48572700	-1.57480300
16.09999922	0.00000000	9.48572700	-1.57480300
16.29999921	-0.15871060	9.48572700	-1.57480300
16.49999920	-0.15871060	9.48572700	-1.57480300
16.69999919	-0.15871060	9.52879000	-1.57480300
16.89999917	0.00000000	9.90403500	-1.57480300
17.09999916	0.00000000	10.64838000	-1.57480300
17.29999915	0.00000000	11.02362000	-1.57480300
17.49999914	0.00000000	11.06668000	-1.57480300
17.69999913	0.00000000	11.02362000	-1.57480300
17.89999911	0.00000000	10.59916000	-1.57480300
18.09999910	0.00000000	9.44266700	-1.57480300
18.29999909	0.00000000	7.90477300	-1.57480300
18.49999908	-0.15871060	6.32381900	-1.57480300
18.69999907	-0.15871060	4.78592500	-1.57480300
18.89999905	-0.15871060	3.67249000	-1.57480300
19.09999904	0.00000000	3.71555100	-1.57480300
19.29999903	0.00000000	5.33956700	-1.57480300
19.49999902	0.00000000	8.79060000	-1.57480300
19.69999901	0.00000000	13.39198000	-1.57480300
19.89999900	0.00000000	17.25517000	-1.57480300
20.09999898	0.00000000	19.99877000	-1.57480300
20.29999897	0.00000000	21.06914000	-1.57480300
20.49999896	0.00000000	19.44513000	-1.57480300
20.69999895	0.00000000	14.78838000	-1.57480300
20.89999894	0.00000000	7.86171200	-1.57480300
21.09999892	-0.15871060	0.46751960	-1.57480300
21.29999891	0.00000000	-6.09621000	-1.57480300
21.49999890	0.00000000	-10.65453000	-1.57480300
21.69999889	0.00000000	-10.93750000	-1.57480300
21.89999888	0.00000000	-6.28690900	-1.57480300
22.09999886	0.00000000	2.68823800	-1.57480300
22.29999885	0.00000000	14.69611000	-1.57480300
22.49999884	0.00000000	27.39296000	-1.57480300
22.69999883	0.00000000	37.35236000	-1.53174200
22.89999882	0.00000000	41.54773000	-1.19955700
23.09999881	-0.15871060	38.37967000	-0.79355310
23.29999879	0.00000000	27.90969000	-0.78124990
23.49999878	0.00000000	12.00172000	-0.37524600
23.69999877	0.00000000	-6.09621000	-0.04306102
23.89999876	0.00000000	-22.28715000	0.00000000
24.09999875	0.00000000	-31.87746000	-0.04306102
24.29999873	0.00000000	-32.62180000	-0.46136810
24.49999872	0.00000000	-23.64050000	-1.62401600
24.69999871	0.00000000	-6.24384800	-3.15575800
24.89999870	0.00000000	15.76649000	-4.73671200
25.09999869	0.00000000	37.40157000	-6.22539300
25.29999867	0.00000000	53.54945000	-6.96358300
25.49999866	0.00000000	60.05782000	-6.17618100
25.69999865	-0.15871060	54.61983000	-4.26919300
25.89999864	0.00000000	38.42889000	-1.48868100
26.09999863	0.00000000	15.21284000	1.99311000
26.29999862	0.00000000	-9.86712600	5.85014700
26.49999860	0.00000000	-31.08391000	8.87057000
26.69999859	0.00000000	-43.04257000	9.99015700
26.89999858	0.00000000	-43.04257000	8.40920300
27.09999857	0.00000000	-31.08391000	4.14000900
27.29999856	0.00000000	-9.91633800	-2.08538400
27.49999854	0.00000000	14.79454000	-9.42421200
27.69999853	-0.15871060	37.26624000	-16.35089000
27.89999852	0.00000000	53.13115000	-20.90305000
28.09999851	0.00000000	58.94439000	-21.64739000
28.29999850	0.00000000	53.59251000	-17.70423000
28.49999848	0.00000000	38.93332000	-9.57185000
28.69999847	0.00000000	18.46087000	1.62401600
28.89999846	0.00000000	-3.16806100	13.18898000
29.09999845	0.00000000	-20.98917000	22.44094000
29.29999844	0.00000000	-31.45915000	27.41142000
29.49999843	0.00000000	-32.70792000	26.16265000
29.69999841	0.00000000	-24.98770000	18.44242000
29.89999840	0.00000000	-10.74680000	5.67175200
30.09999839	0.00000000	7.06815900	-9.38730200
30.29999838	0.00000000	24.05266000	-23.64665000
30.49999837	0.00000000	36.89099000	-33.67987000
30.69999835	0.00000000	43.07948000	-37.12475000
30.89999834	0.00000000	41.63386000	-33.21850000
31.09999833	0.00000000	33.54453000	-22.02264000
31.29999832	0.00000000	21.20448000	-6.22539300
31.49999831	0.00000000	7.29576700	10.45152000
31.69999829	0.00000000	-4.74901600	25.13533000
31.89999828	0.00000000	-12.93676000	34.75024000
32.09999827	0.00000000	-16.46776000	36.65723000
32.29999826	-0.15871060	-14.51772000	30.52411000
32.49999825	0.00000000	-8.00319800	17.74729000
32.69999824	0.00000000	1.71628900	1.15649600
32.89999822	0.00000000	12.46924000	-15.88336000
33.09999821	0.00000000	21.76427000	-29.77977000
33.29999820	0.00000000	27.21457000	-37.91216000
33.49999819	0.00000000	28.46333000	-38.28740000
33.69999818	0.00000000	25.71973000	-30.98548000
33.89999816	0.00000000	19.53125000	-17.83957000
34.09999815	0.00000000	11.10974000	-1.62401600
34.29999814	0.00000000	3.02042300	14.21629000
34.49999813	0.00000000	-2.42987200	26.20571000
34.69999812	0.00000000	-4.79207600	32.01279000
34.89999810	-0.15871060	-3.63558100	30.48105000
35.09999809	0.00000000	0.55364170	22.02264000
35.29999808	0.00000000	6.32381900	8.87672100
35.49999807	0.00000000	12.13706000	-6.13312000
35.69999806	0.00000000	16.74459000	-19.60507000
35.89999805	0.00000000	19.02067000	-27.73745000
36.09999803	0.00000000	17.90723000	-29.36146000
36.29999802	0.00000000	14.13632000	-24.71087000
36.49999801	0.00000000	9.48572700	-14.72072000
36.69999800	0.00000000	4.87819900	-2.08538400
36.89999799	0.00000000	1.43946800	9.47957600
37.09999797	0.00000000	0.64591530	17.19365000
37.29999796	0.00000000	2.13459600	19.51279000
37.49999795	0.00000000	5.25344500	15.70497000
37.69999794	-0.15871060	9.48572700	7.33882900
37.89999793	0.00000000	13.71801000	-2.64517700
38.09999791	0.00000000	16.83686000	-11.47884000
38.29999790	0.00000000	18.32554000	-16.86762000
38.49999789	0.00000000	17.57505000	-17.24286000
38.69999788	0.00000000	14.51156000	-12.64149000
38.89999787	0.00000000	10.64838000	-4.22613100
39.09999786	0.00000000	6.36687900	5.29650500
39.29999784	0.00000000	2.50984200	12.54921000
39.49999783	0.00000000	0.17839570	15.28666000
39.69999782	0.00000000	-0.60900590	12.96752000
39.89999781	0.00000000	0.59670270	6.40994000
40.09999780	0.00000000	3.67249000	-3.15575800
40.29999778	0.00000000	7.94783400	-12.68455000
40.49999777	0.00000000	12.55536000	-18.86688000
40.69999776	0.00000000	16.46161000	-20.39862000
40.89999775	0.00000000	18.79306000	-16.91068000
41.09999774	0.00000000	19.53125000	-8.87672100
41.29999772	-0.15871060	17.99951000	1.06422200
41.49999771	0.00000000	14.56078000	9.94094400
41.69999770	0.00000000	10.69144000	15.74803000
41.89999769	0.00000000	6.74212600	17.28592000
42.09999768	0.00000000	3.29724400	14.21629000
42.29999767	0.00000000	0.97194880	7.29576700
42.49999765	0.00000000	0.59670270	-1.48868100
42.69999764	0.00000000	2.09153500	-9.60875900
42.89999763	0.00000000	4.74286400	-15.00984000
43.09999762	0.00000000	7.48646600	-16.99680000
43.29999761	0.00000000	9.81791200	-15.05290000
43.49999759	0.00000000	11.76181000	-10.11934000
43.69999758	0.00000000	12.55536000	-3.57406500
43.89999757	0.00000000	12.64764000	2.55905500
44.09999756	0.00000000	12.60458000	6.87746000
44.29999755	0.00000000	12.22933000	8.82750900
44.49999753	0.00000000	11.48499000	8.45226300
44.69999752	0.00000000	11.10974000	5.75787400
44.89999751	0.00000000	11.06668000	1.57480300
45.09999750	0.00000000	11.02362000	-2.64517700
45.29999749	0.00000000	10.55610000	-5.75787400
45.49999748	0.00000000	8.97514600	-7.33882900
45.69999746	0.00000000	6.28075700	-7.38188900
45.89999745	0.00000000	3.20497000	-6.22539300
46.09999744	0.00000000	0.51058070	-4.26919300
46.29999743	0.00000000	-0.98425190	-1.58095500
46.49999742	0.00000000	-0.55979330	1.07037400
46.69999740	0.00000000	2.17765700	2.64517700
46.89999739	0.00000000	6.87746000	3.06348400
47.09999738	0.00000000	13.02288000	2.64517700
47.29999737	0.00000000	19.15600000	1.11343500
47.49999736	-0.15871060	23.02534000	-1.20570900
47.69999734	0.00000000	24.18799000	-3.53100400
47.89999733	0.00000000	22.13952000	-5.85014700
48.09999732	0.00000000	16.32628000	-7.33882900
48.29999731	0.00000000	7.90477300	-7.33882900
48.49999730	0.00000000	-0.60900590	-5.80093500
48.69999729	0.00000000	-7.17273600	-3.11269700
48.89999727	0.00000000	-10.61147000	-0.04306102
49.09999726	0.00000000	-9.35654400	2.69439000
49.29999725	0.00000000	-3.26033400	4.60137700
49.49999724	0.00000000	5.99163300	5.38262700
49.69999723	0.00000000	15.63115000	4.55831700
49.89999721	0.00000000	23.76353000	2.27608300
50.09999720	0.00000000	28.32800000	-1.20570900
50.29999719	0.00000000	27.95275000	-4.68750000
50.49999718	0.00000000	22.55782000	-7.80019600
50.69999717	0.00000000	13.76107000	-10.03322000
50.89999715	0.00000000	4.09079700	-10.03322000
51.09999714	0.00000000	-3.96161400	-7.75713500
51.29999713	0.00000000	-8.60605200	-4.26919300
51.49999712	0.00000000	-8.19389700	-0.04306102
51.69999711	0.00000000	-3.26033400	3.80782500
51.89999710	0.00000000	4.83513700	6.13312000
52.09999708	0.00000000	13.63189000	6.92052100
52.29999707	0.00000000	20.60162000	5.71481200
52.49999706	0.00000000	24.05266000	2.69439000
52.69999705	0.00000000	23.30216000	-1.15649600
52.89999704	0.00000000	18.32554000	-4.64443900
53.09999702	0.00000000	11.06668000	-7.38188900
53.29999701	0.00000000	3.71555100	-8.87672100
53.49999700	0.00000000	-2.00541300	-8.50147600
53.69999699	0.00000000	-4.33070900	-6.22539300
53.89999698	0.00000000	-2.42987200	-3.19881900
54.09999696	0.00000000	2.50984200	-0.46751960
54.29999695	0.00000000	9.06742000	1.43946800
54.49999694	0.00000000	15.21284000	2.22687000
54.69999693	0.00000000	19.44513000	1.48868100
54.89999692	0.00000000	20.60162000	0.00000000
55.09999691	0.00000000	18.32554000	-1.53174200
55.29999689	0.00000000	13.71801000	-2.68823800
55.49999688	0.00000000	7.94783400	-3.06348400
55.69999687	0.00000000	2.55290300	-2.68823800
55.89999686	0.00000000	-0.89197830	-1.53174200
56.09999685	0.00000000	-1.67938000	-0.04306102
56.29999683	0.00000000	0.59670270	1.06422200
56.49999682	0.00000000	4.83513700	1.06422200
56.69999681	0.00000000	9.86097400	-0.09227362
56.89999680	0.00000000	14.83760000	-2.04232300
57.09999679	0.00000000	17.90723000	-4.73671200
57.29999677	0.00000000	18.32554000	-7.33882900
57.49999676	0.00000000	16.41855000	-8.45226300
57.69999675	0.00000000	12.60458000	-7.29576700
57.89999674	0.00000000	8.37229300	-4.22613100
58.09999673	0.00000000	4.92125900	0.04306102
58.29999672	0.00000000	2.92814900	4.60137700
58.49999670	0.00000000	2.92199800	8.08316900
58.69999669	0.00000000	3.99852300	9.20275500
58.89999668	0.00000000	5.99163300	8.03395600
59.09999667	0.00000000	8.28001900	4.14000900
59.29999666	0.00000000	10.59916000	-1.62401600
59.49999664	0.00000000	12.13706000	-7.80019600
59.69999663	0.00000000	12.55536000	-13.14591000
59.89999662	0.00000000	12.18012000	-15.79109000
60.09999661	0.00000000	11.02362000	-14.63459000
60.29999660	0.00000000	9.52879000	-10.03322000
60.49999658	0.00000000	8.37229300	-3.11269700
60.69999657	0.00000000	7.94783400	4.18307100
60.89999656	0.00000000	7.94783400	9.99015700
61.09999655	0.00000000	8.32308000	13.05364000
61.29999654	0.00000000	9.06742000	12.68455000
61.49999653	0.00000000	9.44266700	8.78444900
61.69999651	0.00000000	9.48572700	2.27608300
61.89999650	0.00000000	9.44266700	-5.43184000
62.09999649	0.00000000	9.06742000	-11.98327000
62.29999648	0.00000000	8.28001900	-16.25861000
62.49999647	0.00000000	7.52952700	-17.37205000
62.69999645	0.00000000	6.79133800	-14.63459000
62.89999644	0.00000000	6.83439900	-8.50147600
63.09999643	0.00000000	7.90477300	-0.46751960
63.29999642	0.00000000	9.06742000	6.82824800
63.49999641	0.00000000	9.86097400	11.52190000
63.69999639	0.00000000	10.64838000	13.10285000
63.89999638	-0.15871060	10.97441000	11.56496000
64.09999637	0.00000000	10.64838000	7.33882900
64.29999636	0.00000000	9.86097400	1.53174200
64.49999635	0.00000000	9.06742000	-4.69365100
64.69999634	0.00000000	7.90477300	-10.45152000
64.89999632	0.00000000	6.79133800	-14.30241000
65.09999631	0.00000000	6.41609200	-15.09596000
65.29999630	0.00000000	6.79133800	-13.18898000
65.49999629	0.00000000	7.90477300	-8.96284400
65.69999628	0.00000000	9.01820900	-3.62327700
65.89999626	0.00000000	9.44266700	1.07037400
66.09999625	0.00000000	9.48572700	4.64443900
66.29999624	0.00000000	9.44266700	7.33882900
66.49999623	0.00000000	9.01820900	8.50147600
66.69999622	0.00000000	7.90477300	7.71407400
66.89999620	0.00000000	6.79133800	5.43184000
67.09999619	0.00000000	6.45915300	1.95004900
67.29999618	0.00000000	7.16043300	-1.53174200
67.49999617	0.00000000	8.73523500	-4.68750000
67.69999616	0.00000000	10.27928000	-7.43110200
67.89999615	0.00000000	12.22933000	-9.38115100
68.09999613	0.00000000	13.67495000	-10.53765000
68.29999612	0.00000000	13.67495000	-10.49459000
68.49999611	0.00000000	12.13706000	-8.96284400
68.69999610	0.00000000	9.44266700	-6.22539300
68.89999609	0.00000000	6.32381900	-2.69439000
69.09999607	0.00000000	3.20497000	1.57480300
69.29999606	0.00000000	0.55364170	5.75787400
69.49999605	0.00000000	-0.55979330	8.50147600
69.69999604	0.00000000	0.64591530	9.24581600
69.89999603	0.00000000	4.09079700	8.08316900
70.09999601	0.00000000	9.11048200	4.60137700
70.29999600	0.00000000	14.09326000	-0.04306102
70.49999599	0.00000000	17.99951000	-5.11195900
70.69999598	0.00000000	19.90650000	-10.07628000
70.89999597	0.00000000	19.48819000	-13.10285000
71.09999596	0.00000000	16.36934000	-13.18898000
71.29999594	0.00000000	11.02362000	-10.86983000
71.49999593	0.00000000	5.25344500	-7.00664300
71.69999592	0.00000000	0.55364170	-1.99311000
71.89999591	0.00000000	-2.56520700	2.60211600
72.09999590	0.00000000	-3.67864200	5.75787400
72.29999588	0.00000000	-2.09768700	7.29576700
72.49999587	0.00000000	2.13459600	6.87746000
72.69999586	0.00000000	7.90477300	4.22613100
72.89999585	0.00000000	13.67495000	0.41830710
73.09999584	0.00000000	17.95029000	-3.02042300
73.29999582	0.00000000	19.90650000	-5.38262700
73.49999581	0.00000000	19.53125000	-6.17618100
73.69999580	0.00000000	16.83686000	-5.85014700
73.89999579	0.00000000	12.60458000	-4.68750000
74.09999578	0.00000000	7.94783400	-3.15575800
74.29999577	0.00000000	3.71555100	-1.62401600
74.49999575	0.00000000	1.02116100	-0.51058070
74.69999574	0.00000000	0.59670270	-0.55364170
74.89999573	0.00000000	2.09153500	-1.95004900
75.09999572	0.00000000	4.78592500	-3.43257800
75.29999571	0.00000000	7.86171200	-3.43873000
75.49999569	0.00000000	10.55610000	-2.73745100
75.69999568	0.00000000	12.13706000	-1.48868100
75.89999567	0.00000000	12.55536000	0.41830710
76.09999566	0.00000000	12.18012000	2.69439000
76.29999565	0.00000000	11.06668000	4.18307100
76.49999563	0.00000000	9.90403500	4.18307100
76.69999562	0.00000000	9.11048200	2.64517700
76.89999561	0.00000000	8.32308000	-0.09227362
77.09999560	0.00000000	7.94783400	-3.57406500
77.29999559	0.00000000	7.90477300	-7.42495000
77.49999558	0.00000000	7.90477300	-10.45152000
77.69999556	0.00000000	7.90477300	-11.56496000
77.89999555	0.00000000	7.86171200	-10.03322000
78.09999554	-0.15871060	7.48646600	-6.21924200
78.29999553	0.00000000	6.74212600	-1.57480300
78.49999552	0.00000000	6.36687900	3.06963600
78.69999550	0.00000000	6.41609200	6.92052100
78.89999549	0.00000000	7.20964500	8.82750900
79.09999548	0.00000000	9.11048200	8.45226300
79.29999547	0.00000000	11.02362000	5.75787400
79.49999546	0.00000000	12.60458000	1.53174200
79.69999544	0.00000000	13.71801000	-3.11269700
79.89999543	0.00000000	13.67495000	-7.33882900
80.09999542	0.00000000	12.13706000	-10.07628000
80.29999541	0.00000000	9.44266700	-10.86983000
80.49999540	0.00000000	6.41609200	-10.11934000
80.69999539	0.00000000	4.09079700	-7.80019600
80.89999537	0.00000000	3.29724400	-4.73671200
81.09999536	0.00000000	3.62942900	-1.58095500
81.29999535	0.00000000	4.83513700	1.53174200
81.49999534	0.00000000	6.79133800	4.22613100
81.69999533	0.00000000	9.48572700	5.75787400
81.89999531	0.00000000	12.13706000	5.80093500
82.09999530	0.00000000	13.67495000	4.64443900
82.29999529	0.00000000	13.71801000	2.73745100
82.49999528	0.00000000	12.55536000	0.33218500
82.69999527	-0.15871060	10.64838000	-2.36835600
82.89999525	0.00000000	8.32308000	-5.47490100
83.09999524	0.00000000	6.41609200	-7.75713500
83.29999523	0.00000000	5.21038300	-8.96284400
83.49999522	0.00000000	4.87819900	-8.96284400
83.69999521	0.00000000	5.57947800	-7.80019600
83.89999520	0.00000000	7.11122000	-5.80093500
84.09999518	0.00000000	8.23695900	-2.69439000
84.29999517	0.00000000	9.06742000	1.15649600
84.49999516	0.00000000	9.44266700	4.60137700
84.69999515	0.00000000	9.48572700	6.92052100
84.89999514	0.00000000	9.48572700	7.29576700
85.09999512	0.00000000	9.48572700	5.75787400
85.29999511	0.00000000	9.48572700	2.64517700
85.49999510	0.00000000	9.48572700	-1.62401600
85.69999509	0.00000000	9.48572700	-6.21924200
85.89999508	0.00000000	9.48572700	-10.03322000
86.09999506	0.00000000	9.44266700	-11.60802000
86.29999505	0.00000000	9.06742000	-10.86983000
86.49999504	0.00000000	8.28001900	-8.54453700
86.69999503	0.00000000	7.52952700	-4.64443900
86.89999502	0.00000000	6.74212600	-0.04306102
87.09999501	0.00000000	6.36687900	4.18307100
87.29999499	0.00000000	6.36687900	6.87746000
87.49999498	0.00000000	6.79133800	7.24655500
87.69999497	0.00000000	7.94783400	5.33956700
87.89999496	0.00000000	9.44266700	1.48868100
88.09999495	0.00000000	10.59916000	-3.11269700
88.29999493	0.00000000	11.02362000	-7.38188900
88.49999492	0.00000000	11.02362000	-10.40846000
88.69999491	0.00000000	10.59916000	-11.18971000
88.89999490	-0.15871060	9.44266700	-9.24581600
89.09999489	0.00000000	7.94783400	-5.43184000
89.29999487	0.00000000	6.79133800	-0.41830710
89.49999486	0.00000000	6.36687900	4.14000900
89.69999485	-0.15871060	6.36687900	6.87746000
89.89999484	0.00000000	6.74212600	7.24655500
90.09999483	0.00000000	7.52952700	5.33956700
90.29999482	0.00000000	8.28001900	1.48868100
90.49999480	0.00000000	9.06742000	-3.11269700
90.69999479	0.00000000	9.44266700	-7.38188900
90.89999478	0.00000000	9.48572700	-10.40846000
91.09999477	0.00000000	9.44266700	-11.14665000
91.29999476	0.00000000	9.11048200	-8.87672100
91.49999474	0.00000000	8.74138700	-4.69365100
91.69999473	0.00000000	9.11048200	-0.04306102
91.89999472	0.00000000	9.44266700	4.18307100
92.09999471	0.00000000	9.48572700	6.87746000
92.29999470	0.00000000	9.44266700	7.24655500
92.49999468	0.00000000	9.06742000	5.29650500
92.69999467	0.00000000	8.28001900	1.11343500
92.89999466	0.00000000	7.48646600	-3.85703700
93.09999465	0.00000000	6.32381900	-7.71407400
93.29999464	0.00000000	5.21038300	-10.03322000
93.49999463	0.00000000	4.83513700	-10.03322000
93.69999461	0.00000000	5.25344500	-7.71407400
93.89999460	0.00000000	6.79133800	-3.90009800
94.09999459	0.00000000	9.06742000	0.69512790
94.29999458	0.00000000	11.02362000	4.13385800
94.49999457	0.00000000	12.60458000	5.71481200
94.69999455	0.00000000	13.71801000	5.29650500
94.89999454	0.00000000	13.67495000	2.64517700
95.09999453	0.00000000	12.13706000	-1.15649600
95.29999452	0.00000000	9.44266700	-4.64443900
95.49999451	0.00000000	6.36687900	-7.33882900
95.69999449	0.00000000	3.62942900	-8.45226300
95.89999448	0.00000000	1.71628900	-7.33882900
96.09999447	0.00000000	0.97194880	-4.68750000
96.29999446	0.00000000	2.13459600	-1.62401600
96.49999445	0.00000000	4.83513700	1.11343500
96.69999444	0.00000000	8.32308000	3.02042300
96.89999442	0.00000000	12.18012000	3.80782500
97.09999441	0.00000000	15.25591000	3.02042300
97.29999440	-0.15871060	16.79380000	1.11343500
97.49999439	0.00000000	16.41855000	-1.53174200
97.69999438	0.00000000	14.13632000	-3.85088600
97.89999436	0.00000000	11.02362000	-5.01968500
98.09999435	0.00000000	7.48646600	-5.43184000
98.29999434	0.00000000	3.67249000	-4.68750000
98.49999433	0.00000000	0.97194880	-3.57406500
98.69999432	0.00000000	0.17839570	-2.78051200
98.89999430	0.00000000	0.92888770	-1.95004900
99.09999429	0.00000000	3.25418300	-1.24877000
99.29999428	0.00000000	6.32381900	-0.79355310
99.49999427	0.00000000	9.48572700	-0.78124990
99.69999426	0.00000000	12.60458000	-0.37524600
99.89999425	0.00000000	15.25591000	-0.04306102
100.09999423	0.00000000	16.36934000	0.04306102
100.29999422	0.00000000	15.25591000	0.37524600
100.49999421	0.00000000	12.60458000	0.69512790
100.69999420	0.00000000	9.52879000	-0.09227362
100.89999419	0.00000000	6.74212600	-1.57480300
101.09999417	0.00000000	4.41067900	-3.15575800
101.29999416	0.00000000	2.46678100	-4.68750000
101.49999415	0.00000000	1.75935000	-5.85014700
101.69999414	0.00000000	2.46678100	-6.21924200
101.89999413	0.00000000	4.36761800	-5.80093500
102.09999411	0.00000000	6.32381900	-4.22613100
102.29999410	0.00000000	8.32308000	-1.53174200
102.49999409	0.00000000	10.64838000	1.48868100
102.69999408	0.00000000	12.51230000	3.80782500
102.89999407	0.00000000	13.29970000	4.55831700
103.09999406	0.00000000	12.55536000	3.85088600
103.29999404	0.00000000	11.06668000	1.90698800
103.49999403	0.00000000	9.44266700	-0.46751960
103.69999402	0.00000000	7.52952700	-3.53100400
103.89999401	0.00000000	5.57947800	-6.58833600
104.09999400	0.00000000	4.45989200	-8.08932000
104.29999398	0.00000000	4.04773600	-8.12622900
104.49999397	0.00000000	4.83513700	-6.17618100
104.69999396	0.00000000	6.32381900	-3.19881900
104.89999395	0.00000000	7.90477300	-0.46751960
105.09999394	0.00000000	9.44266700	1.48868100
105.29999392	0.00000000	10.59916000	2.68823800
105.49999391	0.00000000	10.97441000	3.02042300
105.69999390	0.00000000	10.59916000	2.22687000
105.89999389	0.00000000	9.44266700	-0.04306102
106.09999388	0.00000000	7.94783400	-2.69439000
106.29999387	0.00000000	6.79133800	-4.64443900
106.49999385	0.00000000	6.36687900	-5.80093500
106.69999384	0.00000000	6.36687900	-5.80093500
106.89999383	0.00000000	6.74212600	-4.64443900
107.09999382	0.00000000	7.52952700	-2.78051200
107.29999381	0.00000000	8.32308000	-0.83661410
107.49999379	0.00000000	9.44266700	0.32603340
107.69999378	0.00000000	10.18086000	1.11343500
107.89999377	0.00000000	9.86097400	1.06422200
108.09999376	0.00000000	9.48572700	-0.04306102
108.29999375	0.00000000	9.01820900	-1.57480300
108.49999374	-0.15871060	7.90477300	-3.11269700
108.69999372	0.00000000	6.79133800	-4.26919300
108.89999371	0.00000000	6.41609200	-4.64443900
109.09999370	0.00000000	6.74212600	-4.26919300
109.29999369	0.00000000	7.52952700	-3.11269700
109.49999368	0.00000000	8.32308000	-1.57480300
109.69999366	0.00000000	9.48572700	-0.04306102
109.89999365	0.00000000	10.55610000	1.06422200
110.09999364	0.00000000	10.59916000	1.11343500
110.29999363	0.00000000	9.90403500	0.37524600
110.49999362	0.00000000	9.48572700	-0.41830710
110.69999360	0.00000000	9.01820900	-1.62401600
110.89999359	0.00000000	7.90477300	-3.11269700
111.09999358	0.00000000	6.79133800	-4.26919300
111.29999357	0.00000000	6.36687900	-4.69365100
111.49999356	0.00000000	6.36687900	-4.69365100
111.69999355	0.00000000	6.74212600	-4.26919300
111.89999353	0.00000000	7.48646600	-3.15575800
112.09999352	0.00000000	7.90477300	-1.99311000
112.29999351	0.00000000	8.32308000	-1.19955700
112.49999350	0.00000000	9.06742000	-0.41830710
112.69999349	0.00000000	9.39345400	-0.04306102
112.89999347	0.00000000	9.11048200	-0.04306102
113.09999346	0.00000000	8.69832600	-0.41830710
113.29999345	0.00000000	8.69217500	-1.15649600
113.49999344	0.00000000	8.28001900	-1.57480300
113.69999343	0.00000000	7.94783400	-1.99311000
113.89999341	0.00000000	7.90477300	-2.73745100
114.09999340	0.00000000	7.90477300	-3.11269700
114.29999339	0.00000000	7.90477300	-3.15575800
114.49999338	0.00000000	7.90477300	-3.15575800
114.69999337	0.00000000	7.90477300	-3.15575800
114.89999336	0.00000000	7.90477300	-3.15575800
115.09999334	0.00000000	7.94783400	-3.15575800
115.29999333	0.00000000	8.28001900	-3.11269700
115.49999332	0.00000000	8.69217500	-2.68823800
115.69999331	0.00000000	8.65526600	-1.57480300
115.89999330	0.00000000	8.69217500	-0.46136810
116.09999328	0.00000000	8.28001900	-0.04306102
116.29999327	0.00000000	7.90477300	0.00000000
116.49999326	0.00000000	7.52952700	0.00000000
116.69999325	0.00000000	7.16043300	-0.04306102
116.89999324	0.00000000	7.52952700	-0.46136810
117.09999322	0.00000000	7.90477300	-1.57480300
117.29999321	0.00000000	8.32308000	-2.73745100
117.49999320	0.00000000	9.06742000	-3.53100400
117.69999319	0.00000000	9.48572700	-4.31840500
117.89999318	0.00000000	9.86097400	-4.64443900
118.09999317	0.00000000	10.23007000	-4.26919300
118.29999315	0.00000000	9.81791200	-3.15575800
118.49999314	0.00000000	9.06742000	-1.99311000
118.69999313	0.00000000	7.90477300	-1.19955700
118.89999312	0.00000000	6.79133800	-0.41830710
119.09999311	0.00000000	6.36687900	-0.04306102
119.29999309	0.00000000	6.32381900	0.00000000
119.49999308	0.00000000	6.36687900	-0.04306102
119.69999307	0.00000000	6.79133800	-0.41830710
119.89999306	0.00000000	7.90477300	-1.15649600
120.09999305	0.00000000	9.06742000	-1.57480300
120.29999303	0.00000000	9.86097400	-1.99311000
120.49999302	0.00000000	10.64838000	-2.73745100
120.69999301	0.00000000	10.97441000	-3.11269700
120.89999300	0.00000000	10.59916000	-3.15575800
121.09999299	0.00000000	9.48572700	-3.15575800
121.29999298	0.00000000	8.32308000	-3.11269700
121.49999296	0.00000000	7.48646600	-2.73745100
121.69999295	0.00000000	6.32381900	-1.99311000
121.89999294	0.00000000	5.25344500	-1.61786400
122.09999293	0.00000000	5.21038300	-1.57480300
122.29999292	0.00000000	5.94857300	-1.53174200
122.49999290	0.00000000	6.69906400	-1.15649600
122.69999289	0.00000000	7.52952700	-0.41830710
122.89999288	0.00000000	8.32308000	-0.09227362
123.09999287	0.00000000	9.48572700	-0.41830710
123.29999286	0.00000000	10.59916000	-1.15649600
123.49999284	0.00000000	10.97441000	-1.57480300
123.69999283	0.00000000	10.64838000	-1.99311000
123.89999282	0.00000000	9.86097400	-2.73745100
124.09999281	0.00000000	9.11048200	-3.11269700
124.29999280	0.00000000	8.28001900	-3.15575800
124.49999279	0.00000000	7.52952700	-3.11269700
124.69999277	0.00000000	6.74212600	-2.73745100
124.89999276	0.00000000	6.32381900	-1.99311000
125.09999275	0.00000000	5.94857300	-1.57480300
125.29999274	0.00000000	5.62869100	-1.15649600
125.49999273	0.00000000	6.36687900	-0.41830710
125.69999271	0.00000000	7.48646600	-0.04306102
125.89999270	0.00000000	8.28001900	-0.04306102
126.09999269	0.00000000	9.11048200	-0.41830710
126.29999268	0.00000000	9.86097400	-1.15649600
126.49999267	0.00000000	10.59916000	-1.57480300
126.69999265	0.00000000	10.55610000	-1.99311000
126.89999264	0.00000000	9.44266700	-2.73745100
127.09999263	0.00000000	7.94783400	-3.11269700
127.29999262	0.00000000	6.74212600	-3.15575800
127.49999261	0.00000000	5.94857300	-3.15575800
127.69999260	0.00000000	5.21038300	-3.11269700
127.89999258	0.00000000	5.25344500	-2.73745100
128.09999257	0.00000000	6.32381900	-1.99311000
128.29999256	0.00000000	7.48646600	-1.57480300
128.49999255	0.00000000	8.32308000	-1.19955700
128.69999254	0.00000000	9.48572700	-0.83661410
128.89999252	0.00000000	10.55610000	-1.19955700
129.09999251	0.00000000	10.59916000	-1.53174200
129.29999250	0.00000000	9.86097400	-1.57480300
129.49999249	0.00000000	9.06742000	-1.61786400
129.69999248	0.00000000	7.90477300	-1.99311000
129.89999246	0.00000000	6.79133800	-2.68823800
130.09999245	0.00000000	6.36687900	-2.68823800
130.29999244	0.00000000	6.32381900	-1.99311000
130.49999243	0.00000000	6.36687900	-1.61786400
130.69999242	0.00000000	6.79133800	-1.57480300
130.89999241	0.00000000	7.90477300	-1.57480300
131.09999239	0.00000000	9.01820900	-1.57480300
131.29999238	0.00000000	9.44266700	-1.57480300
131.49999237	0.00000000	9.48572700	-1.61786400
131.69999236	0.00000000	9.44266700	-1.99311000
131.89999235	0.00000000	9.06742000	-2.73745100
132.09999233	0.00000000	8.32308000	-3.11269700
132.29999232	0.00000000	7.90477300	-3.15575800
132.49999231	0.00000000	7.48646600	-3.11269700
132.69999230	0.00000000	6.79133800	-2.73745100
132.89999229	0.00000000	6.79133800	-1.95004900
133.09999227	0.00000000	7.48646600	-1.19955700
133.29999226	0.00000000	7.86171200	-0.41830710
133.49999225	0.00000000	7.90477300	-0.04306102
133.69999224	0.00000000	7.90477300	-0.04306102
133.89999223	0.00000000	7.90477300	-0.41830710
134.09999222	0.00000000	7.90477300	-1.19955700
134.29999220	0.00000000	7.90477300	-1.95004900
134.49999219	0.00000000	7.90477300	-2.73745100
134.69999218	0.00000000	7.94783400	-3.11269700
134.89999217	0.00000000	8.32308000	-3.15575800
135.09999216	0.00000000	9.06742000	-3.15575800
135.29999214	0.00000000	9.39345400	-3.11269700
135.49999213	0.00000000	9.06742000	-2.73745100
135.69999212	0.00000000	8.28001900	-1.95004900
135.89999211	0.00000000	7.52952700	-1.19955700
136.09999210	0.00000000	6.74212600	-0.41830710
136.29999208	0.00000000	6.36687900	-0.04306102
136.49999207	0.00000000	6.36687900	-0.04306102
136.69999206	0.00000000	6.74212600	-0.41830710
136.89999205	0.00000000	7.48646600	-1.19955700
137.09999204	0.00000000	7.90477300	-1.95004900
137.29999203	0.00000000	8.32308000	-2.73745100
137.49999201	0.00000000	9.06742000	-3.11269700
137.69999200	0.00000000	9.44266700	-3.15575800
137.89999199	0.00000000	9.44266700	-3.15575800
138.09999198	0.00000000	9.06742000	-3.15575800
138.29999197	0.00000000	8.28001900	-3.15575800
138.49999195	0.00000000	7.52952700	-3.11269700
138.69999194	0.00000000	6.79133800	-2.73745100
138.89999193	0.00000000	6.74212600	-1.99311000
139.09999192	0.00000000	7.11122000	-1.57480300
139.29999191	0.00000000	7.11737200	-1.15649600
139.49999189	0.00000000	7.52952700	-0.46136810
139.69999188	0.00000000	7.90477300	-0.46136810
139.89999187	0.00000000	8.32308000	-1.15649600
140.09999186	0.00000000	9.06742000	-1.57480300
140.29999185	0.00000000	9.39345400	-1.99311000
140.49999184	0.00000000	9.06742000	-2.73745100
140.69999182	0.00000000	8.32308000	-3.11269700
140.89999181	0.00000000	7.94783400	-3.15575800
141.09999180	0.00000000	7.90477300	-3.11269700
141.29999179	0.00000000	7.90477300	-2.73745100
141.49999178	0.00000000	7.90477300	-1.99311000
141.69999176	0.00000000	7.90477300	-1.57480300
141.89999175	0.00000000	7.90477300	-1.15649600
142.09999174	0.00000000	7.94783400	-0.41830710
142.29999173	0.00000000	8.28001900	-0.09227362
142.49999172	0.00000000	8.64911400	-0.41830710
142.69999170	0.00000000	8.28001900	-1.19955700
142.89999169	0.00000000	7.94783400	-1.95004900
143.09999168	0.00000000	7.90477300	-2.73745100
143.29999167	0.00000000	7.90477300	-3.11269700
143.49999166	0.00000000	7.90477300	-3.15575800
143.69999165	0.00000000	7.90477300	-3.15575800
143.89999163	0.00000000	7.90477300	-3.11269700
144.09999162	0.00000000	7.94783400	-2.73745100
144.29999161	0.00000000	8.28001900	-1.95004900
144.49999160	0.00000000	8.64911400	-1.19955700
144.69999159	0.00000000	8.28001900	-0.41830710
144.89999157	0.00000000	7.94783400	-0.09227362
145.09999156	0.00000000	7.86171200	-0.41830710
145.29999155	0.00000000	7.48646600	-1.15649600
145.49999154	0.00000000	6.74212600	-1.57480300
145.69999153	0.00000000	6.41609200	-1.99311000
145.89999151	0.00000000	6.74212600	-2.73745100
146.09999150	0.00000000	7.48646600	-3.11269700
146.29999149	0.00000000	7.86171200	-3.15575800
146.49999148	0.00000000	7.90477300	-3.15575800
146.69999147	0.00000000	7.90477300	-3.11269700
146.89999146	0.00000000	7.90477300	-2.73745100
147.09999144	0.00000000	7.90477300	-1.99311000
147.29999143	0.00000000	7.90477300	-1.57480300
147.49999142	0.00000000	7.90477300	-1.19955700
147.69999141	0.00000000	7.90477300	-0.83661410
147.89999140	0.00000000	7.86171200	-1.19955700
148.09999138	0.00000000	7.52952700	-1.53174200
148.29999137	0.00000000	7.16043300	-1.61786400
148.49999136	0.00000000	7.52952700	-1.99311000
148.69999135	0.00000000	7.86171200	-2.73745100
148.89999134	0.00000000	7.90477300	-3.11269700
149.09999132	0.00000000	7.90477300	-3.15575800
149.29999131	0.00000000	7.94783400	-3.11269700
149.49999130	0.00000000	8.28001900	-2.73745100
149.69999129	0.00000000	8.69217500	-1.99311000
149.89999128	0.00000000	8.65526600	-1.61786400
150.09999127	0.00000000	8.69217500	-1.57480300
150.29999125	0.00000000	8.28001900	-1.57480300
150.49999124	0.00000000	7.90477300	-1.57480300
150.69999123	0.00000000	7.48646600	-1.57480300
150.89999122	0.00000000	6.74212600	-1.57480300
151.09999121	0.00000000	6.36687900	-1.57480300
151.29999119	0.00000000	6.36687900	-1.61786400
151.49999118	-0.15871060	6.74212600	-1.99311000
151.69999117	0.00000000	7.48646600	-2.73745100
151.89999116	0.00000000	7.86171200	-3.11269700
152.09999115	0.00000000	7.90477300	-3.15575800
152.29999113	0.00000000	7.94783400	-3.11269700
152.49999112	0.00000000	8.28001900	-2.73745100
152.69999111	0.00000000	8.64911400	-1.99311000
152.89999110	0.00000000	8.28001900	-1.61786400
153.09999109	0.00000000	7.94783400	-1.57480300
153.29999108	0.00000000	7.86171200	-1.57480300
153.49999106	0.00000000	7.48646600	-1.57480300
153.69999105	0.00000000	6.74212600	-1.57480300
153.89999104	0.00000000	6.41609200	-1.57480300
154.09999103	0.00000000	6.69906400	-1.57480300
154.29999102	0.00000000	7.11122000	-1.57480300
154.49999100	0.00000000	7.11737200	-1.57480300
154.69999099	0.00000000	7.52952700	-1.57480300
154.89999098	0.00000000	7.90477300	-1.61786400
155.09999097	0.00000000	8.32308000	-1.99311000
155.29999096	-0.15871060	9.06742000	-2.73745100
155.49999094	0.00000000	9.44266700	-3.06348400
155.69999093	0.00000000	9.44266700	-2.73745100
155.89999092	0.00000000	9.06742000	-1.99311000
156.09999091	0.00000000	8.32308000	-1.57480300
156.29999090	0.00000000	7.90477300	-1.15649600
156.49999089	0.00000000	7.48646600	-0.41830710
156.69999087	0.00000000	6.79133800	-0.04306102
156.89999086	0.00000000	6.74212600	-0.04306102
157.09999085	0.00000000	7.06815900	-0.41830710
157.29999084	0.00000000	6.74212600	-1.19955700
157.49999083	0.00000000	6.79133800	-1.95004900
157.69999081	0.00000000	7.48646600	-2.73745100
157.89999080	0.00000000	7.90477300	-3.11269700
158.09999079	0.00000000	8.28001900	-3.15575800
158.29999078	0.00000000	8.64911400	-3.15575800
158.49999077	0.00000000	8.28001900	-3.11269700
158.69999075	0.00000000	7.94783400	-2.73745100
158.89999074	0.00000000	7.90477300	-1.99311000
159.09999073	0.00000000	7.90477300	-1.61786400
159.29999072	0.00000000	7.90477300	-1.57480300
159.49999071	0.00000000	7.90477300	-1.57480300
159.69999070	0.00000000	7.86171200	-1.57480300
159.89999068	0.00000000	7.52952700	-1.57480300
160.09999067	0.00000000	7.16043300	-1.57480300
160.29999066	0.00000000	7.52952700	-1.61786400
160.49999065	0.00000000	7.86171200	-1.99311000
160.69999064	0.00000000	7.90477300	-2.73745100
160.89999062	0.00000000	7.90477300	-3.11269700
161.09999061	0.00000000	7.90477300	-3.15575800
161.29999060	0.00000000	7.90477300	-3.11269700
161.49999059	0.00000000	7.90477300	-2.73745100
161.69999058	-0.15871060	7.90477300	-1.99311000
161.89999056	0.00000000	7.90477300	-1.61786400
162.09999055	0.00000000	7.90477300	-1.57480300
162.29999054	0.00000000	7.90477300	-1.57480300
162.49999053	0.00000000	7.86171200	-1.57480300
162.69999052	0.00000000	7.48646600	-1.57480300
162.89999051	0.00000000	6.74212600	-1.57480300
163.09999049	0.00000000	6.36687900	-1.57480300
163.29999048	0.00000000	6.32381900	-1.57480300
163.49999047	0.00000000	6.32381900	-1.57480300
163.69999046	0.00000000	6.32381900	-1.61786400
163.89999045	0.00000000	6.36687900	-1.99311000
164.09999043	0.00000000	6.74212600	-2.68823800
164.29999042	0.00000000	7.48646600	-2.73745100
164.49999041	0.00000000	7.86171200	-2.41141700
164.69999040	0.00000000	7.90477300	-2.73745100
164.89999039	0.00000000	7.90477300	-2.73745100
165.09999037	0.00000000	7.90477300	-2.36835600
165.29999036	0.00000000	7.90477300	-2.36220500
165.49999035	0.00000000	7.90477300	-1.95004900
165.69999034	0.00000000	7.86171200	-1.61786400
165.89999033	0.00000000	7.48646600	-1.57480300
166.09999032	0.00000000	6.74212600	-1.57480300
166.29999030	0.00000000	6.36687900	-1.57480300
166.49999029	0.00000000	6.36687900	-1.57480300
166.69999028	0.00000000	6.74212600	-1.61786400
166.89999027	0.00000000	7.48646600	-1.95004900
167.09999026	0.00000000	7.86171200	-2.31914400
167.29999024	0.00000000	7.90477300	-1.95004900
167.49999023	0.00000000	7.90477300	-1.61786400
167.69999022	0.00000000	7.90477300	-1.57480300
167.89999021	0.00000000	7.90477300	-1.57480300
168.09999020	0.00000000	7.90477300	-1.57480300
168.29999018	0.00000000	7.90477300	-1.57480300
168.49999017	0.00000000	7.90477300	-1.57480300
168.69999016	0.00000000	7.90477300	-1.57480300
168.89999015	-0.15871060	7.86171200	-1.57480300
169.09999014	0.00000000	7.52952700	-1.57480300
169.29999013	0.00000000	7.16043300	-1.57480300
169.49999011	0.00000000	7.52952700	-1.61786400
169.69999010	0.00000000	7.86171200	-1.95004900
169.89999009	0.00000000	7.90477300	-2.31914400
170.09999008	0.00000000	7.90477300	-1.95004900
170.29999007	0.00000000	7.90477300	-1.61786400
170.49999005	0.00000000	7.90477300	-1.57480300
170.69999004	0.00000000	7.90477300	-1.57480300
170.89999003	0.00000000	7.90477300	-1.57480300
171.09999002	0.00000000	7.90477300	-1.61786400
171.29999001	0.00000000	7.90477300	-1.95004900
171.49998999	0.00000000	7.90477300	-2.31914400
171.69998998	0.00000000	7.90477300	-1.99311000
171.89998997	0.00000000	7.90477300	-1.99311000
172.09998996	0.00000000	7.90477300	-2.31914400
172.29998995	0.00000000	7.90477300	-1.95004900
172.49998994	0.00000000	7.90477300	-1.61786400
172.69998992	0.00000000	7.90477300	-1.57480300
172.89998991	0.00000000	7.90477300	-1.57480300
173.09998990	0.00000000	7.90477300	-1.57480300
173.29998989	0.00000000	7.90477300	-1.57480300
173.49998988	0.00000000	7.90477300	-1.61786400
173.69998986	0.00000000	7.90477300	-1.99311000
173.89998985	0.00000000	7.90477300	-2.68823800
174.09998984	0.00000000	7.90477300	-2.68823800
174.29998983	0.00000000	7.90477300	-1.99311000
174.49998982	0.00000000	7.90477300	-1.66707700
174.69998980	0.00000000	7.90477300	-1.95004900
174.89998979	0.00000000	7.90477300	-2.31914400
175.09998978	0.00000000	7.90477300	-1.95004900
175.29998977	0.00000000	7.90477300	-1.66707700
175.49998976	0.00000000	7.90477300	-1.95004900
175.69998975	0.00000000	7.90477300	-2.31914400
175.89998973	0.00000000	7.90477300	-1.95004900
176.09998972	0.00000000	7.90477300	-1.61786400
176.29998971	0.00000000	7.90477300	-1.57480300
176.49998970	0.00000000	7.90477300	-1.57480300
176.69998969	0.00000000	7.90477300	-1.57480300
176.89998967	0.00000000	7.90477300	-1.57480300
177.09998966	0.00000000	7.90477300	-1.57480300
177.29998965	0.00000000	7.90477300	-1.57480300
177.49998964	0.00000000	7.90477300	-1.57480300
177.69998963	0.00000000	7.90477300	-1.57480300
177.89998961	0.00000000	7.90477300	-1.57480300
178.09998960	0.00000000	7.90477300	-1.57480300
178.29998959	0.00000000	7.90477300	-1.57480300
178.49998958	0.00000000	7.90477300	-1.57480300
178.69998957	0.00000000	7.90477300	-1.57480300
178.89998956	0.00000000	7.90477300	-1.57480300
179.09998954	0.00000000	7.90477300	-1.57480300
179.29998953	0.00000000	7.90477300	-1.57480300
179.49998952	0.00000000	7.90477300	-1.61786400
179.69998951	0.00000000	7.90477300	-1.95004900
179.89998950	0.00000000	7.90477300	-2.36220500
180.09998948	0.00000000	7.86171200	-2.36835600
180.29998947	-0.15871060	7.52952700	-2.78051200
180.49998946	0.00000000	7.16043300	-3.06348400
180.69998945	0.00000000	7.52952700	-2.73745100
180.89998944	0.00000000	7.86171200	-1.99311000
181.09998942	0.00000000	7.86171200	-1.61786400
181.29998941	0.00000000	7.52952700	-1.57480300
181.49998940	0.00000000	7.16043300	-1.57480300
181.69998939	-0.15871060	7.52952700	-1.57480300
181.89998938	0.00000000	7.86171200	-1.57480300
182.09998937	0.00000000	7.90477300	-1.57480300
182.29998935	0.00000000	7.90477300	-1.61786400
182.49998934	0.00000000	7.90477300	-1.99311000
182.69998933	0.00000000	7.90477300	-2.73745100
182.89998932	-0.15871060	7.90477300	-3.11269700
183.09998931	0.00000000	7.86171200	-3.15575800
183.29998929	0.00000000	7.52952700	-3.11269700
183.49998928	0.00000000	7.16043300	-2.73745100
183.69998927	0.00000000	7.48646600	-1.99311000
183.89998926	0.00000000	7.48646600	-1.61786400
184.09998925	0.00000000	7.16043300	-1.57480300
184.29998923	0.00000000	7.52952700	-1.57480300
184.49998922	0.00000000	7.86171200	-1.57480300
184.69998921	0.00000000	7.90477300	-1.57480300
184.89998920	0.00000000	7.90477300	-1.57480300
185.09998919	0.00000000	7.90477300	-1.61786400
185.29998918	0.00000000	7.90477300	-1.95004900
185.49998916	0.00000000	7.90477300	-2.36220500
185.69998915	0.00000000	7.90477300	-2.36835600
185.89998914	0.00000000	7.90477300	-2.78051200
186.09998913	0.00000000	7.90477300	-3.11269700
186.29998912	0.00000000	7.90477300	-3.15575800
186.49998910	0.00000000	7.90477300	-3.11269700
186.69998909	0.00000000	7.86171200	-2.73745100
186.89998908	0.00000000	7.48646600	-1.99311000
187.09998907	0.00000000	6.79133800	-1.61786400
187.29998906	-0.15871060	6.79133800	-1.57480300
187.49998904	0.00000000	7.48646600	-1.57480300
187.69998903	0.00000000	7.86171200	-1.57480300
187.89998902	0.00000000	7.90477300	-1.57480300
188.09998901	0.00000000	7.90477300	-1.61786400
188.29998900	0.00000000	7.90477300	-1.99311000
188.49998899	0.00000000	7.90477300	-2.73745100
188.69998897	0.00000000	7.90477300	-3.11269700
188.89998896	0.00000000	7.90477300	-3.15575800
189.09998895	0.00000000	7.90477300	-3.15575800
189.29998894	0.00000000	7.90477300	-3.11269700
189.49998893	0.00000000	7.90477300	-2.73745100
189.69998891	0.00000000	7.90477300	-1.99311000
189.89998890	0.00000000	7.86171200	-1.61786400
190.09998889	0.00000000	7.48646600	-1.57480300
190.29998888	0.00000000	6.79133800	-1.57480300
190.49998887	0.00000000	6.79133800	-1.57480300
190.69998885	0.00000000	7.48646600	-1.57480300
190.89998884	0.00000000	7.86171200	-1.57480300
191.09998883	0.00000000	7.90477300	-1.61786400
191.29998882	0.00000000	7.90477300	-1.95004900
191.49998881	0.00000000	7.90477300	-2.31914400
191.69998880	0.00000000	7.90477300	-1.99311000
191.89998878	0.00000000	7.90477300	-2.04232300
192.09998877	0.00000000	7.90477300	-2.73745100
192.29998876	0.00000000	7.86171200	-3.11269700
192.49998875	0.00000000	7.48646600	-3.11269700
192.69998874	0.00000000	6.74212600	-2.73745100
192.89998872	0.00000000	6.41609200	-1.99311000
193.09998871	0.00000000	6.74212600	-1.61786400
193.29998870	0.00000000	7.48646600	-1.57480300
193.49998869	0.00000000	7.86171200	-1.57480300
193.69998868	0.00000000	7.90477300	-1.57480300
193.89998866	0.00000000	7.90477300	-1.57480300
194.09998865	0.00000000	7.90477300	-1.57480300
194.29998864	0.00000000	7.90477300	-1.57480300
194.49998863	0.00000000	7.90477300	-1.57480300
194.69998862	0.00000000	7.90477300	-1.57480300
194.89998861	0.00000000	7.90477300	-1.57480300
195.09998859	0.00000000	7.90477300	-1.57480300
195.29998858	0.00000000	7.86171200	-1.61786400
195.49998857	0.00000000	7.52952700	-1.99311000
195.69998856	0.00000000	7.16043300	-2.68823800
195.89998855	0.00000000	7.52952700	-2.73745100
196.09998853	0.00000000	7.81250000	-2.36835600
