Time	Channel A	Channel B	Channel C
(us)	(V)	(mV)	(mV)

-4.49999956	0.00000000	11.06668000	0.00000000
-4.29999957	-0.15871060	11.06668000	0.00000000
-4.09999958	0.00000000	11.06668000	0.00000000
-3.89999959	0.00000000	11.06668000	0.00000000
-3.69999960	0.00000000	11.06668000	0.00000000
-3.49999962	0.00000000	11.06668000	0.00000000
-3.29999963	0.00000000	11.06668000	0.00000000
-3.09999964	0.00000000	11.06668000	0.00000000
-2.89999965	0.00000000	11.06668000	0.00000000
-2.69999966	0.00000000	11.06668000	0.00000000
-2.49999968	0.00000000	11.06668000	0.00000000
-2.29999969	0.00000000	11.06668000	0.00000000
-2.09999970	0.00000000	11.06668000	0.00000000
-1.89999971	0.00000000	11.06668000	0.00000000
-1.69999972	0.00000000	11.06668000	0.00000000
-1.49999973	0.00000000	11.06668000	0.00000000
-1.29999975	0.00000000	11.06668000	0.00000000
-1.09999976	0.00000000	11.06668000	0.00000000
-0.89999977	0.00000000	11.06668000	0.00000000
-0.69999978	0.00000000	11.10974000	0.00000000
-0.49999979	0.00000000	11.44193000	0.00000000
-0.29999981	0.15871060	11.81102000	0.00000000
-0.09999982	0.63668800	11.44193000	0.00000000
0.10000017	0.95533960	11.10974000	0.00000000
0.30000016	0.95533960	11.06668000	0.00000000
0.50000015	0.79601380	11.06668000	-0.04306102
0.70000013	0.31803640	11.06668000	-0.37524600
0.90000012	-0.47736220	11.06668000	-0.73818890
1.10000011	-1.59264300	11.06668000	-0.37524600
1.30000010	-2.38927200	11.06668000	-0.04306102
1.50000009	-2.86724900	11.06668000	0.00000000
1.70000008	-2.38927200	11.10974000	0.00000000
1.90000006	-1.27399100	11.44193000	0.00000000
2.10000005	0.63668800	11.81102000	0.00000000
2.30000004	2.70792300	11.44193000	-0.04306102
2.50000003	4.45989200	11.10974000	-0.37524600
2.70000002	5.25652100	11.06668000	-0.78124990
2.90000000	4.77854300	11.06668000	-0.79355310
3.09999999	2.86724900	11.06668000	-1.19955700
3.29999998	-0.15871060	11.06668000	-1.53174200
3.49999997	-3.66326300	11.06668000	-1.53174200
3.69999996	-6.53112700	11.06668000	-1.15649600
3.89999994	-7.96444400	11.06668000	-0.41830710
4.09999993	-7.48646600	11.06668000	-0.04306102
4.29999992	-4.93786900	11.06668000	0.00000000
4.49999991	-1.11466500	11.10974000	0.00000000
4.69999990	3.34522600	11.44193000	0.00000000
4.89999989	7.16781500	11.81102000	-0.04306102
5.09999987	9.23905000	11.44193000	-0.41830710
5.29999986	9.07972400	11.10974000	-1.15649600
5.49999985	6.53112700	11.06668000	-1.53174200
5.69999984	2.38927200	11.06668000	-1.57480300
5.89999983	-2.54859700	11.06668000	-1.57480300
6.09999981	-6.69045300	11.10974000	-1.53174200
6.29999980	-9.23905000	11.44193000	-1.15649600
6.49999979	-9.23905000	11.81102000	-0.41830710
6.69999978	-7.16781500	11.44193000	-0.04306102
6.89999977	-3.34522600	11.10974000	0.00000000
7.09999975	1.11466500	11.06668000	0.00000000
7.29999974	4.93786900	11.06668000	0.00000000
7.49999973	7.16781500	11.06668000	-0.04306102
7.69999972	7.64579200	11.06668000	-0.41830710
7.89999971	6.21247500	11.06668000	-1.15649600
8.09999970	3.34522600	11.06668000	-1.48253000
8.29999968	0.00000000	11.06668000	-1.19955700
8.49999967	-2.86724900	11.06668000	-0.79355310
8.69999966	-4.77854300	11.06668000	-0.83046260
8.89999965	-5.25652100	11.06668000	-0.74434050
9.09999964	-4.30056600	11.10974000	-0.78124990
9.29999962	-2.70792300	11.44193000	-0.37524600
9.49999961	-0.63668800	11.81102000	-0.04306102
9.69999960	1.11466500	11.48499000	0.00000000
9.89999959	2.22994600	11.48499000	-0.04306102
10.09999958	2.54859700	11.81102000	-0.37524600
10.29999956	2.22994600	11.44193000	-0.73818890
10.49999955	1.43331700	11.10974000	-0.37524600
10.69999954	0.47736220	11.06668000	-0.04306102
10.89999953	-0.31803640	11.06668000	0.00000000
11.09999952	-0.79601380	11.06668000	0.00000000
11.29999951	-0.95533960	11.06668000	0.00000000
11.49999949	-0.95533960	11.06668000	0.00000000
11.69999948	-0.79601380	11.06668000	0.00000000
11.89999947	-0.47736220	11.06668000	0.00000000
12.09999946	-0.15871060	11.06668000	0.00000000
12.29999945	-0.15871060	11.06668000	0.00000000
12.49999943	-0.15871060	11.06668000	0.00000000
12.69999942	0.00000000	11.06668000	0.00000000
12.89999941	0.00000000	11.06668000	0.00000000
13.09999940	0.00000000	11.06668000	0.00000000
13.29999939	0.00000000	11.06668000	0.00000000
13.49999937	0.00000000	11.06668000	0.00000000
13.69999936	0.00000000	11.06668000	0.00000000
13.89999935	-0.15871060	11.06668000	0.00000000
14.09999934	-0.15871060	11.06668000	0.00000000
14.29999933	-0.15871060	11.06668000	0.00000000
14.49999932	-0.15871060	11.06668000	0.00000000
14.69999930	-0.15871060	11.06668000	0.00000000
14.89999929	0.00000000	11.06668000	0.00000000
15.09999928	0.00000000	11.06668000	0.00000000
15.29999927	0.00000000	11.06668000	0.00000000
15.49999926	0.00000000	11.06668000	0.00000000
15.69999924	0.00000000	11.06668000	0.00000000
15.89999923	0.00000000	11.06668000	0.00000000
16.09999922	0.00000000	11.06668000	0.00000000
16.29999921	-0.15871060	11.06668000	0.00000000
16.49999920	-0.15871060	11.10974000	0.00000000
16.69999919	-0.15871060	11.48499000	0.00000000
16.89999917	-0.15871060	12.22933000	0.00000000
17.09999916	-0.15871060	12.60458000	0.00000000
17.29999915	0.00000000	12.64764000	0.00000000
17.49999914	0.00000000	12.64764000	0.00000000
17.69999913	0.00000000	12.60458000	0.00000000
17.89999911	0.00000000	12.18012000	0.00000000
18.09999910	0.00000000	11.02362000	0.00000000
18.29999909	0.00000000	9.48572700	0.00000000
18.49999908	0.00000000	7.90477300	0.00000000
18.69999907	-0.15871060	6.41609200	0.00000000
18.89999905	-0.15871060	5.67175200	-0.04306102
19.09999904	-0.15871060	6.41609200	-0.37524600
19.29999903	0.00000000	7.99704600	-0.73818890
19.49999902	0.00000000	10.41462000	-0.37524600
19.69999901	0.00000000	14.27165000	-0.04306102
19.89999900	0.00000000	18.46087000	-0.04306102
20.09999898	0.00000000	21.53666000	-0.37524600
20.29999897	0.00000000	22.65010000	-0.73818890
20.49999896	0.00000000	21.06914000	-0.37524600
20.69999895	0.00000000	16.79380000	-0.04306102
20.89999894	0.00000000	10.55610000	0.00000000
21.09999892	0.00000000	3.16190900	0.00000000
21.29999891	0.00000000	-4.09694900	0.00000000
21.49999890	0.00000000	-9.03051100	0.00000000
21.69999889	0.00000000	-9.35654400	-0.04306102
21.89999888	0.00000000	-4.70595500	-0.41830710
22.09999886	0.00000000	4.26919300	-1.15649600
22.29999885	0.00000000	16.27707000	-1.53174200
22.49999884	0.00000000	28.97392000	-1.57480300
22.69999883	0.00000000	38.93332000	-1.53174200
22.89999882	-0.15871060	43.17175000	-1.15649600
23.09999881	-0.15871060	40.38509000	-0.41830710
23.29999879	0.00000000	30.61023000	0.00000000
23.49999878	-0.15871060	14.74532000	0.41830710
23.69999877	0.00000000	-3.72170300	1.15649600
23.89999876	0.00000000	-19.91265000	1.48253000
24.09999875	0.00000000	-29.92126000	1.15649600
24.29999873	0.00000000	-30.99163000	0.37524600
24.49999872	0.00000000	-22.05955000	-0.46136810
24.69999871	0.00000000	-4.66289300	-1.99311000
24.89999870	0.00000000	17.34744000	-3.90009800
25.09999869	0.00000000	38.98253000	-5.06274600
25.29999867	0.00000000	55.17347000	-5.85014700
25.49999866	-0.15871060	62.05708000	-5.75787400
25.69999865	0.00000000	57.36343000	-4.18307100
25.89999864	0.00000000	41.54158000	-1.11343500
26.09999863	0.00000000	18.37475000	2.73745100
26.29999862	0.00000000	-6.70521600	6.26845500
26.49999860	0.00000000	-27.96506000	9.33809000
26.69999859	0.00000000	-40.29896000	11.14665000
26.89999858	0.00000000	-41.08636000	9.94094400
27.09999857	0.00000000	-29.87205000	5.71481200
27.29999856	0.00000000	-9.44881800	-0.51058070
27.49999854	0.00000000	15.25591000	-7.89247000
27.69999853	0.00000000	38.42889000	-15.14518000
27.89999852	0.00000000	54.71210000	-20.10950000
28.09999851	0.00000000	60.94365000	-20.81693000
28.29999850	0.00000000	56.33612000	-16.95374000
28.49999848	0.00000000	42.00910000	-8.78444900
28.69999847	0.00000000	21.20448000	2.04232300
28.89999846	0.00000000	-1.16879900	13.61343000
29.09999845	0.00000000	-19.35900000	23.22835000
29.29999844	0.00000000	-29.92126000	28.20497000
29.49999843	0.00000000	-31.45915000	27.41142000
29.69999841	0.00000000	-23.77584000	20.35556000
29.89999840	0.00000000	-8.79675100	7.99089500
30.09999839	0.00000000	8.97514600	-7.43110200
30.29999838	0.00000000	25.67667000	-22.06570000
30.49999837	0.00000000	38.47195000	-32.52337000
30.69999835	0.00000000	44.70964000	-36.70644000
30.89999834	0.00000000	43.63311000	-33.21850000
31.09999833	0.00000000	36.28199000	-22.39788000
31.29999832	0.00000000	24.32333000	-6.92052100
31.49999831	0.00000000	10.41462000	10.45152000
31.69999829	0.00000000	-2.00541300	25.87352000
31.89999828	0.00000000	-10.93750000	35.54380000
32.09999827	0.00000000	-14.84375000	37.91216000
32.29999826	-0.15871060	-12.93676000	32.43110000
32.49999825	0.00000000	-6.42224400	20.06643000
32.69999824	0.00000000	3.29724400	3.11269700
32.89999822	0.00000000	14.05020000	-14.25935000
33.09999821	0.00000000	23.34522000	-28.24803000
33.29999820	0.00000000	28.79552000	-36.74950000
33.49999819	0.00000000	30.04429000	-37.86294000
33.69999818	0.00000000	27.30069000	-30.94242000
33.89999816	0.00000000	21.16142000	-17.83957000
34.09999815	0.00000000	13.06594000	-1.62401600
34.29999814	0.00000000	5.38877900	14.21629000
34.49999813	0.00000000	-0.04921259	26.24877000
34.69999812	0.00000000	-2.00541300	32.43110000
34.89999810	0.00000000	-0.51673230	31.63755000
35.09999809	0.00000000	3.71555100	23.55438000
35.29999808	0.00000000	9.48572700	10.49459000
35.49999807	0.00000000	15.25591000	-4.18307100
35.69999806	0.00000000	19.48819000	-17.32899000
35.89999805	0.00000000	21.06914000	-26.16265000
36.09999803	0.00000000	19.90650000	-28.48179000
36.29999802	0.00000000	16.46161000	-23.55438000
36.49999801	0.00000000	11.48499000	-13.61343000
36.69999800	0.00000000	6.87746000	-1.62401600
36.89999799	0.00000000	3.75861200	9.89788300
37.09999797	0.00000000	2.60211600	17.98105000
37.29999796	0.00000000	3.75861200	20.30635000
37.49999795	0.00000000	6.83439900	16.91068000
37.69999794	0.00000000	11.06668000	8.83366100
37.89999793	0.00000000	15.29897000	-1.48868100
38.09999791	0.00000000	18.41781000	-11.06053000
38.29999790	0.00000000	19.95571000	-16.77534000
38.49999789	0.00000000	19.53125000	-16.81841000
38.69999788	0.00000000	16.83686000	-11.52190000
38.89999787	0.00000000	12.60458000	-3.11269700
39.09999786	0.00000000	7.99704600	5.75787400
39.29999784	0.00000000	4.09079700	13.01058000
39.49999783	0.00000000	1.75935000	16.40010000
39.69999782	0.00000000	1.02116100	14.12401000
39.89999781	0.00000000	2.55290300	7.25270600
40.09999780	0.00000000	5.99163300	-1.95004900
40.29999778	0.00000000	9.90403500	-11.18971000
40.49999777	0.00000000	14.22859000	-17.66117000
40.69999776	0.00000000	18.41781000	-19.60507000
40.89999775	0.00000000	21.16142000	-16.12328000
41.09999774	0.00000000	21.90576000	-8.50147600
41.29999772	0.00000000	20.73696000	1.11343500
41.49999771	0.00000000	17.25517000	9.94094400
41.69999770	0.00000000	12.69070000	15.74803000
41.89999769	0.00000000	8.41535400	17.32899000
42.09999768	0.00000000	5.29650500	14.63459000
42.29999767	0.00000000	3.67249000	8.45226300
42.49999765	0.00000000	3.29724400	0.00000000
42.69999764	0.00000000	4.09079700	-8.40920300
42.89999763	0.00000000	6.41609200	-14.16708000
43.09999762	0.00000000	9.44266700	-15.79724000
43.29999761	0.00000000	12.18012000	-13.56422000
43.49999759	0.00000000	14.13632000	-8.96284400
43.69999758	0.00000000	15.29897000	-3.15575800
43.89999757	0.00000000	15.34203000	2.60211600
44.09999756	0.00000000	14.60384000	6.87746000
44.29999755	0.00000000	13.85334000	8.82750900
44.49999753	0.00000000	13.06594000	8.45226300
44.69999752	0.00000000	12.73991000	5.80093500
44.89999751	0.00000000	13.02288000	1.95004900
45.09999750	0.00000000	13.39198000	-1.90698800
45.29999749	0.00000000	12.93061000	-5.38262700
45.49999748	0.00000000	11.76181000	-7.29576700
45.69999746	0.00000000	9.39345400	-7.33882900
45.89999745	0.00000000	6.36687900	-5.80093500
46.09999744	0.00000000	3.62942900	-3.15575800
46.29999743	0.00000000	1.75935000	-0.46751960
46.49999742	0.00000000	1.43946800	1.53174200
46.69999740	0.00000000	3.80782500	3.06348400
46.89999739	0.00000000	8.45841400	3.80782500
47.09999738	0.00000000	14.64690000	3.06348400
47.29999737	0.00000000	21.16142000	1.53174200
47.49999736	0.00000000	25.71973000	-0.41830710
47.69999734	0.00000000	26.92544000	-2.73745100
47.89999733	0.00000000	24.56324000	-4.64443900
48.09999732	0.00000000	19.11294000	-5.80093500
48.29999731	0.00000000	10.97441000	-5.80093500
48.49999730	0.00000000	2.17765700	-4.64443900
48.69999729	0.00000000	-4.74901600	-2.69439000
48.89999727	0.00000000	-7.86786400	0.04306102
49.09999726	0.00000000	-6.66215500	3.06348400
49.29999725	0.00000000	-1.26107300	5.38262700
49.49999724	0.00000000	7.62180000	6.13312000
49.69999723	0.00000000	17.21210000	5.38262700
49.89999721	0.00000000	25.34449000	3.06348400
50.09999720	0.00000000	29.90895000	-0.04306102
50.29999719	0.00000000	29.58292000	-3.53100400
50.49999718	0.00000000	24.56324000	-6.96358300
50.69999717	0.00000000	16.46161000	-8.87672100
50.89999715	-0.15871060	6.83439900	-8.91978400
51.09999714	0.00000000	-1.58710600	-7.33882900
51.29999713	0.00000000	-6.19463500	-4.22613100
51.49999712	0.00000000	-5.86860200	0.00000000
51.69999711	0.00000000	-0.89197830	4.18307100
51.89999710	0.00000000	6.79133800	6.92052100
52.09999708	0.00000000	15.25591000	7.71407400
52.29999707	0.00000000	22.18258000	6.92052100
52.49999706	0.00000000	25.63361000	4.22613100
52.69999705	0.00000000	24.88312000	0.37524600
52.89999704	0.00000000	19.90650000	-3.43873000
53.09999702	0.00000000	12.64764000	-6.54527500
53.29999701	-0.15871060	5.33956700	-7.71407400
53.49999700	0.00000000	-0.04921259	-7.38188900
53.69999699	0.00000000	-2.00541300	-5.80093500
53.89999698	0.00000000	-0.47367120	-3.11269700
54.09999696	0.00000000	4.13385800	-0.04306102
54.29999695	0.00000000	10.64838000	2.60211600
54.49999694	0.00000000	16.79380000	3.76476400
54.69999693	0.00000000	21.06914000	3.06348400
54.89999692	0.00000000	22.55782000	1.53174200
55.09999691	0.00000000	20.65084000	-0.37524600
55.29999689	0.00000000	15.67421000	-2.27608300
55.49999688	0.00000000	9.57800100	-2.97736200
55.69999687	0.00000000	4.13385800	-2.27608300
55.89999686	0.00000000	0.68897630	-0.37524600
56.09999685	0.00000000	-0.09842519	1.48868100
56.29999683	0.00000000	2.22687000	2.64517700
56.49999682	0.00000000	6.79133800	2.60211600
56.69999681	0.00000000	12.18012000	1.07037400
56.89999680	0.00000000	16.79380000	-1.62401600
57.09999679	0.00000000	19.53125000	-4.64443900
57.29999677	0.00000000	19.90650000	-6.96358300
57.49999676	0.00000000	18.04257000	-7.71407400
57.69999675	0.00000000	14.56078000	-6.92052100
57.89999674	0.00000000	10.73450000	-4.18307100
58.09999673	0.00000000	7.20964500	0.04306102
58.29999672	0.00000000	4.92125900	4.64443900
58.49999670	0.00000000	4.13385800	8.50147600
58.69999669	0.00000000	5.29650500	10.35925000
58.89999668	0.00000000	7.90477300	9.56569900
59.09999667	0.00000000	10.59916000	5.71481200
59.29999666	0.00000000	12.55536000	-0.04306102
59.49999664	0.00000000	13.76107000	-6.17618100
59.69999663	0.00000000	14.13632000	-11.18971000
59.89999662	0.00000000	13.76107000	-13.47810000
60.09999661	0.00000000	12.60458000	-12.72761000
60.29999660	0.00000000	11.10974000	-8.82750900
60.49999658	0.00000000	9.95324800	-2.69439000
60.69999657	0.00000000	9.52879000	4.26919300
60.89999656	0.00000000	9.52879000	10.40846000
61.09999655	0.00000000	9.90403500	14.21629000
61.29999654	0.00000000	10.69144000	14.16708000
61.49999653	0.00000000	11.44193000	9.98400600
61.69999651	0.00000000	12.18012000	3.06348400
61.89999650	0.00000000	12.18012000	-4.64443900
62.09999649	0.00000000	11.44193000	-11.61417000
62.29999648	0.00000000	10.64838000	-16.21555000
62.49999647	0.00000000	9.48572700	-17.32899000
62.69999645	0.00000000	8.41535400	-14.25935000
62.89999644	0.00000000	8.41535400	-7.75713500
63.09999643	0.00000000	9.52879000	-0.09227362
63.29999642	0.00000000	11.02362000	6.92052100
63.49999641	0.00000000	12.22933000	11.94021000
63.69999639	0.00000000	12.97982000	14.25935000
63.89999638	0.00000000	13.39198000	13.10285000
64.09999637	0.00000000	12.97982000	8.87672100
64.29999636	-0.15871060	12.22933000	2.69439000
64.49999635	0.00000000	11.02362000	-4.22613100
64.69999634	0.00000000	9.52879000	-9.99015700
64.89999632	0.00000000	8.41535400	-13.14591000
65.09999631	0.00000000	8.37229300	-13.61343000
65.29999630	0.00000000	9.11048200	-12.03248000
65.49999629	0.00000000	9.90403500	-8.54453700
65.69999628	0.00000000	11.06668000	-3.53100400
65.89999626	0.00000000	12.13706000	1.48868100
66.09999625	0.00000000	12.18012000	5.75787400
66.29999624	0.00000000	11.44193000	8.50147600
66.49999623	0.00000000	10.64838000	9.29502900
66.69999622	0.00000000	9.48572700	8.54453700
66.89999620	0.00000000	8.37229300	6.22539300
67.09999619	0.00000000	7.99704600	3.15575800
67.29999618	0.00000000	8.41535400	0.00000000
67.49999617	0.00000000	9.95324800	-3.11269700
67.69999616	0.00000000	12.27239000	-5.85014700
67.89999615	0.00000000	14.56078000	-7.84940900
68.09999613	0.00000000	16.46161000	-9.33809000
68.29999612	0.00000000	16.74459000	-9.70103300
68.49999611	0.00000000	14.88066000	-8.13238100
68.69999610	0.00000000	11.44193000	-5.43184000
68.89999609	0.00000000	7.94783400	-1.53174200
69.09999607	0.00000000	4.78592500	2.69439000
69.29999606	0.00000000	2.13459600	6.22539300
69.49999605	0.00000000	1.06422200	8.91978400
69.69999604	0.00000000	2.60211600	10.03322000
69.89999603	0.00000000	6.41609200	8.87057000
70.09999601	0.00000000	11.06668000	5.75787400
70.29999600	0.00000000	15.71727000	1.11343500
70.49999599	0.00000000	19.58046000	-4.27534400
70.69999598	0.00000000	21.48745000	-8.87672100
70.89999597	0.00000000	21.11220000	-11.61417000
71.09999596	0.00000000	18.37475000	-11.98327000
71.29999594	0.00000000	13.71801000	-10.07628000
71.49999593	0.00000000	7.94783400	-6.17618100
71.69999592	0.00000000	2.55290300	-1.19955700
71.89999591	0.00000000	-0.89197830	3.80782500
72.09999590	0.00000000	-1.72244100	7.25270600
72.29999588	0.00000000	0.22760820	8.50147600
72.49999587	0.00000000	4.09079700	7.71407400
72.69999586	0.00000000	9.52879000	5.43184000
72.89999585	0.00000000	15.25591000	1.95004900
73.09999584	0.00000000	19.53125000	-1.48868100
73.29999582	0.00000000	21.48745000	-4.22613100
73.49999581	0.00000000	21.11220000	-5.71481200
73.69999580	0.00000000	18.41781000	-5.38262700
73.89999579	-0.15871060	14.18553000	-3.53100400
74.09999578	0.00000000	9.52879000	-1.66707700
74.29999577	0.00000000	5.29650500	-0.46136810
74.49999575	0.00000000	2.60211600	-0.09227362
74.69999574	0.00000000	2.13459600	-0.41830710
74.89999573	0.00000000	3.29724400	-1.24877000
75.09999572	0.00000000	5.62869100	-2.32529500
75.29999571	0.00000000	9.06742000	-3.43257800
75.49999569	0.00000000	12.13706000	-2.97736200
75.69999568	0.00000000	14.13632000	-1.15649600
75.89999567	0.00000000	15.29897000	1.20570900
76.09999566	0.00000000	15.29897000	3.48179100
76.29999565	0.00000000	14.18553000	5.38262700
76.49999563	0.00000000	12.64764000	5.71481200
76.69999562	0.00000000	11.10974000	4.18307100
76.89999561	0.00000000	9.95324800	1.07037400
77.09999560	0.00000000	9.52879000	-3.15575800
77.29999559	0.00000000	9.52879000	-7.33882900
77.49999558	0.00000000	9.86097400	-10.03322000
77.69999556	0.00000000	10.23007000	-10.45152000
77.89999555	0.00000000	9.81791200	-8.91978400
78.09999554	0.00000000	9.11048200	-5.75787400
78.29999553	0.00000000	8.32308000	-1.15649600
78.49999552	0.00000000	7.99704600	3.85703700
78.69999550	0.00000000	8.37229300	7.67101300
78.89999549	0.00000000	9.52879000	9.65797200
79.09999548	0.00000000	11.06668000	9.24581600
79.29999547	0.00000000	12.64764000	6.96358300
79.49999546	0.00000000	14.18553000	3.06963600
79.69999544	0.00000000	15.29897000	-1.53174200
79.89999543	0.00000000	15.25591000	-5.80093500
80.09999542	0.00000000	13.76107000	-8.87057000
80.29999541	0.00000000	11.44193000	-10.07628000
80.49999540	0.00000000	9.11048200	-9.33809000
80.69999539	0.00000000	6.79133800	-7.38188900
80.89999537	0.00000000	5.29650500	-4.26919300
81.09999536	0.00000000	5.25344500	-0.46751960
81.29999535	0.00000000	6.41609200	2.64517700
81.49999534	0.00000000	8.37229300	4.64443900
81.69999533	0.00000000	11.06668000	5.85014700
81.89999531	0.00000000	13.71801000	6.17618100
82.09999530	0.00000000	15.29897000	5.43184000
82.29999529	0.00000000	15.67421000	3.48179100
82.49999528	0.00000000	14.92372000	1.15649600
82.69999527	0.00000000	12.97982000	-1.58095500
82.89999525	0.00000000	10.69144000	-4.26919300
83.09999524	0.00000000	8.37229300	-6.26845500
83.29999523	0.00000000	6.87746000	-7.80019600
83.49999522	0.00000000	6.79133800	-8.50147600
83.69999521	0.00000000	7.52952700	-7.33882900
83.89999520	0.00000000	8.32308000	-4.64443900
84.09999518	0.00000000	9.48572700	-1.20570900
84.29999517	0.00000000	10.64838000	2.31914400
84.49999516	0.00000000	11.39887000	5.01968500
84.69999515	0.00000000	11.81102000	7.01279500
84.89999514	0.00000000	11.44193000	7.71407400
85.09999512	0.00000000	11.10974000	6.92052100
85.29999511	0.00000000	11.06668000	4.18307100
85.49999510	-0.15871060	11.06668000	-0.04306102
85.69999509	0.00000000	11.06668000	-4.64443900
85.89999508	0.00000000	11.06668000	-8.50147600
86.09999506	0.00000000	11.02362000	-10.45152000
86.29999505	0.00000000	10.64838000	-10.45152000
86.49999504	0.00000000	9.86097400	-8.45226300
86.69999503	0.00000000	9.11048200	-4.22613100
86.89999502	0.00000000	8.32308000	1.11343500
87.09999501	0.00000000	7.94783400	5.71481200
87.29999499	0.00000000	7.94783400	8.45226300
87.49999498	0.00000000	8.37229300	8.82750900
87.69999497	0.00000000	9.52879000	6.92052100
87.89999496	0.00000000	11.02362000	3.06963600
88.09999495	0.00000000	12.18012000	-1.57480300
88.29999493	0.00000000	12.60458000	-6.17618100
88.49999492	0.00000000	12.60458000	-9.60875900
88.69999491	0.00000000	12.18012000	-10.35925000
88.89999490	0.00000000	11.02362000	-8.50147600
89.09999489	0.00000000	9.52879000	-4.64443900
89.29999487	0.00000000	8.37229300	-0.04306102
89.49999486	0.00000000	7.94783400	4.22613100
89.69999485	0.00000000	7.94783400	7.29576700
89.89999484	0.00000000	8.32308000	8.40920300
90.09999483	0.00000000	9.11048200	6.87746000
90.29999482	0.00000000	9.86097400	3.02042300
90.49999480	0.00000000	10.64838000	-1.95004900
90.69999479	0.00000000	11.02362000	-6.92052100
90.89999478	0.00000000	11.06668000	-9.94094400
91.09999477	0.00000000	11.06668000	-10.03322000
91.29999476	0.00000000	11.06668000	-7.75713500
91.49999474	0.00000000	11.06668000	-4.22613100
91.69999473	0.00000000	11.06668000	0.41830710
91.89999472	0.00000000	11.06668000	5.33956700
92.09999471	0.00000000	11.06668000	8.40920300
92.29999470	0.00000000	11.06668000	8.82750900
92.49999468	0.00000000	11.02362000	6.87746000
92.69999467	0.00000000	10.59916000	2.64517700
92.89999466	0.00000000	9.48572700	-2.69439000
93.09999465	0.00000000	8.32308000	-7.29576700
93.29999464	0.00000000	7.57258800	-9.98400600
93.49999463	0.00000000	7.20964500	-9.98400600
93.69999461	0.00000000	7.99704600	-7.33882900
93.89999460	0.00000000	9.48572700	-3.11269700
94.09999459	0.00000000	11.06668000	1.48868100
94.29999458	0.00000000	12.69070000	5.29650500
94.49999457	0.00000000	14.56078000	6.87130900
94.69999455	0.00000000	16.04331000	6.13312000
94.89999454	0.00000000	15.67421000	3.80782500
95.09999453	0.00000000	14.13632000	-0.04306102
95.29999452	0.00000000	11.81102000	-4.22613100
95.49999451	0.00000000	8.69832600	-7.29576700
95.69999449	0.00000000	6.04084600	-8.45226300
95.89999448	0.00000000	4.04773600	-7.33882900
96.09999447	0.00000000	3.29724400	-4.68750000
96.29999446	0.00000000	3.75861200	-1.58095500
96.49999445	0.00000000	6.09005900	1.48868100
96.69999444	0.00000000	10.27313000	3.76476400
96.89999442	0.00000000	14.09326000	4.18307100
97.09999441	0.00000000	16.87992000	3.11269700
97.29999440	0.00000000	18.41781000	1.53174200
97.49999439	0.00000000	18.41781000	-0.41830710
97.69999438	0.00000000	16.83686000	-2.69439000
97.89999436	0.00000000	13.71801000	-4.22613100
98.09999435	0.00000000	9.48572700	-4.64443900
98.29999434	0.00000000	5.29650500	-4.26919300
98.49999433	0.00000000	2.55290300	-3.15575800
98.69999432	0.00000000	1.75935000	-1.99311000
98.89999430	0.00000000	2.50984200	-1.19955700
99.09999429	0.00000000	4.87819900	-0.41830710
99.29999428	0.00000000	8.32308000	-0.04306102
99.49999427	0.00000000	12.18012000	0.00000000
99.69999426	0.00000000	15.29897000	0.04306102
99.89999425	0.00000000	17.25517000	0.41830710
100.09999423	-0.15871060	18.04257000	1.15649600
100.29999422	0.00000000	17.25517000	1.53174200
100.49999421	0.00000000	15.34203000	1.53174200
100.69999420	0.00000000	12.60458000	1.11343500
100.89999419	0.00000000	9.52879000	-0.04306102
101.09999417	0.00000000	6.79133800	-1.57480300
101.29999416	0.00000000	4.87819900	-3.15575800
101.49999415	0.00000000	4.09079700	-4.64443900
101.69999414	0.00000000	4.83513700	-5.38262700
101.89999413	0.00000000	6.36687900	-4.60137700
102.09999411	0.00000000	8.32308000	-2.73745100
102.29999410	0.00000000	10.64838000	-0.37524600
102.49999409	0.00000000	12.60458000	1.95004900
102.69999408	0.00000000	14.13632000	4.22613100
102.89999407	0.00000000	14.92372000	5.33956700
103.09999406	0.00000000	14.51156000	4.60137700
103.29999404	0.00000000	13.39198000	2.69439000
103.49999403	0.00000000	11.44193000	-0.04306102
103.69999402	0.00000000	9.52879000	-3.11269700
103.89999401	0.00000000	7.94783400	-5.80093500
104.09999400	0.00000000	6.79133800	-7.33882900
104.29999398	0.00000000	6.41609200	-7.33882900
104.49999397	0.00000000	6.79133800	-5.80093500
104.69999396	0.00000000	7.94783400	-3.11269700
104.89999395	0.00000000	9.48572700	-0.04306102
105.09999394	0.00000000	11.02362000	2.64517700
105.29999392	0.00000000	12.22933000	4.18307100
105.49999391	0.00000000	12.93061000	4.22613100
105.69999390	0.00000000	12.92446000	3.06348400
105.89999389	0.00000000	11.44193000	1.15649600
106.09999388	0.00000000	9.99630800	-1.15649600
106.29999387	0.00000000	9.48572700	-3.06348400
106.49999385	0.00000000	9.06742000	-4.26919300
106.69999384	0.00000000	8.37229300	-4.64443900
106.89999383	0.00000000	8.41535400	-4.22613100
107.09999382	0.00000000	9.52879000	-2.69439000
107.29999381	0.00000000	11.02362000	-0.41830710
107.49999379	0.00000000	12.18012000	1.43946800
107.69999378	0.00000000	12.55536000	2.22687000
107.89999377	0.00000000	12.18012000	1.48868100
108.09999376	0.00000000	11.06668000	0.00000000
108.29999375	0.00000000	9.90403500	-1.57480300
108.49999374	0.00000000	9.11048200	-3.11269700
108.69999372	0.00000000	8.32308000	-4.26919300
108.89999371	0.00000000	7.99704600	-4.60137700
109.09999370	0.00000000	8.32308000	-3.85088600
109.29999369	0.00000000	9.11048200	-1.95004900
109.49999368	0.00000000	9.90403500	-0.09227362
109.69999366	0.00000000	11.06668000	1.15649600
109.89999365	0.00000000	12.18012000	1.90698800
110.09999364	0.00000000	12.55536000	2.26993100
110.29999363	0.00000000	12.22933000	1.53174200
110.49999362	0.00000000	11.44193000	0.37524600
110.69999360	0.00000000	10.69144000	-0.79355310
110.89999359	0.00000000	9.86097400	-2.36220500
111.09999358	0.00000000	9.11048200	-3.48794300
111.29999357	0.00000000	8.37229300	-4.26919300
111.49999356	0.00000000	8.37229300	-4.26919300
111.69999355	0.00000000	9.06742000	-3.53100400
111.89999353	0.00000000	9.48572700	-2.73745100
112.09999352	0.00000000	9.90403500	-1.57480300
112.29999351	0.00000000	10.64838000	-0.41830710
112.49999350	0.00000000	11.02362000	0.32603340
112.69999349	0.00000000	11.06668000	0.73818890
112.89999347	0.00000000	11.06668000	0.37524600
113.09999346	0.00000000	11.02362000	0.04306102
113.29999345	0.00000000	10.64838000	-0.04306102
113.49999344	0.00000000	9.90403500	-0.41830710
113.69999343	0.00000000	9.52879000	-1.15649600
113.89999341	0.00000000	9.48572700	-1.53174200
114.09999340	-0.15871060	9.48572700	-1.57480300
114.29999339	0.00000000	9.48572700	-1.61786400
114.49999338	0.00000000	9.48572700	-1.99311000
114.69999337	0.00000000	9.48572700	-2.73745100
114.89999336	0.00000000	9.48572700	-3.06348400
115.09999334	0.00000000	9.52879000	-2.73745100
115.29999333	0.00000000	9.90403500	-1.95004900
115.49999332	0.00000000	10.64838000	-1.19955700
115.69999331	0.00000000	11.02362000	-0.41830710
115.89999330	0.00000000	11.02362000	0.00000000
116.09999328	0.00000000	10.64838000	0.41830710
116.29999327	-0.15871060	9.90403500	1.15649600
116.49999326	0.00000000	9.52879000	1.48253000
116.69999325	0.00000000	9.48572700	1.15649600
116.89999324	0.00000000	9.48572700	0.37524600
117.09999322	0.00000000	9.52879000	-0.37524600
117.29999321	0.00000000	9.90403500	-1.19955700
117.49999320	0.00000000	10.69144000	-1.95004900
117.69999319	0.00000000	11.39887000	-2.73745100
117.89999318	0.00000000	11.85408000	-3.06348400
118.09999317	0.00000000	11.81717000	-2.73745100
118.29999315	0.00000000	11.81102000	-1.95004900
118.49999314	0.00000000	11.02362000	-1.19955700
118.69999313	0.00000000	9.90403500	-0.37524600
118.89999312	0.00000000	9.06742000	0.37524600
119.09999311	0.00000000	7.94783400	1.15649600
119.29999309	0.00000000	7.20964500	1.48253000
119.49999308	0.00000000	7.57258800	1.15649600
119.69999307	0.00000000	8.32308000	0.37524600
119.89999306	0.00000000	9.52879000	-0.37524600
120.09999305	0.00000000	11.02362000	-1.19955700
120.29999303	0.00000000	12.22933000	-1.90698800
120.49999302	0.00000000	12.97982000	-2.31914400
120.69999301	0.00000000	13.39198000	-1.95004900
120.89999300	0.00000000	12.97982000	-1.61786400
121.09999299	0.00000000	12.22933000	-1.57480300
121.29999298	0.00000000	11.02362000	-1.57480300
121.49999296	0.00000000	9.48572700	-1.57480300
121.69999295	0.00000000	7.99704600	-1.53174200
121.89999294	0.00000000	7.20964500	-1.15649600
122.09999293	0.00000000	7.52952700	-0.41830710
122.29999292	0.00000000	7.90477300	-0.04306102
122.49999290	0.00000000	8.37229300	0.00000000
122.69999289	0.00000000	9.48572700	0.00000000
122.89999288	0.00000000	10.64838000	0.00000000
123.09999287	0.00000000	11.48499000	0.00000000
123.29999286	0.00000000	12.55536000	-0.04306102
123.49999284	0.00000000	12.92446000	-0.41830710
123.69999283	0.00000000	11.86024000	-1.15649600
123.89999282	0.00000000	11.10974000	-1.53174200
124.09999281	0.00000000	10.64838000	-1.57480300
124.29999280	0.00000000	9.90403500	-1.57480300
124.49999279	0.00000000	9.48572700	-1.57480300
124.69999277	0.00000000	9.06742000	-1.57480300
124.89999276	0.00000000	8.32308000	-1.53174200
125.09999275	0.00000000	7.94783400	-1.15649600
125.29999274	0.00000000	7.94783400	-0.41830710
125.49999273	0.00000000	8.37229300	-0.04306102
125.69999271	0.00000000	9.48572700	0.00000000
125.89999270	0.00000000	10.59916000	0.00000000
126.09999269	0.00000000	11.06668000	0.00000000
126.29999268	0.00000000	11.48499000	-0.04306102
126.49999267	0.00000000	12.18012000	-0.41830710
126.69999265	0.00000000	12.18012000	-1.15649600
126.89999264	0.00000000	11.44193000	-1.53174200
127.09999263	0.00000000	10.64838000	-1.57480300
127.29999262	0.00000000	9.48572700	-1.57480300
127.49999261	0.00000000	8.32308000	-1.57480300
127.69999260	0.00000000	7.57258800	-1.57480300
127.89999258	0.00000000	7.20964500	-1.53174200
128.09999257	0.00000000	7.94783400	-1.15649600
128.29999256	0.00000000	9.06742000	-0.41830710
128.49999255	0.00000000	9.90403500	-0.04306102
128.69999254	0.00000000	11.06668000	0.00000000
128.89999252	0.00000000	12.13706000	0.00000000
129.09999251	0.00000000	12.18012000	-0.04306102
129.29999250	0.00000000	11.44193000	-0.41830710
129.49999249	0.00000000	10.64838000	-1.15649600
129.69999248	0.00000000	9.48572700	-1.53174200
129.89999246	0.00000000	8.37229300	-1.57480300
130.09999245	0.00000000	7.94783400	-1.57480300
130.29999244	0.00000000	7.94783400	-1.53174200
130.49999243	0.00000000	8.32308000	-1.19955700
130.69999242	0.00000000	9.11048200	-0.79355310
130.89999241	0.00000000	9.86097400	-0.78124990
131.09999239	0.00000000	10.64838000	-0.41830710
131.29999238	0.00000000	11.02362000	-0.46136810
131.49999237	0.00000000	11.06668000	-1.15649600
131.69999236	0.00000000	11.02362000	-1.57480300
131.89999235	0.00000000	10.64838000	-1.99311000
132.09999233	0.00000000	9.90403500	-2.68823800
132.29999232	0.00000000	9.52879000	-2.68823800
132.49999231	0.00000000	9.48572700	-1.99311000
132.69999230	0.00000000	9.48572700	-1.57480300
132.89999229	0.00000000	9.48572700	-1.15649600
133.09999227	0.00000000	9.48572700	-0.41830710
133.29999226	0.00000000	9.48572700	-0.04306102
133.49999225	0.00000000	9.48572700	0.00000000
133.69999224	0.00000000	9.48572700	0.00000000
133.89999223	0.00000000	9.48572700	-0.04306102
134.09999222	0.00000000	9.48572700	-0.41830710
134.29999220	0.00000000	9.48572700	-1.15649600
134.49999219	0.00000000	9.52879000	-1.57480300
134.69999218	0.00000000	9.90403500	-1.99311000
134.89999217	0.00000000	10.64838000	-2.73745100
135.09999216	0.00000000	11.02362000	-3.06348400
135.29999214	0.00000000	11.02362000	-2.73745100
135.49999213	0.00000000	10.64838000	-1.95004900
135.69999212	0.00000000	9.90403500	-1.19955700
135.89999211	0.00000000	9.48572700	-0.41830710
136.09999210	0.00000000	9.06742000	-0.04306102
136.29999208	0.00000000	8.32308000	0.00000000
136.49999207	0.00000000	7.99704600	0.00000000
136.69999206	0.00000000	8.32308000	-0.04306102
136.89999205	0.00000000	9.11048200	-0.41830710
137.09999204	0.00000000	9.86097400	-1.19955700
137.29999203	0.00000000	10.64838000	-1.95004900
137.49999201	0.00000000	11.06668000	-2.73745100
137.69999200	0.00000000	11.44193000	-3.11269700
137.89999199	0.00000000	11.81102000	-3.11269700
138.09999198	0.00000000	11.39887000	-2.73745100
138.29999197	0.00000000	10.69144000	-1.99311000
138.49999195	0.00000000	9.90403500	-1.57480300
138.69999194	0.00000000	9.48572700	-1.15649600
138.89999193	0.00000000	9.11048200	-0.41830710
139.09999192	0.00000000	8.74138700	-0.04306102
139.29999191	0.00000000	9.15354300	0.00000000
139.49999189	0.00000000	9.81791200	0.00000000
139.69999188	0.00000000	10.27313000	0.00000000
139.89999187	0.00000000	10.27928000	-0.04306102
140.09999186	0.00000000	10.69144000	-0.41830710
140.29999185	0.00000000	10.97441000	-1.19955700
140.49999184	0.00000000	10.64838000	-1.95004900
140.69999182	0.00000000	9.90403500	-2.73745100
140.89999181	0.00000000	9.52879000	-3.06348400
141.09999180	0.00000000	9.48572700	-2.73745100
141.29999179	0.00000000	9.48572700	-1.99311000
141.49999178	0.00000000	9.48572700	-1.57480300
141.69999176	0.00000000	9.48572700	-1.15649600
141.89999175	0.00000000	9.52879000	-0.37524600
142.09999174	0.00000000	9.90403500	0.32603340
142.29999173	0.00000000	10.64838000	0.73818890
142.49999172	0.00000000	10.97441000	0.32603340
142.69999170	0.00000000	10.64838000	-0.37524600
142.89999169	0.00000000	9.90403500	-1.15649600
143.09999168	0.00000000	9.52879000	-1.57480300
143.29999167	0.00000000	9.48572700	-1.99311000
143.49999166	0.00000000	9.48572700	-2.73745100
143.69999165	0.00000000	9.48572700	-3.06348400
143.89999163	0.00000000	9.48572700	-2.73745100
144.09999162	0.00000000	9.52879000	-1.95004900
144.29999161	0.00000000	9.90403500	-1.19955700
144.49999160	0.00000000	10.59916000	-0.41830710
144.69999159	0.00000000	10.59916000	-0.04306102
144.89999157	0.00000000	9.90403500	0.00000000
145.09999156	0.00000000	9.52879000	0.00000000
145.29999155	-0.15871060	9.48572700	-0.04306102
145.49999154	0.00000000	9.48572700	-0.41830710
145.69999153	0.00000000	9.48572700	-1.15649600
145.89999151	0.00000000	9.48572700	-1.57480300
146.09999150	0.00000000	9.48572700	-1.95004900
146.29999149	0.00000000	9.48572700	-2.31914400
146.49999148	0.00000000	9.52879000	-1.95004900
146.69999147	0.00000000	9.90403500	-1.61786400
146.89999146	0.00000000	10.64838000	-1.53174200
147.09999144	0.00000000	10.97441000	-1.15649600
147.29999143	0.00000000	10.64838000	-0.41830710
147.49999142	0.00000000	9.90403500	-0.04306102
147.69999141	0.00000000	9.52879000	0.00000000
147.89999140	0.00000000	9.48572700	0.00000000
148.09999138	0.00000000	9.48572700	-0.04306102
148.29999137	0.00000000	9.48572700	-0.41830710
148.49999136	0.00000000	9.48572700	-1.15649600
148.69999135	0.00000000	9.48572700	-1.53174200
148.89999134	0.00000000	9.48572700	-1.57480300
149.09999132	0.00000000	9.52879000	-1.57480300
149.29999131	0.00000000	9.90403500	-1.57480300
149.49999130	0.00000000	10.59916000	-1.57480300
149.69999129	0.00000000	10.64838000	-1.53174200
149.89999128	0.00000000	10.27928000	-1.15649600
150.09999127	0.00000000	10.27313000	-0.41830710
150.29999125	0.00000000	9.86097400	-0.04306102
150.49999124	0.00000000	9.52879000	0.00000000
150.69999123	0.00000000	9.48572700	0.00000000
150.89999122	0.00000000	9.48572700	-0.04306102
151.09999121	0.00000000	9.48572700	-0.41830710
151.29999119	0.00000000	9.48572700	-1.15649600
151.49999118	0.00000000	9.48572700	-1.53174200
151.69999117	0.00000000	9.48572700	-1.57480300
151.89999116	0.00000000	9.48572700	-1.57480300
152.09999115	0.00000000	9.48572700	-1.57480300
152.29999113	0.00000000	9.52879000	-1.53174200
152.49999112	0.00000000	9.90403500	-1.19955700
152.69999111	0.00000000	10.59916000	-0.83661410
152.89999110	0.00000000	10.59916000	-1.15649600
153.09999109	0.00000000	9.90403500	-1.11343500
153.29999108	0.00000000	9.52879000	-0.41830710
153.49999106	0.00000000	9.44266700	-0.04306102
153.69999105	0.00000000	9.06742000	0.00000000
153.89999104	0.00000000	8.32308000	0.00000000
154.09999103	0.00000000	7.99704600	-0.04306102
154.29999102	0.00000000	8.32308000	-0.41830710
154.49999100	0.00000000	9.06742000	-1.15649600
154.69999099	0.00000000	9.44266700	-1.53174200
154.89999098	0.00000000	9.52879000	-1.57480300
155.09999097	0.00000000	9.90403500	-1.57480300
155.29999096	0.00000000	10.59916000	-1.57480300
155.49999094	0.00000000	10.59916000	-1.57480300
155.69999093	0.00000000	9.90403500	-1.57480300
155.89999092	0.00000000	9.52879000	-1.53174200
156.09999091	0.00000000	9.48572700	-1.15649600
156.29999090	0.00000000	9.48572700	-0.41830710
156.49999089	0.00000000	9.48572700	-0.04306102
156.69999087	0.00000000	9.44266700	0.00000000
156.89999086	0.00000000	9.06742000	0.00000000
157.09999085	0.00000000	8.37229300	-0.04306102
157.29999084	0.00000000	8.37229300	-0.41830710
157.49999083	0.00000000	9.06742000	-1.15649600
157.69999081	0.00000000	9.44266700	-1.53174200
157.89999080	0.00000000	9.52879000	-1.57480300
158.09999079	0.00000000	9.86097400	-1.57480300
158.29999078	0.00000000	10.27313000	-1.57480300
158.49999077	0.00000000	10.23622000	-1.57480300
158.69999075	-0.15871060	10.27313000	-1.53174200
158.89999074	0.00000000	9.86097400	-1.15649600
159.09999073	0.00000000	9.52879000	-0.41830710
159.29999072	0.00000000	9.48572700	-0.04306102
159.49999071	0.00000000	9.48572700	0.00000000
159.69999070	0.00000000	9.48572700	0.00000000
159.89999068	0.00000000	9.48572700	0.00000000
160.09999067	0.00000000	9.48572700	-0.04306102
160.29999066	0.00000000	9.48572700	-0.41830710
160.49999065	0.00000000	9.48572700	-1.15649600
160.69999064	0.00000000	9.48572700	-1.53174200
160.89999062	0.00000000	9.48572700	-1.57480300
161.09999061	0.00000000	9.48572700	-1.57480300
161.29999060	0.00000000	9.48572700	-1.57480300
161.49999059	-0.15871060	9.52879000	-1.57480300
161.69999058	0.00000000	9.86097400	-1.57480300
161.89999056	0.00000000	10.23007000	-1.53174200
162.09999055	0.00000000	9.90403500	-1.15649600
162.29999054	0.00000000	9.90403500	-0.46136810
162.49999053	0.00000000	10.23007000	-0.46136810
162.69999052	0.00000000	9.86097400	-1.15649600
162.89999051	0.00000000	9.52879000	-1.48253000
163.09999049	0.00000000	9.48572700	-1.19955700
163.29999048	0.00000000	9.48572700	-0.83661410
163.49999047	0.00000000	9.44266700	-1.19955700
163.69999046	0.00000000	9.11048200	-1.53174200
163.89999045	0.00000000	8.74138700	-1.57480300
164.09999043	0.00000000	9.11048200	-1.57480300
164.29999042	0.00000000	9.48572700	-1.57480300
164.49999041	0.00000000	9.90403500	-1.57480300
164.69999040	0.00000000	10.59916000	-1.57480300
164.89999039	0.00000000	10.59916000	-1.57480300
165.09999037	0.00000000	9.90403500	-1.57480300
165.29999036	0.00000000	9.52879000	-1.57480300
165.49999035	0.00000000	9.48572700	-1.57480300
165.69999034	0.00000000	9.48572700	-1.57480300
165.89999033	0.00000000	9.48572700	-1.57480300
166.09999032	0.00000000	9.44266700	-1.57480300
166.29999030	0.00000000	9.11048200	-1.57480300
166.49999029	0.00000000	8.69832600	-1.57480300
166.69999028	0.00000000	8.73523500	-1.57480300
166.89999027	0.00000000	8.69832600	-1.57480300
167.09999026	0.00000000	9.11048200	-1.57480300
167.29999024	0.00000000	9.44266700	-1.57480300
167.49999023	0.00000000	9.48572700	-1.57480300
167.69999022	0.00000000	9.48572700	-1.57480300
167.89999021	0.00000000	9.48572700	-1.57480300
168.09999020	0.00000000	9.48572700	-1.57480300
168.29999018	0.00000000	9.48572700	-1.57480300
168.49999017	0.00000000	9.48572700	-1.57480300
168.69999016	0.00000000	9.48572700	-1.53174200
168.89999015	0.00000000	9.48572700	-1.19955700
169.09999014	0.00000000	9.48572700	-0.83661410
169.29999013	0.00000000	9.48572700	-1.19955700
169.49999011	0.00000000	9.48572700	-1.53174200
169.69999010	0.00000000	9.48572700	-1.57480300
169.89999009	0.00000000	9.48572700	-1.57480300
170.09999008	0.00000000	9.48572700	-1.57480300
170.29999007	0.00000000	9.48572700	-1.57480300
170.49999005	0.00000000	9.48572700	-1.57480300
170.69999004	0.00000000	9.48572700	-1.57480300
170.89999003	0.00000000	9.48572700	-1.57480300
171.09999002	0.00000000	9.48572700	-1.57480300
171.29999001	0.00000000	9.48572700	-1.57480300
171.49998999	0.00000000	9.48572700	-1.57480300
171.69998998	0.00000000	9.48572700	-1.57480300
171.89998997	0.00000000	9.48572700	-1.57480300
172.09998996	0.00000000	9.48572700	-1.57480300
172.29998995	0.00000000	9.48572700	-1.57480300
172.49998994	0.00000000	9.48572700	-1.57480300
172.69998992	0.00000000	9.48572700	-1.57480300
172.89998991	0.00000000	9.48572700	-1.57480300
173.09998990	0.00000000	9.48572700	-1.57480300
173.29998989	0.00000000	9.48572700	-1.57480300
173.49998988	0.00000000	9.48572700	-1.57480300
173.69998986	0.00000000	9.48572700	-1.57480300
173.89998985	-0.15871060	9.48572700	-1.57480300
174.09998984	0.00000000	9.48572700	-1.57480300
174.29998983	0.00000000	9.48572700	-1.57480300
174.49998982	0.00000000	9.48572700	-1.57480300
174.69998980	0.00000000	9.48572700	-1.57480300
174.89998979	0.00000000	9.48572700	-1.57480300
175.09998978	0.00000000	9.48572700	-1.57480300
175.29998977	0.00000000	9.48572700	-1.57480300
175.49998976	0.00000000	9.48572700	-1.57480300
175.69998975	0.00000000	9.48572700	-1.57480300
175.89998973	0.00000000	9.48572700	-1.57480300
176.09998972	0.00000000	9.48572700	-1.57480300
176.29998971	0.00000000	9.48572700	-1.57480300
176.49998970	0.00000000	9.48572700	-1.57480300
176.69998969	0.00000000	9.48572700	-1.57480300
176.89998967	0.00000000	9.48572700	-1.57480300
177.09998966	0.00000000	9.48572700	-1.57480300
177.29998965	0.00000000	9.48572700	-1.57480300
177.49998964	0.00000000	9.48572700	-1.57480300
177.69998963	0.00000000	9.48572700	-1.57480300
177.89998961	0.00000000	9.48572700	-1.57480300
178.09998960	0.00000000	9.48572700	-1.57480300
178.29998959	0.00000000	9.48572700	-1.57480300
178.49998958	0.00000000	9.48572700	-1.57480300
178.69998957	0.00000000	9.48572700	-1.57480300
178.89998956	0.00000000	9.48572700	-1.57480300
179.09998954	0.00000000	9.48572700	-1.57480300
179.29998953	0.00000000	9.48572700	-1.57480300
179.49998952	0.00000000	9.48572700	-1.57480300
179.69998951	0.00000000	9.48572700	-1.57480300
179.89998950	0.00000000	9.48572700	-1.57480300
180.09998948	0.00000000	9.48572700	-1.57480300
180.29998947	0.00000000	9.48572700	-1.57480300
180.49998946	0.00000000	9.48572700	-1.57480300
180.69998945	0.00000000	9.44266700	-1.57480300
180.89998944	0.00000000	9.06742000	-1.57480300
181.09998942	0.00000000	8.37229300	-1.57480300
181.29998941	0.00000000	8.37229300	-1.57480300
181.49998940	0.00000000	9.06742000	-1.57480300
181.69998939	0.00000000	9.44266700	-1.57480300
181.89998938	0.00000000	9.48572700	-1.57480300
182.09998937	0.00000000	9.48572700	-1.57480300
182.29998935	0.00000000	9.48572700	-1.57480300
182.49998934	0.00000000	9.48572700	-1.57480300
182.69998933	0.00000000	9.48572700	-1.57480300
182.89998932	0.00000000	9.48572700	-1.57480300
183.09998931	0.00000000	9.48572700	-1.57480300
183.29998929	0.00000000	9.48572700	-1.57480300
183.49998928	0.00000000	9.48572700	-1.57480300
183.69998927	0.00000000	9.48572700	-1.57480300
183.89998926	-0.15871060	9.48572700	-1.53174200
184.09998925	0.00000000	9.48572700	-1.15649600
184.29998923	0.00000000	9.48572700	-0.46136810
184.49998922	0.00000000	9.48572700	-0.46136810
184.69998921	0.00000000	9.48572700	-1.11343500
184.89998920	0.00000000	9.48572700	-1.15649600
185.09998919	0.00000000	9.48572700	-0.83661410
185.29998918	0.00000000	9.48572700	-1.19955700
185.49998916	0.00000000	9.48572700	-1.53174200
185.69998915	0.00000000	9.48572700	-1.57480300
185.89998914	0.00000000	9.48572700	-1.57480300
186.09998913	0.00000000	9.48572700	-1.57480300
186.29998912	0.00000000	9.48572700	-1.57480300
186.49998910	0.00000000	9.48572700	-1.57480300
186.69998909	0.00000000	9.48572700	-1.57480300
186.89998908	0.00000000	9.48572700	-1.53174200
187.09998907	0.00000000	9.48572700	-1.15649600
187.29998906	0.00000000	9.48572700	-0.41830710
187.49998904	0.00000000	9.48572700	-0.09227362
187.69998903	0.00000000	9.48572700	-0.41830710
187.89998902	0.00000000	9.48572700	-1.15649600
188.09998901	0.00000000	9.48572700	-1.53174200
188.29998900	0.00000000	9.48572700	-1.57480300
188.49998899	0.00000000	9.48572700	-1.57480300
188.69998897	0.00000000	9.48572700	-1.57480300
188.89998896	-0.15871060	9.48572700	-1.57480300
189.09998895	0.00000000	9.48572700	-1.57480300
189.29998894	0.00000000	9.48572700	-1.57480300
189.49998893	0.00000000	9.48572700	-1.57480300
189.69998891	0.00000000	9.48572700	-1.57480300
189.89998890	0.00000000	9.48572700	-1.53174200
190.09998889	0.00000000	9.48572700	-1.19955700
190.29998888	0.00000000	9.48572700	-0.79355310
190.49998887	0.00000000	9.48572700	-0.78124990
190.69998885	0.00000000	9.48572700	-0.37524600
190.89998884	0.00000000	9.48572700	-0.04306102
191.09998883	-0.15871060	9.48572700	-0.04306102
191.29998882	0.00000000	9.52879000	-0.41830710
191.49998881	0.00000000	9.86097400	-1.15649600
191.69998880	0.00000000	10.23007000	-1.53174200
191.89998878	0.00000000	9.86097400	-1.57480300
192.09998877	0.00000000	9.52879000	-1.57480300
192.29998876	0.00000000	9.48572700	-1.57480300
192.49998875	0.00000000	9.44266700	-1.57480300
192.69998874	0.00000000	9.11048200	-1.57480300
192.89998872	0.00000000	8.74138700	-1.57480300
193.09998871	0.00000000	9.11048200	-1.57480300
193.29998870	0.00000000	9.44266700	-1.57480300
193.49998869	0.00000000	9.48572700	-1.57480300
193.69998868	0.00000000	9.48572700	-1.57480300
193.89998866	0.00000000	9.48572700	-1.57480300
194.09998865	0.00000000	9.48572700	-1.57480300
194.29998864	0.00000000	9.48572700	-1.57480300
194.49998863	0.00000000	9.48572700	-1.57480300
194.69998862	0.00000000	9.48572700	-1.57480300
194.89998861	0.00000000	9.48572700	-1.57480300
195.09998859	0.00000000	9.48572700	-1.57480300
195.29998858	0.00000000	9.48572700	-1.57480300
195.49998857	0.00000000	9.48572700	-1.57480300
195.69998856	0.00000000	9.48572700	-1.57480300
195.89998855	0.00000000	9.44266700	-1.57480300
196.09998853	0.00000000	9.11048200	-1.57480300
