Time	Channel A	Channel B	Channel C
(us)	(V)	(mV)	(mV)

-4.59999956	0.00000000	-9.48572700	-7.89247000
-4.39999957	0.00000000	-9.52879000	-7.93553100
-4.19999958	-0.15871060	-9.86097400	-8.26771600
-3.99999959	0.00000000	-10.23007000	-8.63681000
-3.79999960	0.00000000	-9.86097400	-8.26771600
-3.59999962	0.00000000	-9.52879000	-7.93553100
-3.39999963	0.00000000	-9.48572700	-7.89247000
-3.19999964	0.00000000	-9.48572700	-7.89247000
-2.99999965	0.00000000	-9.48572700	-7.84940900
-2.79999966	0.00000000	-9.48572700	-7.56028500
-2.59999968	0.00000000	-9.48572700	-7.57258800
-2.39999969	0.00000000	-9.48572700	-8.63681000
-2.19999970	0.00000000	-9.48572700	-8.96284400
-1.99999971	0.00000000	-9.48572700	-8.31077700
-1.79999972	0.00000000	-9.48572700	-7.93553100
-1.59999973	0.00000000	-9.48572700	-7.89247000
-1.39999975	0.00000000	-9.48572700	-7.89247000
-1.19999976	0.00000000	-9.48572700	-7.89247000
-0.99999977	0.00000000	-9.48572700	-7.89247000
-0.79999978	0.00000000	-9.48572700	-7.89247000
-0.59999979	0.00000000	-9.48572700	-7.89247000
-0.39999981	0.15871060	-9.48572700	-7.89247000
-0.19999982	0.47736220	-9.48572700	-7.89247000
0.00000017	0.79601380	-9.48572700	-7.89247000
0.20000016	0.95533960	-9.48572700	-7.89247000
0.40000015	0.95533960	-9.48572700	-7.89247000
0.60000013	0.47736220	-9.48572700	-7.93553100
0.80000012	-0.31803640	-9.48572700	-8.26771600
1.00000011	-1.27399100	-9.48572700	-8.63681000
1.20000010	-2.22994600	-9.44266700	-8.26771600
1.40000009	-2.86724900	-9.11048200	-7.93553100
1.60000008	-2.54859700	-8.74138700	-7.89247000
1.80000006	-1.59264300	-9.06742000	-7.89247000
2.00000005	0.00000000	-9.06742000	-7.89247000
2.20000004	2.07062000	-8.74138700	-7.89247000
2.40000003	4.14124000	-9.11048200	-7.89247000
2.60000002	5.25652100	-9.44266700	-7.93553100
2.80000000	5.09719500	-9.48572700	-8.31077700
2.99999999	3.50393700	-9.48572700	-9.05511800
3.19999998	0.63668800	-9.48572700	-9.43036400
3.39999997	-2.70792300	-9.48572700	-9.43036400
3.59999996	-5.89382400	-9.44266700	-9.05511800
3.79999994	-7.80511800	-9.11048200	-8.31077700
3.99999993	-7.80511800	-8.74138700	-7.89247000
4.19999992	-5.89382400	-9.06742000	-7.51722400
4.39999991	-2.22994600	-9.06742000	-7.14812900
4.59999990	2.22994600	-8.74138700	-7.51722400
4.79999989	6.37180100	-9.11048200	-7.89247000
4.99999987	8.92039900	-9.44266700	-8.31077700
5.19999986	9.39837600	-9.48572700	-9.05511800
5.39999985	7.32714100	-9.48572700	-9.43036400
5.59999984	3.50393700	-9.48572700	-9.47342500
5.79999983	-1.27399100	-9.48572700	-9.43036400
5.99999981	-5.73449800	-9.48572700	-9.05511800
6.19999980	-8.76107300	-9.48572700	-8.31077700
6.39999979	-9.55770200	-9.48572700	-7.93553100
6.59999978	-7.96444400	-9.48572700	-7.89247000
6.79999977	-4.45989200	-9.48572700	-7.89247000
6.99999975	-0.15871060	-9.48572700	-7.89247000
7.19999974	3.98191400	-9.48572700	-7.89247000
7.39999973	6.84916400	-9.48572700	-7.89247000
7.59999972	7.80511800	-9.48572700	-7.93553100
7.79999971	6.69045300	-9.48572700	-8.26771600
7.99999970	4.14124000	-9.48572700	-8.63681000
8.19999968	0.95533960	-9.48572700	-8.26771600
8.39999967	-2.22994600	-9.48572700	-7.93553100
8.59999966	-4.45989200	-9.48572700	-7.89247000
8.79999965	-5.25652100	-9.48572700	-7.89247000
8.99999964	-4.77854300	-9.48572700	-7.89247000
9.19999962	-3.18590100	-9.48572700	-7.89247000
9.39999961	-1.27399100	-9.48572700	-7.89247000
9.59999960	0.63668800	-9.48572700	-7.89247000
9.79999959	1.91129400	-9.48572700	-7.89247000
9.99999958	2.54859700	-9.48572700	-7.89247000
10.19999956	2.38927200	-9.44266700	-7.89247000
10.39999955	1.59264300	-9.11048200	-7.89247000
10.59999954	0.63668800	-8.74138700	-7.89247000
10.79999953	-0.15871060	-9.11048200	-7.89247000
10.99999952	-0.63668800	-9.44266700	-7.89247000
11.19999951	-0.95533960	-9.48572700	-7.89247000
11.39999949	-0.95533960	-9.48572700	-7.89247000
11.59999948	-0.79601380	-9.48572700	-7.89247000
11.79999947	-0.47736220	-9.48572700	-7.93553100
11.99999946	-0.31803640	-9.48572700	-8.26771600
12.19999945	-0.15871060	-9.48572700	-8.63681000
12.39999943	-0.15871060	-9.48572700	-8.26771600
12.59999942	0.00000000	-9.48572700	-7.93553100
12.79999941	0.00000000	-9.48572700	-7.89247000
12.99999940	0.00000000	-9.48572700	-7.89247000
13.19999939	0.00000000	-9.48572700	-7.89247000
13.39999937	0.00000000	-9.48572700	-7.89247000
13.59999936	0.00000000	-9.48572700	-7.89247000
13.79999935	-0.15871060	-9.48572700	-7.89247000
13.99999934	-0.15871060	-9.48572700	-7.89247000
14.19999933	-0.15871060	-9.48572700	-7.89247000
14.39999932	-0.15871060	-9.48572700	-7.89247000
14.59999930	-0.15871060	-9.48572700	-7.89247000
14.79999929	-0.15871060	-9.48572700	-7.89247000
14.99999928	0.00000000	-9.48572700	-7.89247000
15.19999927	0.00000000	-9.48572700	-7.89247000
15.39999926	0.00000000	-9.48572700	-7.89247000
15.59999924	0.00000000	-9.48572700	-7.89247000
15.79999923	0.00000000	-9.48572700	-7.89247000
15.99999922	0.00000000	-9.48572700	-7.89247000
16.19999921	-0.15871060	-9.48572700	-7.89247000
16.39999920	-0.15871060	-9.44266700	-7.89247000
16.59999919	-0.15871060	-9.06742000	-7.89247000
16.79999917	-0.15871060	-8.32308000	-7.89247000
16.99999916	-0.15871060	-7.90477300	-7.89247000
17.19999915	0.00000000	-7.48646600	-7.89247000
17.39999914	0.00000000	-6.79133800	-7.89247000
17.59999913	0.00000000	-6.79133800	-7.89247000
17.79999911	0.00000000	-7.57258800	-7.93553100
17.99999910	0.00000000	-8.74138700	-8.26771600
18.19999909	0.00000000	-10.69144000	-8.67987200
18.39999908	0.00000000	-12.55536000	-8.64296200
18.59999907	-0.15871060	-13.76107000	-8.67987200
18.79999905	-0.15871060	-14.18553000	-8.26771600
18.99999904	-0.15871060	-14.13632000	-7.93553100
19.19999903	0.00000000	-13.25664000	-7.89247000
19.39999902	0.00000000	-10.55610000	-7.89247000
19.59999901	0.00000000	-6.69906400	-7.89247000
19.79999900	0.00000000	-2.82972400	-7.93553100
19.99999898	0.00000000	0.65206690	-8.26771600
20.19999897	0.00000000	2.47293300	-8.63681000
20.39999896	0.00000000	1.67938000	-8.26771600
20.59999895	0.00000000	-2.22687000	-7.93553100
20.79999894	0.00000000	-8.41535400	-7.89247000
20.99999892	0.00000000	-15.80955000	-7.89247000
21.19999891	0.00000000	-23.11762000	-7.93553100
21.39999890	-0.15871060	-28.46333000	-8.26771600
21.59999889	0.00000000	-29.95817000	-8.67987200
21.79999888	0.00000000	-26.79626000	-8.68602300
21.99999886	0.00000000	-18.97761000	-9.05511800
22.19999885	0.00000000	-7.39419200	-9.05511800
22.39999884	0.00000000	5.35187000	-8.72908400
22.59999883	0.00000000	16.14788000	-9.05511800
22.79999882	0.00000000	22.61319000	-9.00590400
22.99999881	0.00000000	22.10261000	-8.31077700
23.19999879	0.00000000	13.58883000	-7.89247000
23.39999878	-0.15871060	-1.15649600	-7.47416300
23.59999877	0.00000000	-19.30364000	-6.72982200
23.79999876	0.00000000	-37.02633000	-6.35457700
23.99999875	0.00000000	-49.26796000	-6.35457700
24.19999873	0.00000000	-52.75591000	-6.77903500
24.39999872	0.00000000	-46.10605000	-7.93553100
24.59999871	0.00000000	-30.65330000	-9.47342500
24.79999870	0.00000000	-9.35039300	-11.04823000
24.99999869	0.00000000	13.02903000	-12.58612000
25.19999867	0.00000000	31.50221000	-13.74262000
25.39999866	-0.15871060	41.08636000	-14.03174000
25.59999865	-0.15871060	38.76107000	-12.86294000
25.79999864	-0.15871060	25.26452000	-9.75639700
25.99999863	0.00000000	3.58636800	-5.93626900
26.19999862	0.00000000	-21.49360000	-2.04232300
26.39999860	0.00000000	-44.24212000	1.02116100
26.59999859	0.00000000	-58.89518000	2.55905500
26.79999858	0.00000000	-62.05708000	2.04847400
26.99999857	0.00000000	-53.54945000	-1.43946800
27.19999856	0.00000000	-35.40231000	-7.56643700
27.39999854	0.00000000	-11.44193000	-14.21014000
27.59999853	0.00000000	12.47539000	-20.81078000
27.79999852	-0.15871060	31.08391000	-26.51944000
27.99999851	0.00000000	40.34818000	-28.71555000
28.19999850	0.00000000	38.43504000	-26.38410000
28.39999848	0.00000000	25.73203000	-19.37131000
28.59999847	0.00000000	5.72711600	-8.96284400
28.79999846	0.00000000	-16.32628000	2.64517700
28.99999845	0.00000000	-35.68528000	13.01058000
29.19999844	0.00000000	-48.47441000	19.55585000
29.39999843	0.00000000	-52.01156000	20.26329000
29.59999841	0.00000000	-46.29060000	14.77608000
29.79999840	0.00000000	-33.21235000	3.21112200
29.99999839	0.00000000	-16.18479000	-11.83563000
30.19999838	0.00000000	0.84891720	-26.52559000
30.39999837	0.00000000	14.84375000	-38.50886000
30.59999835	0.00000000	22.93922000	-44.59892000
30.79999834	0.00000000	23.81890000	-43.01796000
30.99999833	0.00000000	17.67962000	-33.72293000
31.19999832	0.00000000	6.88361200	-18.30093000
31.39999831	0.00000000	-6.32381900	-0.59670270
31.59999829	0.00000000	-19.44513000	15.28666000
31.79999828	-0.15871060	-29.53986000	26.11343000
31.99999827	0.00000000	-34.61491000	30.01353000
32.19999826	-0.15871060	-34.28272000	26.11343000
32.39999825	0.00000000	-28.88779000	15.28666000
32.59999824	0.00000000	-19.99877000	-0.55364170
32.79999822	0.00000000	-9.52879000	-17.93184000
32.99999821	0.00000000	0.47367120	-33.03395000
33.19999820	0.00000000	7.44955700	-43.11023000
33.39999819	0.00000000	9.86712600	-46.13681000
33.59999818	0.00000000	8.32923100	-41.16019000
33.79999816	0.00000000	3.26033400	-29.17692000
33.99999815	0.00000000	-4.78592500	-13.37352000
34.19999814	0.00000000	-13.20743000	3.25418300
34.39999813	0.00000000	-19.44513000	16.73228000
34.59999812	0.00000000	-22.60704000	24.16338000
34.79999810	0.00000000	-22.55782000	24.53248000
34.99999809	0.00000000	-19.11294000	17.98105000
35.19999808	0.00000000	-13.02288000	5.67175200
35.39999807	0.00000000	-6.87746000	-8.96284400
35.59999806	0.00000000	-2.22687000	-22.48400000
35.79999805	0.00000000	0.09842519	-32.19119000
35.99999803	0.00000000	-0.64591530	-36.05438000
36.19999802	0.00000000	-3.67249000	-33.72293000
36.39999801	0.00000000	-7.94783400	-25.27067000
36.59999800	0.00000000	-12.55536000	-13.00443000
36.79999799	0.00000000	-16.36934000	-0.73203740
36.99999797	0.00000000	-17.90723000	8.55068800
37.19999796	-0.15871060	-16.79380000	12.41388000
37.39999795	0.00000000	-13.71801000	10.54995000
37.59999794	0.00000000	-9.48572700	3.62942900
37.79999793	0.00000000	-5.25344500	-6.31151500
37.99999791	0.00000000	-2.13459600	-16.25861000
38.19999790	0.00000000	-0.59670270	-23.17913000
38.39999789	0.00000000	-0.97194880	-25.09227000
38.59999788	0.00000000	-3.29724400	-21.64739000
38.79999787	0.00000000	-6.79133800	-13.65650000
38.99999786	0.00000000	-11.06668000	-4.12770700
39.19999784	-0.15871060	-15.25591000	3.58636800
39.39999783	0.00000000	-17.99951000	7.81250000
39.59999782	0.00000000	-18.79306000	7.34498000
39.79999781	0.00000000	-17.99951000	1.63016700
39.99999780	0.00000000	-15.25591000	-7.51722400
40.19999778	0.00000000	-11.06668000	-16.72613000
40.39999777	0.00000000	-6.79133800	-23.68971000
40.59999776	0.00000000	-3.25418300	-26.71629000
40.79999775	0.00000000	-0.55364170	-24.80315000
40.99999774	0.00000000	0.55979330	-18.25787000
41.19999772	0.00000000	-0.55364170	-9.05511800
41.39999771	0.00000000	-3.25418300	0.55979330
41.59999770	0.00000000	-6.79133800	7.81250000
41.79999769	0.00000000	-11.02362000	10.54995000
41.99999768	-0.15871060	-14.88066000	8.27386800
42.19999767	0.00000000	-17.21210000	2.18380900
42.39999765	0.00000000	-18.04257000	-5.94242000
42.59999764	0.00000000	-17.25517000	-14.03174000
42.79999763	0.00000000	-15.34203000	-20.57702000
42.99999762	0.00000000	-12.60458000	-23.64665000
43.19999761	0.00000000	-9.52879000	-22.57628000
43.39999759	0.00000000	-6.83439900	-18.39321000
43.59999758	0.00000000	-5.29650500	-12.58612000
43.79999757	0.00000000	-5.21038300	-6.40378900
43.99999756	0.00000000	-5.90551100	-1.06422200
44.19999755	0.00000000	-6.32381900	1.67322800
44.39999753	0.00000000	-6.69906400	1.35334600
44.59999752	0.00000000	-7.11122000	-0.88582670
44.79999751	0.00000000	-7.11737200	-4.40452700
44.99999750	0.00000000	-7.52952700	-8.22465500
45.19999749	0.00000000	-7.90477300	-11.70029000
45.39999748	0.00000000	-8.41535400	-13.65650000
45.59999746	0.00000000	-10.03937000	-14.07480000
45.79999745	0.00000000	-13.06594000	-13.32431000
45.99999744	0.00000000	-16.50467000	-11.38041000
46.19999743	0.00000000	-18.79306000	-9.09817800
46.39999742	0.00000000	-19.53125000	-6.72982200
46.59999740	0.00000000	-17.90723000	-4.82283400
46.79999739	0.00000000	-13.67495000	-3.70939900
46.99999738	0.00000000	-7.86171200	-4.03543200
47.19999737	0.00000000	-1.67322800	-5.56102300
47.39999736	0.00000000	3.67864200	-7.14812900
47.59999734	0.00000000	6.32997000	-9.51648500
47.79999733	0.00000000	5.12426100	-12.11860000
47.99999732	0.00000000	0.09842519	-13.65650000
48.19999731	0.00000000	-7.99704600	-13.69956000
48.39999730	0.00000000	-16.83686000	-12.53691000
48.59999729	0.00000000	-24.18799000	-10.58686000
48.79999727	0.00000000	-28.42027000	-7.84940900
48.99999726	0.00000000	-28.37721000	-4.77977300
49.19999725	0.00000000	-23.72047000	-2.12844500
49.39999724	0.00000000	-15.25591000	-0.97194880
49.59999723	0.00000000	-5.25344500	-1.71013800
49.79999721	0.00000000	3.58636800	-3.66633800
49.99999720	0.00000000	9.03051100	-6.77903500
50.19999719	-0.15871060	9.77485200	-10.62992000
50.39999718	0.00000000	5.95472400	-14.07480000
50.59999717	0.00000000	-1.80856300	-16.39395000
50.79999715	0.00000000	-11.34966000	-16.76919000
50.99999714	0.00000000	-20.23253000	-15.23130000
51.19999713	0.00000000	-25.63361000	-12.11860000
51.39999712	0.00000000	-26.79626000	-7.89247000
51.59999711	0.00000000	-23.34522000	-3.66633800
51.79999710	0.00000000	-16.04946000	-0.59670270
51.99999708	0.00000000	-7.62180000	0.60285430
52.19999707	0.00000000	0.09842519	-0.17839570
52.39999706	0.00000000	4.70595500	-2.50369100
52.59999705	0.00000000	5.12426100	-6.35457700
52.79999704	0.00000000	1.67938000	-10.53765000
52.99999702	0.00000000	-4.87819900	-13.65650000
53.19999701	0.00000000	-12.51230000	-15.23130000
53.39999700	-0.15871060	-19.06988000	-15.23130000
53.59999699	0.00000000	-22.51476000	-13.69956000
53.79999698	0.00000000	-22.13952000	-11.00517000
53.99999696	0.00000000	-17.95029000	-7.98474400
54.19999695	0.00000000	-11.44193000	-5.66560000
54.39999694	0.00000000	-4.92125900	-4.87204700
54.59999693	0.00000000	0.14148620	-5.19808000
54.79999692	0.00000000	2.38065900	-6.36072800
54.99999691	0.00000000	1.26107300	-7.89247000
55.19999689	0.00000000	-3.34030500	-9.38115100
55.39999688	0.00000000	-9.44266700	-10.11934000
55.59999687	0.00000000	-15.25591000	-9.38115100
55.79999686	0.00000000	-19.44513000	-7.89247000
55.99999685	0.00000000	-20.65084000	-6.36072800
56.19999683	-0.15871060	-18.74385000	-5.19808000
56.39999682	0.00000000	-14.92372000	-4.87204700
56.59999681	0.00000000	-9.86097400	-5.66560000
56.79999680	0.00000000	-4.92125900	-7.98474400
56.99999679	0.00000000	-1.39640700	-11.00517000
57.19999677	0.00000000	-0.27066930	-13.69956000
57.39999676	0.00000000	-1.39640700	-15.18824000
57.59999675	0.00000000	-4.83513700	-14.76993000
57.79999674	0.00000000	-9.01820900	-12.07554000
57.99999673	0.00000000	-12.51230000	-7.89247000
58.19999672	0.00000000	-14.88066000	-3.62327700
58.39999670	0.00000000	-15.63115000	-0.13533460
58.59999669	0.00000000	-14.92372000	2.14074800
58.79999668	0.00000000	-12.97982000	2.04847400
58.99999667	0.00000000	-10.69144000	-1.01501000
59.19999666	0.00000000	-8.32308000	-6.40378900
59.39999664	-0.15871060	-6.45915300	-12.58612000
59.59999663	0.00000000	-5.67175200	-18.35015000
59.79999662	0.00000000	-6.41609200	-22.10876000
59.99999661	0.00000000	-7.86171200	-22.10876000
60.19999660	0.00000000	-9.06742000	-18.30093000
60.39999658	0.00000000	-9.86097400	-12.11860000
60.59999657	0.00000000	-10.59916000	-4.77977300
60.79999656	0.00000000	-10.59916000	2.09153500
60.99999655	0.00000000	-9.86097400	6.32381900
61.19999654	0.00000000	-9.11048200	6.74212600
61.39999653	0.00000000	-8.37229300	3.62942900
61.59999651	0.00000000	-8.37229300	-2.50369100
61.79999650	0.00000000	-9.06742000	-10.21161000
61.99999649	0.00000000	-9.48572700	-17.14444000
62.19999648	0.00000000	-9.90403500	-22.20103000
62.39999647	0.00000000	-10.69144000	-24.10802000
62.59999645	0.00000000	-11.39887000	-22.57628000
62.79999644	0.00000000	-11.76181000	-17.88263000
62.99999643	0.00000000	-10.97441000	-10.58686000
63.19999642	0.00000000	-9.52879000	-2.54675200
63.39999641	0.00000000	-8.37229300	3.62942900
63.59999639	0.00000000	-7.90477300	6.74212600
63.79999638	0.00000000	-7.52952700	6.36687900
63.99999637	0.00000000	-7.20964500	2.51599400
64.19999636	0.00000000	-7.99704600	-3.62327700
64.39999635	0.00000000	-9.44266700	-10.53765000
64.59999634	0.00000000	-10.64838000	-16.35089000
64.79999632	0.00000000	-11.44193000	-19.88189000
64.99999631	0.00000000	-12.18012000	-21.08760000
65.19999630	0.00000000	-12.13706000	-19.92495000
65.39999629	0.00000000	-11.06668000	-16.81225000
65.59999628	0.00000000	-9.90403500	-12.16166000
65.79999626	0.00000000	-9.11048200	-6.82209600
65.99999625	0.00000000	-8.37229300	-2.54675200
66.19999624	0.00000000	-8.37229300	-0.13533460
66.39999623	0.00000000	-9.15354300	1.06422200
66.59999622	0.00000000	-10.27928000	1.02116100
66.79999620	0.00000000	-11.81102000	-0.51058070
66.99999619	0.00000000	-12.51230000	-3.19881900
67.19999618	0.00000000	-12.13706000	-6.31151500
67.39999617	0.00000000	-10.59916000	-9.47342500
67.59999616	0.00000000	-8.32308000	-12.58612000
67.79999615	0.00000000	-6.36687900	-15.27436000
67.99999613	0.00000000	-4.83513700	-16.85531000
68.19999612	0.00000000	-4.13385800	-17.23056000
68.39999611	0.00000000	-5.29650500	-16.43701000
68.59999610	0.00000000	-7.94783400	-14.07480000
68.79999609	0.00000000	-11.06668000	-10.58686000
68.99999607	-0.15871060	-14.18553000	-6.31151500
69.19999606	0.00000000	-16.87992000	-2.08538400
69.39999605	0.00000000	-18.37475000	1.02116100
69.59999604	0.00000000	-17.95029000	2.55905500
69.79999603	0.00000000	-15.25591000	2.14074800
69.99999601	0.00000000	-10.97441000	-0.59670270
70.19999600	0.00000000	-5.99163300	-5.19808000
70.39999599	0.00000000	-1.34719500	-10.62992000
70.59999598	0.00000000	1.31028500	-15.60654000
70.79999597	0.00000000	1.72244100	-19.08834000
70.99999596	0.00000000	-0.64591530	-19.83883000
71.19999594	0.00000000	-5.21038300	-17.97490000
71.39999593	0.00000000	-10.64838000	-14.11786000
71.59999592	0.00000000	-15.71727000	-9.47342500
71.79999591	0.00000000	-19.95571000	-4.87204700
71.99999590	0.00000000	-22.18258000	-1.34719500
72.19999588	0.00000000	-21.06914000	0.19685040
72.39999587	0.00000000	-17.25517000	0.23375980
72.59999586	0.00000000	-12.22933000	-1.71013800
72.79999585	0.00000000	-6.79133800	-4.73671200
72.99999584	0.00000000	-2.17765700	-7.89247000
73.19999582	0.00000000	0.55979330	-10.96211000
73.39999581	0.00000000	0.93503930	-13.23819000
73.59999580	0.00000000	-0.97194880	-13.61343000
73.79999579	0.00000000	-4.83513700	-12.16781000
73.99999578	0.00000000	-9.44266700	-9.93479300
74.19999577	-0.15871060	-13.71801000	-8.40305000
74.39999575	0.00000000	-16.83686000	-7.98474400
74.59999574	0.00000000	-18.32554000	-8.31077700
74.79999573	0.00000000	-17.62426000	-9.09817800
74.99999572	0.00000000	-14.93602000	-9.84867000
75.19999571	0.00000000	-11.89715000	-10.58686000
75.39999569	0.00000000	-8.74138700	-10.53765000
75.59999568	0.00000000	-6.45915300	-9.38115100
75.79999567	0.00000000	-5.25344500	-7.43110200
75.99999566	0.00000000	-5.25344500	-4.77977300
76.19999565	0.00000000	-6.36687900	-2.54675200
76.39999563	0.00000000	-7.86171200	-2.12844500
76.59999562	0.00000000	-9.06742000	-3.29109200
76.79999561	0.00000000	-9.86097400	-5.66560000
76.99999560	0.00000000	-10.59916000	-9.51648500
77.19999559	0.00000000	-10.59916000	-13.69956000
77.39999558	0.00000000	-9.90403500	-16.81225000
77.59999556	-0.15871060	-9.57800100	-18.35015000
77.79999555	0.00000000	-9.90403500	-17.88263000
77.99999554	0.00000000	-10.69144000	-14.81299000
78.19999553	0.00000000	-11.44193000	-9.84867000
78.39999552	0.00000000	-12.18012000	-4.82898600
78.59999550	0.00000000	-12.13706000	-0.55364170
78.79999549	0.00000000	-11.02362000	2.14074800
78.99999548	0.00000000	-9.48572700	2.50984200
79.19999547	0.00000000	-7.90477300	0.60285430
79.39999546	0.00000000	-6.36687900	-3.29109200
79.59999544	0.00000000	-5.21038300	-8.26771600
79.79999543	0.00000000	-4.87819900	-13.28125000
79.99999542	0.00000000	-5.67175200	-16.76919000
80.19999541	0.00000000	-7.99704600	-18.35015000
80.39999540	0.00000000	-11.02362000	-17.97490000
80.59999539	0.00000000	-13.71801000	-15.69882000
80.79999537	0.00000000	-15.25591000	-12.58612000
80.99999536	-0.15871060	-15.29897000	-9.09817800
81.19999535	0.00000000	-14.13632000	-5.61638700
81.39999534	0.00000000	-12.18012000	-3.29109200
81.59999533	0.00000000	-9.48572700	-2.04232300
81.79999531	0.00000000	-6.79133800	-1.66707700
81.99999530	0.00000000	-4.87819900	-2.08538400
82.19999529	0.00000000	-4.09079700	-3.61712600
82.39999528	0.00000000	-4.87819900	-5.93626900
82.59999527	0.00000000	-6.74212600	-8.31077700
82.79999525	0.00000000	-9.06742000	-11.04823000
82.99999524	0.00000000	-11.02362000	-13.74262000
83.19999523	0.00000000	-12.55536000	-15.64960000
83.39999522	0.00000000	-13.34276000	-16.43701000
83.59999521	0.00000000	-12.97982000	-15.64960000
83.79999520	0.00000000	-12.22933000	-13.69956000
83.99999518	0.00000000	-11.02362000	-10.58686000
84.19999517	0.00000000	-9.52879000	-6.72982200
84.39999516	0.00000000	-8.37229300	-3.24803100
84.59999515	0.00000000	-7.99704600	-0.55364170
84.79999514	0.00000000	-8.32308000	0.55979330
84.99999512	0.00000000	-9.06742000	-0.55364170
85.19999511	0.00000000	-9.44266700	-3.24803100
85.39999510	0.00000000	-9.48572700	-6.77903500
85.59999509	0.00000000	-9.48572700	-11.04823000
85.79999508	0.00000000	-9.48572700	-15.27436000
85.99999506	0.00000000	-9.48572700	-18.25787000
86.19999505	0.00000000	-9.48572700	-18.67003000
86.39999504	0.00000000	-9.52879000	-16.02485000
86.59999503	0.00000000	-9.95324800	-12.21087000
86.79999502	0.00000000	-11.06668000	-7.89247000
86.99999501	0.00000000	-12.13706000	-3.66633800
87.19999499	0.00000000	-12.18012000	-0.59670270
87.39999498	0.00000000	-11.44193000	0.55979330
87.59999497	0.00000000	-10.64838000	-0.59670270
87.79999496	0.00000000	-9.44266700	-3.70939900
87.99999495	0.00000000	-7.94783400	-8.31077700
88.19999493	0.00000000	-6.83439900	-13.28125000
88.39999492	0.00000000	-6.83439900	-16.72613000
88.59999491	0.00000000	-7.90477300	-17.92569000
88.79999490	0.00000000	-9.06742000	-16.72613000
88.99999489	0.00000000	-9.90403500	-13.28125000
89.19999487	0.00000000	-11.06668000	-8.31077700
89.39999486	0.00000000	-12.13706000	-3.70939900
89.59999485	0.00000000	-12.18012000	-0.59670270
89.79999484	0.00000000	-11.44193000	0.55979330
89.99999483	0.00000000	-10.69144000	-0.59670270
90.19999482	0.00000000	-9.90403500	-3.70939900
90.39999480	0.00000000	-9.48572700	-8.31077700
90.59999479	0.00000000	-9.11048200	-13.28125000
90.79999478	0.00000000	-8.74138700	-16.72613000
90.99999477	0.00000000	-9.11048200	-17.92569000
91.19999476	0.00000000	-9.44266700	-16.72613000
91.39999474	0.00000000	-9.48572700	-13.28125000
91.59999473	0.00000000	-9.44266700	-8.31077700
91.79999472	0.00000000	-9.11048200	-3.70939900
91.99999471	0.00000000	-8.74138700	-0.59670270
92.19999470	0.00000000	-9.11048200	0.55979330
92.39999468	0.00000000	-9.44266700	-0.64591530
92.59999467	0.00000000	-9.52879000	-4.08464600
92.79999466	0.00000000	-9.95324800	-9.05511800
92.99999465	0.00000000	-11.06668000	-13.65650000
93.19999464	0.00000000	-12.22933000	-16.72613000
93.39999463	0.00000000	-12.97982000	-17.50738000
93.59999461	0.00000000	-13.34276000	-15.60654000
93.79999460	0.00000000	-12.51230000	-12.16166000
93.99999459	0.00000000	-10.59916000	-7.89247000
94.19999458	0.00000000	-7.94783400	-3.70939900
94.39999457	0.00000000	-5.62869100	-1.06422200
94.59999455	0.00000000	-4.45989200	-1.01501000
94.79999454	0.00000000	-4.09079700	-3.29109200
94.99999453	0.00000000	-5.29650500	-6.72982200
95.19999452	0.00000000	-7.94783400	-10.58686000
95.39999451	0.00000000	-11.06668000	-13.65650000
95.59999449	0.00000000	-14.13632000	-15.23130000
95.79999448	0.00000000	-16.46161000	-15.18824000
95.99999447	0.00000000	-17.21210000	-13.28125000
96.19999446	0.00000000	-16.46161000	-9.84867000
96.39999445	0.00000000	-14.13632000	-6.40378900
96.59999444	0.00000000	-11.02362000	-3.70939900
96.79999442	0.00000000	-7.52952700	-2.54675200
96.99999441	0.00000000	-4.04773600	-3.29109200
97.19999440	0.00000000	-1.75935000	-5.15501900
97.39999439	0.00000000	-1.02116100	-7.51722400
97.59999438	0.00000000	-2.60211600	-9.79945900
97.79999436	0.00000000	-6.32381900	-11.70029000
97.99999435	0.00000000	-10.23007000	-12.11860000
98.19999434	0.00000000	-13.39813000	-11.42347000
98.39999433	0.00000000	-16.50467000	-10.67298000
98.59999432	0.00000000	-18.32554000	-9.84867000
98.79999430	0.00000000	-17.99951000	-9.05511800
98.99999429	0.00000000	-15.71727000	-7.93553100
99.19999428	0.00000000	-12.64764000	-7.14812900
99.39999427	0.00000000	-9.48572700	-7.09891700
99.59999426	0.00000000	-6.36687900	-6.68676100
99.79999425	0.00000000	-3.67249000	-6.35457700
99.99999423	0.00000000	-2.17765700	-6.31151500
100.19999422	0.00000000	-2.50984200	-6.31151500
100.39999421	0.00000000	-4.41067900	-6.35457700
100.59999420	0.00000000	-6.74212600	-6.77903500
100.79999419	0.00000000	-9.52879000	-7.93553100
100.99999417	0.00000000	-12.55536000	-9.47342500
101.19999416	0.00000000	-14.88066000	-11.00517000
101.39999415	0.00000000	-15.67421000	-12.16166000
101.59999414	0.00000000	-15.34203000	-12.53691000
101.79999413	0.00000000	-14.13632000	-12.16166000
101.99999411	0.00000000	-12.18012000	-10.96211000
102.19999410	0.00000000	-9.48572700	-9.00590400
102.39999409	0.00000000	-6.83439900	-6.31151500
102.59999408	0.00000000	-5.25344500	-3.66633800
102.79999407	0.00000000	-4.83513700	-2.12844500
102.99999406	0.00000000	-5.21038300	-2.12844500
103.19999404	0.00000000	-6.36687900	-3.66633800
103.39999403	0.00000000	-7.94783400	-6.36072800
103.59999402	0.00000000	-9.86097400	-9.47342500
103.79999401	0.00000000	-11.81102000	-12.53691000
103.99999400	-0.15871060	-12.97982000	-14.81299000
104.19999398	0.00000000	-13.76107000	-15.18824000
104.39999397	0.00000000	-13.71801000	-13.69956000
104.59999396	0.00000000	-12.60458000	-11.00517000
104.79999395	0.00000000	-11.06668000	-7.93553100
104.99999394	0.00000000	-9.48572700	-5.24729300
105.19999392	0.00000000	-7.99704600	-3.70939900
105.39999391	0.00000000	-7.20964500	-3.62327700
105.59999390	0.00000000	-7.57258800	-4.40452700
105.79999389	0.00000000	-8.32308000	-5.61638700
105.99999388	0.00000000	-9.48572700	-7.93553100
106.19999387	0.00000000	-10.64838000	-10.53765000
106.39999385	0.00000000	-11.39887000	-12.07554000
106.59999384	-0.15871060	-11.81102000	-12.16166000
106.79999383	0.00000000	-11.39887000	-11.38041000
106.99999382	0.00000000	-10.64838000	-10.21161000
107.19999381	0.00000000	-9.48572700	-8.26771600
107.39999379	0.00000000	-8.37229300	-6.40378900
107.59999378	0.00000000	-7.94783400	-5.24729300
107.79999377	0.00000000	-7.94783400	-5.24729300
107.99999376	0.00000000	-8.37229300	-6.36072800
108.19999375	-0.15871060	-9.52879000	-7.89247000
108.39999374	0.00000000	-11.02362000	-9.47342500
108.59999372	0.00000000	-12.18012000	-10.96211000
108.79999371	0.00000000	-12.55536000	-11.74336000
108.99999370	0.00000000	-12.18012000	-11.33120000
109.19999369	0.00000000	-11.06668000	-10.21161000
109.39999368	0.00000000	-9.90403500	-8.26771600
109.59999366	0.00000000	-9.11048200	-6.40378900
109.79999365	0.00000000	-8.32308000	-5.19808000
109.99999364	0.00000000	-7.94783400	-4.82898600
110.19999363	0.00000000	-7.94783400	-5.19808000
110.39999362	0.00000000	-8.32308000	-6.36072800
110.59999360	-0.15871060	-9.11048200	-7.89247000
110.79999359	0.00000000	-9.86097400	-9.42421200
110.99999358	0.00000000	-10.64838000	-10.58686000
111.19999357	0.00000000	-11.02362000	-11.00517000
111.39999356	0.00000000	-11.06668000	-11.00517000
111.59999355	0.00000000	-11.02362000	-10.62992000
111.79999353	-0.15871060	-10.64838000	-9.84867000
111.99999352	0.00000000	-9.86097400	-9.05511800
112.19999351	0.00000000	-9.15354300	-7.89247000
112.39999350	0.00000000	-8.74138700	-6.77903500
112.59999349	0.00000000	-9.11048200	-6.40378900
112.79999347	0.00000000	-9.44266700	-6.72982200
112.99999346	0.00000000	-9.48572700	-7.47416300
113.19999345	0.00000000	-9.48572700	-7.89247000
113.39999344	0.00000000	-9.48572700	-8.31077700
113.59999343	-0.15871060	-9.48572700	-9.05511800
113.79999341	0.00000000	-9.52879000	-9.43036400
113.99999340	0.00000000	-9.90403500	-9.47342500
114.19999339	0.00000000	-10.64838000	-9.47342500
114.39999338	0.00000000	-10.97441000	-9.47342500
114.59999337	0.00000000	-10.64838000	-9.51648500
114.79999336	0.00000000	-9.90403500	-9.84867000
114.99999334	0.00000000	-9.52879000	-10.21161000
115.19999333	0.00000000	-9.48572700	-9.84867000
115.39999332	-0.15871060	-9.48572700	-9.47342500
115.59999331	0.00000000	-9.48572700	-9.00590400
115.79999330	0.00000000	-9.48572700	-7.89247000
115.99999328	0.00000000	-9.52879000	-6.77903500
116.19999327	0.00000000	-9.90403500	-6.35457700
116.39999326	0.00000000	-10.64838000	-6.35457700
116.59999325	0.00000000	-11.02362000	-6.72982200
116.79999324	0.00000000	-11.02362000	-7.51722400
116.99999322	0.00000000	-10.64838000	-8.26771600
117.19999321	0.00000000	-9.90403500	-9.09817800
117.39999320	0.00000000	-9.48572700	-9.84867000
117.59999319	0.00000000	-9.06742000	-10.62992000
117.79999318	0.00000000	-8.37229300	-10.95595000
117.99999317	0.00000000	-8.37229300	-10.62992000
118.19999315	0.00000000	-9.06742000	-9.84867000
118.39999314	0.00000000	-9.48572700	-9.05511800
118.59999313	0.00000000	-9.90403500	-7.89247000
118.79999312	0.00000000	-10.69144000	-6.77903500
118.99999311	0.00000000	-11.44193000	-6.35457700
119.19999309	0.00000000	-12.22933000	-6.35457700
119.39999308	0.00000000	-12.55536000	-6.72982200
119.59999307	0.00000000	-12.18012000	-7.47416300
119.79999306	0.00000000	-11.02362000	-7.89247000
119.99999305	0.00000000	-9.48572700	-8.31077700
120.19999303	0.00000000	-7.94783400	-9.05511800
120.39999302	0.00000000	-6.79133800	-9.43036400
120.59999301	0.00000000	-6.41609200	-9.47342500
120.79999300	0.00000000	-6.79133800	-9.47342500
120.99999299	0.00000000	-7.94783400	-9.43036400
121.19999298	0.00000000	-9.44266700	-9.09817800
121.39999296	-0.15871060	-10.64838000	-8.68602300
121.59999295	0.00000000	-11.44193000	-8.67987200
121.79999294	0.00000000	-12.22933000	-8.26771600
121.99999293	0.00000000	-12.60458000	-7.93553100
122.19999292	0.00000000	-12.60458000	-7.89247000
122.39999290	0.00000000	-12.18012000	-7.89247000
122.59999289	0.00000000	-11.02362000	-7.89247000
122.79999288	0.00000000	-9.52879000	-7.89247000
122.99999287	0.00000000	-8.37229300	-7.89247000
123.19999286	0.00000000	-7.94783400	-7.89247000
123.39999284	0.00000000	-7.90477300	-7.93553100
123.59999283	0.00000000	-7.94783400	-8.31077700
123.79999282	-0.15871060	-8.32308000	-9.05511800
123.99999281	0.00000000	-9.11048200	-9.43036400
124.19999280	0.00000000	-9.86097400	-9.47342500
124.39999279	0.00000000	-10.69144000	-9.47342500
124.59999277	0.00000000	-11.44193000	-9.43036400
124.79999276	0.00000000	-12.22933000	-9.05511800
124.99999275	-0.15871060	-12.55536000	-8.31077700
125.19999274	0.00000000	-12.22933000	-7.93553100
125.39999273	0.00000000	-11.44193000	-7.84940900
125.59999271	0.00000000	-10.64838000	-7.51722400
125.79999270	0.00000000	-9.48572700	-7.14812900
125.99999269	0.00000000	-8.37229300	-7.51722400
126.19999268	0.00000000	-7.94783400	-7.84940900
126.39999267	0.00000000	-7.90477300	-7.93553100
126.59999265	0.00000000	-7.94783400	-8.31077700
126.79999264	0.00000000	-8.37229300	-9.05511800
126.99999263	0.00000000	-9.48572700	-9.43036400
127.19999262	0.00000000	-10.64838000	-9.47342500
127.39999261	0.00000000	-11.44193000	-9.47342500
127.59999260	0.00000000	-12.22933000	-9.43036400
127.79999258	0.00000000	-12.55536000	-9.05511800
127.99999257	0.00000000	-12.18012000	-8.31077700
128.19999256	0.00000000	-11.06668000	-7.93553100
128.39999255	0.00000000	-9.90403500	-7.89247000
128.59999254	0.00000000	-9.11048200	-7.89247000
128.79999252	0.00000000	-8.32308000	-7.89247000
128.99999251	0.00000000	-7.94783400	-7.93553100
129.19999250	0.00000000	-7.94783400	-8.31077700
129.39999249	0.00000000	-8.37229300	-9.05511800
129.59999248	0.00000000	-9.48572700	-9.43036400
129.79999246	0.00000000	-10.64838000	-9.47342500
129.99999245	0.00000000	-11.44193000	-9.43036400
130.19999244	0.00000000	-12.18012000	-9.05511800
130.39999243	0.00000000	-12.18012000	-8.31077700
130.59999242	0.00000000	-11.44193000	-7.93553100
130.79999241	0.00000000	-10.69144000	-7.89247000
130.99999239	0.00000000	-9.86097400	-7.89247000
131.19999238	0.00000000	-9.11048200	-7.93553100
131.39999237	0.00000000	-8.37229300	-8.31077700
131.59999236	0.00000000	-8.37229300	-9.05511800
131.79999235	0.00000000	-9.06742000	-9.43036400
131.99999233	0.00000000	-9.48572700	-9.47342500
132.19999232	0.00000000	-9.90403500	-9.47342500
132.39999231	0.00000000	-10.59916000	-9.47342500
132.59999230	0.00000000	-10.64838000	-9.43036400
132.79999229	0.00000000	-10.27928000	-9.05511800
132.99999227	0.00000000	-10.31619000	-8.31077700
133.19999226	-0.15871060	-10.23622000	-7.89247000
133.39999225	0.00000000	-10.27313000	-7.51722400
133.59999224	0.00000000	-9.86097400	-7.14812900
133.79999223	0.00000000	-9.52879000	-7.56028500
133.99999222	0.00000000	-9.48572700	-8.26771600
134.19999220	0.00000000	-9.48572700	-9.05511800
134.39999219	0.00000000	-9.48572700	-9.47342500
134.59999218	0.00000000	-9.48572700	-9.89173200
134.79999217	0.00000000	-9.48572700	-10.58686000
134.99999216	0.00000000	-9.48572700	-10.58686000
135.19999214	0.00000000	-9.48572700	-9.84867000
135.39999213	0.00000000	-9.52879000	-9.09817800
135.59999212	0.00000000	-9.90403500	-8.31077700
135.79999211	0.00000000	-10.64838000	-7.93553100
135.99999210	0.00000000	-11.02362000	-7.84940900
136.19999208	0.00000000	-11.06668000	-7.51722400
136.39999207	0.00000000	-11.06668000	-7.14812900
136.59999206	0.00000000	-11.02362000	-7.51722400
136.79999205	0.00000000	-10.64838000	-7.89247000
136.99999204	0.00000000	-9.90403500	-8.31077700
137.19999203	0.00000000	-9.48572700	-9.05511800
137.39999201	0.00000000	-9.06742000	-9.43036400
137.59999200	0.00000000	-8.37229300	-9.51648500
137.79999199	-0.15871060	-8.37229300	-9.84867000
137.99999198	0.00000000	-9.06742000	-10.21161000
138.19999197	0.00000000	-9.48572700	-9.84867000
138.39999195	0.00000000	-9.90403500	-9.47342500
138.59999194	0.00000000	-10.64838000	-9.05511800
138.79999193	0.00000000	-11.02362000	-8.31077700
138.99999192	0.00000000	-11.06668000	-7.93553100
139.19999191	0.00000000	-11.02362000	-7.84940900
139.39999189	0.00000000	-10.64838000	-7.51722400
139.59999188	0.00000000	-9.90403500	-7.14812900
139.79999187	0.00000000	-9.52879000	-7.51722400
139.99999186	0.00000000	-9.48572700	-7.89247000
140.19999185	0.00000000	-9.48572700	-8.31077700
140.39999184	0.00000000	-9.48572700	-9.05511800
140.59999182	0.00000000	-9.48572700	-9.43036400
140.79999181	0.00000000	-9.48572700	-9.47342500
140.99999180	0.00000000	-9.52879000	-9.47342500
141.19999179	0.00000000	-9.90403500	-9.43036400
141.39999178	0.00000000	-10.59916000	-9.05511800
141.59999176	0.00000000	-10.59916000	-8.26771600
141.79999175	0.00000000	-9.90403500	-7.51722400
141.99999174	0.00000000	-9.52879000	-6.77903500
142.19999173	0.00000000	-9.48572700	-6.77903500
142.39999172	0.00000000	-9.48572700	-7.51722400
142.59999170	0.00000000	-9.48572700	-8.26771600
142.79999169	0.00000000	-9.52879000	-9.05511800
142.99999168	0.00000000	-9.90403500	-9.47342500
143.19999167	0.00000000	-10.64838000	-9.89173200
143.39999166	0.00000000	-11.02362000	-10.58686000
143.59999165	0.00000000	-11.02362000	-10.58686000
143.79999163	0.00000000	-10.64838000	-9.89173200
143.99999162	0.00000000	-9.90403500	-9.47342500
144.19999161	0.00000000	-9.52879000	-9.05511800
144.39999160	0.00000000	-9.48572700	-8.31077700
144.59999159	0.00000000	-9.48572700	-7.93553100
144.79999157	0.00000000	-9.48572700	-7.89247000
144.99999156	0.00000000	-9.48572700	-7.89247000
145.19999155	0.00000000	-9.52879000	-7.89247000
145.39999154	0.00000000	-9.90403500	-7.93553100
145.59999153	0.00000000	-10.64838000	-8.31077700
145.79999151	0.00000000	-11.02362000	-9.05511800
145.99999150	-0.15871060	-11.06668000	-9.43036400
146.19999149	0.00000000	-11.02362000	-9.47342500
146.39999148	0.00000000	-10.64838000	-9.47342500
146.59999147	0.00000000	-9.90403500	-9.47342500
146.79999146	0.00000000	-9.52879000	-9.43036400
146.99999144	0.00000000	-9.48572700	-9.05511800
147.19999143	0.00000000	-9.48572700	-8.31077700
147.39999142	0.00000000	-9.52879000	-7.93553100
147.59999141	0.00000000	-9.90403500	-7.89247000
147.79999140	0.00000000	-10.64838000	-7.89247000
147.99999138	0.00000000	-11.02362000	-7.89247000
148.19999137	0.00000000	-11.06668000	-7.93553100
148.39999136	0.00000000	-11.02362000	-8.31077700
148.59999135	0.00000000	-10.69144000	-9.05511800
148.79999134	0.00000000	-10.27928000	-9.43036400
148.99999132	0.00000000	-10.27313000	-9.47342500
149.19999131	0.00000000	-9.86097400	-9.43036400
149.39999130	0.00000000	-9.52879000	-9.05511800
149.59999129	0.00000000	-9.48572700	-8.35998900
149.79999128	0.00000000	-9.48572700	-8.31077700
149.99999127	0.00000000	-9.48572700	-8.63681000
150.19999125	-0.15871060	-9.48572700	-8.26771600
150.39999124	0.00000000	-9.52879000	-7.93553100
150.59999123	0.00000000	-9.90403500	-7.89247000
150.79999122	0.00000000	-10.64838000	-7.89247000
150.99999121	0.00000000	-11.02362000	-7.93553100
151.19999119	0.00000000	-11.06668000	-8.31077700
151.39999118	0.00000000	-11.06668000	-9.00590400
151.59999117	0.00000000	-11.02362000	-9.05511800
151.79999116	0.00000000	-10.64838000	-8.72908400
151.99999115	0.00000000	-9.90403500	-9.09817800
152.19999113	0.00000000	-9.52879000	-9.43036400
152.39999112	0.00000000	-9.48572700	-9.43036400
152.59999111	0.00000000	-9.48572700	-9.05511800
152.79999110	0.00000000	-9.48572700	-8.31077700
152.99999109	0.00000000	-9.48572700	-7.93553100
153.19999108	0.00000000	-9.52879000	-7.89247000
153.39999106	0.00000000	-9.90403500	-7.89247000
153.59999105	0.00000000	-10.64838000	-7.89247000
153.79999104	0.00000000	-11.02362000	-7.89247000
153.99999103	0.00000000	-11.06668000	-7.89247000
154.19999102	0.00000000	-11.06668000	-7.93553100
154.39999100	0.00000000	-11.02362000	-8.31077700
154.59999099	0.00000000	-10.64838000	-9.05511800
154.79999098	0.00000000	-9.90403500	-9.43036400
154.99999097	0.00000000	-9.52879000	-9.47342500
155.19999096	0.00000000	-9.48572700	-9.47342500
155.39999094	0.00000000	-9.44266700	-9.43036400
155.59999093	0.00000000	-9.11048200	-9.05511800
155.79999092	0.00000000	-8.74138700	-8.31077700
155.99999091	0.00000000	-9.15354300	-7.93553100
156.19999090	0.00000000	-9.86097400	-7.89247000
156.39999089	0.00000000	-10.64838000	-7.89247000
156.59999087	0.00000000	-11.02362000	-7.89247000
156.79999086	0.00000000	-11.06668000	-7.89247000
156.99999085	0.00000000	-11.06668000	-7.89247000
157.19999084	0.00000000	-11.06668000	-7.89247000
157.39999083	0.00000000	-11.02362000	-7.93553100
157.59999081	0.00000000	-10.64838000	-8.31077700
157.79999080	0.00000000	-9.90403500	-9.05511800
157.99999079	0.00000000	-9.52879000	-9.43036400
158.19999078	0.00000000	-9.48572700	-9.47342500
158.39999077	0.00000000	-9.48572700	-9.47342500
158.59999075	0.00000000	-9.48572700	-9.43036400
158.79999074	0.00000000	-9.48572700	-9.05511800
158.99999073	-0.15871060	-9.52879000	-8.31077700
159.19999072	0.00000000	-9.90403500	-7.93553100
159.39999071	0.00000000	-10.64838000	-7.89247000
159.59999070	0.00000000	-11.02362000	-7.89247000
159.79999068	0.00000000	-11.06668000	-7.89247000
159.99999067	0.00000000	-11.06668000	-7.89247000
160.19999066	0.00000000	-11.06668000	-7.93553100
160.39999065	0.00000000	-11.06668000	-8.31077700
160.59999064	0.00000000	-11.06668000	-9.05511800
160.79999062	0.00000000	-11.02362000	-9.43036400
160.99999061	0.00000000	-10.64838000	-9.47342500
161.19999060	0.00000000	-9.90403500	-9.47342500
161.39999059	0.00000000	-9.52879000	-9.43036400
161.59999058	0.00000000	-9.48572700	-9.05511800
161.79999056	0.00000000	-9.48572700	-8.31077700
161.99999055	0.00000000	-9.48572700	-7.93553100
162.19999054	0.00000000	-9.48572700	-7.89247000
162.39999053	0.00000000	-9.48572700	-7.89247000
162.59999052	0.00000000	-9.48572700	-7.89247000
162.79999051	0.00000000	-9.52879000	-7.89247000
162.99999049	0.00000000	-9.90403500	-7.93553100
163.19999048	0.00000000	-10.64838000	-8.31077700
163.39999047	0.00000000	-11.02362000	-9.05511800
163.59999046	0.00000000	-11.06668000	-9.43036400
163.79999045	0.00000000	-11.02362000	-9.47342500
163.99999043	0.00000000	-10.64838000	-9.47342500
164.19999042	0.00000000	-9.90403500	-9.47342500
164.39999041	0.00000000	-9.52879000	-9.47342500
164.59999040	0.00000000	-9.48572700	-9.47342500
164.79999039	0.00000000	-9.48572700	-9.47342500
164.99999037	0.00000000	-9.48572700	-9.47342500
165.19999036	0.00000000	-9.52879000	-9.43036400
165.39999035	0.00000000	-9.90403500	-9.05511800
165.59999034	0.00000000	-10.64838000	-8.31077700
165.79999033	0.00000000	-11.02362000	-7.93553100
165.99999032	0.00000000	-11.06668000	-7.89247000
166.19999030	0.00000000	-11.06668000	-7.93553100
166.39999029	0.00000000	-11.06668000	-8.26771600
166.59999028	0.00000000	-11.06668000	-8.67987200
166.79999027	0.00000000	-11.02362000	-8.68602300
166.99999026	0.00000000	-10.64838000	-9.09817800
167.19999024	0.00000000	-9.90403500	-9.43036400
167.39999023	0.00000000	-9.52879000	-9.43036400
167.59999022	0.00000000	-9.48572700	-9.09817800
167.79999021	0.00000000	-9.48572700	-8.72908400
167.99999020	0.00000000	-9.48572700	-9.09817800
168.19999018	0.00000000	-9.52879000	-9.43036400
168.39999017	0.00000000	-9.86097400	-9.43036400
168.59999016	0.00000000	-10.23007000	-9.09817800
168.79999015	0.00000000	-9.90403500	-8.68602300
168.99999014	-0.15871060	-9.95324800	-8.72293300
169.19999013	0.00000000	-10.59916000	-8.64296200
169.39999011	0.00000000	-10.64838000	-8.67987200
169.59999010	0.00000000	-10.32234000	-8.31077700
169.79999009	0.00000000	-10.69144000	-8.35998900
169.99999008	0.00000000	-10.97441000	-9.05511800
170.19999007	0.00000000	-10.64838000	-9.43036400
170.39999005	0.00000000	-9.90403500	-9.47342500
170.59999004	0.00000000	-9.52879000	-9.43036400
170.79999003	0.00000000	-9.52879000	-9.05511800
170.99999002	0.00000000	-9.86097400	-8.31077700
171.19999001	0.00000000	-10.23007000	-7.98474400
171.39998999	0.00000000	-9.86097400	-8.31077700
171.59998998	0.00000000	-9.52879000	-9.05511800
171.79998997	0.00000000	-9.48572700	-9.43036400
171.99998996	0.00000000	-9.52879000	-9.47342500
172.19998995	0.00000000	-9.90403500	-9.43036400
172.39998994	0.00000000	-10.64838000	-9.09817800
172.59998992	0.00000000	-11.02362000	-8.72908400
172.79998991	0.00000000	-11.02362000	-9.05511800
172.99998990	0.00000000	-10.69144000	-9.05511800
173.19998989	0.00000000	-10.27928000	-8.72908400
173.39998988	-0.15871060	-10.27313000	-9.09817800
173.59998986	0.00000000	-9.86097400	-9.43036400
173.79998985	0.00000000	-9.52879000	-9.43036400
173.99998984	0.00000000	-9.52879000	-9.09817800
174.19998983	0.00000000	-9.90403500	-8.72908400
174.39998982	-0.15871060	-10.64838000	-9.09817800
174.59998980	0.00000000	-10.97441000	-9.38115100
174.79998979	0.00000000	-10.64838000	-9.09817800
174.99998978	0.00000000	-9.90403500	-8.72908400
175.19998977	0.00000000	-9.52879000	-9.05511800
175.39998976	-0.15871060	-9.48572700	-9.00590400
175.59998975	0.00000000	-9.52879000	-8.31077700
175.79998973	0.00000000	-9.86097400	-7.93553100
175.99998972	0.00000000	-10.27313000	-7.89247000
176.19998971	0.00000000	-10.23622000	-7.93553100
176.39998970	0.00000000	-10.27313000	-8.26771600
176.59998969	0.00000000	-9.86097400	-8.63681000
176.79998967	0.00000000	-9.52879000	-8.31077700
176.99998966	0.00000000	-9.48572700	-8.35998900
177.19998965	0.00000000	-9.48572700	-9.05511800
177.39998964	0.00000000	-9.48572700	-9.38115100
177.59998963	0.00000000	-9.48572700	-9.05511800
177.79998961	0.00000000	-9.52879000	-8.31077700
177.99998960	0.00000000	-9.90403500	-7.93553100
178.19998959	0.00000000	-10.64838000	-7.89247000
178.39998958	0.00000000	-11.02362000	-7.93553100
178.59998957	0.00000000	-11.06668000	-8.26771600
178.79998956	0.00000000	-11.02362000	-8.63681000
178.99998954	0.00000000	-10.64838000	-8.31077700
179.19998953	0.00000000	-9.90403500	-8.35998900
179.39998952	0.00000000	-9.52879000	-9.00590400
179.59998951	0.00000000	-9.48572700	-9.05511800
179.79998950	0.00000000	-9.52879000	-8.68602300
179.99998948	-0.15871060	-9.90403500	-8.72293300
180.19998947	0.00000000	-10.64838000	-8.68602300
180.39998946	0.00000000	-11.02362000	-9.05511800
180.59998945	0.00000000	-11.06668000	-9.00590400
180.79998944	0.00000000	-11.06668000	-8.35998900
180.99998942	0.00000000	-11.06668000	-8.35998900
181.19998941	0.00000000	-11.06668000	-9.00590400
181.39998940	0.00000000	-11.06668000	-9.00590400
181.59998939	0.00000000	-11.02362000	-8.31077700
181.79998938	0.00000000	-10.64838000	-7.93553100
181.99998937	0.00000000	-9.95324800	-7.93553100
182.19998935	0.00000000	-9.90403500	-8.31077700
182.39998934	0.00000000	-10.23007000	-9.05511800
182.59998933	0.00000000	-9.86097400	-9.43036400
182.79998932	0.00000000	-9.57800100	-9.47342500
182.99998931	0.00000000	-9.90403500	-9.47342500
183.19998929	0.00000000	-10.59916000	-9.47342500
183.39998928	0.00000000	-10.64838000	-9.43036400
183.59998927	0.00000000	-10.32234000	-9.05511800
183.79998926	0.00000000	-10.69144000	-8.35998900
183.99998925	0.00000000	-11.02362000	-8.31077700
184.19998923	0.00000000	-11.06668000	-8.63681000
184.39998922	0.00000000	-11.02362000	-8.26771600
184.59998921	0.00000000	-10.69144000	-7.93553100
184.79998920	0.00000000	-10.27928000	-7.89247000
184.99998919	0.00000000	-10.27313000	-7.93553100
185.19998918	0.00000000	-9.86097400	-8.31077700
185.39998916	0.00000000	-9.52879000	-9.05511800
185.59998915	0.00000000	-9.48572700	-9.43036400
185.79998914	0.00000000	-9.48572700	-9.47342500
185.99998913	0.00000000	-9.48572700	-9.47342500
186.19998912	0.00000000	-9.52879000	-9.47342500
186.39998910	0.00000000	-9.90403500	-9.47342500
186.59998909	0.00000000	-10.64838000	-9.43036400
186.79998908	0.00000000	-11.02362000	-9.05511800
186.99998907	0.00000000	-11.06668000	-8.31077700
187.19998906	0.00000000	-11.02362000	-7.93553100
187.39998904	0.00000000	-10.69144000	-7.89247000
187.59998903	0.00000000	-10.27928000	-7.89247000
187.79998902	0.00000000	-10.27313000	-7.93553100
187.99998901	0.00000000	-9.86097400	-8.31077700
188.19998900	0.00000000	-9.52879000	-9.05511800
188.39998899	0.00000000	-9.48572700	-9.43036400
188.59998897	-0.15871060	-9.48572700	-9.47342500
188.79998896	0.00000000	-9.48572700	-9.47342500
188.99998895	0.00000000	-9.48572700	-9.47342500
189.19998894	0.00000000	-9.52879000	-9.47342500
189.39998893	0.00000000	-9.90403500	-9.43036400
189.59998891	0.00000000	-10.64838000	-9.05511800
189.79998890	0.00000000	-11.02362000	-8.31077700
189.99998889	0.00000000	-11.02362000	-7.93553100
190.19998888	0.00000000	-10.64838000	-7.89247000
190.39998887	0.00000000	-9.95324800	-7.89247000
190.59998885	0.00000000	-9.90403500	-7.89247000
190.79998884	0.00000000	-10.23007000	-7.89247000
190.99998883	0.00000000	-9.86097400	-7.93553100
191.19998882	0.00000000	-9.52879000	-8.31077700
191.39998881	0.00000000	-9.48572700	-9.05511800
191.59998880	0.00000000	-9.48572700	-9.43036400
191.79998878	0.00000000	-9.48572700	-9.47342500
191.99998877	0.00000000	-9.52879000	-9.47342500
192.19998876	0.00000000	-9.90403500	-9.47342500
192.39998875	0.00000000	-10.64838000	-9.47342500
192.59998874	0.00000000	-11.02362000	-9.43036400
192.79998872	0.00000000	-11.06668000	-9.05511800
192.99998871	0.00000000	-11.06668000	-8.31077700
193.19998870	0.00000000	-11.06668000	-7.93553100
193.39998869	0.00000000	-11.06668000	-7.89247000
193.59998868	0.00000000	-11.02362000	-7.89247000
193.79998866	0.00000000	-10.64838000	-7.89247000
193.99998865	0.00000000	-9.95324800	-7.89247000
194.19998864	0.00000000	-9.90403500	-7.89247000
194.39998863	0.00000000	-10.23007000	-7.89247000
194.59998862	0.00000000	-9.90403500	-7.93553100
194.79998861	0.00000000	-9.90403500	-8.31077700
194.99998859	0.00000000	-10.27313000	-9.05511800
195.19998858	0.00000000	-10.27928000	-9.43036400
195.39998857	0.00000000	-10.69144000	-9.43036400
195.59998856	0.00000000	-10.97441000	-9.05511800
195.79998855	0.00000000	-10.69144000	-8.31077700
195.99998853	0.00000000	-10.32234000	-7.93553100
