Time	Channel A	Channel B	Channel C
(us)	(V)	(mV)	(mV)

-4.59999956	0.00000000	26.50098000	15.78494000
-4.39999957	0.00000000	26.13189000	15.78494000
-4.19999958	0.00000000	26.50098000	15.78494000
-3.99999959	0.00000000	26.83317000	15.78494000
-3.79999960	0.00000000	26.87623000	15.78494000
-3.59999962	0.00000000	26.87623000	15.78494000
-3.39999963	0.00000000	26.87623000	15.78494000
-3.19999964	0.00000000	26.87623000	15.78494000
-2.99999965	0.00000000	26.87623000	15.78494000
-2.79999966	0.00000000	26.87623000	15.78494000
-2.59999968	0.00000000	26.87623000	15.78494000
-2.39999969	0.00000000	26.87623000	15.78494000
-2.19999970	0.00000000	26.87623000	15.78494000
-1.99999971	0.00000000	26.87623000	15.78494000
-1.79999972	0.00000000	26.87623000	15.78494000
-1.59999973	0.00000000	26.87623000	15.78494000
-1.39999975	0.00000000	26.87623000	15.78494000
-1.19999976	0.00000000	26.87623000	15.78494000
-0.99999977	0.00000000	26.87623000	15.78494000
-0.79999978	0.00000000	26.87623000	15.78494000
-0.59999979	0.00000000	26.83317000	15.78494000
-0.39999981	0.15871060	26.50098000	15.78494000
-0.19999982	0.47736220	26.13189000	15.78494000
0.00000017	0.79601380	26.50098000	15.78494000
0.20000016	0.95533960	26.83317000	15.78494000
0.40000015	0.95533960	26.87623000	15.78494000
0.60000013	0.47736220	26.87623000	15.78494000
0.80000012	-0.31803640	26.87623000	15.78494000
1.00000011	-1.27399100	26.87623000	15.82800000
1.20000010	-2.22994600	26.87623000	16.20325000
1.40000009	-2.70792300	26.87623000	16.94759000
1.60000008	-2.70792300	26.87623000	17.32283000
1.80000006	-1.75196900	26.87623000	17.36589000
2.00000005	0.00000000	26.87623000	17.36589000
2.20000004	2.07062000	26.87623000	17.36589000
2.40000003	3.98191400	26.87623000	17.32283000
2.60000002	5.09719500	26.87623000	16.94759000
2.80000000	5.09719500	26.87623000	16.20325000
2.99999999	3.66326300	26.87623000	15.82800000
3.19999998	0.95533960	26.87623000	15.78494000
3.39999997	-2.38927200	26.87623000	15.82800000
3.59999996	-5.57517200	26.87623000	16.20325000
3.79999994	-7.64579200	26.87623000	16.94759000
3.99999993	-7.80511800	26.87623000	17.32283000
4.19999992	-6.05315000	26.87623000	17.36589000
4.39999991	-2.38927200	26.87623000	17.36589000
4.59999990	1.91129400	26.87623000	17.36589000
4.79999989	6.05315000	26.87623000	17.36589000
4.99999987	8.92039900	26.87623000	17.32283000
5.19999986	9.39837600	26.87623000	16.94759000
5.39999985	7.64579200	26.87623000	16.20325000
5.59999984	3.82258900	26.87623000	15.82800000
5.79999983	-0.95533960	26.87623000	15.78494000
5.99999981	-5.57517200	26.87623000	15.82800000
6.19999980	-8.60174700	26.87623000	16.20325000
6.39999979	-9.55770200	26.87623000	16.94759000
6.59999978	-8.12377000	26.91929000	17.32283000
6.79999977	-4.61921700	27.25147000	17.36589000
6.99999975	-0.31803640	27.62057000	17.36589000
7.19999974	3.66326300	27.25147000	17.36589000
7.39999973	6.69045300	26.91929000	17.32283000
7.59999972	7.80511800	26.87623000	16.94759000
7.79999971	6.84916400	26.87623000	16.20325000
7.99999970	4.30056600	26.87623000	15.82800000
8.19999968	1.11466500	26.87623000	15.78494000
8.39999967	-2.07062000	26.87623000	15.78494000
8.59999966	-4.30056600	26.87623000	15.82800000
8.79999965	-5.25652100	26.87623000	16.20325000
8.99999964	-4.77854300	26.87623000	16.94759000
9.19999962	-3.34522600	26.87623000	17.32283000
9.39999961	-1.27399100	26.87623000	17.32283000
9.59999960	0.47736220	26.87623000	16.99065000
9.79999959	1.91129400	26.87623000	16.57849000
9.99999958	2.54859700	26.87623000	16.61540000
10.19999956	2.38927200	26.87623000	16.53543000
10.39999955	1.75196900	26.87623000	16.57234000
10.59999954	0.79601380	26.87623000	16.16018000
10.79999953	0.00000000	26.87623000	15.82800000
10.99999952	-0.63668800	26.87623000	15.78494000
11.19999951	-0.95533960	26.87623000	15.82800000
11.39999949	-0.95533960	26.87623000	16.16018000
11.59999948	-0.79601380	26.87623000	16.52928000
11.79999947	-0.47736220	26.87623000	16.16018000
11.99999946	-0.31803640	26.87623000	15.82800000
12.19999945	-0.15871060	26.87623000	15.78494000
12.39999943	-0.15871060	26.87623000	15.78494000
12.59999942	0.00000000	26.87623000	15.82800000
12.79999941	0.00000000	26.87623000	16.16018000
12.99999940	0.00000000	26.87623000	16.52928000
13.19999939	0.00000000	26.87623000	16.16018000
13.39999937	0.00000000	26.87623000	15.87721000
13.59999936	0.00000000	26.87623000	16.20325000
13.79999935	0.00000000	26.87623000	16.94759000
13.99999934	-0.15871060	26.87623000	17.27362000
14.19999933	-0.15871060	26.87623000	16.94759000
14.39999932	-0.15871060	26.87623000	16.25246000
14.59999930	-0.15871060	26.87623000	16.20325000
14.79999929	0.00000000	26.87623000	16.57234000
14.99999928	0.00000000	26.87623000	16.57849000
15.19999927	0.00000000	26.87623000	16.99065000
15.39999926	0.00000000	26.87623000	17.32283000
15.59999924	0.00000000	26.87623000	17.36589000
15.79999923	0.00000000	26.87623000	17.36589000
15.99999922	0.00000000	26.87623000	17.36589000
16.19999921	0.00000000	26.87623000	17.36589000
16.39999920	-0.15871060	26.91929000	17.36589000
16.59999919	-0.15871060	27.29453000	17.36589000
16.79999917	-0.15871060	28.03888000	17.36589000
16.99999916	0.00000000	28.41412000	17.36589000
17.19999915	0.00000000	28.50024000	17.36589000
17.39999914	0.00000000	28.83243000	17.36589000
17.59999913	0.00000000	29.20152000	17.36589000
17.79999911	0.00000000	28.78937000	17.36589000
17.99999910	0.00000000	28.03888000	17.36589000
18.19999909	0.00000000	26.83317000	17.36589000
18.39999908	0.00000000	25.29527000	17.36589000
18.59999907	0.00000000	23.75738000	17.36589000
18.79999905	-0.15871060	22.64394000	17.36589000
18.99999904	0.00000000	22.64394000	17.36589000
19.19999903	0.00000000	23.80659000	17.36589000
19.39999902	0.00000000	25.80585000	17.36589000
19.59999901	0.00000000	28.96776000	17.36589000
19.79999900	0.00000000	33.15699000	17.36589000
19.99999898	0.00000000	36.97096000	17.36589000
20.19999897	0.00000000	38.88410000	17.36589000
20.39999896	0.00000000	38.50886000	17.36589000
20.59999895	0.00000000	35.67913000	17.36589000
20.79999894	0.00000000	30.22884000	17.36589000
20.99999892	-0.15871060	22.50861000	17.36589000
21.19999891	0.00000000	14.82529000	17.36589000
21.39999890	0.00000000	9.06126900	17.36589000
21.59999889	-0.15871060	6.77903500	17.36589000
21.79999888	0.00000000	9.19660400	17.36589000
21.99999886	0.00000000	16.22170000	17.36589000
22.19999885	0.00000000	27.47908000	17.32283000
22.39999884	0.00000000	40.55733000	16.99065000
22.59999883	0.00000000	52.09768000	16.62155000
22.79999882	0.00000000	59.02436000	16.99065000
22.99999881	0.00000000	59.30733000	17.32283000
23.19999879	0.00000000	52.28223000	17.40895000
23.39999878	0.00000000	38.33046000	17.78420000
23.59999877	0.00000000	20.60162000	18.52854000
23.79999876	0.00000000	3.15575800	18.90379000
23.99999875	0.00000000	-10.24852000	18.90379000
24.19999873	0.00000000	-15.96334000	18.47933000
24.39999872	0.00000000	-11.27584000	17.32283000
24.59999871	0.00000000	2.63902500	15.78494000
24.79999870	0.00000000	23.19759000	14.25320000
24.99999869	0.00000000	46.27829000	13.04749000
25.19999867	-0.15871060	65.96333000	12.29700000
25.39999866	0.00000000	77.13459000	11.93405000
25.59999865	-0.15871060	77.50368000	12.80758000
25.79999864	0.00000000	66.24631000	15.13902000
25.99999863	0.00000000	45.77386000	18.98991000
26.19999862	0.00000000	20.68774000	23.17298000
26.39999860	0.00000000	-3.22342500	26.28568000
26.59999859	0.00000000	-19.83268000	27.82357000
26.79999858	0.00000000	-25.64591000	27.40526000
26.99999857	0.00000000	-19.45743000	24.61860000
27.19999856	0.00000000	-2.47908400	19.55585000
27.39999854	0.00000000	21.06299000	12.58612000
27.59999853	0.00000000	45.77386000	5.24729300
27.79999852	0.00000000	65.87106000	-0.88582670
27.99999851	0.00000000	76.75935000	-4.23228400
28.19999850	0.00000000	76.80241000	-2.65748000
28.39999848	0.00000000	66.33243000	3.93700800
28.59999847	0.00000000	47.44094000	13.97638000
28.79999846	0.00000000	24.69242000	26.00270000
28.99999845	0.00000000	3.84473400	37.11245000
29.19999844	0.00000000	-10.52534000	44.82037000
29.39999843	0.00000000	-15.64345000	46.68430000
29.59999841	0.00000000	-11.45423000	42.03986000
29.79999840	0.00000000	0.54749010	31.58218000
29.99999839	0.00000000	17.90108000	17.27362000
30.19999838	0.00000000	36.41732000	2.22071800
30.39999837	0.00000000	51.58710000	-10.50689000
30.59999835	0.00000000	60.93750000	-17.80266000
30.79999834	0.00000000	63.25664000	-17.75960000
30.99999833	0.00000000	57.91092000	-10.03937000
31.19999832	0.00000000	46.74582000	3.89394600
31.39999831	0.00000000	32.82480000	20.90305000
31.59999829	0.00000000	18.87303000	37.89985000
31.79999828	0.00000000	8.03395600	51.00885000
31.99999827	0.00000000	2.17150600	57.18504000
32.19999826	0.00000000	2.17150600	55.23499000
32.39999825	0.00000000	7.89862200	45.19562000
32.59999824	0.00000000	17.52584000	29.39837000
32.79999822	0.00000000	28.37106000	11.60802000
32.99999821	0.00000000	38.46580000	-4.65059000
33.19999820	0.00000000	45.81693000	-16.22170000
33.39999819	0.00000000	48.93578000	-20.49705000
33.59999818	0.00000000	47.39788000	-16.64001000
33.79999816	0.00000000	41.62770000	-5.85629900
33.99999815	0.00000000	33.20005000	9.60875900
34.19999814	0.00000000	24.68627000	26.19955000
34.39999813	0.00000000	18.12254000	40.50196000
34.59999812	0.00000000	14.64075000	49.42790000
34.79999810	0.00000000	15.33587000	51.37795000
34.99999809	0.00000000	19.14985000	46.35826000
35.19999808	0.00000000	24.55093000	35.16240000
35.39999807	0.00000000	30.73942000	20.52780000
35.59999806	0.00000000	35.72219000	5.89320800
35.79999805	0.00000000	38.42273000	-5.30265700
35.99999803	0.00000000	38.04749000	-10.37155000
36.19999802	0.00000000	34.60876000	-8.87672100
36.39999801	0.00000000	29.66289000	-1.53789400
36.59999800	0.00000000	24.64321000	9.98400600
36.79999799	0.00000000	21.14911000	22.61934000
36.99999797	0.00000000	19.56816000	32.65871000
37.19999796	0.00000000	20.03568000	37.67839000
37.39999795	0.00000000	23.10531000	36.92790000
37.59999794	0.00000000	28.03888000	30.42569000
37.79999793	0.00000000	32.64640000	20.52780000
37.99999791	0.00000000	35.81446000	10.53765000
38.19999790	0.00000000	37.35236000	3.24188000
38.39999789	0.00000000	36.97712000	0.54749010
38.59999788	0.00000000	34.65182000	3.19266700
38.79999787	0.00000000	31.15772000	10.11319000
38.99999786	0.00000000	26.87623000	19.27903000
39.19999784	0.00000000	22.68701000	28.05733000
39.39999783	0.00000000	19.94340000	33.03395000
39.59999782	0.00000000	19.14985000	33.07701000
39.79999781	0.00000000	19.90034000	28.42643000
39.99999780	0.00000000	22.26870000	19.97416000
40.19999778	0.00000000	25.76279000	10.07013000
40.39999777	0.00000000	29.99508000	1.99311000
40.59999776	0.00000000	33.85827000	-1.87007900
40.79999775	0.00000000	36.23277000	-1.07652500
40.99999774	0.00000000	37.43848000	4.73056000
41.19999772	0.00000000	37.39542000	14.25320000
41.39999771	0.00000000	35.81446000	24.24335000
41.59999770	0.00000000	32.73868000	31.95743000
41.79999769	0.00000000	28.87549000	35.81446000
41.99999768	0.00000000	25.38755000	34.69488000
42.19999767	0.00000000	22.64394000	29.31225000
42.39999765	0.00000000	21.10605000	21.26599000
42.59999764	0.00000000	21.10605000	12.39542000
42.79999763	0.00000000	22.64394000	5.51181100
42.99999762	0.00000000	25.29527000	1.98695800
43.19999761	0.00000000	27.98966000	2.73129900
43.39999759	0.00000000	29.99508000	6.86515700
43.59999758	0.00000000	31.57603000	12.67224000
43.79999757	0.00000000	32.73252000	18.85458000
43.99999756	0.00000000	33.10777000	24.24335000
44.19999755	0.00000000	32.78174000	27.35605000
44.39999753	0.00000000	32.03740000	27.77436000
44.59999752	0.00000000	31.66215000	25.86737000
44.79999751	0.00000000	31.61909000	22.05955000
44.99999750	0.00000000	31.57603000	17.83341000
45.19999749	0.00000000	31.15157000	14.34547000
45.39999748	0.00000000	29.94586000	11.97711000
45.59999746	0.00000000	27.98966000	11.18356000
45.79999745	0.00000000	25.25221000	11.55881000
45.99999744	0.00000000	22.22564000	13.13976000
46.19999743	0.00000000	19.94340000	15.78494000
46.39999742	0.00000000	19.56816000	18.47933000
46.59999740	0.00000000	21.14911000	20.47859000
46.79999739	0.00000000	24.73548000	22.01649000
46.99999738	0.00000000	30.50566000	22.71161000
47.19999737	0.00000000	37.02018000	21.59203000
47.39999736	0.00000000	42.04601000	19.36516000
47.59999734	0.00000000	44.74655000	17.36589000
47.79999733	0.00000000	44.27903000	15.36663000
47.99999732	0.00000000	40.04675000	13.13976000
48.19999731	0.00000000	33.06471000	12.02018000
48.39999730	0.00000000	24.92003000	12.76452000
48.59999729	0.00000000	16.83071000	14.67150000
48.79999727	0.00000000	11.10359000	17.41511000
48.99999726	0.00000000	9.61491000	20.47859000
49.19999725	0.00000000	13.05979000	23.17298000
49.39999724	0.00000000	20.78002000	24.71087000
49.59999723	0.00000000	30.41338000	24.71087000
49.79999721	0.00000000	40.04675000	23.17298000
49.99999720	0.00000000	46.97957000	20.43553000
50.19999719	0.00000000	49.30487000	16.94759000
50.39999718	0.00000000	46.97957000	13.09670000
50.59999717	0.00000000	40.04675000	10.07013000
50.79999715	0.00000000	30.45644000	8.91363100
50.99999714	-0.15871060	21.19833000	10.07013000
51.19999713	0.00000000	14.26550000	13.09670000
51.39999712	0.00000000	11.57111000	16.99065000
51.59999711	0.00000000	13.84719000	20.85384000
51.79999710	0.00000000	19.99262000	24.33563000
51.99999708	0.00000000	28.45718000	26.24262000
52.19999707	0.00000000	36.88484000	26.24262000
52.39999706	0.00000000	42.65502000	24.33563000
52.59999705	0.00000000	44.23597000	20.85384000
52.79999704	0.00000000	41.58464000	17.03986000
52.99999702	0.00000000	35.81446000	13.51501000
53.19999701	0.00000000	28.50640000	11.22662000
53.39999700	0.00000000	21.61663000	10.44537000
53.59999699	0.00000000	17.38435000	11.60187000
53.79999698	0.00000000	16.96604000	14.25320000
53.99999696	0.00000000	20.03568000	17.32283000
54.19999695	0.00000000	25.80585000	20.01722000
54.39999694	0.00000000	32.68946000	21.54897000
54.59999693	0.00000000	38.41658000	21.59203000
54.79999692	0.00000000	41.16019000	20.43553000
54.99999691	0.00000000	40.42199000	18.57160000
55.19999689	0.00000000	36.97096000	16.67077000
55.39999688	0.00000000	31.57603000	15.92027000
55.59999687	0.00000000	25.84892000	16.29552000
55.79999686	0.00000000	21.52436000	17.78420000
55.99999685	0.00000000	19.24212000	19.69119000
56.19999683	0.00000000	19.29134000	20.81078000
56.39999682	0.00000000	22.73007000	21.22293000
56.59999681	0.00000000	28.03888000	20.39247000
56.79999680	0.00000000	33.06471000	18.43627000
56.99999679	0.00000000	36.97096000	15.36663000
57.19999677	0.00000000	38.84104000	11.97711000
57.39999676	0.00000000	38.13361000	10.07013000
57.59999675	0.00000000	35.07013000	10.07013000
57.79999674	0.00000000	31.24384000	12.02018000
57.99999673	0.00000000	27.34375000	15.92027000
58.19999672	0.00000000	24.31102000	20.89690000
58.39999670	0.00000000	23.10531000	25.86737000
58.59999669	0.00000000	23.84965000	28.89395000
58.79999668	0.00000000	25.76279000	28.93701000
58.99999667	0.00000000	28.45718000	26.19955000
59.19999666	0.00000000	31.15157000	21.17372000
59.39999664	0.00000000	33.06471000	14.62844000
59.59999663	0.00000000	33.85211000	8.53838500
59.79999662	0.00000000	33.11393000	4.63828700
59.99999661	0.00000000	31.61909000	3.88779500
60.19999660	0.00000000	30.08120000	6.21924200
60.39999658	0.00000000	28.87549000	11.65108000
60.59999657	0.00000000	28.12500000	18.94685000
60.79999656	0.00000000	27.76206000	26.24262000
60.99999655	0.00000000	28.50024000	31.63140000
61.19999654	0.00000000	29.61983000	33.53838000
61.39999653	0.00000000	30.41338000	31.63140000
61.59999651	0.00000000	31.20078000	26.19955000
61.79999650	0.00000000	31.52682000	18.52854000
61.99999649	0.00000000	31.15157000	10.44537000
62.19999648	0.00000000	29.99508000	4.31225400
62.39999647	0.00000000	28.50024000	1.56865100
62.59999645	0.00000000	27.34375000	2.73129900
62.79999644	0.00000000	26.96850000	7.33267600
62.99999643	0.00000000	27.34375000	14.29626000
63.19999642	0.00000000	28.50024000	21.96727000
63.39999641	0.00000000	30.03814000	28.56176000
63.59999639	0.00000000	31.57603000	32.42495000
63.79999638	0.00000000	32.73252000	33.21235000
63.99999637	0.00000000	33.10777000	30.51796000
64.19999636	0.00000000	32.73252000	25.12918000
64.39999635	0.00000000	31.57603000	18.57160000
64.59999634	0.00000000	30.03814000	12.02018000
64.79999632	0.00000000	28.50024000	7.37573800
64.99999631	0.00000000	27.38681000	5.37647600
65.19999630	0.00000000	27.34375000	5.75172200
65.39999629	0.00000000	28.12500000	8.48917200
65.59999628	0.00000000	29.25074000	13.09670000
65.79999626	0.00000000	30.82554000	18.43627000
65.99999625	0.00000000	31.90207000	22.75467000
66.19999624	0.00000000	32.31422000	25.54749000
66.39999623	0.00000000	31.52682000	27.49138000
66.59999622	0.00000000	30.08120000	27.86663000
66.79999620	0.00000000	28.87549000	26.75320000
66.99999619	0.00000000	28.12500000	24.79700000
67.19999618	0.00000000	27.76206000	22.05955000
67.39999617	0.00000000	28.59252000	18.89764000
67.59999616	0.00000000	30.45644000	15.40969000
67.79999615	0.00000000	32.78174000	11.93405000
67.99999613	0.00000000	34.69488000	9.60875900
68.19999612	0.00000000	35.85752000	8.44611200
68.39999611	0.00000000	35.81446000	8.86441900
68.59999610	0.00000000	34.23351000	11.18356000
68.79999609	0.00000000	31.15772000	14.67150000
68.99999607	0.00000000	27.29453000	18.98991000
69.19999606	0.00000000	23.84965000	23.59129000
69.39999605	0.00000000	21.52436000	27.44832000
69.59999604	0.00000000	21.19833000	29.35531000
69.79999603	0.00000000	23.15453000	29.02928000
69.99999601	0.00000000	27.38681000	26.66092000
70.19999600	0.00000000	32.73868000	22.75467000
70.39999599	0.00000000	37.39542000	17.32283000
70.59999598	0.00000000	40.51427000	11.60187000
70.79999597	0.00000000	41.67076000	7.37573800
70.99999596	0.00000000	40.46506000	5.79478300
71.19999594	0.00000000	36.97096000	6.95743000
71.39999593	0.00000000	31.53297000	10.40231000
71.59999592	0.00000000	25.38755000	15.41585000
71.79999591	0.00000000	20.03568000	20.43553000
71.99999590	0.00000000	17.34129000	24.66781000
72.19999588	0.00000000	18.03642000	26.98080000
72.39999587	0.00000000	21.10605000	26.66092000
72.59999586	0.00000000	25.80585000	24.79700000
72.79999585	0.00000000	31.57603000	22.01649000
72.99999584	0.00000000	36.97096000	18.57160000
73.19999582	-0.15871060	40.46506000	15.13902000
73.39999581	0.00000000	41.67076000	13.22589000
73.59999580	0.00000000	40.46506000	13.13976000
73.79999579	0.00000000	37.02018000	14.29626000
73.99999578	0.00000000	31.99434000	16.16018000
74.19999577	0.00000000	27.01156000	18.06102000
74.39999575	0.00000000	23.10531000	18.81152000
74.59999574	0.00000000	21.19833000	18.52854000
74.79999573	0.00000000	21.52436000	17.74114000
74.99999572	0.00000000	23.84965000	16.99065000
75.19999571	0.00000000	27.29453000	16.20325000
75.39999569	0.00000000	31.15772000	15.92027000
75.59999568	0.00000000	34.23351000	16.71383000
75.79999567	0.00000000	35.81446000	19.03297000
75.99999566	0.00000000	35.85752000	22.05955000
76.19999565	0.00000000	34.73794000	24.71087000
76.39999563	0.00000000	33.20005000	25.82431000
76.59999562	0.00000000	31.66215000	24.71087000
76.79999561	0.00000000	30.50566000	22.01649000
76.99999560	0.00000000	30.08120000	18.47933000
77.19999559	0.00000000	30.03814000	14.21014000
77.39999558	0.00000000	30.03814000	10.07013000
77.59999556	0.00000000	30.03814000	7.79404500
77.79999555	0.00000000	29.99508000	8.53223400
77.99999554	0.00000000	29.61983000	11.60187000
78.19999553	0.00000000	28.87549000	16.25246000
78.39999552	0.00000000	28.50024000	21.63509000
78.59999550	0.00000000	28.50024000	26.24262000
78.79999549	0.00000000	28.92470000	28.98007000
78.99999548	0.00000000	30.13041000	29.40452000
79.19999547	0.00000000	32.03740000	27.86663000
79.39999546	0.00000000	34.31963000	24.71087000
79.59999544	0.00000000	35.85752000	20.10950000
79.79999543	0.00000000	36.27584000	15.13902000
79.99999542	0.00000000	35.85752000	11.65108000
80.19999541	0.00000000	34.27657000	10.02707000
80.39999540	0.00000000	31.57603000	10.02707000
80.59999539	0.00000000	28.54946000	11.55881000
80.79999537	0.00000000	26.22416000	14.25320000
80.99999536	0.00000000	25.43061000	17.36589000
81.19999535	0.00000000	25.80585000	20.47859000
81.39999534	0.00000000	27.38681000	23.22219000
81.59999533	0.00000000	30.08120000	25.12918000
81.79999531	0.00000000	33.11393000	25.91043000
81.99999530	0.00000000	35.43922000	25.17224000
82.19999529	0.00000000	36.23277000	23.64050000
82.39999528	0.00000000	35.90059000	21.68430000
82.59999527	0.00000000	34.69488000	19.32210000
82.79999525	0.00000000	32.78174000	16.99065000
82.99999524	0.00000000	30.45644000	14.62844000
83.19999523	0.00000000	28.54946000	12.72146000
83.39999522	0.00000000	27.38681000	11.55881000
83.59999521	0.00000000	27.38681000	11.55881000
83.79999520	0.00000000	28.50024000	12.76452000
83.99999518	0.00000000	29.99508000	15.08981000
84.19999517	0.00000000	31.20078000	18.61466000
84.39999516	0.00000000	31.99434000	22.43479000
84.59999515	0.00000000	32.73252000	25.91043000
84.79999514	0.00000000	32.73252000	27.77436000
84.99999512	0.00000000	32.03740000	27.44832000
85.19999511	0.00000000	31.66215000	25.12918000
85.39999510	0.00000000	31.61909000	21.64124000
85.59999509	0.00000000	31.61909000	17.36589000
85.79999508	0.00000000	31.61909000	13.13976000
85.99999506	0.00000000	31.61909000	10.07013000
86.19999505	0.00000000	31.57603000	8.91363100
86.39999504	0.00000000	31.15157000	10.07013000
86.59999503	0.00000000	30.03814000	13.13976000
86.79999502	0.00000000	28.92470000	17.40895000
86.99999501	0.00000000	28.50024000	22.01033000
87.19999499	0.00000000	28.50024000	25.86737000
87.39999498	0.00000000	28.92470000	27.77436000
87.59999497	0.00000000	30.08120000	27.40526000
87.79999496	0.00000000	31.57603000	24.71087000
87.99999495	0.00000000	32.78174000	20.47859000
88.19999493	0.00000000	33.53223000	15.87721000
88.39999492	0.00000000	33.94439000	12.02018000
88.59999491	0.00000000	33.53223000	10.07013000
88.79999490	0.00000000	32.78174000	10.07013000
88.99999489	0.00000000	31.61909000	12.06939000
89.19999487	0.00000000	30.45644000	16.25246000
89.39999486	0.00000000	29.66289000	21.22293000
89.59999485	0.00000000	28.92470000	25.03691000
89.79999484	0.00000000	28.92470000	27.03002000
89.99999483	0.00000000	29.66289000	26.61786000
90.19999482	0.00000000	30.41338000	24.29257000
90.39999480	0.00000000	31.24384000	20.06029000
90.59999479	0.00000000	31.99434000	15.08981000
90.79999478	0.00000000	32.73252000	11.27584000
90.99999477	0.00000000	32.73252000	9.33193800
91.19999476	0.00000000	32.03740000	10.11319000
91.39999474	0.00000000	31.66215000	13.13976000
91.59999473	0.00000000	31.61909000	17.40895000
91.79999472	0.00000000	31.66215000	22.01033000
91.99999471	0.00000000	32.03740000	25.86737000
92.19999470	0.00000000	32.78174000	27.73130000
92.39999468	0.00000000	33.10777000	27.03002000
92.59999467	0.00000000	32.73252000	23.92347000
92.79999466	0.00000000	31.61909000	19.73425000
92.99999465	0.00000000	30.45644000	15.08981000
93.19999464	0.00000000	29.66289000	11.69414000
93.39999463	0.00000000	28.87549000	10.48843000
93.59999461	0.00000000	28.59252000	11.65108000
93.79999460	0.00000000	29.34301000	14.72072000
93.99999459	0.00000000	31.28691000	18.94685000
94.19999458	0.00000000	33.57529000	23.17298000
94.39999457	0.00000000	35.90059000	26.19955000
94.59999455	0.00000000	37.43848000	26.98080000
94.79999454	0.00000000	37.81373000	25.08612000
94.99999453	0.00000000	37.02018000	21.68430000
95.19999452	0.00000000	34.69488000	17.78420000
95.39999451	0.00000000	31.61909000	14.34547000
95.59999449	0.00000000	28.50024000	12.06939000
95.79999448	0.00000000	25.80585000	12.06939000
95.99999447	0.00000000	24.31102000	14.29626000
96.19999446	0.00000000	24.68627000	17.36589000
96.39999445	0.00000000	26.96850000	20.47859000
96.59999444	0.00000000	30.08120000	23.17298000
96.79999442	0.00000000	33.61835000	24.71087000
96.99999441	0.00000000	37.43848000	24.71087000
97.19999440	0.00000000	40.13902000	23.22219000
97.39999439	0.00000000	40.93258000	20.90305000
97.59999438	0.00000000	40.13902000	18.61466000
97.79999436	0.00000000	37.39542000	16.67077000
97.99999435	0.00000000	33.20005000	15.87721000
98.19999434	0.00000000	28.96776000	15.82800000
98.39999433	0.00000000	25.80585000	16.25246000
98.59999432	0.00000000	23.84965000	17.36589000
98.79999430	0.00000000	23.10531000	18.47933000
98.99999429	0.00000000	24.31102000	18.94685000
99.19999428	0.00000000	27.34375000	19.32210000
99.39999427	0.00000000	31.20078000	19.73425000
99.59999426	0.00000000	34.69488000	19.74040000
99.79999425	0.00000000	37.43848000	20.15256000
99.99999423	0.00000000	38.97638000	20.52780000
100.19999422	0.00000000	39.01944000	20.90305000
100.39999421	0.00000000	37.81373000	21.26599000
100.59999420	0.00000000	35.52534000	20.85384000
100.79999419	0.00000000	32.41265000	20.10950000
100.99999417	0.00000000	29.70595000	18.90379000
101.19999416	0.00000000	27.34375000	17.32283000
101.39999415	0.00000000	25.84892000	15.45891000
101.59999414	0.00000000	25.80585000	13.93332000
101.79999413	0.00000000	26.96850000	13.97023000
101.99999411	0.00000000	28.87549000	15.08981000
102.19999410	0.00000000	31.24384000	17.41511000
102.39999409	0.00000000	33.53223000	20.10950000
102.59999408	0.00000000	35.52534000	22.43479000
102.79999407	0.00000000	36.65108000	24.33563000
102.99999406	0.00000000	37.06324000	24.71087000
103.19999404	0.00000000	36.23277000	23.59129000
103.39999403	0.00000000	34.36884000	21.64124000
103.59999402	0.00000000	32.03740000	18.89764000
103.79999401	0.00000000	30.13041000	15.83415000
103.99999400	0.00000000	28.87549000	13.18282000
104.19999398	0.00000000	28.12500000	12.02018000
104.39999397	0.00000000	27.76206000	12.80758000
104.59999396	0.00000000	28.54946000	15.04675000
104.79999395	0.00000000	30.03814000	18.15330000
104.99999394	0.00000000	31.61909000	20.81078000
105.19999392	-0.15871060	33.15699000	22.80389000
105.39999391	0.00000000	34.31963000	23.54823000
105.59999390	0.00000000	34.69488000	23.17298000
105.79999389	0.00000000	34.31963000	21.64124000
105.99999388	0.00000000	33.20005000	19.36516000
106.19999387	0.00000000	32.03740000	17.40895000
106.39999385	0.00000000	31.24384000	15.87721000
106.59999384	0.00000000	30.50566000	15.13902000
106.79999383	0.00000000	30.50566000	15.87721000
106.99999382	0.00000000	31.24384000	17.36589000
107.19999381	0.00000000	32.03740000	18.94685000
107.39999379	0.00000000	33.20005000	20.47859000
107.59999378	0.00000000	34.31963000	21.64124000
107.79999377	0.00000000	34.69488000	22.01033000
107.99999376	0.00000000	34.31963000	21.64124000
108.19999375	0.00000000	33.20005000	20.47859000
108.39999374	0.00000000	32.03740000	18.94685000
108.59999372	0.00000000	31.24384000	17.40895000
108.79999371	0.00000000	30.50566000	16.29552000
108.99999370	0.00000000	30.54872000	16.29552000
109.19999369	0.00000000	31.61909000	17.40895000
109.39999368	0.00000000	32.78174000	18.94685000
109.59999366	0.00000000	33.57529000	20.52780000
109.79999365	0.00000000	34.36884000	22.01649000
109.99999364	0.00000000	34.74409000	22.79773000
110.19999363	0.00000000	34.74409000	22.43479000
110.39999362	0.00000000	34.36884000	21.68430000
110.59999360	0.00000000	33.57529000	20.47859000
110.79999359	0.00000000	32.78174000	18.98991000
110.99999358	0.00000000	31.61909000	17.78420000
111.19999357	0.00000000	30.54872000	17.03371000
111.39999356	0.00000000	30.50566000	16.62155000
111.59999355	0.00000000	31.24384000	17.03371000
111.79999353	0.00000000	31.99434000	17.78420000
111.99999352	0.00000000	32.78174000	18.94685000
112.19999351	0.00000000	33.20005000	20.10950000
112.39999350	0.00000000	33.57529000	20.90305000
112.59999349	0.00000000	33.94439000	21.64124000
112.79999347	0.00000000	33.57529000	21.64124000
112.99999346	0.00000000	33.24311000	20.94611000
113.19999345	0.00000000	33.20005000	20.52780000
113.39999344	0.00000000	33.20005000	20.10950000
113.59999343	0.00000000	33.20005000	19.36516000
113.79999341	0.00000000	33.20005000	18.98991000
113.99999340	0.00000000	33.15699000	18.90379000
114.19999339	0.00000000	32.82480000	18.52854000
114.39999338	0.00000000	32.45571000	17.78420000
114.59999337	0.00000000	32.82480000	17.40895000
114.79999336	0.00000000	33.15699000	17.36589000
114.99999334	0.00000000	33.20005000	17.36589000
115.19999333	0.00000000	33.20005000	17.40895000
115.39999332	0.00000000	33.20005000	17.78420000
115.59999331	0.00000000	33.20005000	18.57160000
115.79999330	0.00000000	33.20005000	19.32210000
115.99999328	0.00000000	33.20005000	20.15256000
116.19999327	0.00000000	33.15699000	20.85384000
116.39999326	0.00000000	32.82480000	21.30905000
116.59999325	0.00000000	32.41265000	21.22908000
116.79999324	0.00000000	32.40649000	20.89075000
116.99999322	0.00000000	32.03740000	19.69734000
117.19999321	0.00000000	32.08661000	18.61466000
117.39999320	0.00000000	32.82480000	17.78420000
117.59999319	0.00000000	33.57529000	17.40895000
117.79999318	0.00000000	34.36884000	17.36589000
117.99999317	0.00000000	34.74409000	17.36589000
118.19999315	0.00000000	34.74409000	17.40895000
118.39999314	0.00000000	34.31963000	17.83341000
118.59999313	0.00000000	33.20005000	18.94685000
118.79999312	0.00000000	32.03740000	20.06029000
118.99999311	0.00000000	31.24384000	20.48474000
119.19999309	0.00000000	30.50566000	20.52780000
119.39999308	0.00000000	30.50566000	20.52780000
119.59999307	0.00000000	31.24384000	20.48474000
119.79999306	0.00000000	32.08661000	20.10950000
119.99999305	0.00000000	33.57529000	19.32210000
120.19999303	0.00000000	35.10704000	18.57160000
120.39999302	0.00000000	35.53765000	17.78420000
120.59999301	0.00000000	35.94980000	17.40895000
120.79999300	0.00000000	35.90059000	17.36589000
120.99999299	0.00000000	35.16240000	17.40895000
121.19999298	0.00000000	34.36884000	17.78420000
121.39999296	0.00000000	33.15699000	18.52854000
121.59999295	0.00000000	31.66215000	18.90379000
121.79999294	0.00000000	30.50566000	18.94685000
121.99999293	0.00000000	30.08120000	18.98991000
122.19999292	0.00000000	30.08120000	19.36516000
122.39999290	0.00000000	30.50566000	20.10950000
122.59999289	0.00000000	31.66215000	20.48474000
122.79999288	0.00000000	33.15699000	20.52780000
122.99999287	0.00000000	34.36884000	20.52780000
123.19999286	0.00000000	35.16240000	20.48474000
123.39999284	0.00000000	35.90059000	20.10950000
123.59999283	0.00000000	35.90059000	19.36516000
123.79999282	0.00000000	35.16240000	18.98991000
123.99999281	0.00000000	34.41191000	18.94685000
124.19999280	0.00000000	33.61835000	18.94685000
124.39999279	0.00000000	33.20005000	18.94685000
124.59999277	0.00000000	32.78174000	18.94685000
124.79999276	0.00000000	32.03740000	18.98991000
124.99999275	0.00000000	31.66215000	19.36516000
125.19999274	0.00000000	31.61909000	20.10950000
125.39999273	0.00000000	31.66215000	20.48474000
125.59999271	0.00000000	32.08661000	20.52780000
125.79999270	0.00000000	33.24926000	20.52780000
125.99999269	0.00000000	34.73794000	20.52780000
126.19999268	0.00000000	35.90059000	20.52780000
126.39999267	0.00000000	36.32505000	20.52780000
126.59999265	0.00000000	36.32505000	20.48474000
126.79999264	0.00000000	35.90059000	20.10950000
126.99999263	0.00000000	34.78716000	19.36516000
127.19999262	0.00000000	33.61835000	18.98991000
127.39999261	0.00000000	32.82480000	18.94685000
127.59999260	0.00000000	32.03740000	18.94685000
127.79999258	0.00000000	31.66215000	18.98991000
127.99999257	0.00000000	31.66215000	19.36516000
128.19999256	0.00000000	32.08661000	20.10950000
128.39999255	0.00000000	33.24926000	20.48474000
128.59999254	0.00000000	34.73794000	20.52780000
128.79999252	0.00000000	35.90059000	20.52780000
128.99999251	0.00000000	36.27584000	20.48474000
129.19999250	0.00000000	35.94980000	20.10950000
129.39999249	0.00000000	35.16240000	19.36516000
129.59999248	0.00000000	34.36884000	18.98991000
129.79999246	0.00000000	33.20005000	18.94685000
129.99999245	0.00000000	32.08661000	18.94685000
130.19999244	0.00000000	31.71137000	18.94685000
130.39999243	0.00000000	32.03740000	18.98991000
130.59999242	0.00000000	32.82480000	19.36516000
130.79999241	0.00000000	33.57529000	20.10950000
130.99999239	0.00000000	34.36884000	20.48474000
131.19999238	0.00000000	34.74409000	20.48474000
131.39999237	0.00000000	34.78716000	20.10950000
131.59999236	0.00000000	34.74409000	19.36516000
131.79999235	0.00000000	34.36884000	18.98991000
131.99999233	0.00000000	33.61835000	18.94685000
132.19999232	0.00000000	33.24311000	18.94685000
132.39999231	0.00000000	33.20005000	18.94685000
132.59999230	0.00000000	33.20005000	18.94685000
132.79999229	0.00000000	33.20005000	18.98991000
132.99999227	0.00000000	33.20005000	19.36516000
133.19999226	0.00000000	33.20005000	20.10950000
133.39999225	0.00000000	33.20005000	20.48474000
133.59999224	0.00000000	33.20005000	20.52780000
133.79999223	0.00000000	33.20005000	20.48474000
133.99999222	0.00000000	33.20005000	20.10950000
134.19999220	0.00000000	33.24311000	19.32210000
134.39999219	0.00000000	33.61835000	18.57160000
134.59999218	0.00000000	34.36884000	17.78420000
134.79999217	0.00000000	34.74409000	17.40895000
134.99999216	0.00000000	34.78716000	17.40895000
135.19999214	0.00000000	34.78716000	17.78420000
135.39999213	0.00000000	34.78716000	18.52854000
135.59999212	0.00000000	34.74409000	18.94685000
135.79999211	0.00000000	34.36884000	19.41437000
135.99999210	0.00000000	33.57529000	20.47859000
136.19999208	0.00000000	32.82480000	21.22293000
136.39999207	0.00000000	32.08661000	20.90305000
136.59999206	0.00000000	32.08661000	20.57087000
136.79999205	0.00000000	32.82480000	20.52780000
136.99999204	0.00000000	33.57529000	20.48474000
137.19999203	0.00000000	34.41191000	20.10950000
137.39999201	0.00000000	35.16240000	19.36516000
137.59999200	0.00000000	35.90059000	18.98991000
137.79999199	0.00000000	35.90059000	18.94685000
137.99999198	0.00000000	35.20546000	18.94685000
138.19999197	0.00000000	34.78716000	18.94685000
138.39999195	0.00000000	34.36884000	18.98991000
138.59999194	0.00000000	33.61835000	19.32210000
138.79999193	0.00000000	33.24311000	19.73425000
138.99999192	0.00000000	33.20005000	19.74040000
139.19999191	0.00000000	33.20005000	20.15256000
139.39999189	0.00000000	33.24311000	20.48474000
139.59999188	0.00000000	33.61835000	20.52780000
139.79999187	0.00000000	34.36884000	20.52780000
139.99999186	0.00000000	34.74409000	20.48474000
140.19999185	0.00000000	34.78716000	20.10950000
140.39999184	0.00000000	34.78716000	19.36516000
140.59999182	0.00000000	34.78716000	18.94685000
140.79999181	0.00000000	34.74409000	18.57160000
140.99999180	0.00000000	34.36884000	18.20251000
141.19999179	0.00000000	33.66756000	18.61466000
141.39999178	0.00000000	33.66756000	19.32210000
141.59999176	0.00000000	34.36884000	20.15256000
141.79999175	0.00000000	34.74409000	20.90305000
141.99999174	0.00000000	34.78716000	21.68430000
142.19999173	0.00000000	34.78716000	22.05955000
142.39999172	0.00000000	34.78716000	22.05955000
142.59999170	0.00000000	34.78716000	21.68430000
142.79999169	0.00000000	34.78716000	20.90305000
142.99999168	0.00000000	34.74409000	20.15256000
143.19999167	0.00000000	34.41191000	19.36516000
143.39999166	0.00000000	34.04282000	18.98991000
143.59999165	0.00000000	34.41191000	18.94685000
143.79999163	0.00000000	34.74409000	18.98991000
143.99999162	0.00000000	34.83022000	19.36516000
144.19999161	0.00000000	35.20546000	20.10950000
144.39999160	0.00000000	35.94980000	20.52780000
144.59999159	0.00000000	36.27584000	20.94611000
144.79999157	0.00000000	35.94980000	21.68430000
144.99999156	0.00000000	35.20546000	22.01033000
145.19999155	0.00000000	34.83022000	21.68430000
145.39999154	0.00000000	34.78716000	20.94611000
145.59999153	0.00000000	34.78716000	20.52780000
145.79999151	0.00000000	34.78716000	20.10950000
145.99999150	0.00000000	34.78716000	19.36516000
146.19999149	0.00000000	34.78716000	18.98991000
146.39999148	0.00000000	34.78716000	18.94685000
146.59999147	0.00000000	34.78716000	18.98991000
146.79999146	0.00000000	34.83022000	19.36516000
146.99999144	0.00000000	35.16240000	20.10950000
147.19999143	0.00000000	35.53149000	20.48474000
147.39999142	0.00000000	35.16240000	20.52780000
147.59999141	0.00000000	34.83022000	20.52780000
147.79999140	0.00000000	34.78716000	20.52780000
147.99999138	0.00000000	34.74409000	20.52780000
148.19999137	0.00000000	34.36884000	20.48474000
148.39999136	0.00000000	33.61835000	20.10950000
148.59999135	0.00000000	33.29232000	19.36516000
148.79999134	0.00000000	33.61835000	18.98991000
148.99999132	0.00000000	34.36884000	18.94685000
149.19999131	0.00000000	34.74409000	18.94685000
149.39999130	0.00000000	34.78716000	18.94685000
149.59999129	0.00000000	34.78716000	18.94685000
149.79999128	0.00000000	34.78716000	18.98991000
149.99999127	0.00000000	34.78716000	19.36516000
150.19999125	0.00000000	34.78716000	20.10950000
150.39999124	0.00000000	34.78716000	20.48474000
150.59999123	0.00000000	34.74409000	20.52780000
150.79999122	0.00000000	34.36884000	20.52780000
150.99999121	0.00000000	33.61835000	20.48474000
151.19999119	0.00000000	33.29232000	20.10950000
151.39999118	0.00000000	33.61835000	19.36516000
151.59999117	0.00000000	34.36884000	18.98991000
151.79999116	0.00000000	34.74409000	18.94685000
151.99999115	0.00000000	34.78716000	18.94685000
152.19999113	0.00000000	34.83022000	18.98991000
152.39999112	0.00000000	35.16240000	19.36516000
152.59999111	0.00000000	35.57455000	20.06029000
152.79999110	0.00000000	35.53765000	20.10950000
152.99999109	0.00000000	35.57455000	19.78346000
153.19999108	0.00000000	35.16240000	20.15256000
153.39999106	0.00000000	34.83022000	20.48474000
153.59999105	0.00000000	34.74409000	20.52780000
153.79999104	0.00000000	34.41191000	20.52780000
153.99999103	0.00000000	34.04282000	20.52780000
154.19999102	0.00000000	34.41191000	20.52780000
154.39999100	0.00000000	34.74409000	20.52780000
154.59999099	0.00000000	34.78716000	20.52780000
154.79999098	0.00000000	34.83022000	20.52780000
154.99999097	0.00000000	35.20546000	20.52780000
155.19999096	0.00000000	35.94980000	20.48474000
155.39999094	0.00000000	36.32505000	20.15256000
155.59999093	0.00000000	36.36811000	19.78346000
155.79999092	0.00000000	36.32505000	20.15256000
155.99999091	0.00000000	35.94980000	20.48474000
156.19999090	0.00000000	35.20546000	20.57087000
156.39999089	0.00000000	34.83022000	20.94611000
156.59999087	0.00000000	34.78716000	21.68430000
156.79999086	0.00000000	34.78716000	22.05955000
156.99999085	0.00000000	34.78716000	22.10261000
157.19999084	0.00000000	34.78716000	22.05955000
157.39999083	0.00000000	34.78716000	21.68430000
157.59999081	0.00000000	34.83022000	20.94611000
157.79999080	0.00000000	35.20546000	20.57087000
157.99999079	0.00000000	35.94980000	20.48474000
158.19999078	0.00000000	36.32505000	20.15256000
158.39999077	0.00000000	36.36811000	19.78346000
158.59999075	0.00000000	36.36811000	20.15256000
158.79999074	0.00000000	36.36811000	20.48474000
158.99999073	0.00000000	36.32505000	20.57087000
159.19999072	0.00000000	35.94980000	20.94611000
159.39999071	0.00000000	35.20546000	21.68430000
159.59999070	0.00000000	34.83022000	22.01033000
159.79999068	0.00000000	34.78716000	21.68430000
159.99999067	0.00000000	34.78716000	20.94611000
160.19999066	0.00000000	34.78716000	20.57087000
160.39999065	0.00000000	34.78716000	20.52780000
160.59999064	0.00000000	34.78716000	20.48474000
160.79999062	0.00000000	34.78716000	20.10950000
160.99999061	0.00000000	34.78716000	19.36516000
161.19999060	0.00000000	34.78716000	19.03912000
161.39999059	0.00000000	34.83022000	19.36516000
161.59999058	0.00000000	35.20546000	20.10950000
161.79999056	0.00000000	35.94980000	20.48474000
161.99999055	0.00000000	36.32505000	20.52780000
162.19999054	0.00000000	36.36811000	20.52780000
162.39999053	0.00000000	36.32505000	20.52780000
162.59999052	0.00000000	35.99286000	20.52780000
162.79999051	0.00000000	35.58071000	20.52780000
162.99999049	0.00000000	35.57455000	20.52780000
163.19999048	0.00000000	35.16240000	20.52780000
163.39999047	0.00000000	34.83022000	20.48474000
163.59999046	0.00000000	34.78716000	20.15256000
163.79999045	0.00000000	34.78716000	19.74040000
163.99999043	0.00000000	34.78716000	19.73425000
164.19999042	0.00000000	34.83022000	19.32210000
164.39999041	0.00000000	35.20546000	19.03912000
164.59999040	0.00000000	35.94980000	19.32210000
164.79999039	0.00000000	36.32505000	19.73425000
164.99999037	0.00000000	36.36811000	19.69734000
165.19999036	0.00000000	36.36811000	19.77731000
165.39999035	0.00000000	36.32505000	19.74040000
165.59999034	0.00000000	35.94980000	20.15256000
165.79999033	0.00000000	35.20546000	20.48474000
165.99999032	0.00000000	34.83022000	20.52780000
166.19999030	0.00000000	34.78716000	20.52780000
166.39999029	0.00000000	34.78716000	20.52780000
166.59999028	0.00000000	34.78716000	20.52780000
166.79999027	0.00000000	34.78716000	20.52780000
166.99999026	0.00000000	34.83022000	20.52780000
167.19999024	0.00000000	35.20546000	20.48474000
167.39999023	0.00000000	35.94980000	20.15256000
167.59999022	0.00000000	36.32505000	19.78346000
167.79999021	0.00000000	36.36811000	20.15256000
167.99999020	0.00000000	36.36811000	20.48474000
168.19999018	0.00000000	36.36811000	20.52780000
168.39999017	0.00000000	36.32505000	20.52780000
168.59999016	0.00000000	35.94980000	20.52780000
168.79999015	0.00000000	35.20546000	20.52780000
168.99999014	0.00000000	34.87943000	20.52780000
169.19999013	0.00000000	35.20546000	20.52780000
169.39999011	0.00000000	35.90059000	20.52780000
169.59999010	0.00000000	35.94980000	20.52780000
169.79999009	0.00000000	35.58071000	20.52780000
169.99999008	0.00000000	35.61762000	20.52780000
170.19999007	0.00000000	35.58071000	20.52780000
170.39999005	0.00000000	35.99286000	20.52780000
170.59999004	0.00000000	36.32505000	20.52780000
170.79999003	0.00000000	36.36811000	20.52780000
170.99999002	0.00000000	36.36811000	20.52780000
171.19999001	0.00000000	36.36811000	20.52780000
171.39998999	0.00000000	36.36811000	20.52780000
171.59998998	0.00000000	36.36811000	20.52780000
171.79998997	0.00000000	36.36811000	20.52780000
171.99998996	0.00000000	36.36811000	20.52780000
172.19998995	0.00000000	36.36811000	20.52780000
172.39998994	0.00000000	36.36811000	20.52780000
172.59998992	0.00000000	36.36811000	20.52780000
172.79998991	0.00000000	36.36811000	20.52780000
172.99998990	0.00000000	36.36811000	20.52780000
173.19998989	0.00000000	36.36811000	20.52780000
173.39998988	0.00000000	36.36811000	20.52780000
173.59998986	0.00000000	36.36811000	20.52780000
173.79998985	0.00000000	36.36811000	20.52780000
173.99998984	0.00000000	36.36811000	20.52780000
174.19998983	0.00000000	36.36811000	20.52780000
174.39998982	0.00000000	36.36811000	20.52780000
174.59998980	0.00000000	36.36811000	20.52780000
174.79998979	0.00000000	36.36811000	20.52780000
174.99998978	0.00000000	36.36811000	20.52780000
175.19998977	0.00000000	36.36811000	20.52780000
175.39998976	0.00000000	36.36811000	20.52780000
175.59998975	0.00000000	36.36811000	20.52780000
175.79998973	0.00000000	36.36811000	20.52780000
175.99998972	0.00000000	36.36811000	20.52780000
176.19998971	0.00000000	36.36811000	20.52780000
176.39998970	0.00000000	36.36811000	20.52780000
176.59998969	0.00000000	36.36811000	20.52780000
176.79998967	0.00000000	36.36811000	20.52780000
176.99998966	0.00000000	36.36811000	20.52780000
177.19998965	0.00000000	36.36811000	20.52780000
177.39998964	0.00000000	36.36811000	20.52780000
177.59998963	0.00000000	36.36811000	20.52780000
177.79998961	0.00000000	36.36811000	20.52780000
177.99998960	0.00000000	36.36811000	20.52780000
178.19998959	0.00000000	36.36811000	20.52780000
178.39998958	0.00000000	36.36811000	20.57087000
178.59998957	0.00000000	36.36811000	20.90305000
178.79998956	0.00000000	36.36811000	21.26599000
178.99998954	0.00000000	36.36811000	20.90305000
179.19998953	0.00000000	36.36811000	20.57087000
179.39998952	0.00000000	36.36811000	20.52780000
179.59998951	0.00000000	36.36811000	20.52780000
179.79998950	0.00000000	36.36811000	20.52780000
179.99998948	0.00000000	36.36811000	20.52780000
180.19998947	0.00000000	36.36811000	20.52780000
180.39998946	0.00000000	36.36811000	20.52780000
180.59998945	0.00000000	36.36811000	20.52780000
180.79998944	0.00000000	36.36811000	20.52780000
180.99998942	0.00000000	36.36811000	20.52780000
181.19998941	0.00000000	36.36811000	20.52780000
181.39998940	0.00000000	36.36811000	20.57087000
181.59998939	0.00000000	36.36811000	20.90305000
181.79998938	0.00000000	36.36811000	21.26599000
181.99998937	0.00000000	36.36811000	20.90305000
182.19998935	0.00000000	36.36811000	20.57087000
182.39998934	0.00000000	36.36811000	20.52780000
182.59998933	0.00000000	36.36811000	20.48474000
182.79998932	0.00000000	36.36811000	20.15256000
182.99998931	0.00000000	36.36811000	19.78346000
183.19998929	0.00000000	36.36811000	20.15256000
183.39998928	0.00000000	36.36811000	20.48474000
183.59998927	0.00000000	36.36811000	20.52780000
183.79998926	0.00000000	36.36811000	20.52780000
183.99998925	0.00000000	36.36811000	20.57087000
184.19998923	0.00000000	36.36811000	20.94611000
184.39998922	0.00000000	36.36811000	21.68430000
184.59998921	0.00000000	36.36811000	22.05955000
184.79998920	0.00000000	36.36811000	22.10261000
184.99998919	0.00000000	36.36811000	22.05955000
185.19998918	0.00000000	36.36811000	21.68430000
185.39998916	0.00000000	36.36811000	20.94611000
185.59998915	0.00000000	36.36811000	20.57087000
185.79998914	0.00000000	36.41117000	20.52780000
185.99998913	0.00000000	36.74335000	20.52780000
186.19998912	0.00000000	37.11245000	20.52780000
186.39998910	0.00000000	36.74335000	20.52780000
186.59998909	0.00000000	36.41117000	20.52780000
186.79998908	0.00000000	36.36811000	20.57087000
186.99998907	0.00000000	36.36811000	20.94611000
187.19998906	0.00000000	36.36811000	21.68430000
187.39998904	0.00000000	36.36811000	22.05955000
187.59998903	0.00000000	36.36811000	22.10261000
187.79998902	0.00000000	36.36811000	22.10261000
187.99998901	0.00000000	36.36811000	22.05955000
188.19998900	0.00000000	36.41117000	21.68430000
188.39998899	0.00000000	36.78642000	20.94611000
188.59998897	0.00000000	37.53075000	20.57087000
188.79998896	0.00000000	37.90600000	20.52780000
188.99998895	0.00000000	37.90600000	20.52780000
189.19998894	0.00000000	37.53075000	20.52780000
189.39998893	0.00000000	36.78642000	20.52780000
189.59998891	0.00000000	36.41117000	20.57087000
189.79998890	0.00000000	36.36811000	20.90305000
189.99998889	0.00000000	36.36811000	21.30905000
190.19998888	0.00000000	36.36811000	21.27214000
190.39998887	0.00000000	36.41117000	21.35827000
190.59998885	0.00000000	36.74335000	21.27214000
190.79998884	0.00000000	37.15551000	21.30905000
190.99998883	0.00000000	37.16166000	20.90305000
191.19998882	0.00000000	37.57381000	20.57087000
191.39998881	0.00000000	37.90600000	20.52780000
191.59998880	0.00000000	37.90600000	20.52780000
191.79998878	0.00000000	37.57381000	20.52780000
191.99998877	0.00000000	37.16166000	20.52780000
192.19998876	0.00000000	37.15551000	20.52780000
192.39998875	0.00000000	36.74335000	20.52780000
192.59998874	0.00000000	36.41117000	20.52780000
192.79998872	0.00000000	36.36811000	20.52780000
192.99998871	0.00000000	36.36811000	20.52780000
193.19998870	0.00000000	36.36811000	20.48474000
193.39998869	0.00000000	36.41117000	20.19562000
193.59998868	0.00000000	36.74335000	20.15871000
193.79998866	0.00000000	37.11245000	20.89075000
193.99998865	0.00000000	36.78642000	20.90305000
194.19998864	0.00000000	36.83563000	20.94611000
194.39998863	0.00000000	37.53075000	21.26599000
194.59998862	0.00000000	37.90600000	20.90305000
194.79998861	0.00000000	37.90600000	20.57087000
194.99998859	0.00000000	37.53075000	20.52780000
195.19998858	0.00000000	36.78642000	20.52780000
195.39998857	0.00000000	36.41117000	20.52780000
195.59998856	0.00000000	36.36811000	20.52780000
195.79998855	0.00000000	36.36811000	20.52780000
195.99998853	0.00000000	36.36811000	20.52780000
