Time	Channel A	Channel B	Channel C
(us)	(V)	(mV)	(mV)

-4.49999956	0.00000000	44.27288000	23.68356000
-4.29999957	0.00000000	44.27288000	23.68356000
-4.09999958	0.00000000	44.27288000	23.68356000
-3.89999959	0.00000000	44.27288000	23.68356000
-3.69999960	0.00000000	44.31594000	23.68356000
-3.49999962	0.00000000	44.64813000	23.68356000
-3.29999963	0.00000000	45.01722000	23.68356000
-3.09999964	0.00000000	44.69119000	23.68356000
-2.89999965	0.00000000	44.69119000	23.68356000
-2.69999966	0.00000000	45.01722000	23.68356000
-2.49999968	0.00000000	44.64813000	23.68356000
-2.29999969	0.00000000	44.36515000	23.68356000
-2.09999970	0.00000000	44.64813000	23.68356000
-1.89999971	0.00000000	45.06028000	23.68356000
-1.69999972	0.00000000	45.02337000	23.68356000
-1.49999973	0.00000000	45.06028000	23.68356000
-1.29999975	0.00000000	44.64813000	23.68356000
-1.09999976	0.00000000	44.31594000	23.68356000
-0.89999977	0.00000000	44.27288000	23.72662000
-0.69999978	0.00000000	44.27288000	24.05881000
-0.49999979	0.00000000	44.27288000	24.42790000
-0.29999981	0.31803640	44.27288000	24.05881000
-0.09999982	0.63668800	44.27288000	23.72662000
0.10000017	0.95533960	44.27288000	23.72662000
0.30000016	0.95533960	44.31594000	24.05881000
0.50000015	0.79601380	44.69119000	24.42790000
0.70000013	0.31803640	45.38631000	24.05881000
0.90000012	-0.47736220	45.38631000	23.72662000
1.10000011	-1.59264300	44.74040000	23.72662000
1.30000010	-2.38927200	44.74040000	24.10187000
1.50000009	-2.86724900	45.43553000	24.84621000
1.70000008	-2.38927200	45.81078000	25.22145000
1.90000006	-1.27399100	45.85384000	25.26452000
2.10000005	0.63668800	45.85384000	25.26452000
2.30000004	2.70792300	45.85384000	25.26452000
2.50000003	4.45989200	45.85384000	25.22145000
2.70000002	5.25652100	45.85384000	24.84621000
2.90000000	4.77854300	45.85384000	24.10187000
3.09999999	2.86724900	45.85384000	23.72662000
3.29999998	-0.15871060	45.85384000	23.68356000
3.49999997	-3.50393700	45.85384000	23.72662000
3.69999996	-6.37180100	45.85384000	24.10187000
3.89999994	-7.96444400	45.85384000	24.84621000
4.09999993	-7.48646600	45.85384000	25.22145000
4.29999992	-4.93786900	45.85384000	25.26452000
4.49999991	-1.11466500	45.85384000	25.26452000
4.69999990	3.34522600	45.85384000	25.26452000
4.89999989	7.16781500	45.85384000	25.22145000
5.09999987	9.23905000	45.85384000	24.84621000
5.29999986	9.07972400	45.85384000	24.10187000
5.49999985	6.53112700	45.85384000	23.72662000
5.69999984	2.38927200	45.81078000	23.68356000
5.89999983	-2.54859700	45.47859000	23.72662000
6.09999981	-6.69045300	45.10950000	24.10187000
6.29999980	-9.07972400	45.47859000	24.84621000
6.49999979	-9.23905000	45.81078000	25.22145000
6.69999978	-7.16781500	45.85384000	25.26452000
6.89999977	-3.34522600	45.85384000	25.26452000
7.09999975	1.11466500	45.85384000	25.26452000
7.29999974	4.93786900	45.85384000	25.22145000
7.49999973	7.32714100	45.85384000	24.84621000
7.69999972	7.64579200	45.85384000	24.10187000
7.89999971	6.21247500	45.85384000	23.72662000
8.09999970	3.34522600	45.85384000	23.68356000
8.29999968	0.00000000	45.85384000	23.68356000
8.49999967	-2.86724900	45.85384000	23.68356000
8.69999966	-4.77854300	45.85384000	23.68356000
8.89999965	-5.25652100	45.85384000	23.68356000
9.09999964	-4.30056600	45.85384000	23.68356000
9.29999962	-2.70792300	45.85384000	23.72662000
9.49999961	-0.63668800	45.85384000	24.05881000
9.69999960	1.11466500	45.81078000	24.42790000
9.89999959	2.22994600	45.47859000	24.05881000
10.09999958	2.54859700	45.10950000	23.72662000
10.29999956	2.22994600	45.43553000	23.68356000
10.49999955	1.43331700	45.43553000	23.68356000
10.69999954	0.47736220	45.10950000	23.68356000
10.89999953	-0.31803640	45.47859000	23.68356000
11.09999952	-0.79601380	45.81078000	23.68356000
11.29999951	-0.95533960	45.85384000	23.68356000
11.49999949	-0.95533960	45.85384000	23.68356000
11.69999948	-0.79601380	45.85384000	23.68356000
11.89999947	-0.47736220	45.85384000	23.68356000
12.09999946	-0.15871060	45.85384000	23.68356000
12.29999945	-0.15871060	45.85384000	23.68356000
12.49999943	-0.15871060	45.85384000	23.72662000
12.69999942	0.00000000	45.85384000	24.05881000
12.89999941	0.00000000	45.85384000	24.42790000
13.09999940	0.00000000	45.85384000	24.10187000
13.29999939	0.00000000	45.85384000	24.10187000
13.49999937	0.00000000	45.85384000	24.42790000
13.69999936	0.00000000	45.85384000	24.10187000
13.89999935	-0.15871060	45.85384000	24.10187000
14.09999934	-0.15871060	45.85384000	24.42790000
14.29999933	-0.15871060	45.85384000	24.10187000
14.49999932	-0.15871060	45.85384000	24.15108000
14.69999930	-0.15871060	45.85384000	24.84621000
14.89999929	0.00000000	45.85384000	25.22145000
15.09999928	0.00000000	45.85384000	25.22145000
15.29999927	0.00000000	45.85384000	24.88927000
15.49999926	0.00000000	45.85384000	24.52018000
15.69999924	0.00000000	45.85384000	24.84621000
15.89999923	0.00000000	45.85384000	24.84621000
16.09999922	0.00000000	45.85384000	24.52018000
16.29999921	-0.15871060	45.85384000	24.88927000
16.49999920	-0.15871060	45.85384000	25.22145000
16.69999919	-0.15871060	45.89690000	25.26452000
16.89999917	0.00000000	46.27214000	25.26452000
17.09999916	0.00000000	47.01648000	25.26452000
17.29999915	0.00000000	47.39173000	25.26452000
17.49999914	0.00000000	47.43479000	25.26452000
17.69999913	0.00000000	47.39173000	25.26452000
17.89999911	0.00000000	46.96727000	25.26452000
18.09999910	0.00000000	45.81078000	25.26452000
18.29999909	0.00000000	44.27288000	25.26452000
18.49999908	0.00000000	42.73499000	25.26452000
18.69999907	0.00000000	41.57849000	25.26452000
18.89999905	0.00000000	41.20325000	25.26452000
19.09999904	-0.15871060	41.57849000	25.26452000
19.29999903	0.00000000	42.82726000	25.26452000
19.49999902	0.00000000	45.15871000	25.26452000
19.69999901	0.00000000	48.68356000	25.26452000
19.89999900	0.00000000	52.50984000	25.26452000
20.09999898	0.00000000	55.94857000	25.26452000
20.29999897	0.00000000	57.43725000	25.26452000
20.49999896	0.00000000	56.27460000	25.26452000
20.69999895	0.00000000	52.69439000	25.26452000
20.89999894	0.00000000	46.46284000	25.26452000
21.09999892	0.00000000	38.41043000	25.22145000
21.29999891	0.00000000	31.10236000	24.84621000
21.49999890	0.00000000	26.45177000	24.10187000
21.69999889	0.00000000	25.37524000	23.72662000
21.89999888	0.00000000	28.96161000	23.68356000
22.09999886	0.00000000	37.51845000	23.72662000
22.29999885	0.00000000	49.48326000	24.05881000
22.49999884	0.00000000	62.22933000	24.47096000
22.69999883	0.00000000	72.60703000	24.47712000
22.89999882	0.00000000	77.95890000	24.88927000
23.09999881	0.00000000	76.28567000	25.22145000
23.29999879	0.00000000	66.97834000	25.26452000
23.49999878	0.00000000	51.48868000	25.30758000
23.69999877	0.00000000	33.38459000	25.68282000
23.89999876	0.00000000	16.77534000	26.37795000
24.09999875	0.00000000	6.02239100	26.37795000
24.29999873	0.00000000	3.74630900	25.63976000
24.49999872	0.00000000	11.18971000	24.84621000
24.69999871	0.00000000	27.42372000	23.64050000
24.89999870	0.00000000	49.05881000	22.10261000
25.09999869	0.00000000	71.06914000	20.57087000
25.29999867	0.00000000	88.42888000	19.45743000
25.49999866	0.00000000	96.80733000	19.50049000
25.69999865	0.00000000	93.31323000	21.03838000
25.89999864	0.00000000	78.28493000	23.77584000
26.09999863	0.00000000	55.89936000	27.25763000
26.29999862	0.00000000	31.10236000	31.11466000
26.49999860	0.00000000	9.14124000	34.18430000
26.69999859	0.00000000	-4.71825800	35.71604000
26.89999858	0.00000000	-6.67445900	35.20546000
27.09999857	0.00000000	3.32800200	31.67446000
27.29999856	0.00000000	22.68085000	25.12918000
27.49999854	0.00000000	47.39173000	17.45817000
27.69999853	0.00000000	71.67814000	10.48843000
27.89999852	0.00000000	89.45004000	5.84399600
28.09999851	0.00000000	96.85039000	4.39837600
28.29999850	0.00000000	92.70422000	7.19119100
28.49999848	0.00000000	78.79552000	14.94217000
28.69999847	0.00000000	58.69217000	25.72589000
28.89999846	0.00000000	36.26968000	37.34006000
29.09999845	0.00000000	17.00295000	47.37943000
29.29999844	0.00000000	5.32726300	53.46948000
29.49999843	0.00000000	3.28494100	53.78937000
29.69999841	0.00000000	10.16855000	47.19488000
29.89999840	0.00000000	23.70817000	35.20546000
30.09999839	0.00000000	41.15403000	20.15256000
30.29999838	0.00000000	58.93208000	5.10580700
30.49999837	0.00000000	73.25910000	-6.05314900
30.69999835	0.00000000	81.02854000	-11.10974000
30.89999834	0.00000000	81.07775000	-8.69832600
31.09999833	0.00000000	73.76968000	0.96579720
31.29999832	0.00000000	61.06668000	16.43085000
31.49999831	0.00000000	46.40748000	34.13509000
31.69999829	0.00000000	33.19390000	50.02460000
31.89999828	0.00000000	23.84350000	60.85137000
32.09999827	0.00000000	19.56201000	64.70840000
32.29999826	0.00000000	21.09990000	60.39001000
32.49999825	0.00000000	28.03272000	48.44365000
32.69999824	0.00000000	38.41043000	31.44069000
32.89999822	0.00000000	49.66781000	13.31816000
33.09999821	0.00000000	59.30733000	-2.14689900
33.29999820	0.00000000	65.53272000	-11.44193000
33.49999819	0.00000000	66.70152000	-13.01673000
33.69999818	0.00000000	63.34276000	-6.84055100
33.89999816	0.00000000	56.74212000	5.88705700
34.09999815	0.00000000	48.64050000	22.10261000
34.29999814	-0.15871060	40.54502000	38.36737000
34.49999813	0.00000000	34.77485000	51.51329000
34.69999812	0.00000000	32.77559000	58.81520000
34.89999810	0.00000000	34.26427000	58.43996000
35.09999809	0.00000000	38.54576000	50.39985000
35.29999808	0.00000000	44.69119000	37.34006000
35.49999807	0.00000000	51.20571000	22.65625000
35.69999806	0.00000000	55.81324000	9.46727400
35.89999805	0.00000000	57.39419000	0.22145670
36.09999803	0.00000000	55.89936000	-3.21112200
36.29999802	0.00000000	52.04232000	0.59670270
36.49999801	0.00000000	47.05954000	10.16240000
36.69999800	0.00000000	42.08292000	22.47785000
36.89999799	0.00000000	39.01329000	34.78716000
37.09999797	0.00000000	38.54576000	43.62082000
37.29999796	0.00000000	40.08366000	46.73351000
37.49999795	0.00000000	43.20251000	43.70694000
37.69999794	0.00000000	47.47785000	35.67298000
37.89999793	0.00000000	52.04232000	25.30758000
38.09999791	0.00000000	55.48105000	15.36048000
38.29999790	0.00000000	56.27460000	8.85826700
38.49999789	0.00000000	54.78592000	8.01550200
38.69999788	0.00000000	51.71013000	12.20472000
38.89999787	0.00000000	47.81004000	19.91880000
39.09999786	0.00000000	43.89763000	29.44759000
39.29999784	0.00000000	40.04060000	37.43848000
39.49999783	0.00000000	37.38927000	40.92643000
39.69999782	0.00000000	36.96481000	39.43774000
39.89999781	0.00000000	38.50270000	33.63066000
40.09999780	0.00000000	41.57849000	24.79700000
40.29999778	0.00000000	45.47859000	15.22515000
40.49999777	0.00000000	49.34793000	7.97244000
40.69999776	0.00000000	52.87278000	5.27805100
40.89999775	0.00000000	55.16117000	7.97244000
41.09999774	0.00000000	55.99163000	15.27436000
41.29999772	0.00000000	55.16117000	25.26452000
41.49999771	0.00000000	52.87278000	35.20546000
41.69999770	0.00000000	49.39099000	42.13213000
41.89999769	0.00000000	45.89690000	44.08218000
42.09999768	0.00000000	42.73499000	41.06176000
42.29999767	0.00000000	40.08366000	34.14124000
42.49999765	0.00000000	38.92101000	25.30758000
42.69999764	0.00000000	39.66535000	16.84916000
42.89999763	0.00000000	41.57849000	11.09129000
43.09999762	0.00000000	44.31594000	9.46112100
43.29999761	0.00000000	47.34252000	11.69414000
43.49999759	0.00000000	49.71087000	16.33858000
43.69999758	0.00000000	50.87967000	22.52091000
43.89999757	0.00000000	51.34104000	29.02928000
44.09999756	0.00000000	50.97194000	33.67372000
44.29999755	0.00000000	50.59670000	35.67298000
44.49999753	0.00000000	50.17839000	35.29773000
44.69999752	0.00000000	49.48326000	32.64640000
44.89999751	0.00000000	49.43405000	28.79552000
45.09999750	0.00000000	49.71087000	24.93233000
45.29999749	0.00000000	48.92347000	21.45669000
45.49999748	0.00000000	47.39173000	19.50049000
45.69999746	0.00000000	45.38631000	19.08218000
45.89999745	0.00000000	42.64886000	19.87574000
46.09999744	0.00000000	39.62229000	22.19488000
46.29999743	0.00000000	37.38927000	25.21530000
46.49999742	0.00000000	37.43233000	27.90969000
46.69999740	0.00000000	40.08366000	29.49065000
46.89999739	0.00000000	44.40821000	29.90895000
47.09999738	0.00000000	49.85236000	29.53371000
47.29999737	0.00000000	56.03469000	28.32800000
47.49999736	0.00000000	60.97440000	26.42101000
47.69999734	0.00000000	63.29355000	24.10187000
47.89999733	0.00000000	62.04478000	22.15182000
48.09999732	0.00000000	57.01894000	20.61393000
48.29999731	0.00000000	48.92347000	19.87574000
48.49999730	0.00000000	40.08366000	20.66314000
48.69999729	0.00000000	32.73252000	22.57013000
48.89999727	0.00000000	28.49409000	25.30758000
49.09999726	0.00000000	28.53716000	28.37721000
49.29999725	0.00000000	33.19390000	31.02239000
49.49999724	0.00000000	41.66461000	32.18504000
49.69999723	0.00000000	51.66707000	31.44069000
49.89999721	0.00000000	60.55610000	29.49065000
50.09999720	0.00000000	66.28321000	26.37795000
50.29999719	0.00000000	67.07062000	22.57013000
50.49999718	0.00000000	62.46924000	19.45743000
50.69999717	0.00000000	54.41068000	17.50123000
50.89999715	0.00000000	44.74040000	16.80610000
51.09999714	0.00000000	35.93750000	18.33784000
51.29999713	0.00000000	30.49951000	21.77658000
51.49999712	0.00000000	29.74901000	25.63976000
51.69999711	0.00000000	33.56914000	29.53371000
51.89999710	0.00000000	41.24631000	32.56028000
52.09999708	0.00000000	50.04306000	33.76599000
52.29999707	0.00000000	57.39419000	32.97859000
52.49999706	0.00000000	61.66953000	30.64714000
52.69999705	0.00000000	62.08784000	26.83932000
52.89999704	0.00000000	58.97515000	22.98843000
53.09999702	0.00000000	52.78666000	20.28789000
53.29999701	0.00000000	44.78346000	18.67003000
53.49999700	0.00000000	37.94291000	18.75000000
53.69999699	0.00000000	34.77485000	20.25098000
53.89999698	0.00000000	35.51919000	23.30832000
54.09999696	0.00000000	39.38853000	26.32874000
54.29999695	0.00000000	45.89690000	28.32800000
54.49999694	0.00000000	52.73745000	29.44759000
54.69999693	0.00000000	57.39419000	29.07234000
54.89999692	0.00000000	58.97515000	27.21457000
55.09999691	0.00000000	57.43725000	25.30758000
55.29999689	0.00000000	53.20496000	23.77584000
55.49999688	0.00000000	47.43479000	23.03149000
55.69999687	0.00000000	41.70767000	23.77584000
55.89999686	0.00000000	37.85064000	25.26452000
56.09999685	0.00000000	37.05708000	26.79626000
56.29999683	0.00000000	38.92101000	27.95275000
56.49999682	0.00000000	42.82726000	28.28494000
56.69999681	0.00000000	47.81004000	27.49138000
56.89999680	0.00000000	52.78666000	25.17224000
57.09999679	0.00000000	55.85630000	22.10261000
57.29999677	0.00000000	56.32381000	19.08218000
57.49999676	0.00000000	54.78592000	17.22441000
57.69999675	0.00000000	51.71013000	18.01181000
57.89999674	0.00000000	47.85310000	21.03838000
58.09999673	0.00000000	44.40821000	25.30758000
58.29999672	0.00000000	42.03986000	29.95817000
58.49999670	0.00000000	41.28937000	34.18430000
58.69999669	0.00000000	42.03986000	36.78642000
58.89999668	0.00000000	44.36515000	36.36811000
59.09999667	0.00000000	47.39173000	32.56028000
59.29999666	0.00000000	50.08612000	26.79626000
59.49999664	0.00000000	51.62401000	20.57087000
59.69999663	0.00000000	51.71013000	14.80684000
59.89999662	0.00000000	50.92888000	11.04823000
60.09999661	0.00000000	49.76009000	11.04823000
60.29999660	0.00000000	47.85310000	14.89911000
60.49999658	0.00000000	46.36442000	21.40748000
60.69999657	0.00000000	45.89690000	29.11540000
60.89999656	0.00000000	45.89690000	35.67298000
61.09999655	0.00000000	46.32135000	39.89911000
61.29999654	0.00000000	47.47785000	40.64345000
61.49999653	0.00000000	48.97269000	37.20472000
61.69999651	0.00000000	50.04306000	31.02239000
61.89999650	0.00000000	49.71087000	23.30832000
62.09999649	0.00000000	48.22834000	15.64960000
62.29999648	0.00000000	47.10260000	10.67298000
62.49999647	0.00000000	46.22908000	9.46727400
62.69999645	0.00000000	45.52165000	12.11245000
62.89999644	0.00000000	45.10950000	17.54429000
63.09999643	0.00000000	45.57086000	24.52018000
63.29999642	0.00000000	46.69045000	32.22810000
63.49999641	0.00000000	48.64050000	38.31816000
63.69999639	0.00000000	50.50443000	41.06176000
63.89999638	0.00000000	51.66707000	39.94832000
64.09999637	0.00000000	51.66707000	35.75910000
64.29999636	0.00000000	50.55364000	29.95201000
64.49999635	0.00000000	49.01575000	23.72662000
64.69999634	0.00000000	47.47785000	17.96260000
64.89999632	0.00000000	46.32135000	14.11171000
65.09999631	0.00000000	45.89690000	13.27510000
65.29999630	0.00000000	45.89690000	14.76378000
65.49999629	0.00000000	46.32135000	17.87647000
65.69999628	0.00000000	47.47785000	22.14567000
65.89999626	0.00000000	48.97269000	26.79626000
66.09999625	0.00000000	50.08612000	31.02239000
66.29999624	0.00000000	50.08612000	33.80905000
66.49999623	0.00000000	48.97269000	34.97785000
66.69999622	0.00000000	47.47785000	35.01476000
66.89999620	0.00000000	46.32135000	33.43996000
67.09999619	0.00000000	45.89690000	31.15772000
67.29999618	0.00000000	45.94611000	28.32800000
67.49999617	0.00000000	46.73966000	24.88927000
67.69999616	0.00000000	48.68356000	21.36442000
67.89999615	0.00000000	50.92888000	18.66388000
68.09999613	0.00000000	52.87278000	16.67077000
68.29999612	0.00000000	53.62328000	15.96334000
68.49999611	0.00000000	53.20496000	16.75689000
68.69999610	0.00000000	51.24877000	19.45743000
68.89999609	0.00000000	47.81004000	23.35138000
69.09999607	0.00000000	44.31594000	27.63287000
69.29999606	0.00000000	41.24631000	32.27116000
69.49999605	0.00000000	39.34547000	35.71604000
69.69999604	0.00000000	39.80069000	37.24778000
69.89999603	0.00000000	42.45817000	36.45423000
70.09999601	0.00000000	47.10260000	32.97859000
70.29999600	0.00000000	52.08538000	28.00197000
70.49999599	0.00000000	56.36687000	22.52091000
70.69999598	0.00000000	59.06127000	17.54429000
70.89999597	0.00000000	59.43651000	14.06865000
71.09999596	0.00000000	57.48031000	13.31816000
71.29999594	0.00000000	53.20496000	15.18209000
71.49999593	0.00000000	47.43479000	19.08218000
71.69999592	0.00000000	41.66461000	24.05881000
71.89999591	0.00000000	37.38927000	29.07234000
72.09999590	0.00000000	35.47613000	32.56028000
72.29999588	0.00000000	36.26968000	34.14124000
72.49999587	0.00000000	40.12672000	33.76599000
72.69999586	0.00000000	45.85384000	31.44069000
72.89999585	0.00000000	51.66707000	28.04503000
73.09999584	0.00000000	56.32381000	24.56324000
73.29999582	0.00000000	59.06127000	22.28100000
73.49999581	0.00000000	59.43651000	21.40748000
73.69999580	0.00000000	57.48031000	21.77658000
73.89999579	0.00000000	53.29109000	22.52091000
74.09999578	0.00000000	48.27140000	23.72662000
74.29999577	0.00000000	43.98991000	25.21530000
74.49999575	0.00000000	40.50196000	26.32874000
74.69999574	0.00000000	39.01329000	26.32874000
74.89999573	0.00000000	40.08366000	25.21530000
75.09999572	0.00000000	42.78420000	23.72662000
75.29999571	0.00000000	46.27214000	22.65625000
75.49999569	0.00000000	50.08612000	23.03149000
75.69999568	0.00000000	52.78666000	24.93233000
75.89999567	0.00000000	53.62328000	27.25763000
76.09999566	0.00000000	53.29109000	29.95201000
76.29999565	0.00000000	52.13459000	32.18504000
76.49999563	0.00000000	50.59670000	32.56028000
76.69999562	0.00000000	49.05881000	31.02239000
76.89999561	0.00000000	47.90231000	27.90969000
77.09999560	0.00000000	47.52707000	23.68356000
77.29999559	0.00000000	47.85310000	19.45743000
77.49999558	0.00000000	48.59744000	16.38779000
77.69999556	0.00000000	48.92347000	15.22515000
77.89999555	0.00000000	48.59744000	16.43085000
78.09999554	0.00000000	47.81004000	19.87574000
78.29999553	0.00000000	47.05954000	24.88927000
78.49999552	0.00000000	46.32135000	29.90895000
78.69999550	0.00000000	46.36442000	34.18430000
78.89999549	0.00000000	47.47785000	36.82948000
79.09999548	0.00000000	49.01575000	36.82948000
79.29999547	0.00000000	50.63976000	34.18430000
79.49999546	0.00000000	52.55290000	29.95817000
79.69999544	0.00000000	54.41068000	25.30758000
79.89999543	0.00000000	54.78592000	21.03838000
80.09999542	0.00000000	53.62328000	17.91953000
80.29999541	0.00000000	51.34104000	16.38164000
80.49999540	0.00000000	48.22834000	16.75689000
80.69999539	0.00000000	45.57086000	19.08218000
80.89999537	0.00000000	43.57775000	22.52091000
81.09999536	0.00000000	42.87032000	26.37795000
81.29999535	0.00000000	43.62082000	29.49065000
81.49999534	0.00000000	45.94611000	31.48991000
81.69999533	0.00000000	48.97269000	32.68946000
81.89999531	0.00000000	51.71013000	33.06471000
82.09999530	0.00000000	53.62328000	32.64640000
82.29999529	0.00000000	54.41068000	31.11466000
82.49999528	0.00000000	53.62328000	28.79552000
82.69999527	0.00000000	51.75935000	26.42101000
82.89999525	0.00000000	49.43405000	23.68356000
83.09999524	0.00000000	47.52707000	20.98917000
83.29999523	0.00000000	46.32135000	19.08218000
83.49999522	0.00000000	45.94611000	18.29478000
83.69999521	0.00000000	46.27214000	19.08218000
83.89999520	0.00000000	47.05954000	20.98917000
84.09999518	0.00000000	47.85310000	23.77584000
84.29999517	0.00000000	49.01575000	27.21457000
84.49999516	0.00000000	50.12918000	30.69636000
84.69999515	0.00000000	50.55364000	33.02165000
84.89999514	0.00000000	50.55364000	34.18430000
85.09999512	0.00000000	50.17839000	33.71678000
85.29999511	0.00000000	49.48326000	31.02239000
85.49999510	0.00000000	49.43405000	26.79626000
85.69999509	0.00000000	49.76009000	22.14567000
85.89999508	0.00000000	49.39099000	17.91953000
86.09999506	0.00000000	49.05881000	15.27436000
86.29999505	0.00000000	48.97269000	15.22515000
86.49999504	0.00000000	48.59744000	17.50123000
86.69999503	0.00000000	47.81004000	20.98917000
86.89999502	0.00000000	47.05954000	25.26452000
87.09999501	0.00000000	46.32135000	29.49065000
87.29999499	0.00000000	46.32135000	32.60334000
87.49999498	0.00000000	47.10260000	34.14124000
87.69999497	0.00000000	48.27140000	33.71678000
87.89999496	0.00000000	50.17839000	30.97933000
88.09999495	0.00000000	51.66707000	26.42101000
88.29999493	0.00000000	52.13459000	21.45669000
88.49999492	0.00000000	52.13459000	18.01181000
88.69999491	0.00000000	51.71013000	16.80610000
88.89999490	0.00000000	50.55364000	17.96260000
89.09999489	0.00000000	49.01575000	21.03838000
89.29999487	0.00000000	47.52707000	25.30758000
89.49999486	0.00000000	46.73966000	29.90895000
89.69999485	0.00000000	47.05954000	33.71678000
89.89999484	0.00000000	47.43479000	35.20546000
90.09999483	0.00000000	47.90231000	33.76599000
90.29999482	0.00000000	49.01575000	30.28420000
90.49999480	0.00000000	50.12918000	26.04577000
90.69999479	0.00000000	50.55364000	21.40748000
90.89999478	0.00000000	50.59670000	18.01181000
91.09999477	0.00000000	50.55364000	16.84916000
91.29999476	0.00000000	50.17839000	18.38090000
91.49999474	0.00000000	49.48326000	22.19488000
91.69999473	0.00000000	49.48326000	26.83932000
91.89999472	0.00000000	50.17839000	31.44069000
92.09999471	0.00000000	50.55364000	34.87328000
92.29999470	0.00000000	50.59670000	35.62377000
92.49999468	0.00000000	50.55364000	33.76599000
92.69999467	0.00000000	50.12918000	29.90895000
92.89999466	0.00000000	49.01575000	25.30758000
93.09999465	0.00000000	47.85310000	21.03838000
93.29999464	0.00000000	47.05954000	18.01181000
93.49999463	0.00000000	46.32135000	17.22441000
93.69999461	0.00000000	46.36442000	19.12524000
93.89999460	0.00000000	47.52707000	22.57013000
94.09999459	0.00000000	49.43405000	26.83932000
94.29999458	0.00000000	51.75935000	31.02239000
94.49999457	0.00000000	53.66634000	33.67372000
94.69999455	0.00000000	54.82898000	33.71678000
94.89999454	0.00000000	54.82898000	31.44069000
95.09999453	0.00000000	53.66634000	28.00197000
95.29999452	0.00000000	51.66707000	24.10187000
95.49999451	0.00000000	48.59744000	20.70620000
95.69999449	0.00000000	45.15871000	18.76230000
95.89999448	0.00000000	42.87032000	19.17446000
96.09999447	0.00000000	42.03986000	21.40748000
96.29999446	0.00000000	42.87032000	24.88927000
96.49999445	0.00000000	45.15871000	28.28494000
96.69999444	0.00000000	48.68356000	30.64714000
96.89999442	0.00000000	52.50984000	31.39763000
97.09999441	0.00000000	55.99163000	30.69636000
97.29999440	0.00000000	57.90477000	28.74631000
97.49999439	0.00000000	57.94783000	26.46407000
97.69999438	0.00000000	56.36687000	24.14493000
97.89999436	0.00000000	53.29109000	22.61319000
98.09999435	0.00000000	49.43405000	22.19488000
98.29999434	0.00000000	45.94611000	22.57013000
98.49999433	0.00000000	43.20251000	23.72662000
98.69999432	0.00000000	41.66461000	25.21530000
98.89999430	0.00000000	41.66461000	26.37795000
99.09999429	0.00000000	43.24557000	26.79626000
99.29999428	0.00000000	46.32135000	26.83932000
99.49999427	0.00000000	50.17839000	26.83932000
99.69999426	0.00000000	53.62328000	26.83932000
99.89999425	0.00000000	55.99163000	26.88238000
100.09999423	0.00000000	56.78519000	27.25763000
100.29999422	0.00000000	56.40993000	28.00197000
100.49999421	0.00000000	54.82898000	28.32800000
100.69999420	0.00000000	52.13459000	27.95275000
100.89999419	0.00000000	49.05881000	26.79626000
101.09999417	0.00000000	46.32135000	25.26452000
101.29999416	0.00000000	44.36515000	23.68356000
101.49999415	0.00000000	43.20251000	22.15182000
101.69999414	0.00000000	43.24557000	21.03838000
101.89999413	0.00000000	44.74040000	21.08145000
102.09999411	0.00000000	47.05954000	22.61319000
102.29999410	0.00000000	49.39099000	25.30758000
102.49999409	0.00000000	51.75935000	28.32800000
102.69999408	0.00000000	53.66634000	30.69636000
102.89999407	0.00000000	54.82898000	31.85900000
103.09999406	0.00000000	54.82898000	32.18504000
103.29999404	0.00000000	53.66634000	30.64714000
103.49999403	0.00000000	51.75935000	27.63287000
103.69999402	0.00000000	49.43405000	24.88927000
103.89999401	0.00000000	47.52707000	22.15182000
104.09999400	0.00000000	46.32135000	19.91880000
104.29999398	0.00000000	45.89690000	19.50049000
104.49999397	0.00000000	45.94611000	20.66314000
104.69999396	0.00000000	46.73966000	22.93922000
104.89999395	0.00000000	48.64050000	26.04577000
105.09999394	0.00000000	50.50443000	28.70325000
105.29999392	0.00000000	51.71013000	30.64714000
105.49999391	0.00000000	52.13459000	31.02239000
105.69999390	0.00000000	52.13459000	29.90895000
105.89999389	0.00000000	51.71013000	28.00197000
106.09999388	0.00000000	50.55364000	25.68282000
106.29999387	0.00000000	49.05881000	23.77584000
106.49999385	0.00000000	47.90231000	22.57013000
106.69999384	0.00000000	47.52707000	22.23794000
106.89999383	0.00000000	47.90231000	22.98843000
107.09999382	0.00000000	49.01575000	24.88927000
107.29999381	0.00000000	50.17839000	26.79626000
107.49999379	0.00000000	50.97194000	28.37721000
107.69999378	0.00000000	51.71013000	29.49065000
107.89999377	0.00000000	51.71013000	29.49065000
108.09999376	0.00000000	50.97194000	28.37721000
108.29999375	0.00000000	50.17839000	26.83932000
108.49999374	0.00000000	49.01575000	25.30758000
108.69999372	0.00000000	47.90231000	24.15108000
108.89999371	0.00000000	47.52707000	23.72662000
109.09999370	0.00000000	47.90231000	23.77584000
109.29999369	0.00000000	49.01575000	24.56324000
109.49999368	0.00000000	50.17839000	26.46407000
109.69999366	0.00000000	50.97194000	28.32800000
109.89999365	0.00000000	51.75935000	29.53371000
110.09999364	0.00000000	52.13459000	29.90895000
110.29999363	0.00000000	52.13459000	29.53371000
110.49999362	0.00000000	51.71013000	28.37721000
110.69999360	0.00000000	50.59670000	26.83932000
110.89999359	0.00000000	49.48326000	25.30758000
111.09999358	0.00000000	49.05881000	24.15108000
111.29999357	0.00000000	49.01575000	23.72662000
111.49999356	0.00000000	49.01575000	23.72662000
111.69999355	0.00000000	49.05881000	24.15108000
111.89999353	0.00000000	49.43405000	25.26452000
112.09999352	0.00000000	50.17839000	26.42101000
112.29999351	0.00000000	50.55364000	27.21457000
112.49999350	0.00000000	50.63976000	28.00197000
112.69999349	0.00000000	50.97194000	28.37721000
112.89999347	0.00000000	51.34104000	28.37721000
113.09999346	0.00000000	50.97194000	28.00197000
113.29999345	0.00000000	50.63976000	27.25763000
113.49999344	0.00000000	50.59670000	26.83932000
113.69999343	0.00000000	50.59670000	26.42101000
113.89999341	0.00000000	50.55364000	25.68282000
114.09999340	0.00000000	50.22145000	25.30758000
114.29999339	0.00000000	49.85236000	25.26452000
114.49999338	0.00000000	50.22145000	25.26452000
114.69999337	0.00000000	50.55364000	25.22145000
114.89999336	0.00000000	50.59670000	24.88927000
115.09999334	0.00000000	50.59670000	24.52018000
115.29999333	0.00000000	50.59670000	24.88927000
115.49999332	0.00000000	50.59670000	25.26452000
115.69999331	0.00000000	50.59670000	25.68282000
115.89999330	0.00000000	50.59670000	26.46407000
116.09999328	0.00000000	50.59670000	27.21457000
116.29999327	0.00000000	50.55364000	28.00197000
116.49999326	0.00000000	50.17839000	28.32800000
116.69999325	0.00000000	49.48326000	28.00197000
116.89999324	0.00000000	49.48326000	27.21457000
117.09999322	0.00000000	50.17839000	26.46407000
117.29999321	0.00000000	50.59670000	25.63976000
117.49999320	0.00000000	51.01501000	24.88927000
117.69999319	0.00000000	51.75935000	24.10187000
117.89999318	0.00000000	52.13459000	23.77584000
118.09999317	0.00000000	52.13459000	24.10187000
118.29999315	0.00000000	51.75935000	24.88927000
118.49999314	0.00000000	50.97194000	25.63976000
118.69999313	0.00000000	50.17839000	26.46407000
118.89999312	0.00000000	49.01575000	27.21457000
119.09999311	0.00000000	47.90231000	28.00197000
119.29999309	0.00000000	47.47785000	28.32800000
119.49999308	0.00000000	47.47785000	28.00197000
119.69999307	0.00000000	47.90231000	27.25763000
119.89999306	0.00000000	49.05881000	26.83932000
120.09999305	0.00000000	50.59670000	26.42101000
120.29999303	0.00000000	52.13459000	25.68282000
120.49999302	0.00000000	53.29109000	25.30758000
120.69999301	0.00000000	53.66634000	25.26452000
120.89999300	0.00000000	53.29109000	25.26452000
121.09999299	0.00000000	52.13459000	25.26452000
121.29999298	0.00000000	50.63976000	25.26452000
121.49999296	0.00000000	49.43405000	25.26452000
121.69999295	0.00000000	48.64050000	25.30758000
121.89999294	0.00000000	47.85310000	25.68282000
122.09999293	0.00000000	47.52707000	26.42101000
122.29999292	0.00000000	47.85310000	26.79626000
122.49999290	0.00000000	48.68356000	26.83932000
122.69999289	0.00000000	49.80930000	26.83932000
122.89999288	0.00000000	51.38410000	26.83932000
123.09999287	0.00000000	52.50984000	26.83932000
123.29999286	0.00000000	53.34030000	26.83932000
123.49999284	0.00000000	53.66634000	26.83932000
123.69999283	0.00000000	53.34030000	26.79626000
123.89999282	0.00000000	52.55290000	26.42101000
124.09999281	0.00000000	51.80241000	25.68282000
124.29999280	0.00000000	50.97194000	25.35679000
124.49999279	0.00000000	50.22145000	25.63976000
124.69999277	0.00000000	49.43405000	26.04577000
124.89999276	0.00000000	49.05881000	26.05807000
125.09999275	0.00000000	49.01575000	26.46407000
125.29999274	0.00000000	49.01575000	26.79626000
125.49999273	0.00000000	49.05881000	26.88238000
125.69999271	0.00000000	49.48326000	27.25763000
125.89999270	0.00000000	50.59670000	27.95275000
126.09999269	0.00000000	51.75935000	28.00197000
126.29999268	0.00000000	52.55290000	27.63287000
126.49999267	0.00000000	53.29109000	27.62672000
126.69999265	0.00000000	53.29109000	27.21457000
126.89999264	0.00000000	52.55290000	26.83932000
127.09999263	0.00000000	51.75935000	26.42101000
127.29999262	0.00000000	50.59670000	25.68282000
127.49999261	0.00000000	49.48326000	25.35679000
127.69999260	0.00000000	49.05881000	25.68282000
127.89999258	0.00000000	49.05881000	26.42101000
128.09999257	0.00000000	49.43405000	26.79626000
128.29999256	0.00000000	50.22145000	26.83932000
128.49999255	0.00000000	51.01501000	26.83932000
128.69999254	0.00000000	52.17765000	26.83932000
128.89999252	0.00000000	53.29109000	26.83932000
129.09999251	0.00000000	53.66634000	26.83932000
129.29999250	0.00000000	53.29109000	26.83932000
129.49999249	0.00000000	52.17765000	26.79626000
129.69999248	0.00000000	51.01501000	26.42101000
129.89999246	0.00000000	50.22145000	25.68282000
130.09999245	0.00000000	49.43405000	25.35679000
130.29999244	0.00000000	49.05881000	25.68282000
130.49999243	0.00000000	49.01575000	26.42101000
130.69999242	0.00000000	49.10802000	26.74705000
130.89999241	0.00000000	49.85236000	26.46407000
131.09999239	0.00000000	51.34104000	26.10113000
131.29999238	0.00000000	52.08538000	26.42101000
131.49999237	0.00000000	52.17765000	26.37795000
131.69999236	0.00000000	52.17765000	25.68282000
131.89999235	0.00000000	52.13459000	25.30758000
132.09999233	0.00000000	51.75935000	25.26452000
132.29999232	0.00000000	51.01501000	25.26452000
132.49999231	0.00000000	50.63976000	25.26452000
132.69999230	0.00000000	50.59670000	25.30758000
132.89999229	0.00000000	50.59670000	25.68282000
133.09999227	0.00000000	50.59670000	26.42101000
133.29999226	0.00000000	50.59670000	26.79626000
133.49999225	0.00000000	50.59670000	26.83932000
133.69999224	0.00000000	50.59670000	26.83932000
133.89999223	0.00000000	50.59670000	26.83932000
134.09999222	0.00000000	50.63976000	26.79626000
134.29999220	0.00000000	50.97194000	26.42101000
134.49999219	0.00000000	51.38410000	25.63976000
134.69999218	0.00000000	51.39025000	24.93233000
134.89999217	0.00000000	51.80241000	24.52018000
135.09999216	0.00000000	52.13459000	24.93233000
135.29999214	0.00000000	52.17765000	25.63976000
135.49999213	0.00000000	52.13459000	26.42101000
135.69999212	0.00000000	51.75935000	26.83932000
135.89999211	0.00000000	51.01501000	27.25763000
136.09999210	0.00000000	50.59670000	27.95275000
136.29999208	0.00000000	50.17839000	28.00197000
136.49999207	0.00000000	49.48326000	27.63287000
136.69999206	0.00000000	49.48326000	27.62672000
136.89999205	0.00000000	50.22145000	27.21457000
137.09999204	0.00000000	50.97194000	26.83932000
137.29999203	0.00000000	51.75935000	26.42101000
137.49999201	0.00000000	52.13459000	25.68282000
137.69999200	0.00000000	52.17765000	25.30758000
137.89999199	0.00000000	52.17765000	25.26452000
138.09999198	0.00000000	52.17765000	25.26452000
138.29999197	0.00000000	52.13459000	25.30758000
138.49999195	0.00000000	51.75935000	25.68282000
138.69999194	0.00000000	51.01501000	26.42101000
138.89999193	0.00000000	50.63976000	26.83932000
139.09999192	0.00000000	50.59670000	27.25763000
139.29999191	0.00000000	50.59670000	28.00197000
139.49999189	0.00000000	50.63976000	28.37721000
139.69999188	0.00000000	51.01501000	28.42027000
139.89999187	0.00000000	51.75935000	28.37721000
140.09999186	0.00000000	52.13459000	28.00197000
140.29999185	0.00000000	52.17765000	27.21457000
140.49999184	0.00000000	52.17765000	26.46407000
140.69999182	0.00000000	52.17765000	25.68282000
140.89999181	0.00000000	52.13459000	25.30758000
141.09999180	0.00000000	51.75935000	25.30758000
141.29999179	0.00000000	51.01501000	25.68282000
141.49999178	0.00000000	50.68897000	26.46407000
141.69999176	0.00000000	51.01501000	27.21457000
141.89999175	0.00000000	51.75935000	28.00197000
142.09999174	0.00000000	52.13459000	28.37721000
142.29999173	0.00000000	52.17765000	28.42027000
142.49999172	0.00000000	52.17765000	28.37721000
142.69999170	0.00000000	52.17765000	28.00197000
142.89999169	0.00000000	52.13459000	27.21457000
143.09999168	0.00000000	51.75935000	26.46407000
143.29999167	0.00000000	51.01501000	25.68282000
143.49999166	0.00000000	50.68897000	25.30758000
143.69999165	0.00000000	51.01501000	25.26452000
143.89999163	0.00000000	51.75935000	25.30758000
144.09999162	0.00000000	52.13459000	25.68282000
144.29999161	0.00000000	52.17765000	26.46407000
144.49999160	0.00000000	52.17765000	27.21457000
144.69999159	0.00000000	52.17765000	28.00197000
144.89999157	0.00000000	52.17765000	28.37721000
145.09999156	0.00000000	52.17765000	28.37721000
145.29999155	0.00000000	52.13459000	28.00197000
145.49999154	0.00000000	51.75935000	27.21457000
145.69999153	0.00000000	51.01501000	26.46407000
145.89999151	0.00000000	50.68897000	25.68282000
146.09999150	0.00000000	50.97194000	25.30758000
146.29999149	0.00000000	51.38410000	25.26452000
146.49999148	0.00000000	51.39025000	25.26452000
146.69999147	0.00000000	51.80241000	25.30758000
146.89999146	0.00000000	52.13459000	25.68282000
147.09999144	0.00000000	52.17765000	26.42101000
147.29999143	0.00000000	52.17765000	26.79626000
147.49999142	0.00000000	52.17765000	26.83932000
147.69999141	0.00000000	52.17765000	26.83932000
147.89999140	0.00000000	52.13459000	26.83932000
148.09999138	0.00000000	51.75935000	26.83932000
148.29999137	0.00000000	51.01501000	26.79626000
148.49999136	0.00000000	50.63976000	26.46407000
148.69999135	0.00000000	50.59670000	26.05807000
148.89999134	0.00000000	50.63976000	26.04577000
149.09999132	0.00000000	51.01501000	25.68282000
149.29999131	0.00000000	51.75935000	25.68282000
149.49999130	0.00000000	52.13459000	26.04577000
149.69999129	0.00000000	52.17765000	26.05807000
149.89999128	0.00000000	52.17765000	26.46407000
150.09999127	0.00000000	52.17765000	26.79626000
150.29999125	0.00000000	52.17765000	26.83932000
150.49999124	0.00000000	52.13459000	26.83932000
150.69999123	0.00000000	51.75935000	26.83932000
150.89999122	0.00000000	51.01501000	26.83932000
151.09999121	0.00000000	50.63976000	26.83932000
151.29999119	0.00000000	50.63976000	26.83932000
151.49999118	0.00000000	50.97194000	26.83932000
151.69999117	0.00000000	51.38410000	26.83932000
151.89999116	0.00000000	51.39025000	26.83932000
152.09999115	0.00000000	51.80241000	26.83932000
152.29999113	0.00000000	52.13459000	26.83932000
152.49999112	0.00000000	52.17765000	26.83932000
152.69999111	0.00000000	52.17765000	26.83932000
152.89999110	0.00000000	52.17765000	26.83932000
153.09999109	0.00000000	52.17765000	26.83932000
153.29999108	0.00000000	52.17765000	26.88238000
153.49999106	0.00000000	52.13459000	27.25763000
153.69999105	0.00000000	51.75935000	28.00197000
153.89999104	0.00000000	51.01501000	28.32800000
154.09999103	0.00000000	50.63976000	28.00197000
154.29999102	0.00000000	50.63976000	27.25763000
154.49999100	0.00000000	51.01501000	26.88238000
154.69999099	0.00000000	51.75935000	26.83932000
154.89999098	0.00000000	52.17765000	26.83932000
155.09999097	0.00000000	52.59596000	26.83932000
155.29999096	0.00000000	53.34030000	26.83932000
155.49999094	0.00000000	53.71555000	26.83932000
155.69999093	0.00000000	53.71555000	26.83932000
155.89999092	0.00000000	53.34030000	26.83932000
156.09999091	0.00000000	52.59596000	26.88238000
156.29999090	0.00000000	52.22071000	27.25763000
156.49999089	0.00000000	52.17765000	28.00197000
156.69999087	0.00000000	52.13459000	28.37721000
156.89999086	0.00000000	51.80241000	28.42027000
157.09999085	0.00000000	51.43332000	28.42027000
157.29999084	0.00000000	51.80241000	28.37721000
157.49999083	0.00000000	52.13459000	28.00197000
157.69999081	0.00000000	52.17765000	27.25763000
157.89999080	0.00000000	52.22071000	26.88238000
158.09999079	0.00000000	52.59596000	26.79626000
158.29999078	0.00000000	53.34030000	26.46407000
158.49999077	0.00000000	53.71555000	26.10113000
158.69999075	0.00000000	53.71555000	26.46407000
158.89999074	0.00000000	53.34030000	26.83932000
159.09999073	0.00000000	52.59596000	27.25763000
159.29999072	0.00000000	52.22071000	28.00197000
159.49999071	0.00000000	52.17765000	28.37721000
159.69999070	0.00000000	52.17765000	28.37721000
159.89999068	0.00000000	52.17765000	28.00197000
160.09999067	0.00000000	52.17765000	27.25763000
160.29999066	0.00000000	52.17765000	26.88238000
160.49999065	0.00000000	52.17765000	26.79626000
160.69999064	0.00000000	52.17765000	26.46407000
160.89999062	0.00000000	52.17765000	26.10113000
161.09999061	0.00000000	52.17765000	26.46407000
161.29999060	0.00000000	52.17765000	26.79626000
161.49999059	0.00000000	52.17765000	26.83932000
161.69999058	0.00000000	52.17765000	26.83932000
161.89999056	0.00000000	52.17765000	26.83932000
162.09999055	0.00000000	52.17765000	26.83932000
162.29999054	0.00000000	52.17765000	26.83932000
162.49999053	0.00000000	52.17765000	26.83932000
162.69999052	0.00000000	52.17765000	26.83932000
162.89999051	0.00000000	52.17765000	26.83932000
163.09999049	0.00000000	52.13459000	26.83932000
163.29999048	0.00000000	51.80241000	26.83932000
163.49999047	0.00000000	51.43332000	26.83932000
163.69999046	0.00000000	51.80241000	26.83932000
163.89999045	0.00000000	52.13459000	26.83932000
164.09999043	0.00000000	52.17765000	26.83932000
164.29999042	0.00000000	52.22071000	26.83932000
164.49999041	0.00000000	52.59596000	26.83932000
164.69999040	0.00000000	53.34030000	26.83932000
164.89999039	0.00000000	53.66634000	26.83932000
165.09999037	0.00000000	53.34030000	26.83932000
165.29999036	0.00000000	52.59596000	26.83932000
165.49999035	0.00000000	52.22071000	26.83932000
165.69999034	0.00000000	52.17765000	26.83932000
165.89999033	0.00000000	52.17765000	26.83932000
166.09999032	0.00000000	52.17765000	26.83932000
166.29999030	0.00000000	52.17765000	26.83932000
166.49999029	0.00000000	52.17765000	26.83932000
166.69999028	0.00000000	52.17765000	26.83932000
166.89999027	0.00000000	52.17765000	26.83932000
167.09999026	0.00000000	52.17765000	26.83932000
167.29999024	0.00000000	52.22071000	26.83932000
167.49999023	0.00000000	52.59596000	26.83932000
167.69999022	0.00000000	53.34030000	26.83932000
167.89999021	0.00000000	53.66634000	26.83932000
168.09999020	0.00000000	53.34030000	26.83932000
168.29999018	0.00000000	52.59596000	26.83932000
168.49999017	0.00000000	52.22071000	26.83932000
168.69999016	0.00000000	52.17765000	26.88238000
168.89999015	0.00000000	52.17765000	27.21457000
169.09999014	0.00000000	52.17765000	27.58366000
169.29999013	0.00000000	52.17765000	27.21457000
169.49999011	0.00000000	52.17765000	26.88238000
169.69999010	0.00000000	52.17765000	26.83932000
169.89999009	0.00000000	52.17765000	26.83932000
170.09999008	0.00000000	52.22071000	26.83932000
170.29999007	0.00000000	52.59596000	26.88238000
170.49999005	0.00000000	53.34030000	27.21457000
170.69999004	0.00000000	53.71555000	27.58366000
170.89999003	0.00000000	53.75861000	27.21457000
171.09999002	0.00000000	53.75861000	26.88238000
171.29999001	0.00000000	53.75861000	26.83932000
171.49998999	0.00000000	53.75861000	26.83932000
171.69998998	0.00000000	53.75861000	26.83932000
171.89998997	0.00000000	53.75861000	26.88238000
172.09998996	0.00000000	53.71555000	27.21457000
172.29998995	0.00000000	53.34030000	27.58366000
172.49998994	0.00000000	52.59596000	27.21457000
172.69998992	0.00000000	52.22071000	26.88238000
172.89998991	0.00000000	52.22071000	26.88238000
173.09998990	0.00000000	52.59596000	27.21457000
173.29998989	0.00000000	53.34030000	27.58366000
173.49998988	0.00000000	53.71555000	27.21457000
173.69998986	0.00000000	53.75861000	26.88238000
173.89998985	0.00000000	53.75861000	26.88238000
174.09998984	0.00000000	53.75861000	27.21457000
174.29998983	0.00000000	53.75861000	27.58366000
174.49998982	0.00000000	53.75861000	27.25763000
174.69998980	0.00000000	53.75861000	27.25763000
174.89998979	0.00000000	53.75861000	27.58366000
175.09998978	0.00000000	53.75861000	27.21457000
175.29998977	0.00000000	53.75861000	26.88238000
175.49998976	0.00000000	53.75861000	26.83932000
175.69998975	0.00000000	53.75861000	26.83932000
175.89998973	0.00000000	53.75861000	26.83932000
176.09998972	0.00000000	53.75861000	26.83932000
176.29998971	0.00000000	53.75861000	26.83932000
176.49998970	0.00000000	53.75861000	26.88238000
176.69998969	0.00000000	53.75861000	27.25763000
176.89998967	0.00000000	53.75861000	27.95275000
177.09998966	0.00000000	53.71555000	27.95275000
177.29998965	0.00000000	53.38336000	27.25763000
177.49998964	0.00000000	53.01427000	26.88238000
177.69998963	0.00000000	53.38336000	26.83932000
177.89998961	0.00000000	53.66634000	26.83932000
178.09998960	0.00000000	53.34030000	26.83932000
178.29998959	0.00000000	52.59596000	26.83932000
178.49998958	0.00000000	52.22071000	26.83932000
178.69998957	0.00000000	52.17765000	26.83932000
178.89998956	0.00000000	52.17765000	26.83932000
179.09998954	0.00000000	52.17765000	26.83932000
179.29998953	0.00000000	52.22071000	26.83932000
179.49998952	0.00000000	52.59596000	26.83932000
179.69998951	0.00000000	53.34030000	26.83932000
179.89998950	0.00000000	53.66634000	26.83932000
180.09998948	0.00000000	53.38336000	26.83932000
180.29998947	0.00000000	52.97121000	26.83932000
180.49998946	0.00000000	53.00812000	26.83932000
180.69998945	0.00000000	52.92815000	26.83932000
180.89998944	0.00000000	52.96506000	26.83932000
181.09998942	0.00000000	52.59596000	26.83932000
181.29998941	0.00000000	52.59596000	26.83932000
181.49998940	0.00000000	52.96506000	26.88238000
181.69998939	0.00000000	52.97121000	27.25763000
181.89998938	0.00000000	53.34030000	28.00197000
182.09998937	0.00000000	53.34030000	28.37721000
182.29998935	0.00000000	53.01427000	28.37721000
182.49998934	0.00000000	53.38336000	28.00197000
182.69998933	0.00000000	53.71555000	27.25763000
182.89998932	0.00000000	53.75861000	26.88238000
183.09998931	0.00000000	53.75861000	26.83932000
183.29998929	0.00000000	53.75861000	26.83932000
183.49998928	0.00000000	53.75861000	26.83932000
183.69998927	0.00000000	53.75861000	26.88238000
183.89998926	0.00000000	53.75861000	27.25763000
184.09998925	0.00000000	53.75861000	28.00197000
184.29998923	0.00000000	53.75861000	28.37721000
184.49998922	0.00000000	53.75861000	28.42027000
184.69998921	0.00000000	53.75861000	28.42027000
184.89998920	0.00000000	53.75861000	28.42027000
185.09998919	0.00000000	53.75861000	28.42027000
185.29998918	0.00000000	53.75861000	28.37721000
185.49998916	0.00000000	53.75861000	28.00197000
185.69998915	0.00000000	53.75861000	27.25763000
185.89998914	0.00000000	53.75861000	26.88238000
186.09998913	0.00000000	53.75861000	26.83932000
186.29998912	0.00000000	53.75861000	26.83932000
186.49998910	0.00000000	53.75861000	26.88238000
186.69998909	0.00000000	53.75861000	27.25763000
186.89998908	0.00000000	53.75861000	28.00197000
187.09998907	0.00000000	53.75861000	28.37721000
187.29998906	0.00000000	53.75861000	28.42027000
187.49998904	0.00000000	53.75861000	28.42027000
187.69998903	0.00000000	53.75861000	28.42027000
187.89998902	0.00000000	53.75861000	28.42027000
188.09998901	0.00000000	53.75861000	28.37721000
188.29998900	0.00000000	53.75861000	28.00197000
188.49998899	0.00000000	53.75861000	27.25763000
188.69998897	0.00000000	53.75861000	26.88238000
188.89998896	0.00000000	53.75861000	26.83932000
189.09998895	0.00000000	53.75861000	26.83932000
189.29998894	0.00000000	53.75861000	26.83932000
189.49998893	0.00000000	53.75861000	26.83932000
189.69998891	0.00000000	53.75861000	26.83932000
189.89998890	0.00000000	53.75861000	26.83932000
190.09998889	0.00000000	53.75861000	26.88238000
190.29998888	0.00000000	53.75861000	27.25763000
190.49998887	0.00000000	53.75861000	28.00197000
190.69998885	0.00000000	53.75861000	28.32800000
190.89998884	0.00000000	53.75861000	28.00197000
191.09998883	0.00000000	53.75861000	27.25763000
191.29998882	0.00000000	53.75861000	26.88238000
191.49998881	0.00000000	53.75861000	26.83932000
191.69998880	0.00000000	53.75861000	26.83932000
191.89998878	0.00000000	53.80167000	26.83932000
192.09998877	0.00000000	54.13385000	26.83932000
192.29998876	0.00000000	54.50295000	26.83932000
192.49998875	0.00000000	54.13385000	26.83932000
192.69998874	0.00000000	53.80167000	26.83932000
192.89998872	0.00000000	53.75861000	26.83932000
193.09998871	0.00000000	53.75861000	26.88238000
193.29998870	0.00000000	53.75861000	27.21457000
193.49998869	0.00000000	53.75861000	27.62672000
193.69998868	0.00000000	53.75861000	27.63287000
193.89998866	0.00000000	53.75861000	28.04503000
194.09998865	0.00000000	53.75861000	28.37721000
194.29998864	0.00000000	53.75861000	28.37721000
194.49998863	0.00000000	53.75861000	28.00197000
194.69998862	0.00000000	53.75861000	27.25763000
194.89998861	0.00000000	53.75861000	26.88238000
195.09998859	0.00000000	53.75861000	26.83932000
195.29998858	0.00000000	53.75861000	26.83932000
195.49998857	0.00000000	53.75861000	26.83932000
195.69998856	0.00000000	53.75861000	26.83932000
195.89998855	0.00000000	53.75861000	26.83932000
196.09998853	0.00000000	53.75861000	26.83932000
