Time	Channel A	Channel B	Channel C
(us)	(V)	(mV)	(mV)

-4.59999956	0.00000000	61.57111000	30.00123000
-4.39999957	0.00000000	61.24508000	30.00123000
-4.19999958	0.00000000	60.54995000	30.00123000
-3.99999959	0.00000000	60.50073000	30.00123000
-3.79999960	0.00000000	60.82677000	30.00123000
-3.59999962	0.00000000	60.50073000	30.00123000
-3.39999963	0.00000000	60.50073000	30.00123000
-3.19999964	0.00000000	60.86983000	30.00123000
-2.99999965	0.00000000	60.83292000	30.00123000
-2.79999966	0.00000000	60.86983000	30.00123000
-2.59999968	0.00000000	60.45767000	30.00123000
-2.39999969	0.00000000	60.12549000	30.00123000
-2.19999970	0.00000000	60.08243000	30.00123000
-1.99999971	0.00000000	60.12549000	30.00123000
-1.79999972	0.00000000	60.45767000	30.00123000
-1.59999973	0.00000000	60.82677000	30.00123000
-1.39999975	0.00000000	60.45767000	30.00123000
-1.19999976	0.00000000	60.12549000	30.00123000
-0.99999977	0.00000000	60.08243000	30.00123000
-0.79999978	0.00000000	60.08243000	30.00123000
-0.59999979	0.00000000	60.08243000	30.00123000
-0.39999981	0.00000000	60.12549000	30.00123000
-0.19999982	0.31803640	60.45767000	30.00123000
0.00000017	0.79601380	60.82677000	30.00123000
0.20000016	0.95533960	60.45767000	30.00123000
0.40000015	0.95533960	60.12549000	30.00123000
0.60000013	0.63668800	60.08243000	30.00123000
0.80000012	0.15871060	60.08243000	30.00123000
1.00000011	-0.79601380	60.08243000	30.00123000
1.20000010	-1.75196900	60.08243000	30.00123000
1.40000009	-2.54859700	60.08243000	30.00123000
1.60000008	-2.70792300	60.12549000	30.00123000
1.80000006	-2.22994600	60.45767000	30.00123000
2.00000005	-0.79601380	60.86983000	30.04429000
2.20000004	1.11466500	60.87598000	30.37647000
2.40000003	3.18590100	61.28814000	30.73942000
2.60000002	4.77854300	61.57111000	30.37647000
2.80000000	5.41584600	61.24508000	30.04429000
2.99999999	4.45989200	60.50073000	30.00123000
3.19999998	2.07062000	60.12549000	30.00123000
3.39999997	-1.11466500	60.12549000	30.00123000
3.59999996	-4.45989200	60.50073000	30.00123000
3.79999994	-7.00848900	61.24508000	30.04429000
3.99999993	-7.96444400	61.62032000	30.41954000
4.19999992	-7.00848900	61.66338000	31.15772000
4.39999991	-3.98191400	61.66338000	31.53297000
4.59999990	0.15871060	61.66338000	31.57603000
4.79999989	4.45989200	61.66338000	31.53297000
4.99999987	7.96444400	61.66338000	31.15772000
5.19999986	9.39837600	61.66338000	30.41954000
5.39999985	8.60174700	61.66338000	30.04429000
5.59999984	5.57517200	61.62032000	29.95817000
5.79999983	1.11466500	61.28814000	29.66904000
5.99999981	-3.66326300	60.91904000	29.63213000
6.19999980	-7.48646600	61.28814000	30.40723000
6.39999979	-9.39837600	61.62032000	30.74557000
6.59999978	-8.92039900	61.66338000	31.20078000
6.79999977	-6.21247500	61.66338000	31.53297000
6.99999975	-2.22994600	61.62032000	31.57603000
7.19999974	2.22994600	61.28814000	31.57603000
7.39999973	5.73449800	60.91904000	31.57603000
7.59999972	7.64579200	61.28814000	31.53297000
7.79999971	7.48646600	61.62032000	31.15772000
7.99999970	5.57517200	61.66338000	30.41954000
8.19999968	2.38927200	61.66338000	30.04429000
8.39999967	-0.79601380	61.66338000	30.00123000
8.59999966	-3.50393700	61.66338000	30.04429000
8.79999965	-5.09719500	61.66338000	30.37647000
8.99999964	-5.09719500	61.66338000	30.78248000
9.19999962	-3.98191400	61.66338000	30.79478000
9.39999961	-2.07062000	61.66338000	31.20078000
9.59999960	-0.15871060	61.66338000	31.53297000
9.79999959	1.43331700	61.66338000	31.57603000
9.99999958	2.38927200	61.66338000	31.53297000
10.19999956	2.54859700	61.66338000	31.15772000
10.39999955	2.07062000	61.66338000	30.41954000
10.59999954	1.11466500	61.66338000	30.04429000
10.79999953	0.31803640	61.66338000	30.00123000
10.99999952	-0.47736220	61.66338000	30.00123000
11.19999951	-0.79601380	61.66338000	30.00123000
11.39999949	-0.95533960	61.66338000	30.00123000
11.59999948	-0.95533960	61.66338000	30.00123000
11.79999947	-0.63668800	61.66338000	30.00123000
11.99999946	-0.31803640	61.66338000	30.00123000
12.19999945	-0.15871060	61.66338000	30.00123000
12.39999943	-0.15871060	61.66338000	30.00123000
12.59999942	0.00000000	61.66338000	30.00123000
12.79999941	0.00000000	61.66338000	30.04429000
12.99999940	0.00000000	61.66338000	30.37647000
13.19999939	0.15871060	61.66338000	30.73942000
13.39999937	0.00000000	61.66338000	30.37647000
13.59999936	0.00000000	61.66338000	30.04429000
13.79999935	0.00000000	61.66338000	30.00123000
13.99999934	0.00000000	61.66338000	30.00123000
14.19999933	-0.15871060	61.66338000	30.00123000
14.39999932	-0.15871060	61.66338000	30.00123000
14.59999930	-0.15871060	61.66338000	30.00123000
14.79999929	0.00000000	61.66338000	30.00123000
14.99999928	0.00000000	61.66338000	30.00123000
15.19999927	0.00000000	61.66338000	30.00123000
15.39999926	0.00000000	61.66338000	30.00123000
15.59999924	0.00000000	61.62032000	30.00123000
15.79999923	0.00000000	61.24508000	30.00123000
15.99999922	0.00000000	60.54995000	30.00123000
16.19999921	-0.15871060	60.54995000	30.00123000
16.39999920	-0.15871060	61.24508000	30.00123000
16.59999919	-0.15871060	61.62032000	30.00123000
16.79999917	-0.15871060	61.70644000	30.00123000
16.99999916	-0.15871060	62.08169000	30.00123000
17.19999915	0.00000000	62.82603000	30.00123000
17.39999914	0.00000000	63.20127000	30.00123000
17.59999913	0.00000000	63.24434000	30.00123000
17.79999911	0.00000000	63.20127000	30.00123000
17.99999910	0.00000000	62.77681000	30.00123000
18.19999909	0.00000000	61.62032000	30.04429000
18.39999908	0.00000000	60.08243000	30.37647000
18.59999907	0.00000000	58.50147000	30.73942000
18.79999905	-0.15871060	56.96358000	30.37647000
18.99999904	0.00000000	55.89320000	30.04429000
19.19999903	-0.15871060	56.31151000	30.00123000
19.39999902	0.00000000	58.59375000	30.04429000
19.59999901	0.00000000	61.70644000	30.41954000
19.79999900	0.00000000	65.24360000	31.15772000
19.99999898	0.00000000	69.10678000	31.53297000
20.19999897	0.00000000	72.13951000	31.57603000
20.39999896	0.00000000	73.25295000	31.57603000
20.59999895	0.00000000	71.62893000	31.57603000
20.79999894	0.00000000	66.97219000	31.57603000
20.99999892	0.00000000	59.99631000	31.57603000
21.19999891	0.00000000	52.26993000	31.57603000
21.39999890	0.00000000	45.33710000	31.57603000
21.59999889	0.00000000	41.14788000	31.57603000
21.79999888	0.00000000	41.24015000	31.53297000
21.99999886	0.00000000	46.35826000	31.20078000
22.19999885	0.00000000	56.40379000	30.83784000
22.39999884	0.00000000	69.15600000	31.20078000
22.59999883	0.00000000	81.53297000	31.53297000
22.79999882	0.00000000	91.11713000	31.57603000
22.99999881	0.00000000	94.83882000	31.57603000
23.19999879	0.00000000	90.56348000	31.61909000
23.39999878	0.00000000	78.93085000	31.99434000
23.59999877	0.00000000	62.31545000	32.73868000
23.79999876	0.00000000	44.17446000	33.11393000
23.99999875	0.00000000	29.14001000	33.15699000
24.19999873	0.00000000	20.62623000	33.11393000
24.39999872	0.00000000	20.76156000	32.68946000
24.59999871	0.00000000	30.48720000	31.53297000
24.79999870	0.00000000	48.67741000	30.00123000
24.99999869	0.00000000	71.06299000	28.42027000
25.19999867	0.00000000	92.65501000	26.88853000
25.39999866	0.00000000	108.05240000	25.81816000
25.59999865	0.00000000	113.03520000	26.23647000
25.79999864	0.00000000	106.47150000	28.51255000
25.99999863	0.00000000	89.40083000	31.62524000
26.19999862	0.00000000	65.47736000	35.15625000
26.39999860	0.00000000	40.02829000	39.00713000
26.59999859	0.00000000	19.60507000	42.03371000
26.79999858	0.00000000	9.13508800	43.14714000
26.99999857	0.00000000	10.67298000	41.52312000
27.19999856	0.00000000	23.79429000	36.87869000
27.39999854	0.00000000	45.42937000	29.90895000
27.59999853	0.00000000	70.50935000	22.19488000
27.79999852	0.00000000	93.30708000	15.27436000
27.99999851	0.00000000	108.38460000	11.04208000
28.19999850	0.00000000	112.70910000	10.71604000
28.39999848	0.00000000	105.77630000	14.66535000
28.59999847	0.00000000	89.57922000	23.20989000
28.79999846	0.00000000	67.94415000	34.78100000
28.99999845	0.00000000	45.93381000	46.72736000
29.19999844	0.00000000	28.48794000	56.29306000
29.39999843	0.00000000	19.18061000	60.52534000
29.59999841	0.00000000	19.46973000	58.20620000
29.79999840	0.00000000	28.67864000	50.02460000
29.99999839	0.00000000	43.79921000	36.82948000
30.19999838	0.00000000	61.95251000	21.08145000
30.39999837	0.00000000	79.34301000	6.77288300
30.59999835	0.00000000	91.35703000	-2.84817900
30.79999834	0.00000000	96.51205000	-5.91166300
30.99999833	0.00000000	94.18675000	-0.84891720
31.19999832	0.00000000	85.34695000	11.09129000
31.39999831	0.00000000	72.22563000	27.34990000
31.59999829	0.00000000	57.94168000	44.72810000
31.79999828	0.00000000	45.84769000	59.41191000
31.99999827	0.00000000	37.70300000	68.28863000
32.19999826	0.00000000	34.63336000	69.44512000
32.39999825	0.00000000	38.07825000	62.47539000
32.59999824	0.00000000	46.49975000	48.95423000
32.79999822	0.00000000	57.29576000	31.57603000
32.99999821	0.00000000	68.17789000	14.20399000
33.19999820	0.00000000	76.69783000	0.63976370
33.39999819	0.00000000	81.76672000	-6.70521600
33.59999818	0.00000000	82.14198000	-6.32997000
33.79999816	0.00000000	77.95275000	1.79626000
33.99999815	0.00000000	70.64468000	15.64960000
34.19999814	0.00000000	62.13090000	32.32037000
34.39999813	0.00000000	54.44759000	48.12377000
34.59999812	0.00000000	49.38484000	60.15009000
34.79999810	0.00000000	48.21604000	65.50196000
34.99999809	0.00000000	50.45521000	63.26279000
35.19999808	0.00000000	55.51796000	54.02312000
35.39999807	0.00000000	61.99557000	40.54502000
35.59999806	0.00000000	68.13484000	25.81816000
35.79999805	0.00000000	71.62893000	12.75836000
35.99999803	0.00000000	72.09030000	4.67519700
36.19999802	0.00000000	70.13410000	3.83858300
36.39999801	0.00000000	65.89567000	9.55339400
36.59999800	0.00000000	60.59301000	19.91880000
36.79999799	0.00000000	56.31151000	32.22810000
36.99999797	0.00000000	53.98622000	43.01181000
37.19999796	0.00000000	53.61712000	50.02460000
37.39999795	0.00000000	55.93627000	51.88853000
37.59999794	0.00000000	60.12549000	48.07455000
37.79999793	0.00000000	64.78223000	39.29626000
37.99999791	0.00000000	69.02066000	28.97392000
38.19999790	0.00000000	71.71505000	20.14641000
38.39999789	0.00000000	72.09030000	15.17593000
38.59999788	0.00000000	70.22637000	15.87106000
38.79999787	0.00000000	66.73843000	21.25984000
38.99999786	0.00000000	62.82603000	29.68135000
39.19999784	0.00000000	58.54454000	39.24089000
39.39999783	0.00000000	54.77977000	46.08144000
39.59999782	0.00000000	53.14960000	48.44365000
39.79999781	0.00000000	53.51870000	45.70620000
39.99999780	0.00000000	55.06274000	38.45349000
40.19999778	0.00000000	58.21850000	28.88779000
40.39999777	0.00000000	62.08169000	20.05413000
40.59999776	0.00000000	66.36318000	14.29011000
40.79999775	0.00000000	70.17716000	13.12746000
40.99999774	0.00000000	72.13951000	16.98450000
41.19999772	0.00000000	72.18258000	24.65551000
41.39999771	0.00000000	70.64468000	34.27042000
41.59999770	0.00000000	67.90108000	43.10408000
41.79999769	0.00000000	64.40699000	48.86811000
41.99999768	0.00000000	60.50073000	50.02460000
42.19999767	0.00000000	57.05585000	46.21678000
42.39999765	0.00000000	54.73056000	38.92101000
42.59999764	0.00000000	54.31225000	30.09350000
42.79999763	0.00000000	55.43184000	22.01033000
42.99999762	0.00000000	57.38804000	16.98450000
43.19999761	0.00000000	60.08243000	15.77879000
43.39999759	0.00000000	62.77681000	18.43012000
43.59999758	0.00000000	64.73302000	23.77584000
43.79999757	0.00000000	65.93873000	29.95201000
43.99999756	0.00000000	66.31397000	35.75910000
44.19999755	0.00000000	65.98794000	39.99138000
44.39999753	0.00000000	65.24360000	41.57234000
44.59999752	0.00000000	64.86835000	40.45275000
44.79999751	0.00000000	64.82529000	37.38312000
44.99999750	0.00000000	64.78223000	33.15699000
45.19999749	0.00000000	64.40699000	28.93085000
45.39999748	0.00000000	63.57652000	25.86122000
45.59999746	0.00000000	62.35851000	24.65551000
45.79999745	0.00000000	59.99015000	25.35064000
45.99999744	0.00000000	56.96358000	26.88853000
46.19999743	0.00000000	54.26919000	28.83858000
46.39999742	0.00000000	52.77436000	31.20078000
46.59999740	0.00000000	53.19881000	33.48302000
46.79999739	0.00000000	55.93627000	35.38385000
46.99999738	0.00000000	60.59301000	35.75910000
47.19999737	0.00000000	66.40624000	34.64567000
47.39999736	0.00000000	72.18258000	32.73868000
47.59999734	0.00000000	76.41486000	30.41954000
47.79999733	0.00000000	77.90354000	28.46333000
47.99999732	0.00000000	75.90427000	26.88853000
48.19999731	0.00000000	70.09104000	25.77510000
48.39999730	0.00000000	61.62032000	25.77510000
48.59999729	0.00000000	52.77436000	26.93159000
48.79999727	0.00000000	45.84769000	28.88164000
48.99999726	0.00000000	42.77190000	31.62524000
49.19999725	0.00000000	44.35285000	34.68873000
49.39999724	0.00000000	50.54749000	37.34006000
49.59999723	0.00000000	60.13164000	38.45349000
49.79999721	0.00000000	70.17716000	37.34006000
49.99999720	0.00000000	78.27879000	34.64567000
50.19999719	0.00000000	82.88017000	31.20078000
50.39999718	0.00000000	82.09276000	27.67593000
50.59999717	0.00000000	76.37180000	24.97539000
50.79999715	0.00000000	67.52583000	23.07455000
50.99999714	0.00000000	57.89862000	23.12377000
51.19999713	0.00000000	50.17224000	25.39985000
51.39999712	0.00000000	45.89075000	28.88779000
51.59999711	0.00000000	45.93381000	33.15699000
51.79999710	0.00000000	50.54749000	37.34006000
51.99999708	0.00000000	58.59375000	40.03444000
52.19999707	0.00000000	67.39050000	40.45890000
52.39999706	0.00000000	74.36639000	38.96407000
52.59999705	0.00000000	77.86047000	36.22662000
52.79999704	0.00000000	77.48523000	32.73868000
52.99999702	0.00000000	73.20374000	28.93085000
53.19999701	0.00000000	65.98794000	26.23647000
53.39999700	0.00000000	58.31693000	25.39985000
53.59999699	0.00000000	52.90969000	25.77510000
53.79999698	0.00000000	50.54749000	27.39296000
53.99999696	0.00000000	51.75319000	30.41954000
54.19999695	0.00000000	56.31151000	33.80905000
54.39999694	0.00000000	62.82603000	35.71604000
54.59999693	0.00000000	68.97145000	35.80217000
54.79999692	0.00000000	73.25295000	34.64567000
54.99999691	0.00000000	74.74163000	32.78174000
55.19999689	0.00000000	72.83464000	30.83784000
55.39999688	0.00000000	67.85802000	29.76132000
55.59999687	0.00000000	61.75566000	29.67520000
55.79999686	0.00000000	56.36073000	30.87475000
55.99999685	0.00000000	53.24187000	32.32653000
56.19999683	0.00000000	52.86663000	33.90133000
56.39999682	0.00000000	55.15502000	34.60261000
56.59999681	0.00000000	59.75024000	34.22736000
56.79999680	0.00000000	64.73917000	32.64640000
56.99999679	0.00000000	69.02066000	29.95201000
57.19999677	0.00000000	71.71505000	26.88853000
57.39999676	0.00000000	72.09030000	24.23720000
57.59999675	0.00000000	70.17716000	23.12377000
57.79999674	0.00000000	66.36318000	24.28026000
57.99999673	0.00000000	62.17396000	27.39296000
58.19999672	0.00000000	59.05511000	31.99434000
58.39999670	0.00000000	57.47416000	37.01402000
58.59999669	0.00000000	57.43110000	40.82800000
58.79999668	0.00000000	58.59375000	42.72884000
58.99999667	0.00000000	60.54995000	41.52312000
59.19999666	0.00000000	63.24434000	37.29700000
59.39999664	0.00000000	65.89567000	31.15772000
59.59999663	0.00000000	67.43970000	24.61245000
59.79999662	0.00000000	67.48277000	19.63582000
59.99999661	0.00000000	66.32012000	17.31053000
60.19999660	0.00000000	64.45004000	18.51624000
60.39999658	0.00000000	62.50000000	23.12377000
60.59999657	0.00000000	61.33120000	30.04429000
60.79999656	0.00000000	60.54995000	37.34006000
60.99999655	0.00000000	60.59301000	43.14714000
61.19999654	0.00000000	61.70644000	46.21678000
61.39999653	0.00000000	63.20127000	45.79847000
61.59999651	0.00000000	64.35777000	41.56618000
61.79999650	0.00000000	64.78223000	34.64567000
61.99999649	0.00000000	64.73302000	26.93159000
62.19999648	0.00000000	63.98867000	20.01107000
62.39999647	0.00000000	62.45694000	15.77879000
62.59999645	0.00000000	61.33120000	15.36048000
62.79999644	0.00000000	60.50073000	18.43012000
62.99999643	0.00000000	60.21776000	24.23720000
63.19999642	0.00000000	60.96825000	31.57603000
63.39999641	0.00000000	62.86909000	38.87795000
63.59999639	0.00000000	64.73302000	44.26673000
63.79999638	0.00000000	65.93873000	46.21678000
63.99999637	0.00000000	66.36318000	44.72810000
64.19999636	0.00000000	66.31397000	40.45890000
64.39999635	0.00000000	65.52042000	34.31963000
64.59999634	0.00000000	63.61958000	27.76821000
64.79999632	0.00000000	61.75566000	22.69931000
64.99999631	0.00000000	60.54995000	19.58661000
65.19999630	0.00000000	60.17470000	18.80536000
65.39999629	0.00000000	60.54995000	20.74926000
65.59999628	0.00000000	61.70644000	24.56939000
65.79999626	0.00000000	63.20127000	29.58292000
65.99999625	0.00000000	64.35777000	34.22736000
66.19999624	0.00000000	64.78223000	37.75836000
66.39999623	0.00000000	64.73302000	40.12672000
66.59999622	0.00000000	63.98867000	40.92027000
66.79999620	0.00000000	62.45694000	40.54502000
66.99999619	0.00000000	61.33120000	38.96407000
67.19999618	0.00000000	60.54995000	36.26968000
67.39999617	0.00000000	60.63607000	33.15699000
67.59999616	0.00000000	62.17396000	30.00123000
67.79999615	0.00000000	64.82529000	26.88853000
67.99999613	0.00000000	67.48277000	24.19414000
68.19999612	0.00000000	69.06373000	22.65625000
68.39999611	0.00000000	69.43897000	22.61319000
68.59999610	0.00000000	68.59621000	23.81890000
68.79999609	0.00000000	65.89567000	26.19340000
68.99999607	0.00000000	62.08169000	30.09350000
69.19999606	0.00000000	58.59375000	34.73794000
69.39999605	0.00000000	55.89320000	39.33932000
69.59999604	0.00000000	54.77977000	42.77190000
69.79999603	0.00000000	55.93627000	43.56545000
69.99999601	0.00000000	59.05511000	42.03371000
70.19999600	0.00000000	63.71186000	38.50270000
70.39999599	0.00000000	69.06373000	33.15699000
70.59999598	0.00000000	73.29601000	27.72515000
70.79999597	0.00000000	75.20915000	23.44365000
70.99999596	0.00000000	74.50172000	20.38632000
71.19999594	0.00000000	71.35211000	20.05413000
71.39999593	0.00000000	66.73228000	22.65625000
71.59999592	0.00000000	60.87598000	26.93159000
71.79999591	0.00000000	55.56717000	31.95128000
71.99999590	0.00000000	52.03617000	36.92175000
72.19999588	0.00000000	51.28568000	40.03444000
72.39999587	0.00000000	53.19881000	40.87721000
72.59999586	0.00000000	57.47416000	40.08366000
72.79999585	0.00000000	63.24434000	37.38312000
72.99999584	0.00000000	69.02066000	33.57529000
73.19999582	0.00000000	73.29601000	30.13656000
73.39999581	0.00000000	75.25220000	27.76821000
73.59999580	0.00000000	74.87697000	26.97465000
73.79999579	0.00000000	72.13951000	27.34990000
73.99999578	0.00000000	67.52583000	28.83858000
74.19999577	0.00000000	62.17396000	30.73942000
74.39999575	0.00000000	57.89247000	31.85900000
74.59999574	0.00000000	55.51796000	32.27116000
74.79999573	0.00000000	54.73056000	31.48991000
74.99999572	0.00000000	55.93627000	30.04429000
75.19999571	0.00000000	58.96899000	28.88779000
75.39999569	0.00000000	62.77681000	28.55561000
75.59999568	0.00000000	65.89567000	29.29995000
75.79999567	0.00000000	67.90108000	31.25000000
75.99999566	0.00000000	69.02066000	33.53223000
76.19999565	0.00000000	68.64542000	35.89444000
76.39999563	0.00000000	66.78149000	37.71530000
76.59999562	0.00000000	64.86835000	38.07825000
76.79999561	0.00000000	63.33661000	36.13435000
76.99999560	0.00000000	62.54921000	32.68946000
77.19999559	0.00000000	62.86909000	28.42027000
77.39999558	0.00000000	63.20127000	24.23720000
77.59999556	0.00000000	63.24434000	21.54281000
77.79999555	0.00000000	63.24434000	21.16757000
77.99999554	0.00000000	63.20127000	23.07455000
78.19999553	0.00000000	62.82603000	26.97465000
78.39999552	0.00000000	62.03863000	31.95128000
78.59999550	0.00000000	61.33120000	36.96481000
78.79999549	0.00000000	60.96825000	40.45275000
78.99999548	0.00000000	61.79872000	42.03371000
79.19999547	0.00000000	63.66264000	41.61540000
79.39999546	0.00000000	65.98794000	38.92101000
79.59999544	0.00000000	67.90108000	34.69488000
79.79999543	0.00000000	69.06373000	30.04429000
79.99999542	0.00000000	69.02066000	25.81816000
80.19999541	0.00000000	67.48277000	23.07455000
80.39999540	0.00000000	64.82529000	22.28100000
80.59999539	0.00000000	62.08169000	23.03149000
80.79999537	0.00000000	59.75024000	25.39985000
80.99999536	0.00000000	57.89247000	28.83858000
81.19999535	0.00000000	57.89247000	32.68946000
81.39999534	0.00000000	59.75024000	35.80217000
81.59999533	0.00000000	62.08169000	37.80142000
81.79999531	0.00000000	64.82529000	38.96407000
81.99999530	0.00000000	67.48277000	38.96407000
82.19999529	0.00000000	69.06373000	37.80142000
82.39999528	0.00000000	69.43897000	35.89444000
82.59999527	0.00000000	68.68848000	33.53223000
82.79999525	0.00000000	66.73843000	31.15772000
82.99999524	0.00000000	64.45004000	28.46333000
83.19999523	0.00000000	62.13090000	26.14419000
83.39999522	0.00000000	60.63607000	24.98154000
83.59999521	0.00000000	60.54995000	24.56939000
83.79999520	0.00000000	61.28814000	25.39985000
83.99999518	0.00000000	62.08169000	27.34990000
84.19999517	0.00000000	63.28740000	30.46260000
84.39999516	0.00000000	64.78223000	34.31963000
84.59999515	0.00000000	65.89567000	37.75836000
84.79999514	0.00000000	65.93873000	40.12672000
84.99999512	0.00000000	65.24360000	40.87721000
85.19999511	0.00000000	64.86835000	40.08366000
85.39999510	0.00000000	64.82529000	37.34006000
85.59999509	0.00000000	64.82529000	33.11393000
85.79999508	0.00000000	64.82529000	28.51255000
85.99999506	0.00000000	64.82529000	24.65551000
86.19999505	0.00000000	64.78223000	22.69931000
86.39999504	0.00000000	64.40699000	22.69931000
86.59999503	0.00000000	63.61958000	24.65551000
86.79999502	0.00000000	62.86909000	28.51255000
86.99999501	0.00000000	62.08169000	33.11393000
87.19999499	0.00000000	61.75566000	37.38312000
87.39999498	0.00000000	62.13090000	40.40969000
87.59999497	0.00000000	63.24434000	41.19709000
87.79999496	0.00000000	64.40699000	39.29626000
87.99999495	0.00000000	65.24360000	35.85138000
88.19999493	0.00000000	66.40624000	31.53297000
88.39999492	0.00000000	67.48277000	26.97465000
88.59999491	0.00000000	67.48277000	23.54207000
88.79999490	0.00000000	66.36318000	22.79158000
88.99999489	0.00000000	64.86835000	24.65551000
89.19999487	0.00000000	63.66264000	28.51255000
89.39999486	0.00000000	62.86909000	33.11393000
89.59999485	0.00000000	62.08169000	37.34006000
89.79999484	0.00000000	61.75566000	40.03444000
89.99999483	0.00000000	62.08169000	40.40969000
90.19999482	0.00000000	62.86909000	38.50270000
90.39999480	0.00000000	63.61958000	34.64567000
90.59999479	0.00000000	64.40699000	30.04429000
90.79999478	0.00000000	64.78223000	25.81816000
90.99999477	0.00000000	64.82529000	23.12377000
91.19999476	0.00000000	64.82529000	22.74852000
91.39999474	0.00000000	64.82529000	24.65551000
91.59999473	0.00000000	64.82529000	28.51255000
91.79999472	0.00000000	64.82529000	33.11393000
91.99999471	0.00000000	64.82529000	37.34006000
92.19999470	0.00000000	64.82529000	39.99138000
92.39999468	0.00000000	64.82529000	40.03444000
92.59999467	0.00000000	64.78223000	37.71530000
92.79999466	0.00000000	64.35777000	33.85211000
92.99999465	0.00000000	63.24434000	28.88779000
93.19999464	0.00000000	62.08169000	24.69857000
93.39999463	0.00000000	61.33120000	22.74852000
93.59999461	0.00000000	60.96825000	23.12377000
93.79999460	0.00000000	61.70644000	25.81816000
93.99999459	0.00000000	62.96136000	30.04429000
94.19999458	0.00000000	64.88066000	34.64567000
94.39999457	0.00000000	67.93799000	38.45964000
94.59999455	0.00000000	69.81422000	39.99138000
94.79999454	0.00000000	70.68774000	38.92101000
94.99999453	0.00000000	70.60162000	36.22662000
95.19999452	0.00000000	69.02066000	32.73868000
95.39999451	0.00000000	65.98794000	28.88779000
95.59999449	0.00000000	62.50000000	25.86122000
95.79999448	0.00000000	59.79945000	24.70472000
95.99999447	0.00000000	57.80634000	25.81816000
96.19999446	0.00000000	57.09892000	28.51255000
96.39999445	0.00000000	57.89247000	31.95128000
96.59999444	0.00000000	60.63607000	35.38385000
96.79999442	0.00000000	64.82529000	37.34006000
96.99999441	0.00000000	69.06373000	37.75836000
97.19999440	0.00000000	72.18258000	37.01402000
97.39999439	0.00000000	73.76353000	35.06397000
97.59999438	0.00000000	73.72047000	32.78174000
97.79999436	0.00000000	71.80733000	30.46260000
97.99999435	0.00000000	68.31938000	28.93085000
98.19999434	0.00000000	64.45004000	28.55561000
98.39999433	0.00000000	60.54995000	29.25689000
98.59999432	0.00000000	57.51722000	30.78248000
98.79999430	0.00000000	56.31151000	31.90822000
98.99999429	0.00000000	57.09892000	32.73868000
99.19999428	0.00000000	59.38730000	33.11393000
99.39999427	0.00000000	62.86909000	33.15699000
99.59999426	0.00000000	66.36318000	33.15699000
99.79999425	0.00000000	69.52509000	33.15699000
99.99999423	0.00000000	72.18258000	33.20005000
100.19999422	0.00000000	73.29601000	33.57529000
100.39999421	0.00000000	72.18258000	34.27042000
100.59999420	0.00000000	69.52509000	34.27042000
100.79999419	0.00000000	66.40624000	33.53223000
100.99999417	0.00000000	63.28740000	32.73868000
101.19999416	0.00000000	60.59301000	31.48991000
101.39999415	0.00000000	59.01205000	29.62598000
101.59999414	0.00000000	58.59375000	27.76821000
101.79999413	0.00000000	59.01205000	27.39296000
101.99999411	0.00000000	60.54995000	28.46333000
102.19999410	0.00000000	62.86909000	30.04429000
102.39999409	0.00000000	65.20053000	32.04355000
102.59999408	0.00000000	67.57505000	34.73794000
102.79999407	0.00000000	69.39591000	37.34006000
102.99999406	0.00000000	69.85113000	38.50270000
103.19999404	0.00000000	68.74384000	37.75836000
103.39999403	0.00000000	67.61810000	35.85138000
103.59999402	0.00000000	66.32012000	33.11393000
103.79999401	0.00000000	64.45004000	30.04429000
103.99999400	0.00000000	62.50000000	27.34990000
104.19999398	0.00000000	61.38041000	25.81816000
104.39999397	0.00000000	60.91904000	25.81816000
104.59999396	0.00000000	61.38041000	27.34990000
104.79999395	0.00000000	62.50000000	30.04429000
104.99999394	0.00000000	64.45004000	33.11393000
105.19999392	0.00000000	66.32012000	35.80217000
105.39999391	0.00000000	67.52583000	37.34006000
105.59999390	0.00000000	67.90108000	37.38312000
105.79999389	0.00000000	67.52583000	36.22662000
105.99999388	0.00000000	66.36318000	34.27042000
106.19999387	0.00000000	64.86835000	31.62524000
106.39999385	0.00000000	63.71186000	29.29995000
106.59999384	0.00000000	63.28740000	28.13730000
106.79999383	0.00000000	63.28740000	27.72515000
106.99999382	0.00000000	63.66264000	28.55561000
107.19999381	0.00000000	64.45004000	30.41954000
107.39999379	0.00000000	65.20053000	32.69562000
107.59999378	0.00000000	65.98794000	34.22736000
107.79999377	0.00000000	66.36318000	34.64567000
107.99999376	0.00000000	66.36318000	34.27042000
108.19999375	0.00000000	65.93873000	33.11393000
108.39999374	0.00000000	64.82529000	31.57603000
108.59999372	0.00000000	63.71186000	30.04429000
108.79999371	0.00000000	63.28740000	28.88779000
108.99999370	0.00000000	63.24434000	28.51255000
109.19999369	0.00000000	63.28740000	28.93085000
109.39999368	0.00000000	63.71186000	30.46260000
109.59999366	0.00000000	64.86835000	32.69562000
109.79999365	0.00000000	66.36318000	34.22736000
109.99999364	0.00000000	67.48277000	34.69488000
110.19999363	0.00000000	67.52583000	34.69488000
110.39999362	0.00000000	66.78149000	34.27042000
110.59999360	0.00000000	66.03100000	33.11393000
110.79999359	0.00000000	65.20053000	31.57603000
110.99999358	0.00000000	64.45004000	30.04429000
111.19999357	0.00000000	63.66264000	28.93085000
111.39999356	0.00000000	63.33661000	28.88779000
111.59999355	0.00000000	63.66264000	29.62598000
111.79999353	0.00000000	64.40699000	30.37647000
111.99999352	0.00000000	64.82529000	31.20078000
112.19999351	0.00000000	65.24360000	31.95128000
112.39999350	0.00000000	65.98794000	32.73868000
112.59999349	0.00000000	66.36318000	33.15699000
112.79999347	0.00000000	66.40624000	33.53223000
112.99999346	0.00000000	66.36318000	33.90133000
113.19999345	0.00000000	65.98794000	33.53223000
113.39999344	0.00000000	65.24360000	33.15699000
113.59999343	0.00000000	64.86835000	32.73868000
113.79999341	0.00000000	64.82529000	31.99434000
113.99999340	0.00000000	64.82529000	31.61909000
114.19999339	0.00000000	64.82529000	31.53297000
114.39999338	0.00000000	64.82529000	31.15772000
114.59999337	0.00000000	64.82529000	30.41954000
114.79999336	0.00000000	64.86835000	30.09350000
114.99999334	0.00000000	65.24360000	30.41954000
115.19999333	0.00000000	65.98794000	31.15772000
115.39999332	0.00000000	66.36318000	31.57603000
115.59999331	0.00000000	66.40624000	31.99434000
115.79999330	0.00000000	66.40624000	32.78174000
115.99999328	0.00000000	66.36318000	33.53223000
116.19999327	0.00000000	65.98794000	34.31963000
116.39999326	0.00000000	65.24360000	34.69488000
116.59999325	0.00000000	64.86835000	34.73794000
116.79999324	0.00000000	64.82529000	34.64567000
116.99999322	0.00000000	64.86835000	33.90133000
117.19999321	0.00000000	65.24360000	32.36959000
117.39999320	0.00000000	66.03100000	31.25000000
117.59999319	0.00000000	66.78149000	30.41954000
117.79999318	0.00000000	67.57505000	30.04429000
117.99999317	0.00000000	67.95029000	30.04429000
118.19999315	0.00000000	67.95029000	30.41954000
118.39999314	0.00000000	67.52583000	31.20078000
118.59999313	0.00000000	66.36318000	31.99434000
118.79999312	0.00000000	64.86835000	33.15699000
118.99999311	0.00000000	63.71186000	34.27042000
119.19999309	0.00000000	63.28740000	34.69488000
119.39999308	0.00000000	63.24434000	34.69488000
119.59999307	0.00000000	63.28740000	34.31963000
119.79999306	0.00000000	63.71186000	33.57529000
119.99999305	0.00000000	64.86835000	33.15699000
120.19999303	0.00000000	66.40624000	32.73868000
120.39999302	0.00000000	67.90108000	31.95128000
120.59999301	0.00000000	68.68848000	31.25000000
120.79999300	0.00000000	68.36859000	30.83784000
120.99999299	0.00000000	67.99335000	31.20078000
121.19999298	0.00000000	67.52583000	31.53297000
121.39999296	0.00000000	66.36318000	31.57603000
121.59999295	0.00000000	64.82529000	31.57603000
121.79999294	0.00000000	63.28740000	31.61909000
121.99999293	0.00000000	62.17396000	31.99434000
122.19999292	0.00000000	62.13090000	32.73868000
122.39999290	0.00000000	62.86909000	33.11393000
122.59999289	0.00000000	63.66264000	33.15699000
122.79999288	0.00000000	64.82529000	33.15699000
122.99999287	0.00000000	65.98794000	33.15699000
123.19999286	0.00000000	66.78149000	33.11393000
123.39999284	0.00000000	67.57505000	32.73868000
123.59999283	0.00000000	67.95029000	31.99434000
123.79999282	0.00000000	67.95029000	31.61909000
123.99999281	0.00000000	67.52583000	31.53297000
124.19999280	0.00000000	66.40624000	31.20078000
124.39999279	0.00000000	65.24360000	30.83784000
124.59999277	0.00000000	64.45004000	31.20078000
124.79999276	0.00000000	63.66264000	31.53297000
124.99999275	0.00000000	63.28740000	31.57603000
125.19999274	0.00000000	63.24434000	31.61909000
125.39999273	0.00000000	63.28740000	31.99434000
125.59999271	0.00000000	63.71186000	32.73868000
125.79999270	0.00000000	64.82529000	33.11393000
125.99999269	0.00000000	65.98794000	33.15699000
126.19999268	0.00000000	66.78149000	33.15699000
126.39999267	0.00000000	67.57505000	33.11393000
126.59999265	0.00000000	67.95029000	32.73868000
126.79999264	0.00000000	67.95029000	31.99434000
126.99999263	0.00000000	67.52583000	31.61909000
127.19999262	0.00000000	66.36318000	31.57603000
127.39999261	0.00000000	64.86835000	31.57603000
127.59999260	0.00000000	63.71186000	31.57603000
127.79999258	0.00000000	63.28740000	31.57603000
127.99999257	0.00000000	63.28740000	31.61909000
128.19999256	0.00000000	63.71186000	31.99434000
128.39999255	0.00000000	64.86835000	32.73868000
128.59999254	0.00000000	66.36318000	33.11393000
128.79999252	0.00000000	67.52583000	33.15699000
128.99999251	0.00000000	67.95029000	33.15699000
129.19999250	0.00000000	67.95029000	33.15699000
129.39999249	0.00000000	67.57505000	33.11393000
129.59999248	0.00000000	66.78149000	32.73868000
129.79999246	0.00000000	66.03100000	31.99434000
129.99999245	0.00000000	65.20053000	31.61909000
130.19999244	0.00000000	64.49311000	31.61909000
130.39999243	0.00000000	64.08095000	31.99434000
130.59999242	0.00000000	64.49311000	32.73868000
130.79999241	0.00000000	65.20053000	33.11393000
130.99999239	0.00000000	66.03100000	33.15699000
131.19999238	0.00000000	66.78149000	33.15699000
131.39999237	0.00000000	67.57505000	33.15699000
131.59999236	0.00000000	67.95029000	33.11393000
131.79999235	0.00000000	67.95029000	32.73868000
131.99999233	0.00000000	67.57505000	31.99434000
132.19999232	0.00000000	66.78149000	31.61909000
132.39999231	0.00000000	66.03100000	31.57603000
132.59999230	0.00000000	65.24360000	31.61909000
132.79999229	0.00000000	64.86835000	31.99434000
132.99999227	0.00000000	64.86835000	32.73868000
133.19999226	0.00000000	65.24360000	33.15699000
133.39999225	0.00000000	65.98794000	33.57529000
133.59999224	0.00000000	66.36318000	34.31963000
133.79999223	0.00000000	66.40624000	34.64567000
133.99999222	0.00000000	66.40624000	34.31963000
134.19999220	0.00000000	66.40624000	33.53223000
134.39999219	0.00000000	66.40624000	32.78174000
134.59999218	0.00000000	66.40624000	31.99434000
134.79999217	0.00000000	66.44931000	31.61909000
134.99999216	0.00000000	66.73843000	31.53297000
135.19999214	0.00000000	66.81841000	31.20078000
135.39999213	-0.15871060	66.41855000	30.83784000
135.59999212	0.00000000	66.81841000	31.25000000
135.79999211	0.00000000	66.69537000	31.95128000
135.99999210	0.00000000	66.03100000	32.73868000
136.19999208	0.00000000	65.24360000	33.11393000
136.39999207	0.00000000	64.86835000	33.15699000
136.59999206	0.00000000	64.82529000	33.15699000
136.79999205	0.00000000	64.82529000	33.11393000
136.99999204	0.00000000	64.86835000	32.73868000
137.19999203	0.00000000	65.24360000	31.99434000
137.39999201	0.00000000	66.03100000	31.57603000
137.59999200	0.00000000	66.78149000	31.15772000
137.79999199	0.00000000	67.52583000	30.41954000
137.99999198	0.00000000	67.52583000	30.04429000
138.19999197	0.00000000	66.82455000	30.04429000
138.39999195	0.00000000	66.40624000	30.41954000
138.59999194	0.00000000	65.98794000	31.20078000
138.79999193	0.00000000	65.24360000	31.95128000
138.99999192	0.00000000	64.86835000	32.73868000
139.19999191	0.00000000	64.82529000	33.11393000
139.39999189	0.00000000	64.86835000	33.15699000
139.59999188	0.00000000	65.24360000	33.15699000
139.79999187	0.00000000	65.98794000	33.15699000
139.99999186	0.00000000	66.40624000	33.11393000
140.19999185	0.00000000	66.78149000	32.73868000
140.39999184	0.00000000	67.15059000	31.99434000
140.59999182	0.00000000	66.78149000	31.61909000
140.79999181	0.00000000	66.44931000	31.53297000
140.99999180	0.00000000	66.40624000	31.20078000
141.19999179	0.00000000	66.36318000	30.83784000
141.39999178	0.00000000	66.03100000	31.25000000
141.59999176	0.00000000	65.66190000	31.95128000
141.79999175	0.00000000	66.03100000	32.78174000
141.99999174	0.00000000	66.40624000	33.53223000
142.19999173	0.00000000	66.78149000	34.31963000
142.39999172	0.00000000	67.15059000	34.64567000
142.59999170	0.00000000	66.78149000	34.31963000
142.79999169	0.00000000	66.44931000	33.53223000
142.99999168	0.00000000	66.40624000	32.78174000
143.19999167	0.00000000	66.40624000	31.95128000
143.39999166	0.00000000	66.40624000	31.25000000
143.59999165	0.00000000	66.40624000	30.83784000
143.79999163	0.00000000	66.40624000	31.20078000
143.99999162	0.00000000	66.44931000	31.57603000
144.19999161	0.00000000	66.82455000	31.99434000
144.39999160	0.00000000	67.57505000	32.73868000
144.59999159	0.00000000	67.95029000	33.15699000
144.79999157	0.00000000	67.95029000	33.53223000
144.99999156	0.00000000	67.57505000	33.90133000
145.19999155	0.00000000	66.82455000	33.53223000
145.39999154	0.00000000	66.44931000	33.20005000
145.59999153	0.00000000	66.40624000	33.11393000
145.79999151	0.00000000	66.40624000	32.73868000
145.99999150	0.00000000	66.40624000	31.99434000
146.19999149	0.00000000	66.40624000	31.61909000
146.39999148	0.00000000	66.40624000	31.57603000
146.59999147	0.00000000	66.44931000	31.61909000
146.79999146	0.00000000	66.82455000	31.99434000
146.99999144	0.00000000	67.57505000	32.73868000
147.19999143	0.00000000	67.90108000	33.11393000
147.39999142	0.00000000	67.57505000	33.15699000
147.59999141	0.00000000	66.82455000	33.15699000
147.79999140	0.00000000	66.44931000	33.15699000
147.99999138	0.00000000	66.40624000	33.15699000
148.19999137	0.00000000	66.40624000	33.15699000
148.39999136	0.00000000	66.40624000	33.15699000
148.59999135	0.00000000	66.40624000	33.11393000
148.79999134	0.00000000	66.40624000	32.78174000
148.99999132	0.00000000	66.40624000	32.36959000
149.19999131	0.00000000	66.44931000	32.36343000
149.39999130	0.00000000	66.82455000	31.95128000
149.59999129	0.00000000	67.57505000	31.66830000
149.79999128	0.00000000	67.95029000	31.99434000
149.99999127	0.00000000	67.95029000	32.73868000
150.19999125	0.00000000	67.57505000	33.11393000
150.39999124	0.00000000	66.82455000	33.15699000
150.59999123	0.00000000	66.44931000	33.15699000
150.79999122	0.00000000	66.40624000	33.15699000
150.99999121	0.00000000	66.40624000	33.15699000
151.19999119	0.00000000	66.40624000	33.15699000
151.39999118	0.00000000	66.40624000	33.11393000
151.59999117	0.00000000	66.40624000	32.73868000
151.79999116	0.00000000	66.40624000	31.99434000
151.99999115	0.00000000	66.40624000	31.61909000
152.19999113	0.00000000	66.44931000	31.61909000
152.39999112	0.00000000	66.82455000	31.99434000
152.59999111	0.00000000	67.57505000	32.68946000
152.79999110	0.00000000	67.95029000	32.73868000
152.99999109	0.00000000	67.95029000	32.41265000
153.19999108	0.00000000	67.57505000	32.78174000
153.39999106	0.00000000	66.82455000	33.11393000
153.59999105	0.00000000	66.44931000	33.15699000
153.79999104	0.00000000	66.36318000	33.15699000
153.99999103	0.00000000	65.98794000	33.15699000
154.19999102	0.00000000	65.29281000	33.15699000
154.39999100	0.00000000	65.29281000	33.11393000
154.59999099	0.00000000	65.98794000	32.73868000
154.79999098	0.00000000	66.36318000	31.99434000
154.99999097	0.00000000	66.44931000	31.61909000
155.19999096	0.00000000	66.82455000	31.57603000
155.39999094	0.00000000	67.57505000	31.57603000
155.59999093	0.00000000	67.95029000	31.57603000
155.79999092	0.00000000	67.99335000	31.61909000
155.99999091	0.00000000	67.95029000	31.99434000
156.19999090	0.00000000	67.57505000	32.73868000
156.39999089	0.00000000	66.82455000	33.11393000
156.59999087	0.00000000	66.40624000	33.15699000
156.79999086	0.00000000	65.98794000	33.15699000
156.99999085	0.00000000	65.29281000	33.15699000
157.19999084	0.00000000	65.29281000	33.15699000
157.39999083	0.00000000	65.98794000	33.11393000
157.59999081	0.00000000	66.36318000	32.73868000
157.79999080	0.00000000	66.44931000	31.99434000
157.99999079	0.00000000	66.78149000	31.61909000
158.19999078	0.00000000	67.24286000	31.57603000
158.39999077	0.00000000	67.58119000	31.57603000
158.59999075	0.00000000	68.35629000	31.57603000
158.79999074	0.00000000	68.27633000	31.61909000
158.99999073	0.00000000	67.61810000	31.99434000
159.19999072	0.00000000	66.82455000	32.73868000
159.39999071	0.00000000	66.44931000	33.11393000
159.59999070	0.00000000	66.40624000	33.20005000
159.79999068	0.00000000	66.40624000	33.53223000
159.99999067	0.00000000	66.40624000	33.90133000
160.19999066	0.00000000	66.40624000	33.53223000
160.39999065	0.00000000	66.40624000	33.20005000
160.59999064	0.00000000	66.40624000	33.15699000
160.79999062	0.00000000	66.40624000	33.11393000
160.99999061	0.00000000	66.44931000	32.78174000
161.19999060	0.00000000	66.82455000	32.36959000
161.39999059	0.00000000	67.57505000	32.40649000
161.59999058	0.00000000	67.95029000	32.36959000
161.79999056	0.00000000	67.99335000	32.78174000
161.99999055	0.00000000	67.99335000	33.11393000
162.19999054	0.00000000	67.99335000	33.15699000
162.39999053	0.00000000	67.99335000	33.15699000
162.59999052	0.00000000	67.95029000	33.15699000
162.79999051	0.00000000	67.57505000	33.15699000
162.99999049	0.00000000	66.82455000	33.15699000
163.19999048	0.00000000	66.44931000	33.15699000
163.39999047	0.00000000	66.40624000	33.15699000
163.59999046	0.00000000	66.40624000	33.20005000
163.79999045	0.00000000	66.40624000	33.53223000
163.99999043	0.00000000	66.44931000	33.90133000
164.19999042	0.00000000	66.82455000	33.53223000
164.39999041	0.00000000	67.57505000	33.20005000
164.59999040	0.00000000	67.95029000	33.15699000
164.79999039	0.00000000	67.99335000	33.15699000
164.99999037	0.00000000	67.99335000	33.15699000
165.19999036	0.00000000	67.99335000	33.15699000
165.39999035	0.00000000	67.95029000	33.15699000
165.59999034	0.00000000	67.57505000	33.15699000
165.79999033	0.00000000	66.82455000	33.15699000
165.99999032	0.00000000	66.44931000	33.15699000
166.19999030	0.00000000	66.40624000	33.15699000
166.39999029	0.00000000	66.40624000	33.15699000
166.59999028	0.00000000	66.40624000	33.15699000
166.79999027	0.00000000	66.40624000	33.15699000
166.99999026	0.00000000	66.44931000	33.15699000
167.19999024	0.00000000	66.78149000	33.11393000
167.39999023	0.00000000	67.19365000	32.73868000
167.59999022	0.00000000	67.20596000	31.99434000
167.79999021	0.00000000	67.61810000	31.61909000
167.99999020	0.00000000	67.95029000	31.57603000
168.19999018	0.00000000	67.99335000	31.61909000
168.39999017	0.00000000	67.99335000	31.95128000
168.59999016	0.00000000	67.99335000	32.32037000
168.79999015	0.00000000	67.95029000	31.95128000
168.99999014	0.00000000	67.57505000	31.66830000
169.19999013	0.00000000	66.87376000	31.95128000
169.39999011	0.00000000	66.82455000	32.36343000
169.59999010	0.00000000	67.15059000	32.32653000
169.79999009	0.00000000	66.78149000	32.36343000
169.99999008	0.00000000	66.44931000	31.95128000
170.19999007	0.00000000	66.40624000	31.61909000
170.39999005	0.00000000	66.44931000	31.61909000
170.59999004	0.00000000	66.82455000	31.99434000
170.79999003	0.00000000	67.57505000	32.68946000
170.99999002	0.00000000	67.95029000	32.73868000
171.19999001	0.00000000	67.95029000	32.36959000
171.39998999	0.00000000	67.61810000	32.36343000
171.59998998	0.00000000	67.24901000	31.95128000
171.79998997	0.00000000	67.57505000	31.61909000
171.99998996	0.00000000	67.52583000	31.57603000
172.19998995	0.00000000	66.87376000	31.61909000
172.39998994	0.00000000	66.87376000	31.99434000
172.59998992	0.00000000	67.57505000	32.73868000
172.79998991	0.00000000	67.90108000	33.11393000
172.99998990	0.00000000	67.61810000	33.15699000
173.19998989	0.00000000	67.24901000	33.15699000
173.39998988	0.00000000	67.61810000	33.15699000
173.59998986	0.00000000	67.95029000	33.15699000
173.79998985	0.00000000	67.99335000	33.15699000
173.99998984	0.00000000	67.99335000	33.15699000
174.19998983	0.00000000	67.99335000	33.15699000
174.39998982	0.00000000	67.99335000	33.15699000
174.59998980	0.00000000	67.99335000	33.15699000
174.79998979	0.00000000	67.99335000	33.15699000
174.99998978	0.00000000	67.99335000	33.15699000
175.19998977	0.00000000	67.99335000	33.15699000
175.39998976	0.00000000	67.99335000	33.15699000
175.59998975	0.00000000	67.99335000	33.15699000
175.79998973	0.00000000	67.99335000	33.15699000
175.99998972	0.00000000	67.99335000	33.15699000
176.19998971	0.00000000	67.99335000	33.15699000
176.39998970	0.00000000	67.99335000	33.15699000
176.59998969	0.00000000	67.99335000	33.15699000
176.79998967	0.00000000	67.99335000	33.15699000
176.99998966	0.00000000	67.99335000	33.15699000
177.19998965	0.00000000	67.99335000	33.15699000
177.39998964	0.00000000	67.99335000	33.15699000
177.59998963	0.00000000	67.99335000	33.15699000
177.79998961	0.00000000	67.99335000	33.15699000
177.99998960	0.00000000	67.99335000	33.15699000
178.19998959	0.00000000	67.99335000	33.15699000
178.39998958	0.00000000	67.99335000	33.15699000
178.59998957	0.00000000	67.95029000	33.11393000
178.79998956	0.00000000	67.61810000	32.82480000
178.99998954	0.00000000	67.24901000	32.78789000
179.19998953	0.00000000	67.61810000	33.52608000
179.39998952	0.00000000	67.95029000	33.48917000
179.59998951	0.00000000	67.99335000	33.20005000
179.79998950	0.00000000	67.99335000	33.15699000
179.99998948	0.00000000	67.99335000	33.15699000
180.19998947	0.00000000	67.99335000	33.15699000
180.39998946	0.00000000	67.99335000	33.15699000
180.59998945	0.00000000	67.99335000	33.15699000
180.79998944	0.00000000	67.99335000	33.15699000
180.99998942	0.00000000	67.99335000	33.15699000
181.19998941	0.00000000	67.99335000	33.15699000
181.39998940	0.00000000	67.99335000	33.15699000
181.59998939	0.00000000	67.99335000	33.15699000
181.79998938	0.00000000	67.99335000	33.15699000
181.99998937	0.00000000	67.99335000	33.15699000
182.19998935	0.00000000	67.99335000	33.15699000
182.39998934	0.00000000	67.99335000	33.11393000
182.59998933	0.00000000	67.99335000	32.73868000
182.79998932	0.00000000	67.99335000	31.99434000
182.99998931	0.00000000	67.99335000	31.61909000
183.19998929	0.00000000	67.99335000	31.57603000
183.39998928	0.00000000	67.95029000	31.57603000
183.59998927	0.00000000	67.61810000	31.61909000
183.79998926	0.00000000	67.20596000	31.99434000
183.99998925	0.00000000	67.24286000	32.73868000
184.19998923	0.00000000	67.20596000	33.11393000
184.39998922	0.00000000	67.61810000	33.15699000
184.59998921	0.00000000	67.95029000	33.15699000
184.79998920	0.00000000	67.99335000	33.15699000
184.99998919	0.00000000	67.99335000	33.15699000
185.19998918	0.00000000	67.99335000	33.15699000
185.39998916	0.00000000	67.99335000	33.11393000
185.59998915	0.00000000	67.99335000	32.73868000
185.79998914	0.00000000	67.99335000	31.99434000
185.99998913	0.00000000	67.99335000	31.61909000
186.19998912	0.00000000	67.99335000	31.57603000
186.39998910	0.00000000	67.99335000	31.61909000
186.59998909	0.00000000	67.95029000	31.99434000
186.79998908	0.00000000	67.61810000	32.73868000
186.99998907	0.00000000	67.24901000	33.11393000
187.19998906	0.00000000	67.61810000	33.15699000
187.39998904	0.00000000	67.95029000	33.15699000
187.59998903	0.00000000	67.99335000	33.15699000
187.79998902	0.00000000	67.99335000	33.15699000
187.99998901	0.00000000	67.99335000	33.15699000
188.19998900	0.00000000	67.99335000	33.15699000
188.39998899	0.00000000	67.99335000	33.15699000
188.59998897	0.00000000	67.99335000	33.15699000
188.79998896	0.00000000	67.99335000	33.11393000
188.99998895	0.00000000	67.99335000	32.73868000
189.19998894	0.00000000	67.99335000	31.99434000
189.39998893	0.00000000	67.99335000	31.66830000
189.59998891	0.00000000	67.99335000	31.99434000
189.79998890	0.00000000	67.99335000	32.73868000
189.99998889	0.00000000	67.99335000	33.11393000
190.19998888	0.00000000	67.95029000	33.15699000
190.39998887	0.00000000	67.66117000	33.20005000
190.59998885	0.00000000	67.62426000	33.53223000
190.79998884	0.00000000	68.35629000	33.90133000
190.99998883	0.00000000	68.32554000	33.53223000
191.19998882	0.00000000	68.03641000	33.20005000
191.39998881	0.00000000	67.99335000	33.15699000
191.59998880	0.00000000	67.99335000	33.15699000
191.79998878	0.00000000	67.99335000	33.15699000
191.99998877	0.00000000	67.99335000	33.15699000
192.19998876	0.00000000	67.99335000	33.15699000
192.39998875	0.00000000	67.99335000	33.15699000
192.59998874	0.00000000	67.99335000	33.15699000
192.79998872	0.00000000	67.99335000	33.15699000
192.99998871	0.00000000	67.99335000	33.15699000
193.19998870	0.00000000	67.99335000	33.15699000
193.39998869	0.00000000	67.99335000	33.15699000
193.59998868	0.00000000	67.99335000	33.15699000
193.79998866	0.00000000	67.99335000	33.11393000
193.99998865	0.00000000	67.99335000	32.82480000
194.19998864	0.00000000	67.99335000	32.78789000
194.39998863	0.00000000	67.99335000	33.52608000
194.59998862	0.00000000	67.99335000	33.48917000
194.79998861	0.00000000	67.99335000	33.20005000
194.99998859	0.00000000	67.99335000	33.15699000
195.19998858	0.00000000	67.99335000	33.15699000
195.39998857	0.00000000	67.99335000	33.15699000
195.59998856	0.00000000	67.99335000	33.15699000
195.79998855	0.00000000	67.99335000	33.15699000
195.99998853	0.00000000	67.99335000	33.15699000
