Time	Channel A	Channel B	Channel C
(us)	(V)	(mV)	(mV)

-4.49999956	0.00000000	7.90477300	6.31151500
-4.29999957	0.00000000	7.90477300	6.31151500
-4.09999958	0.00000000	7.90477300	6.31151500
-3.89999959	0.00000000	7.90477300	6.31151500
-3.69999960	0.00000000	7.90477300	6.31151500
-3.49999962	0.00000000	7.90477300	6.31151500
-3.29999963	0.00000000	7.90477300	6.31151500
-3.09999964	0.00000000	7.90477300	6.31151500
-2.89999965	0.00000000	7.90477300	6.31151500
-2.69999966	0.00000000	7.90477300	6.31151500
-2.49999968	0.00000000	7.90477300	6.31151500
-2.29999969	0.00000000	7.90477300	6.31151500
-2.09999970	0.00000000	7.90477300	6.31151500
-1.89999971	0.00000000	7.90477300	6.31151500
-1.69999972	0.00000000	7.90477300	6.31151500
-1.49999973	0.00000000	7.94783400	6.31151500
-1.29999975	0.00000000	8.28001900	6.31151500
-1.09999976	0.00000000	8.64911400	6.31151500
-0.89999977	0.00000000	8.28001900	6.31151500
-0.69999978	0.00000000	7.99704600	6.31151500
-0.49999979	0.00000000	8.28001900	6.31151500
-0.29999981	0.31803640	8.64911400	6.31151500
-0.09999982	0.63668800	8.28001900	6.31151500
0.10000017	0.95533960	7.94783400	6.31151500
0.30000016	1.11466500	7.90477300	6.31151500
0.50000015	0.79601380	7.90477300	6.31151500
0.70000013	0.31803640	7.90477300	6.31151500
0.90000012	-0.47736220	7.90477300	6.31151500
1.10000011	-1.43331700	7.94783400	6.31151500
1.30000010	-2.38927200	8.32308000	6.35457700
1.50000009	-2.70792300	9.01820900	6.72982200
1.70000008	-2.54859700	9.06742000	7.47416300
1.90000006	-1.27399100	8.74138700	7.84940900
2.10000005	0.47736220	9.06742000	7.84940900
2.30000004	2.54859700	9.01820900	7.47416300
2.50000003	4.30056600	8.32308000	6.72982200
2.70000002	5.25652100	7.94783400	6.35457700
2.90000000	4.93786900	7.90477300	6.31151500
3.09999999	3.02657500	7.90477300	6.31151500
3.29999998	0.00000000	7.90477300	6.31151500
3.49999997	-3.34522600	7.94783400	6.31151500
3.69999996	-6.21247500	8.32308000	6.35457700
3.89999994	-7.80511800	9.06742000	6.72982200
4.09999993	-7.48646600	9.44266700	7.47416300
4.29999992	-5.09719500	9.48572700	7.84940900
4.49999991	-1.27399100	9.44266700	7.89247000
4.69999990	3.02657500	9.06742000	7.84940900
4.89999989	7.00848900	8.32308000	7.47416300
5.09999987	9.23905000	7.94783400	6.72982200
5.29999986	9.07972400	7.90477300	6.35457700
5.49999985	6.84916400	7.90477300	6.31151500
5.69999984	2.70792300	7.90477300	6.31151500
5.89999983	-2.22994600	7.90477300	6.31151500
6.09999981	-6.37180100	7.94783400	6.35457700
6.29999980	-8.92039900	8.28001900	6.72982200
6.49999979	-9.39837600	8.64911400	7.47416300
6.69999978	-7.32714100	8.28001900	7.84940900
6.89999977	-3.66326300	7.94783400	7.89247000
7.09999975	0.79601380	7.90477300	7.84940900
7.29999974	4.61921700	7.94783400	7.47416300
7.49999973	7.16781500	8.28001900	6.72982200
7.69999972	7.64579200	8.64911400	6.35457700
7.89999971	6.37180100	8.28001900	6.31151500
8.09999970	3.50393700	7.94783400	6.31151500
8.29999968	0.31803640	7.94783400	6.31151500
8.49999967	-2.70792300	8.28001900	6.31151500
8.69999966	-4.61921700	8.64911400	6.31151500
8.89999965	-5.25652100	8.32308000	6.31151500
9.09999964	-4.45989200	8.32308000	6.31151500
9.29999962	-2.70792300	8.64911400	6.31151500
9.49999961	-0.79601380	8.32308000	6.31151500
9.69999960	0.95533960	8.32308000	6.31151500
9.89999959	2.22994600	8.64911400	6.31151500
10.09999958	2.54859700	8.28001900	6.31151500
10.29999956	2.22994600	7.94783400	6.31151500
10.49999955	1.43331700	7.90477300	6.31151500
10.69999954	0.63668800	7.90477300	6.31151500
10.89999953	-0.15871060	7.94783400	6.31151500
11.09999952	-0.63668800	8.28001900	6.31151500
11.29999951	-0.95533960	8.64911400	6.31151500
11.49999949	-0.95533960	8.32308000	6.31151500
11.69999948	-0.79601380	8.32308000	6.31151500
11.89999947	-0.47736220	8.64911400	6.31151500
12.09999946	-0.15871060	8.28001900	6.31151500
12.29999945	-0.15871060	7.94783400	6.31151500
12.49999943	-0.15871060	7.90477300	6.31151500
12.69999942	0.00000000	7.90477300	6.31151500
12.89999941	0.00000000	7.90477300	6.31151500
13.09999940	0.00000000	7.90477300	6.31151500
13.29999939	0.15871060	7.94783400	6.31151500
13.49999937	0.00000000	8.28001900	6.31151500
13.69999936	0.00000000	8.64911400	6.31151500
13.89999935	0.00000000	8.28001900	6.31151500
14.09999934	-0.15871060	7.99704600	6.31151500
14.29999933	-0.15871060	8.28001900	6.31151500
14.49999932	-0.15871060	8.64911400	6.31151500
14.69999930	-0.15871060	8.28001900	6.31151500
14.89999929	0.00000000	7.94783400	6.31151500
15.09999928	0.00000000	7.90477300	6.31151500
15.29999927	0.00000000	7.90477300	6.31151500
15.49999926	0.00000000	7.90477300	6.31151500
15.69999924	0.00000000	7.90477300	6.31151500
15.89999923	0.00000000	7.90477300	6.31151500
16.09999922	0.00000000	7.90477300	6.31151500
16.29999921	0.00000000	7.90477300	6.31151500
16.49999920	-0.15871060	7.94783400	6.31151500
16.69999919	-0.15871060	8.32308000	6.35457700
16.89999917	-0.15871060	9.06742000	6.68676100
17.09999916	0.00000000	9.48572700	7.05585600
17.29999915	0.00000000	9.90403500	6.68676100
17.49999914	0.00000000	10.59916000	6.35457700
17.69999913	0.00000000	10.59916000	6.31151500
17.89999911	0.00000000	9.86097400	6.31151500
18.09999910	0.00000000	9.06742000	6.31151500
18.29999909	0.00000000	7.86171200	6.31151500
18.49999908	0.00000000	6.32381900	6.31151500
18.69999907	0.00000000	4.78592500	6.31151500
18.89999905	0.00000000	3.62942900	6.31151500
19.09999904	0.00000000	3.29724400	6.31151500
19.29999903	0.00000000	4.09079700	6.31151500
19.49999902	0.00000000	6.45915300	6.31151500
19.69999901	0.00000000	9.90403500	6.31151500
19.89999900	0.00000000	13.81028000	6.31151500
20.09999898	0.00000000	17.25517000	6.31151500
20.29999897	0.00000000	19.58046000	6.31151500
20.49999896	0.00000000	19.86343000	6.31151500
20.69999895	0.00000000	17.48893000	6.31151500
20.89999894	0.00000000	12.05093000	6.31151500
21.09999892	0.00000000	4.74286400	6.31151500
21.29999891	0.00000000	-2.65132900	6.31151500
21.49999890	0.00000000	-8.79675100	6.31151500
21.69999889	0.00000000	-12.14321000	6.31151500
21.89999888	0.00000000	-10.56225000	6.31151500
22.09999886	0.00000000	-3.96161400	6.31151500
22.29999885	0.00000000	6.13927100	6.31151500
22.49999884	0.00000000	18.55315000	6.31151500
22.69999883	0.00000000	30.41954000	6.35457700
22.89999882	0.00000000	38.51501000	6.72982200
23.09999881	0.00000000	40.33587000	7.47416300
23.29999879	0.00000000	34.89173000	7.84940900
23.49999878	0.00000000	22.42864000	7.93553100
23.69999877	0.00000000	5.43799200	8.31077700
23.89999876	0.00000000	-12.70300000	9.05511800
24.09999875	0.00000000	-27.26993000	9.38115100
24.29999873	0.00000000	-34.20275000	9.00590400
24.49999872	0.00000000	-31.45915000	7.84940900
24.69999871	0.00000000	-19.40822000	6.31151500
24.89999870	0.00000000	-0.04921259	4.73671200
25.09999869	0.00000000	22.69931000	3.15575800
25.29999867	0.00000000	43.12254000	1.66707700
25.49999866	0.00000000	56.24384000	0.97194880
25.69999865	0.00000000	58.89518000	2.08538400
25.89999864	0.00000000	49.96309000	4.44758800
26.09999863	0.00000000	31.02854000	7.57258800
26.29999862	0.00000000	6.32381900	11.83563000
26.49999860	0.00000000	-18.38090000	15.64960000
26.69999859	0.00000000	-37.27239000	18.35015000
26.89999858	0.00000000	-45.78617000	19.04527000
27.09999857	0.00000000	-41.97219000	16.67692000
27.29999856	0.00000000	-27.22072000	11.65723000
27.49999854	0.00000000	-4.42298200	4.64443900
27.69999853	0.00000000	21.77042000	-3.06348400
27.89999852	0.00000000	44.14985000	-9.98400600
28.09999851	0.00000000	57.78174000	-14.16708000
28.29999850	0.00000000	60.52534000	-14.08095000
28.49999848	0.00000000	52.01156000	-9.01205700
28.69999847	0.00000000	34.23966000	0.64591530
28.89999846	0.00000000	11.11590000	12.62918000
29.09999845	0.00000000	-11.68184000	24.61860000
29.29999844	0.00000000	-28.71555000	34.19045000
29.49999843	0.00000000	-36.94020000	38.33046000
29.69999841	0.00000000	-35.03937000	35.26082000
29.89999840	0.00000000	-24.23720000	25.55364000
30.09999839	0.00000000	-6.84055100	11.23893000
30.29999838	0.00000000	13.20743000	-5.38262700
30.49999837	0.00000000	31.02854000	-20.34941000
30.69999835	0.00000000	43.03642000	-30.01353000
30.89999834	0.00000000	46.98573000	-31.87746000
31.09999833	0.00000000	42.42741000	-25.31988000
31.29999832	0.00000000	31.62524000	-11.38656000
31.49999831	0.00000000	16.87992000	6.72982200
31.69999829	0.00000000	1.06422200	25.31373000
31.89999828	0.00000000	-12.10015000	40.32357000
32.09999827	0.00000000	-19.86959000	48.44980000
32.29999826	0.00000000	-21.07529000	47.66855000
32.49999825	0.00000000	-15.68036000	38.42273000
32.69999824	0.00000000	-5.30265700	22.57628000
32.89999822	0.00000000	7.43725300	3.66633800
33.09999821	0.00000000	19.39591000	-14.17323000
33.29999820	0.00000000	27.90969000	-27.69439000
33.49999819	0.00000000	31.07160000	-34.23966000
33.69999818	0.00000000	28.79552000	-31.92052000
33.89999816	0.00000000	22.27485000	-21.55512000
34.09999815	0.00000000	13.02288000	-5.71481200
34.29999814	0.00000000	3.80782500	12.07554000
34.49999813	0.00000000	-3.21112200	28.29109000
34.69999812	0.00000000	-6.66215500	39.48696000
34.89999810	0.00000000	-5.91166300	42.97490000
35.09999809	0.00000000	-0.93503930	38.42273000
35.29999808	0.00000000	6.28075700	27.22072000
35.49999807	0.00000000	13.25664000	12.21087000
35.69999806	0.00000000	18.23942000	-3.25418300
35.89999805	0.00000000	20.18332000	-15.56963000
36.09999803	0.00000000	18.28248000	-22.16412000
36.29999802	0.00000000	13.76107000	-21.41978000
36.49999801	0.00000000	8.32308000	-14.17323000
36.69999800	0.00000000	3.29724400	-2.60211600
36.89999799	0.00000000	-0.51673230	10.45152000
37.09999797	0.00000000	-1.63016700	21.60433000
37.29999796	0.00000000	0.59670270	27.78666000
37.49999795	0.00000000	4.83513700	27.82972000
37.69999794	0.00000000	9.86097400	22.10876000
37.89999793	0.00000000	14.83760000	12.53691000
38.09999791	0.00000000	17.90723000	2.17765700
38.29999790	0.00000000	18.37475000	-6.23154500
38.49999789	0.00000000	16.83686000	-10.08243000
38.69999788	0.00000000	13.71801000	-8.18774500
38.89999787	0.00000000	9.48572700	-1.72244100
39.09999786	0.00000000	5.25344500	7.51722400
39.29999784	0.00000000	2.17765700	16.67692000
39.49999783	0.00000000	0.97194880	23.13607000
39.69999782	0.00000000	1.67322800	24.29872000
39.89999781	0.00000000	3.20497000	19.70349000
40.09999780	0.00000000	5.21038300	11.28199000
40.29999778	0.00000000	7.90477300	0.92888770
40.49999777	0.00000000	10.59916000	-7.85556000
40.69999776	0.00000000	12.55536000	-12.50615000
40.89999775	0.00000000	13.76107000	-12.13091000
41.09999774	0.00000000	14.18553000	-6.69906400
41.29999772	0.00000000	14.18553000	2.50369100
41.49999771	0.00000000	13.76107000	13.23819000
41.69999770	0.00000000	12.55536000	22.06570000
41.89999769	0.00000000	10.64838000	26.71629000
42.09999768	0.00000000	8.32308000	26.34104000
42.29999767	0.00000000	6.36687900	20.95226000
42.49999765	0.00000000	4.78592500	12.16781000
42.69999764	0.00000000	3.62942900	2.50369100
42.89999763	0.00000000	3.25418300	-5.57947800
43.09999762	0.00000000	3.62942900	-10.59301000
43.29999761	0.00000000	4.78592500	-10.96826000
43.49999759	0.00000000	6.36687900	-6.82824800
43.69999758	0.00000000	8.32308000	0.09227362
43.89999757	0.00000000	10.64838000	7.75713500
44.09999756	0.00000000	12.55536000	14.35162000
44.29999755	0.00000000	13.76107000	18.25787000
44.49999753	0.00000000	14.18553000	19.46358000
44.69999752	0.00000000	14.18553000	17.93184000
44.89999751	0.00000000	13.81028000	14.07480000
45.09999750	0.00000000	12.97982000	9.09817800
45.29999749	0.00000000	11.81102000	4.08464600
45.49999748	0.00000000	9.81791200	0.59670270
45.69999746	0.00000000	7.43725300	-1.02116100
45.89999745	0.00000000	4.32455700	-1.02116100
46.09999744	0.00000000	0.92888770	0.51058070
46.29999743	0.00000000	-1.02731300	3.19881900
46.49999742	0.00000000	-1.40255900	6.31151500
46.69999740	0.00000000	-0.18454720	9.38115100
46.89999739	0.00000000	3.34030500	11.70029000
47.09999738	0.00000000	8.37229300	12.49385000
47.29999737	0.00000000	14.22859000	12.16166000
47.49999736	0.00000000	19.99877000	10.96211000
47.69999734	0.00000000	24.18799000	9.00590400
47.89999733	0.00000000	25.30143000	6.31151500
48.09999732	0.00000000	22.55782000	3.61712600
48.29999731	0.00000000	16.36934000	1.71013800
48.49999730	0.00000000	7.86171200	0.92888770
48.69999729	0.00000000	-0.98425190	1.71013800
48.89999727	0.00000000	-7.91092400	3.66633800
49.09999726	0.00000000	-10.98671000	6.77903500
49.29999725	0.00000000	-9.44881800	10.58686000
49.49999724	0.00000000	-3.63558100	13.65650000
49.69999723	0.00000000	5.25344500	15.18824000
49.89999721	0.00000000	15.29897000	14.81299000
50.09999720	0.00000000	24.13878000	12.49385000
50.29999719	0.00000000	29.49065000	9.00590400
50.49999718	0.00000000	29.53371000	4.73671200
50.69999717	0.00000000	24.56324000	0.55364170
50.89999715	0.00000000	16.41855000	-2.09153500
51.09999714	0.00000000	6.41609200	-2.14074800
51.29999713	0.00000000	-2.79281500	0.13533460
51.49999712	0.00000000	-8.19389700	3.62327700
51.69999711	0.00000000	-8.98129900	7.89247000
51.89999710	0.00000000	-4.79207600	12.07554000
52.09999708	0.00000000	2.82972400	14.76993000
52.29999707	0.00000000	10.97441000	15.18824000
52.49999706	0.00000000	18.28248000	13.65650000
52.69999705	0.00000000	22.83464000	10.58686000
52.89999704	0.00000000	22.51476000	6.72982200
53.09999702	0.00000000	18.37475000	3.29109200
53.29999701	0.00000000	12.18012000	0.97194880
53.49999700	0.00000000	5.25344500	0.55364170
53.69999699	0.00000000	-0.47367120	1.66707700
53.89999698	0.00000000	-3.16806100	3.61712600
54.09999696	0.00000000	-2.00541300	6.31151500
54.29999695	0.00000000	2.55290300	8.96284400
54.49999694	0.00000000	9.06742000	10.49459000
54.69999693	0.00000000	15.21284000	10.49459000
54.89999692	0.00000000	19.44513000	9.00590400
55.09999691	0.00000000	20.55856000	6.72982200
55.29999689	0.00000000	17.90723000	4.82283400
55.49999688	0.00000000	12.55536000	3.66633800
55.69999687	0.00000000	6.41609200	3.70939900
55.89999686	0.00000000	1.02116100	5.24729300
56.09999685	0.00000000	-2.00541300	7.89247000
56.29999683	0.00000000	-1.67938000	10.53765000
56.49999682	0.00000000	1.75935000	12.07554000
56.69999681	0.00000000	6.74212600	12.03248000
56.89999680	0.00000000	12.18012000	10.07628000
57.09999679	0.00000000	16.79380000	6.26845500
57.29999677	0.00000000	19.48819000	2.08538400
57.49999676	0.00000000	19.48819000	-0.97810030
57.69999675	0.00000000	16.79380000	-2.13459600
57.89999674	0.00000000	12.18012000	-0.93503930
58.09999673	0.00000000	6.79133800	2.55290300
58.29999672	0.00000000	2.22687000	7.93553100
58.49999670	0.00000000	-0.14148620	13.69956000
58.69999669	0.00000000	0.22760820	18.30093000
58.89999668	0.00000000	2.50984200	20.53395000
59.09999667	0.00000000	6.36687900	18.95300000
59.29999666	0.00000000	10.59916000	13.65650000
59.49999664	0.00000000	14.05020000	6.73597400
59.69999663	0.00000000	15.99409000	0.13533460
59.89999662	0.00000000	15.63115000	-5.25344500
60.09999661	0.00000000	13.76107000	-7.89862200
60.29999660	0.00000000	11.02362000	-6.69291300
60.49999658	0.00000000	7.94783400	-1.72244100
60.69999657	0.00000000	5.29650500	5.94242000
60.89999656	0.00000000	4.13385800	13.61343000
61.09999655	0.00000000	4.83513700	19.46358000
61.29999654	0.00000000	6.36687900	22.53322000
61.49999653	0.00000000	8.32308000	22.10876000
61.69999651	0.00000000	10.59916000	17.83957000
61.89999650	0.00000000	12.13706000	10.58686000
62.09999649	0.00000000	12.51230000	2.50369100
62.29999648	0.00000000	11.76181000	-4.04773600
62.49999647	0.00000000	9.86097400	-7.94783400
62.69999645	0.00000000	7.90477300	-8.31692900
62.89999644	0.00000000	5.99163300	-5.25344500
63.09999643	0.00000000	4.50910400	0.55364170
63.29999642	0.00000000	4.87819900	7.84940900
63.49999641	0.00000000	6.36687900	14.76993000
63.69999639	0.00000000	8.37229300	19.42052000
63.89999638	0.00000000	11.02362000	20.99532000
64.09999637	0.00000000	13.29970000	19.46358000
64.29999636	0.00000000	14.05020000	15.23130000
64.49999635	0.00000000	13.34276000	9.47342500
64.69999634	0.00000000	11.39887000	3.66633800
64.89999632	0.00000000	9.11048200	-0.97810030
65.09999631	0.00000000	6.79133800	-3.67249000
65.29999630	0.00000000	5.29650500	-3.71555100
65.49999629	0.00000000	5.25344500	-1.48868100
65.69999628	0.00000000	6.36687900	1.58095500
65.89999626	0.00000000	7.90477300	4.73671200
66.09999625	0.00000000	9.48572700	7.84940900
66.29999624	0.00000000	10.97441000	10.58686000
66.49999623	0.00000000	11.71875000	12.53691000
66.69999622	0.00000000	10.97441000	13.74262000
66.89999620	0.00000000	9.48572700	14.11786000
67.09999619	0.00000000	7.90477300	13.74262000
67.29999618	0.00000000	6.36687900	12.53691000
67.49999617	0.00000000	5.29650500	10.58686000
67.69999616	0.00000000	5.71481200	7.84940900
67.89999615	0.00000000	7.99704600	4.73671200
68.09999613	0.00000000	11.02362000	1.62401600
68.29999612	0.00000000	13.71801000	-1.07037400
68.49999611	0.00000000	15.25591000	-2.60211600
68.69999610	0.00000000	15.21284000	-2.60211600
68.89999609	0.00000000	13.25664000	-0.97810030
69.09999607	0.00000000	9.39345400	2.55290300
69.29999606	0.00000000	4.83513700	7.93553100
69.49999605	0.00000000	0.92888770	13.65650000
69.69999604	0.00000000	-1.35334600	17.93184000
69.89999603	0.00000000	-1.67938000	19.88189000
70.09999601	0.00000000	1.02116100	19.46358000
70.29999600	0.00000000	6.04084600	16.30167000
70.49999599	0.00000000	11.86024000	10.58686000
70.69999598	0.00000000	17.99951000	4.04158400
70.89999597	0.00000000	22.18258000	-1.35334600
71.09999596	0.00000000	22.98228000	-4.87204700
71.29999594	0.00000000	20.69390000	-5.62253900
71.49999593	0.00000000	15.63115000	-3.71555100
71.69999592	0.00000000	9.01820900	0.51058070
71.89999591	0.00000000	1.75935000	5.89320800
72.09999590	0.00000000	-3.99852300	10.91289000
72.29999588	0.00000000	-6.01008800	14.76993000
72.49999587	0.00000000	-5.25959600	16.30167000
72.69999586	0.00000000	-1.67938000	15.18824000
72.89999585	0.00000000	4.83513700	12.16166000
73.09999584	0.00000000	12.13706000	8.35998900
73.29999582	0.00000000	18.37475000	5.29035400
73.49999581	0.00000000	22.60704000	3.66633800
73.69999580	0.00000000	23.72047000	3.29109200
73.89999579	0.00000000	21.06914000	4.03543200
74.09999578	0.00000000	15.71727000	5.89320800
74.29999577	0.00000000	9.52879000	7.38188900
74.49999575	0.00000000	3.71555100	7.80019600
74.69999574	0.00000000	-0.55979330	7.42495000
74.89999573	0.00000000	-2.47293300	6.22539300
75.09999572	0.00000000	-1.72244100	4.36146600
75.29999571	0.00000000	1.71628900	2.46063000
75.49999569	0.00000000	6.32381900	1.75319900
75.69999568	0.00000000	10.97441000	2.54675200
75.89999567	0.00000000	14.83760000	5.29035400
76.09999566	0.00000000	16.79380000	9.47342500
76.29999565	0.00000000	16.83686000	13.65650000
76.49999563	0.00000000	15.29897000	16.35089000
76.69999562	0.00000000	12.60458000	16.71998000
76.89999561	0.00000000	9.57800100	14.76993000
77.09999560	0.00000000	7.25270600	10.49459000
77.29999559	0.00000000	6.41609200	4.73671200
77.49999558	0.00000000	6.36687900	-1.02116100
77.69999556	0.00000000	6.74212600	-5.24729300
77.89999555	0.00000000	7.48646600	-6.73597400
78.09999554	0.00000000	7.86171200	-4.82898600
78.29999553	0.00000000	7.90477300	0.13533460
78.49999552	0.00000000	7.90477300	6.31151500
78.69999550	0.00000000	7.90477300	12.53691000
78.89999549	0.00000000	7.94783400	17.88263000
79.09999548	0.00000000	8.37229300	20.57702000
79.29999547	0.00000000	9.52879000	19.83883000
79.49999546	0.00000000	11.06668000	16.39395000
79.69999544	0.00000000	12.60458000	11.00517000
79.89999543	0.00000000	13.71801000	5.24729300
80.09999542	0.00000000	13.71801000	0.55364170
80.29999541	0.00000000	12.55536000	-2.55905500
80.49999540	0.00000000	10.59916000	-3.71555100
80.69999539	0.00000000	7.90477300	-2.60211600
80.89999537	0.00000000	5.25344500	0.09227362
81.09999536	0.00000000	3.67249000	3.57406500
81.29999535	0.00000000	3.29724400	7.47416300
81.49999534	0.00000000	4.09079700	10.96211000
81.69999533	0.00000000	6.41609200	13.65650000
81.89999531	0.00000000	9.44266700	14.85605000
82.09999530	0.00000000	12.18012000	14.53617000
82.29999529	0.00000000	14.09326000	13.74262000
82.49999528	0.00000000	14.88066000	12.11860000
82.69999527	0.00000000	14.09326000	9.47342500
82.89999525	0.00000000	12.22933000	6.72982200
83.09999524	0.00000000	9.90403500	4.36146600
83.29999523	0.00000000	7.99704600	1.99311000
83.49999522	0.00000000	6.79133800	0.13533460
83.69999521	0.00000000	6.41609200	-0.65206690
83.89999520	0.00000000	6.74212600	0.13533460
84.09999518	0.00000000	7.52952700	2.04232300
84.29999517	0.00000000	8.28001900	4.77977300
84.49999516	0.00000000	9.06742000	7.89247000
84.69999515	0.00000000	9.44266700	11.00517000
84.89999514	0.00000000	9.48572700	13.69956000
85.09999512	0.00000000	9.48572700	15.23130000
85.29999511	0.00000000	9.48572700	15.18824000
85.49999510	0.00000000	9.52879000	13.23819000
85.69999509	0.00000000	9.90403500	9.38115100
85.89999508	0.00000000	10.64838000	4.77977300
86.09999506	0.00000000	11.02362000	0.55364170
86.29999505	0.00000000	11.06668000	-2.14074800
86.49999504	0.00000000	11.02362000	-2.55905500
86.69999503	0.00000000	10.59916000	-1.02116100
86.89999502	0.00000000	9.44266700	2.08538400
87.09999501	0.00000000	7.90477300	6.35457700
87.29999499	0.00000000	6.36687900	10.95595000
87.49999498	0.00000000	5.25344500	14.72072000
87.69999497	0.00000000	5.25344500	15.92642000
87.89999496	0.00000000	6.36687900	14.45005000
88.09999495	0.00000000	7.94783400	11.74951000
88.29999493	0.00000000	9.90403500	7.84940900
88.49999492	0.00000000	12.13706000	3.66633800
88.69999491	0.00000000	13.29970000	0.59670270
88.89999490	0.00000000	12.93061000	-0.55979330
89.09999489	0.00000000	11.81102000	0.59670270
89.29999487	0.00000000	9.86097400	3.66633800
89.49999486	0.00000000	7.94783400	7.84940900
89.69999485	0.00000000	6.36687900	11.70029000
89.89999484	0.00000000	5.25344500	14.03174000
90.09999483	0.00000000	5.25344500	14.76993000
90.29999482	0.00000000	6.36687900	13.18898000
90.49999480	0.00000000	7.90477300	9.43036400
90.69999479	0.00000000	9.44266700	5.19808000
90.89999478	0.00000000	10.59916000	1.71013800
91.09999477	0.00000000	11.02362000	-0.55979330
91.29999476	0.00000000	11.06668000	-0.55979330
91.49999474	0.00000000	11.02362000	1.71013800
91.69999473	0.00000000	10.64838000	5.19808000
91.89999472	0.00000000	9.90403500	9.47342500
92.09999471	0.00000000	9.52879000	13.65650000
92.29999470	0.00000000	9.48572700	16.30167000
92.49999468	0.00000000	9.44266700	16.30167000
92.69999467	0.00000000	9.06742000	13.61343000
92.89999466	0.00000000	8.32308000	9.00590400
93.09999465	0.00000000	7.90477300	3.66633800
93.29999464	0.00000000	7.48646600	-0.55979330
93.49999463	0.00000000	6.74212600	-2.50984200
93.69999461	0.00000000	6.41609200	-2.14074800
93.89999460	0.00000000	6.79133800	0.59670270
94.09999459	0.00000000	7.94783400	5.19808000
94.29999458	0.00000000	9.48572700	10.53765000
94.49999457	0.00000000	11.06668000	14.76993000
94.69999455	0.00000000	12.64764000	16.67692000
94.89999454	0.00000000	14.09326000	15.92642000
95.09999453	0.00000000	14.46235000	12.49385000
95.29999452	0.00000000	12.93061000	7.93553100
95.49999451	0.00000000	10.64838000	3.62327700
95.69999449	0.00000000	7.90477300	0.17839570
95.89999448	0.00000000	5.21038300	-1.71628900
96.09999447	0.00000000	3.25418300	-0.93503930
96.29999446	0.00000000	2.13459600	2.04232300
96.49999445	0.00000000	2.55290300	5.89320800
96.69999444	0.00000000	4.87819900	9.38115100
96.89999442	0.00000000	8.32308000	12.11860000
97.09999441	0.00000000	12.22933000	13.61343000
97.29999440	0.00000000	15.67421000	13.23819000
97.49999439	0.00000000	17.99951000	10.96211000
97.69999438	0.00000000	18.37475000	7.93553100
97.89999436	0.00000000	16.83686000	5.24729300
98.09999435	0.00000000	13.71801000	3.66633800
98.29999434	0.00000000	9.48572700	3.24803100
98.49999433	0.00000000	5.25344500	3.62327700
98.69999432	0.00000000	2.13459600	4.77977300
98.89999430	0.00000000	0.55364170	6.26845500
99.09999429	0.00000000	0.59670270	7.47416300
99.29999428	0.00000000	2.50984200	8.22465500
99.49999427	0.00000000	5.99163300	8.63681000
99.69999426	0.00000000	9.81791200	8.26771600
99.89999425	0.00000000	13.34276000	7.93553100
100.09999423	0.00000000	15.67421000	7.93553100
100.29999422	0.00000000	16.87992000	8.31077700
100.49999421	0.00000000	16.79380000	9.05511800
100.69999420	0.00000000	14.92372000	9.38115100
100.89999419	0.00000000	11.86024000	9.00590400
101.09999417	0.00000000	9.11048200	7.84940900
101.29999416	0.00000000	6.36687900	6.31151500
101.49999415	0.00000000	4.09079700	4.73671200
101.69999414	0.00000000	3.29724400	3.24803100
101.89999413	0.00000000	3.62942900	2.46063000
102.09999411	0.00000000	4.83513700	2.87278500
102.29999410	0.00000000	6.74212600	4.03543200
102.49999409	0.00000000	9.06742000	6.40378900
102.69999408	0.00000000	11.02362000	9.42421200
102.89999407	0.00000000	12.60458000	12.07554000
103.09999406	0.00000000	13.71801000	13.28125000
103.29999404	0.00000000	13.71801000	12.91215000
103.49999403	0.00000000	12.64764000	11.74951000
103.69999402	0.00000000	11.44193000	9.38115100
103.89999401	0.00000000	10.18086000	6.31151500
104.09999400	0.00000000	7.90477300	3.24803100
104.29999398	0.00000000	5.67175200	0.97194880
104.49999397	0.00000000	4.87819900	0.59670270
104.69999396	0.00000000	5.21038300	2.08538400
104.89999395	0.00000000	6.36687900	4.77977300
105.09999394	0.00000000	7.90477300	7.84940900
105.29999392	0.00000000	9.44266700	10.53765000
105.49999391	0.00000000	10.59916000	12.07554000
105.69999390	0.00000000	11.02362000	12.11860000
105.89999389	0.00000000	11.02362000	10.96211000
106.09999388	0.00000000	10.64838000	9.05511800
106.29999387	0.00000000	9.86097400	6.72982200
106.49999385	0.00000000	9.06742000	4.82283400
106.69999384	0.00000000	7.94783400	3.66633800
106.89999383	0.00000000	7.25270600	3.66633800
107.09999382	0.00000000	7.94783400	4.77977300
107.29999381	0.00000000	9.06742000	6.31151500
107.49999379	0.00000000	9.86097400	7.89247000
107.69999378	0.00000000	10.64838000	9.38115100
107.89999377	0.00000000	10.97441000	10.11934000
108.09999376	0.00000000	10.59916000	9.38115100
108.29999375	0.00000000	9.48572700	7.89247000
108.49999374	0.00000000	8.32308000	6.31151500
108.69999372	0.00000000	7.52952700	4.77977300
108.89999371	0.00000000	6.79133800	3.66633800
109.09999370	0.00000000	6.79133800	3.66633800
109.29999369	0.00000000	7.52952700	4.77977300
109.49999368	0.00000000	8.32308000	6.36072800
109.69999366	0.00000000	9.52879000	8.26771600
109.89999365	0.00000000	11.02362000	10.16855000
110.09999364	0.00000000	12.13706000	10.91289000
110.29999363	0.00000000	12.13706000	10.58686000
110.49999362	0.00000000	11.02362000	9.42421200
110.69999360	0.00000000	9.48572700	7.89247000
110.89999359	0.00000000	7.94783400	6.31151500
111.09999358	0.00000000	6.79133800	4.77977300
111.29999357	0.00000000	6.36687900	3.62327700
111.49999356	0.00000000	6.36687900	3.24803100
111.69999355	0.00000000	6.79133800	3.62327700
111.89999353	0.00000000	7.94783400	4.77977300
112.09999352	0.00000000	9.44266700	6.31151500
112.29999351	0.00000000	10.59916000	7.80019600
112.49999350	0.00000000	11.02362000	8.63681000
112.69999349	0.00000000	11.06668000	8.64296200
112.89999347	0.00000000	11.02362000	8.67987200
113.09999346	0.00000000	10.59916000	8.26771600
113.29999345	0.00000000	9.48572700	7.89247000
113.49999344	0.00000000	8.37229300	7.47416300
113.69999343	0.00000000	7.94783400	6.72982200
113.89999341	0.00000000	7.90477300	6.35457700
114.09999340	0.00000000	7.94783400	6.31151500
114.29999339	0.00000000	8.32308000	6.31151500
114.49999338	0.00000000	9.06742000	6.26845500
114.69999337	0.00000000	9.48572700	5.93626900
114.89999336	0.00000000	9.90403500	5.57332700
115.09999334	0.00000000	10.64838000	5.89320800
115.29999333	0.00000000	10.97441000	5.89320800
115.49999332	0.00000000	10.64838000	5.57332700
115.69999331	0.00000000	9.90403500	5.98548200
115.89999330	0.00000000	9.48572700	6.68676100
116.09999328	0.00000000	9.06742000	7.51722400
116.29999327	0.00000000	8.32308000	8.26771600
116.49999326	0.00000000	7.94783400	9.05511800
116.69999325	0.00000000	7.90477300	9.38115100
116.89999324	0.00000000	7.94783400	9.05511800
117.09999322	0.00000000	8.32308000	8.26771600
117.29999321	0.00000000	9.11048200	7.51722400
117.49999320	0.00000000	9.86097400	6.68676100
117.69999319	0.00000000	10.64838000	5.93626900
117.89999318	0.00000000	11.02362000	5.15501900
118.09999317	0.00000000	11.06668000	4.82898600
118.29999315	0.00000000	11.02362000	5.15501900
118.49999314	0.00000000	10.64838000	5.93626900
118.69999313	0.00000000	9.86097400	6.68676100
118.89999312	0.00000000	9.06742000	7.51722400
119.09999311	0.00000000	7.90477300	8.26771600
119.29999309	0.00000000	6.79133800	9.05511800
119.49999308	0.00000000	6.41609200	9.38115100
119.69999307	0.00000000	6.79133800	9.05511800
119.89999306	0.00000000	7.90477300	8.31077700
120.09999305	0.00000000	9.06742000	7.93553100
120.29999303	0.00000000	9.90403500	7.84940900
120.49999302	0.00000000	11.06668000	7.47416300
120.69999301	0.00000000	12.13706000	6.72982200
120.89999300	0.00000000	12.18012000	6.35457700
121.09999299	0.00000000	11.44193000	6.31151500
121.29999298	0.00000000	10.64838000	6.31151500
121.49999296	0.00000000	9.48572700	6.31151500
121.69999295	0.00000000	8.32308000	6.31151500
121.89999294	0.00000000	7.52952700	6.35457700
122.09999293	0.00000000	6.79133800	6.72982200
122.29999292	0.00000000	6.79133800	7.47416300
122.49999290	0.00000000	7.52952700	7.84940900
122.69999289	0.00000000	8.28001900	7.93553100
122.89999288	0.00000000	9.11048200	8.26771600
123.09999287	0.00000000	9.86097400	8.63681000
123.29999286	0.00000000	10.64838000	8.26771600
123.49999284	0.00000000	11.02362000	7.89247000
123.69999283	0.00000000	11.06668000	7.47416300
123.89999282	0.00000000	11.06668000	6.72982200
124.09999281	0.00000000	11.02362000	6.35457700
124.29999280	0.00000000	10.64838000	6.31151500
124.49999279	0.00000000	9.86097400	6.31151500
124.69999277	0.00000000	9.11048200	6.31151500
124.89999276	0.00000000	8.32308000	6.35457700
125.09999275	0.00000000	7.94783400	6.72982200
125.29999274	0.00000000	7.90477300	7.47416300
125.49999273	0.00000000	7.90477300	7.84940900
125.69999271	0.00000000	7.94783400	7.89247000
125.89999270	0.00000000	8.32308000	7.89247000
126.09999269	0.00000000	9.11048200	7.89247000
126.29999268	0.00000000	9.86097400	7.89247000
126.49999267	0.00000000	10.64838000	7.89247000
126.69999265	0.00000000	11.02362000	7.84940900
126.89999264	0.00000000	11.02362000	7.47416300
127.09999263	0.00000000	10.64838000	6.72982200
127.29999262	0.00000000	9.86097400	6.35457700
127.49999261	0.00000000	9.11048200	6.31151500
127.69999260	0.00000000	8.32308000	6.31151500
127.89999258	0.00000000	7.94783400	6.31151500
128.09999257	0.00000000	7.90477300	6.31151500
128.29999256	0.00000000	7.94783400	6.31151500
128.49999255	0.00000000	8.37229300	6.35457700
128.69999254	0.00000000	9.48572700	6.72982200
128.89999252	0.00000000	10.59916000	7.47416300
129.09999251	0.00000000	11.02362000	7.84940900
129.29999250	0.00000000	11.06668000	7.84940900
129.49999249	0.00000000	11.02362000	7.47416300
129.69999248	0.00000000	10.59916000	6.72982200
129.89999246	0.00000000	9.44266700	6.35457700
130.09999245	0.00000000	7.94783400	6.31151500
130.29999244	0.00000000	6.83439900	6.31151500
130.49999243	0.00000000	6.79133800	6.35457700
130.69999242	0.00000000	7.52952700	6.72982200
130.89999241	0.00000000	8.28001900	7.47416300
131.09999239	0.00000000	9.11048200	7.84940900
131.29999238	0.00000000	9.86097400	7.89247000
131.49999237	0.00000000	10.64838000	7.84940900
131.69999236	0.00000000	11.02362000	7.47416300
131.89999235	0.00000000	11.02362000	6.72982200
132.09999233	0.00000000	10.64838000	6.35457700
132.29999232	0.00000000	9.86097400	6.31151500
132.49999231	0.00000000	9.11048200	6.31151500
132.69999230	0.00000000	8.32308000	6.31151500
132.89999229	0.00000000	7.94783400	6.35457700
133.09999227	0.00000000	7.94783400	6.77903500
133.29999226	0.00000000	8.32308000	7.89247000
133.49999225	0.00000000	9.06742000	9.00590400
133.69999224	0.00000000	9.44266700	9.38115100
133.89999223	0.00000000	9.48572700	9.05511800
134.09999222	0.00000000	9.48572700	8.26771600
134.29999220	0.00000000	9.48572700	7.51722400
134.49999219	0.00000000	9.48572700	6.68676100
134.69999218	0.00000000	9.48572700	5.93626900
134.89999217	0.00000000	9.48572700	5.15501900
135.09999216	0.00000000	9.48572700	4.82898600
135.29999214	0.00000000	9.48572700	5.15501900
135.49999213	0.00000000	9.48572700	5.93626900
135.69999212	0.00000000	9.52879000	6.68676100
135.89999211	0.00000000	9.81791200	7.47416300
136.09999210	0.00000000	9.85482200	7.89247000
136.29999208	0.00000000	9.07357200	8.26771600
136.49999207	0.00000000	8.73523500	8.63681000
136.69999206	0.00000000	8.28001900	8.22465500
136.89999205	0.00000000	7.94783400	7.51722400
137.09999204	0.00000000	7.94783400	6.72982200
137.29999203	0.00000000	8.32308000	6.35457700
137.49999201	0.00000000	9.06742000	6.31151500
137.69999200	0.00000000	9.48572700	6.31151500
137.89999199	0.00000000	9.90403500	6.31151500
138.09999198	0.00000000	10.64838000	6.31151500
138.29999197	0.00000000	10.97441000	6.31151500
138.49999195	0.00000000	10.64838000	6.35457700
138.69999194	0.00000000	9.86097400	6.72982200
138.89999193	0.00000000	9.11048200	7.47416300
139.09999192	0.00000000	8.32308000	7.89247000
139.29999191	0.00000000	7.99704600	8.31077700
139.49999189	0.00000000	8.32308000	9.05511800
139.69999188	0.00000000	9.06742000	9.43036400
139.89999187	0.00000000	9.48572700	9.43036400
140.09999186	0.00000000	9.86097400	9.00590400
140.29999185	0.00000000	10.27313000	7.89247000
140.49999184	0.00000000	10.27928000	6.77903500
140.69999182	0.00000000	10.64838000	6.31151500
140.89999181	0.00000000	10.59916000	5.89320800
141.09999180	0.00000000	9.90403500	5.15501900
141.29999179	0.00000000	9.48572700	4.82898600
141.49999178	0.00000000	9.06742000	5.15501900
141.69999176	0.00000000	8.37229300	5.93626900
141.89999175	0.00000000	8.37229300	6.68676100
142.09999174	0.00000000	9.06742000	7.51722400
142.29999173	0.00000000	9.44266700	8.26771600
142.49999172	0.00000000	9.48572700	9.05511800
142.69999170	0.00000000	9.48572700	9.38115100
142.89999169	0.00000000	9.52879000	9.05511800
143.09999168	0.00000000	9.86097400	8.26771600
143.29999167	0.00000000	10.23007000	7.47416300
143.49999166	0.00000000	9.86097400	6.31151500
143.69999165	0.00000000	9.52879000	5.19808000
143.89999163	0.00000000	9.48572700	4.82898600
144.09999162	0.00000000	9.48572700	5.15501900
144.29999161	0.00000000	9.48572700	5.93626900
144.49999160	0.00000000	9.48572700	6.68676100
144.69999159	0.00000000	9.52879000	7.47416300
144.89999157	0.00000000	9.86097400	7.84940900
145.09999156	0.00000000	10.23007000	7.89247000
145.29999155	0.00000000	9.86097400	7.89247000
145.49999154	0.00000000	9.52879000	7.89247000
145.69999153	0.00000000	9.48572700	7.84940900
145.89999151	0.00000000	9.44266700	7.47416300
146.09999150	0.00000000	9.11048200	6.72982200
146.29999149	0.00000000	8.74138700	6.35457700
146.49999148	0.00000000	9.11048200	6.31151500
146.69999147	0.00000000	9.44266700	6.31151500
146.89999146	0.00000000	9.52879000	6.31151500
147.09999144	0.00000000	9.90403500	6.35457700
147.29999143	0.00000000	10.64838000	6.72982200
147.49999142	0.00000000	10.97441000	7.47416300
147.69999141	0.00000000	10.64838000	7.84940900
147.89999140	0.00000000	9.90403500	7.89247000
148.09999138	0.00000000	9.52879000	7.89247000
148.29999137	0.00000000	9.48572700	7.89247000
148.49999136	0.00000000	9.48572700	7.89247000
148.69999135	0.00000000	9.48572700	7.89247000
148.89999134	0.00000000	9.48572700	7.84940900
149.09999132	0.00000000	9.48572700	7.47416300
149.29999131	0.00000000	9.48572700	6.72982200
149.49999130	0.00000000	9.52879000	6.35457700
149.69999129	0.00000000	9.86097400	6.31151500
149.89999128	0.00000000	10.27313000	6.31151500
150.09999127	0.00000000	10.23622000	6.35457700
150.29999125	0.00000000	10.27313000	6.72982200
150.49999124	0.00000000	9.86097400	7.47416300
150.69999123	0.00000000	9.52879000	7.84940900
150.89999122	0.00000000	9.44266700	7.89247000
151.09999121	0.00000000	9.11048200	7.89247000
151.29999119	0.00000000	8.74138700	7.89247000
151.49999118	0.00000000	9.11048200	7.89247000
151.69999117	0.00000000	9.44266700	7.89247000
151.89999116	0.00000000	9.48572700	7.84940900
152.09999115	0.00000000	9.48572700	7.47416300
152.29999113	0.00000000	9.52879000	6.72982200
152.49999112	0.00000000	9.86097400	6.35457700
152.69999111	0.00000000	10.23007000	6.31151500
152.89999110	0.00000000	9.90403500	6.35457700
153.09999109	0.00000000	9.95324800	6.72982200
153.29999108	0.00000000	10.59916000	7.47416300
153.49999106	0.00000000	10.59916000	7.84940900
153.69999105	0.00000000	9.90403500	7.89247000
153.89999104	0.00000000	9.48572700	7.89247000
154.09999103	0.00000000	9.11048200	7.89247000
154.29999102	0.00000000	8.74138700	7.89247000
154.49999100	0.00000000	9.06742000	7.89247000
154.69999099	0.00000000	9.06742000	7.89247000
154.89999098	0.00000000	8.74138700	7.84940900
155.09999097	0.00000000	9.11048200	7.47416300
155.29999096	0.00000000	9.48572700	6.72982200
155.49999094	0.00000000	9.90403500	6.35457700
155.69999093	0.00000000	10.64838000	6.31151500
155.89999092	0.00000000	10.97441000	6.35457700
156.09999091	0.00000000	10.64838000	6.72982200
156.29999090	0.00000000	9.90403500	7.47416300
156.49999089	0.00000000	9.52879000	7.84940900
156.69999087	0.00000000	9.48572700	7.89247000
156.89999086	0.00000000	9.44266700	7.89247000
157.09999085	0.00000000	9.06742000	7.89247000
157.29999084	0.00000000	8.32308000	7.89247000
157.49999083	0.00000000	7.99704600	7.89247000
157.69999081	0.00000000	8.32308000	7.89247000
157.89999080	0.00000000	9.06742000	7.84940900
158.09999079	0.00000000	9.48572700	7.47416300
158.29999078	0.00000000	9.90403500	6.72982200
158.49999077	0.00000000	10.64838000	6.35457700
158.69999075	0.00000000	11.02362000	6.35457700
158.89999074	0.00000000	11.02362000	6.68676100
159.09999073	0.00000000	10.64838000	7.09891700
159.29999072	0.00000000	9.90403500	7.10506800
159.49999071	0.00000000	9.52879000	7.51722400
159.69999070	0.00000000	9.48572700	7.84940900
159.89999068	0.00000000	9.48572700	7.89247000
160.09999067	0.00000000	9.48572700	7.89247000
160.29999066	0.00000000	9.48572700	7.89247000
160.49999065	0.00000000	9.48572700	7.89247000
160.69999064	0.00000000	9.48572700	7.84940900
160.89999062	0.00000000	9.48572700	7.47416300
161.09999061	0.00000000	9.48572700	6.72982200
161.29999060	0.00000000	9.48572700	6.35457700
161.49999059	0.00000000	9.48572700	6.31151500
161.69999058	0.00000000	9.48572700	6.31151500
161.89999056	0.00000000	9.48572700	6.35457700
162.09999055	0.00000000	9.48572700	6.72982200
162.29999054	0.00000000	9.48572700	7.47416300
162.49999053	0.00000000	9.48572700	7.84940900
162.69999052	0.00000000	9.48572700	7.89247000
162.89999051	0.00000000	9.48572700	7.89247000
163.09999049	0.00000000	9.48572700	7.89247000
163.29999048	0.00000000	9.48572700	7.89247000
163.49999047	0.00000000	9.48572700	7.84940900
163.69999046	0.00000000	9.48572700	7.47416300
163.89999045	0.00000000	9.48572700	6.72982200
164.09999043	0.00000000	9.48572700	6.35457700
164.29999042	0.00000000	9.48572700	6.31151500
164.49999041	0.00000000	9.48572700	6.31151500
164.69999040	0.00000000	9.52879000	6.31151500
164.89999039	0.00000000	9.86097400	6.31151500
165.09999037	0.00000000	10.27313000	6.35457700
165.29999036	0.00000000	10.23622000	6.68676100
165.49999035	0.00000000	10.27313000	7.09891700
165.69999034	0.00000000	9.86097400	7.10506800
165.89999033	0.00000000	9.52879000	7.51722400
166.09999032	0.00000000	9.48572700	7.84940900
166.29999030	0.00000000	9.48572700	7.89247000
166.49999029	0.00000000	9.48572700	7.89247000
166.69999028	0.00000000	9.48572700	7.89247000
166.89999027	0.00000000	9.48572700	7.89247000
167.09999026	0.00000000	9.48572700	7.89247000
167.29999024	0.00000000	9.48572700	7.89247000
167.49999023	0.00000000	9.48572700	7.84940900
167.69999022	0.00000000	9.52879000	7.51722400
167.89999021	0.00000000	9.86097400	7.10506800
168.09999020	0.00000000	10.27313000	7.09891700
168.29999018	0.00000000	10.23622000	6.68676100
168.49999017	0.00000000	10.27313000	6.40378900
168.69999016	0.00000000	9.86097400	6.68676100
168.89999015	0.00000000	9.52879000	7.09891700
169.09999014	0.00000000	9.48572700	7.10506800
169.29999013	0.00000000	9.48572700	7.51722400
169.49999011	0.00000000	9.48572700	7.84940900
169.69999010	0.00000000	9.48572700	7.89247000
169.89999009	0.00000000	9.48572700	7.89247000
170.09999008	0.00000000	9.48572700	7.89247000
170.29999007	0.00000000	9.44266700	7.84940900
170.49999005	0.00000000	9.11048200	7.51722400
170.69999004	0.00000000	8.74138700	7.14812900
170.89999003	0.00000000	9.11048200	7.47416300
171.09999002	0.00000000	9.44266700	7.47416300
171.29999001	0.00000000	9.48572700	7.10506800
171.49998999	0.00000000	9.48572700	7.09891700
171.69998998	0.00000000	9.48572700	6.68676100
171.89998997	0.00000000	9.48572700	6.35457700
172.09998996	0.00000000	9.48572700	6.35457700
172.29998995	0.00000000	9.48572700	6.68676100
172.49998994	0.00000000	9.48572700	7.09891700
172.69998992	0.00000000	9.48572700	7.10506800
172.89998991	0.00000000	9.48572700	7.51722400
173.09998990	0.00000000	9.48572700	7.80019600
173.29998989	0.00000000	9.48572700	7.51722400
173.49998988	0.00000000	9.48572700	7.14812900
173.69998986	0.00000000	9.48572700	7.51722400
173.89998985	0.00000000	9.48572700	7.80019600
174.09998984	0.00000000	9.48572700	7.47416300
174.29998983	0.00000000	9.48572700	6.77903500
174.49998982	0.00000000	9.48572700	6.77903500
174.69998980	0.00000000	9.48572700	7.42495000
174.89998979	0.00000000	9.48572700	7.42495000
175.09998978	0.00000000	9.48572700	6.72982200
175.29998977	0.00000000	9.48572700	6.40378900
175.49998976	0.00000000	9.48572700	6.72982200
175.69998975	0.00000000	9.48572700	7.47416300
175.89998973	0.00000000	9.48572700	7.84940900
176.09998972	0.00000000	9.52879000	7.89247000
176.29998971	0.00000000	9.86097400	7.89247000
176.49998970	0.00000000	10.23007000	7.89247000
176.69998969	0.00000000	9.86097400	7.89247000
176.89998967	0.00000000	9.52879000	7.84940900
177.09998966	0.00000000	9.48572700	7.47416300
177.29998965	0.00000000	9.48572700	6.72982200
177.49998964	0.00000000	9.48572700	6.35457700
177.69998963	0.00000000	9.48572700	6.31151500
177.89998961	0.00000000	9.48572700	6.31151500
178.09998960	0.00000000	9.48572700	6.31151500
178.29998959	0.00000000	9.48572700	6.35457700
178.49998958	0.00000000	9.48572700	6.72982200
178.69998957	0.00000000	9.48572700	7.47416300
178.89998956	0.00000000	9.48572700	7.84940900
179.09998954	0.00000000	9.48572700	7.89247000
179.29998953	0.00000000	9.48572700	7.89247000
179.49998952	0.00000000	9.48572700	7.89247000
179.69998951	0.00000000	9.48572700	7.84940900
179.89998950	0.00000000	9.48572700	7.51722400
180.09998948	0.00000000	9.48572700	7.10506800
180.29998947	0.00000000	9.48572700	7.09891700
180.49998946	0.00000000	9.48572700	6.68676100
180.69998945	0.00000000	9.48572700	6.35457700
180.89998944	0.00000000	9.48572700	6.35457700
181.09998942	0.00000000	9.48572700	6.72982200
181.29998941	0.00000000	9.48572700	7.47416300
181.49998940	0.00000000	9.48572700	7.84940900
181.69998939	0.00000000	9.48572700	7.89247000
181.89998938	0.00000000	9.48572700	7.89247000
182.09998937	0.00000000	9.48572700	7.89247000
182.29998935	0.00000000	9.48572700	7.89247000
182.49998934	0.00000000	9.48572700	7.89247000
182.69998933	0.00000000	9.48572700	7.84940900
182.89998932	0.00000000	9.48572700	7.47416300
183.09998931	0.00000000	9.52879000	6.72982200
183.29998929	0.00000000	9.86097400	6.35457700
183.49998928	0.00000000	10.23007000	6.31151500
183.69998927	0.00000000	9.86097400	6.31151500
183.89998926	0.00000000	9.52879000	6.31151500
184.09998925	0.00000000	9.48572700	6.35457700
184.29998923	0.00000000	9.48572700	6.72982200
184.49998922	0.00000000	9.48572700	7.47416300
184.69998921	0.00000000	9.48572700	7.84940900
184.89998920	0.00000000	9.48572700	7.89247000
185.09998919	0.00000000	9.48572700	7.89247000
185.29998918	0.00000000	9.48572700	7.89247000
185.49998916	0.00000000	9.48572700	7.89247000
185.69998915	0.00000000	9.48572700	7.84940900
185.89998914	0.00000000	9.48572700	7.47416300
186.09998913	0.00000000	9.48572700	6.72982200
186.29998912	0.00000000	9.52879000	6.35457700
186.49998910	0.00000000	9.90403500	6.31151500
186.69998909	0.00000000	10.59916000	6.35457700
186.89998908	0.00000000	10.59916000	6.72982200
187.09998907	0.00000000	9.90403500	7.47416300
187.29998906	0.00000000	9.52879000	7.84940900
187.49998904	0.00000000	9.48572700	7.89247000
187.69998903	0.00000000	9.48572700	7.89247000
187.89998902	0.00000000	9.48572700	7.93553100
188.09998901	0.00000000	9.48572700	8.26771600
188.29998900	0.00000000	9.48572700	8.63681000
188.49998899	0.00000000	9.48572700	8.22465500
188.69998897	0.00000000	9.48572700	7.51722400
188.89998896	0.00000000	9.48572700	6.72982200
189.09998895	0.00000000	9.48572700	6.35457700
189.29998894	0.00000000	9.48572700	6.31151500
189.49998893	0.00000000	9.48572700	6.31151500
189.69998891	0.00000000	9.48572700	6.31151500
189.89998890	0.00000000	9.48572700	6.31151500
190.09998889	0.00000000	9.48572700	6.35457700
190.29998888	0.00000000	9.48572700	6.72982200
190.49998887	0.00000000	9.48572700	7.47416300
190.69998885	0.00000000	9.48572700	7.84940900
190.89998884	0.00000000	9.48572700	7.89247000
191.09998883	0.00000000	9.48572700	7.89247000
191.29998882	0.00000000	9.48572700	7.89247000
191.49998881	0.00000000	9.48572700	7.89247000
191.69998880	0.00000000	9.48572700	7.89247000
191.89998878	0.00000000	9.48572700	7.84940900
192.09998877	0.00000000	9.48572700	7.47416300
192.29998876	0.00000000	9.52879000	6.72982200
192.49998875	0.00000000	9.86097400	6.35457700
192.69998874	0.00000000	10.23007000	6.31151500
192.89998872	0.00000000	9.86097400	6.31151500
193.09998871	0.00000000	9.52879000	6.35457700
193.29998870	0.00000000	9.48572700	6.72982200
193.49998869	0.00000000	9.48572700	7.47416300
193.69998868	0.00000000	9.48572700	7.84940900
193.89998866	0.00000000	9.48572700	7.89247000
194.09998865	0.00000000	9.48572700	7.89247000
194.29998864	0.00000000	9.48572700	7.89247000
194.49998863	0.00000000	9.52879000	7.89247000
194.69998862	0.00000000	9.86097400	7.89247000
194.89998861	0.00000000	10.23007000	7.89247000
195.09998859	0.00000000	9.86097400	7.89247000
195.29998858	0.00000000	9.52879000	7.84940900
195.49998857	0.00000000	9.48572700	7.47416300
195.69998856	0.00000000	9.48572700	6.77903500
195.89998855	0.00000000	9.48572700	6.72982200
196.09998853	0.00000000	9.48572700	7.05585600
