Time	Channel A	Channel B	Channel C
(us)	(V)	(mV)	(mV)

-4.49999956	0.00000000	1.58095500	3.15575800
-4.29999957	0.00000000	1.58095500	3.15575800
-4.09999958	0.00000000	1.58095500	3.15575800
-3.89999959	0.00000000	1.58095500	3.19881900
-3.69999960	0.00000000	1.58095500	3.53100400
-3.49999962	0.00000000	1.53789400	3.90009800
-3.29999963	0.00000000	1.20570900	3.53100400
-3.09999964	0.00000000	0.83661410	3.19881900
-2.89999965	0.00000000	1.20570900	3.15575800
-2.69999966	0.00000000	1.53789400	3.15575800
-2.49999968	0.00000000	1.58095500	3.15575800
-2.29999969	0.00000000	1.58095500	3.19881900
-2.09999970	0.00000000	1.58095500	3.53100400
-1.89999971	0.00000000	1.58095500	3.90009800
-1.69999972	0.00000000	1.58095500	3.53100400
-1.49999973	0.00000000	1.58095500	3.19881900
-1.29999975	0.00000000	1.58095500	3.15575800
-1.09999976	0.00000000	1.58095500	3.15575800
-0.89999977	0.00000000	1.58095500	3.19881900
-0.69999978	0.00000000	1.58095500	3.57406500
-0.49999979	0.00000000	1.58095500	4.26919300
-0.29999981	0.31803640	1.58095500	4.26919300
-0.09999982	0.63668800	1.58095500	3.57406500
0.10000017	0.95533960	1.58095500	3.19881900
0.30000016	0.95533960	1.58095500	3.15575800
0.50000015	0.79601380	1.58095500	3.15575800
0.70000013	0.31803640	1.58095500	3.15575800
0.90000012	-0.47736220	1.53789400	3.15575800
1.10000011	-1.43331700	1.20570900	3.15575800
1.30000010	-2.38927200	0.83661410	3.19881900
1.50000009	-2.70792300	1.20570900	3.53100400
1.70000008	-2.38927200	1.53789400	3.94315900
1.90000006	-1.27399100	1.58095500	3.90625000
2.10000005	0.47736220	1.58095500	3.94315900
2.30000004	2.54859700	1.58095500	3.53100400
2.50000003	4.45989200	1.53789400	3.19881900
2.70000002	5.25652100	1.20570900	3.15575800
2.90000000	4.93786900	0.79355310	3.11269700
3.09999999	3.02657500	0.83046260	2.78051200
3.29999998	0.00000000	0.79355310	2.41141700
3.49999997	-3.50393700	1.20570900	2.78051200
3.69999996	-6.37180100	1.53789400	3.15575800
3.89999994	-7.96444400	1.58095500	3.57406500
4.09999993	-7.48646600	1.58095500	4.31840500
4.29999992	-5.09719500	1.58095500	4.69365100
4.49999991	-1.27399100	1.58095500	4.73671200
4.69999990	3.18590100	1.58095500	4.69365100
4.89999989	7.00848900	1.58095500	4.31840500
5.09999987	9.23905000	1.58095500	3.57406500
5.29999986	9.07972400	1.53789400	3.15575800
5.49999985	6.69045300	1.20570900	2.73745100
5.69999984	2.54859700	0.83661410	2.04232300
5.89999983	-2.22994600	1.20570900	2.04232300
6.09999981	-6.53112700	1.53789400	2.73745100
6.29999980	-9.07972400	1.58095500	3.15575800
6.49999979	-9.23905000	1.58095500	3.57406500
6.69999978	-7.16781500	1.58095500	4.31840500
6.89999977	-3.50393700	1.58095500	4.69365100
7.09999975	0.79601380	1.58095500	4.69365100
7.29999974	4.77854300	1.58095500	4.31840500
7.49999973	7.16781500	1.58095500	3.57406500
7.69999972	7.64579200	1.58095500	3.19881900
7.89999971	6.21247500	1.58095500	3.15575800
8.09999970	3.50393700	1.53789400	3.15575800
8.29999968	0.15871060	1.20570900	3.15575800
8.49999967	-2.70792300	0.83661410	3.15575800
8.69999966	-4.61921700	1.20570900	3.15575800
8.89999965	-5.25652100	1.53789400	3.19881900
9.09999964	-4.45989200	1.58095500	3.57406500
9.29999962	-2.70792300	1.58095500	4.26919300
9.49999961	-0.79601380	1.53789400	4.26919300
9.69999960	1.11466500	1.20570900	3.57406500
9.89999959	2.22994600	0.83661410	3.19881900
10.09999958	2.54859700	1.20570900	3.15575800
10.29999956	2.22994600	1.53789400	3.15575800
10.49999955	1.43331700	1.58095500	3.15575800
10.69999954	0.47736220	1.58095500	3.15575800
10.89999953	-0.15871060	1.58095500	3.15575800
11.09999952	-0.79601380	1.58095500	3.15575800
11.29999951	-0.95533960	1.58095500	3.15575800
11.49999949	-0.95533960	1.58095500	3.15575800
11.69999948	-0.79601380	1.58095500	3.15575800
11.89999947	-0.47736220	1.58095500	3.15575800
12.09999946	-0.15871060	1.58095500	3.15575800
12.29999945	-0.15871060	1.58095500	3.15575800
12.49999943	0.00000000	1.58095500	3.15575800
12.69999942	0.00000000	1.58095500	3.15575800
12.89999941	0.00000000	1.58095500	3.19881900
13.09999940	0.00000000	1.58095500	3.53100400
13.29999939	0.00000000	1.58095500	3.90009800
13.49999937	0.00000000	1.58095500	3.53100400
13.69999936	0.00000000	1.58095500	3.19881900
13.89999935	0.00000000	1.58095500	3.15575800
14.09999934	-0.15871060	1.58095500	3.15575800
14.29999933	-0.15871060	1.58095500	3.15575800
14.49999932	-0.15871060	1.58095500	3.15575800
14.69999930	0.00000000	1.58095500	3.15575800
14.89999929	0.00000000	1.58095500	3.15575800
15.09999928	0.00000000	1.58095500	3.15575800
15.29999927	0.00000000	1.58095500	3.15575800
15.49999926	0.00000000	1.58095500	3.19881900
15.69999924	0.00000000	1.58095500	3.57406500
15.89999923	0.00000000	1.58095500	4.31840500
16.09999922	0.00000000	1.58095500	4.64443900
16.29999921	0.00000000	1.58095500	4.36146600
16.49999920	0.00000000	1.58095500	3.99237200
16.69999919	-0.15871060	1.62401600	4.36146600
16.89999917	0.00000000	1.99926200	4.69365100
17.09999916	0.00000000	2.74360200	4.69365100
17.29999915	0.00000000	3.11884800	4.31840500
17.49999914	0.00000000	3.16190900	3.57406500
17.69999913	0.00000000	3.11884800	3.19881900
17.89999911	0.00000000	2.74360200	3.15575800
18.09999910	0.00000000	1.95620100	3.15575800
18.29999909	0.00000000	1.11343500	3.15575800
18.49999908	0.00000000	-0.41830710	3.15575800
18.69999907	0.00000000	-2.27608300	3.19881900
18.89999905	0.00000000	-3.06963600	3.53100400
19.09999904	-0.15871060	-3.11884800	3.90009800
19.29999903	0.00000000	-2.60826800	3.53100400
19.49999902	0.00000000	-0.65206690	3.19881900
19.69999901	0.00000000	2.78666300	3.15575800
19.89999900	0.00000000	6.28075700	3.15575800
20.09999898	0.00000000	9.39345400	3.15575800
20.29999897	0.00000000	11.67569000	3.15575800
20.49999896	0.00000000	11.95866000	3.15575800
20.69999895	0.00000000	9.62721400	3.15575800
20.89999894	0.00000000	4.51525500	3.15575800
21.09999892	0.00000000	-2.41756900	3.15575800
21.29999891	0.00000000	-10.13779000	3.15575800
21.49999890	0.00000000	-16.23400000	3.15575800
21.69999889	0.00000000	-18.93455000	3.15575800
21.89999888	0.00000000	-17.31053000	3.15575800
22.09999886	0.00000000	-11.07283000	3.15575800
22.29999885	0.00000000	-0.93503930	3.15575800
22.49999884	0.00000000	11.39887000	3.15575800
22.69999883	0.00000000	23.34522000	3.15575800
22.89999882	0.00000000	31.36073000	3.19881900
23.09999881	0.00000000	33.21850000	3.57406500
23.29999879	0.00000000	27.35605000	4.31840500
23.49999878	0.00000000	14.56693000	4.73671200
23.69999877	0.00000000	-2.41756900	5.15501900
23.89999876	0.00000000	-20.18947000	5.89320800
24.09999875	0.00000000	-34.06126000	6.21924200
24.29999873	0.00000000	-40.94488000	5.85014700
24.49999872	0.00000000	-38.52116000	4.68750000
24.69999871	0.00000000	-26.10728000	3.15575800
24.89999870	0.00000000	-6.42224400	1.57480300
25.09999869	0.00000000	16.37549000	0.04306102
25.29999867	0.00000000	36.79872000	-1.11343500
25.49999866	-0.15871060	49.87696000	-1.48253000
25.69999865	0.00000000	52.15305000	-1.02116100
25.89999864	0.00000000	42.48277000	0.92888770
26.09999863	0.00000000	23.21604000	4.40452700
26.29999862	0.00000000	-1.16264800	8.26771600
26.49999860	0.00000000	-25.12303000	12.16166000
26.69999859	0.00000000	-43.68848000	15.14518000
26.89999858	0.00000000	-52.48523000	15.88336000
27.09999857	0.00000000	-48.99114000	13.52116000
27.29999856	0.00000000	-33.59375000	8.45226300
27.49999854	0.00000000	-10.46998000	1.11343500
27.69999853	0.00000000	14.70226000	-6.96358300
27.89999852	0.00000000	36.75566000	-13.52116000
28.09999851	0.00000000	50.99040000	-17.37205000
28.29999850	0.00000000	53.73400000	-17.24286000
28.49999848	0.00000000	44.52510000	-12.17397000
28.69999847	0.00000000	26.37795000	-2.46678100
28.89999846	0.00000000	3.20497000	9.84867000
29.09999845	0.00000000	-19.54355000	22.20103000
29.29999844	0.00000000	-36.24508000	31.40379000
29.49999843	0.00000000	-44.06372000	35.21776000
29.69999841	0.00000000	-42.15059000	32.05585000
29.89999840	0.00000000	-30.98548000	22.02264000
30.09999839	0.00000000	-13.58268000	7.33882900
30.29999838	0.00000000	6.14542300	-8.91978400
30.49999837	0.00000000	24.28642000	-23.55438000
30.69999835	0.00000000	36.28814000	-33.16929000
30.89999834	0.00000000	39.87451000	-35.03321000
31.09999833	0.00000000	35.31004000	-28.47564000
31.29999832	0.00000000	24.05266000	-14.54232000
31.49999831	0.00000000	8.64911400	3.57406500
31.69999829	0.00000000	-7.58489100	22.15797000
31.89999828	0.00000000	-20.33710000	37.16781000
32.09999827	0.00000000	-27.39911000	45.29404000
32.29999826	0.00000000	-27.81742000	44.50664000
32.49999825	0.00000000	-22.05339000	35.26082000
32.69999824	0.00000000	-11.67569000	19.42052000
32.89999822	0.00000000	0.69512790	0.51058070
33.09999821	0.00000000	11.91560000	-17.28592000
33.29999820	0.00000000	20.09719000	-30.48105000
33.49999819	0.00000000	23.54207000	-36.61417000
33.69999818	0.00000000	21.62893000	-34.33194000
33.89999816	0.00000000	14.74532000	-23.88656000
34.09999815	0.00000000	5.16117100	-8.08316900
34.29999814	0.00000000	-4.09694900	10.07628000
34.49999813	0.00000000	-11.07283000	26.24877000
34.69999812	0.00000000	-14.14862000	36.74950000
34.89999810	0.00000000	-12.69685000	39.86220000
35.09999809	0.00000000	-7.72637700	35.26082000
35.29999808	0.00000000	-1.16264800	24.10802000
35.49999807	0.00000000	5.81323800	9.43036400
35.69999806	0.00000000	11.49114000	-5.67175200
35.89999805	0.00000000	13.81644000	-18.35630000
36.09999803	0.00000000	11.95866000	-25.27682000
36.29999802	0.00000000	7.39419200	-24.58169000
36.49999801	0.00000000	1.58095500	-17.32899000
36.69999800	0.00000000	-4.14616100	-5.75787400
36.89999799	0.00000000	-8.00319800	7.29576700
37.09999797	0.00000000	-8.79675100	18.44242000
37.29999796	0.00000000	-6.88361200	24.62475000
37.49999795	0.00000000	-2.65132900	24.71703000
37.69999794	0.00000000	2.69439000	19.32825000
37.89999793	0.00000000	7.35113100	10.12549000
38.09999791	0.00000000	10.42077000	-0.60285430
38.29999790	0.00000000	11.20817000	-9.34424200
38.49999789	0.00000000	9.35039300	-13.23819000
38.69999788	0.00000000	6.28075700	-11.34350000
38.89999787	0.00000000	2.69439000	-4.82898600
39.09999786	0.00000000	-1.48868100	4.73671200
39.29999784	0.00000000	-4.92741100	14.25935000
39.49999783	0.00000000	-6.14542300	20.39862000
39.69999782	0.00000000	-5.85629900	21.55512000
39.89999781	0.00000000	-4.65059000	17.28592000
40.09999780	0.00000000	-2.69439000	8.50147600
40.29999778	0.00000000	0.00000000	-2.18380900
40.49999777	0.00000000	2.69439000	-11.01132000
40.69999776	0.00000000	4.69980300	-15.66191000
40.89999775	0.00000000	6.28075700	-15.23745000
41.09999774	0.00000000	7.43725300	-9.47957600
41.29999772	0.00000000	7.81250000	0.13533460
41.49999771	0.00000000	7.43725300	10.86983000
41.69999770	0.00000000	6.23154500	20.06643000
41.89999769	0.00000000	4.32455700	24.66781000
42.09999768	0.00000000	1.95620100	23.60359000
42.29999767	0.00000000	-0.37524600	17.83957000
42.49999765	0.00000000	-2.69439000	8.96284400
42.69999764	0.00000000	-4.23228400	-0.97810030
42.89999763	0.00000000	-4.65059000	-9.06126900
43.09999762	0.00000000	-4.27534400	-13.01058000
43.29999761	0.00000000	-3.06963600	-13.05364000
43.49999759	0.00000000	-1.16264800	-9.56569900
43.69999758	0.00000000	1.16264800	-3.02042300
43.89999757	0.00000000	3.11884800	4.64443900
44.09999756	0.00000000	4.74286400	11.56496000
44.29999755	0.00000000	6.28075700	15.84030000
44.49999753	0.00000000	7.39419200	16.67692000
44.69999752	0.00000000	7.43725300	14.76993000
44.89999751	0.00000000	6.69906400	10.53765000
45.09999750	0.00000000	5.90551100	5.19808000
45.29999749	0.00000000	4.65059000	0.55364170
45.49999748	0.00000000	2.69439000	-2.55905500
45.69999746	0.00000000	-0.04306102	-3.76476400
45.89999745	0.00000000	-3.11884800	-3.06348400
46.09999744	0.00000000	-5.85629900	-1.53174200
46.29999743	0.00000000	-7.81250000	0.46751960
46.49999742	0.00000000	-8.88902600	3.19881900
46.69999740	0.00000000	-8.00319800	6.22539300
46.89999739	0.00000000	-4.14616100	8.54453700
47.09999738	0.00000000	1.62401600	9.38115100
47.29999737	0.00000000	7.86171200	9.33809000
47.49999736	0.00000000	13.63189000	8.16929100
47.69999734	0.00000000	17.48893000	5.48720400
47.89999733	0.00000000	18.19021000	2.82972400
48.09999732	0.00000000	15.48966000	0.41830710
48.29999731	0.00000000	9.21505800	-1.43946800
48.49999730	0.00000000	0.78740150	-2.22687000
48.69999729	0.00000000	-8.13853400	-1.43946800
48.89999727	0.00000000	-15.02830000	0.46751960
49.09999726	0.00000000	-18.51624000	3.24803100
49.29999725	0.00000000	-17.31053000	6.64370100
49.49999724	0.00000000	-11.54035000	9.70103300
49.69999723	0.00000000	-2.65132900	10.86983000
49.89999721	0.00000000	7.39419200	10.53765000
50.09999720	0.00000000	16.23400000	8.91978400
50.29999719	0.00000000	21.62893000	5.80093500
50.49999718	0.00000000	22.00418000	1.62401600
50.69999717	0.00000000	17.39665000	-2.22687000
50.89999715	0.00000000	8.93208600	-4.50910400
51.09999714	0.00000000	-1.07037400	-4.87819900
51.29999713	0.00000000	-9.91018600	-2.60211600
51.49999712	0.00000000	-15.30512000	1.20570900
51.69999711	0.00000000	-15.72958000	5.11195900
51.89999710	0.00000000	-11.54035000	8.96284400
52.09999708	0.00000000	-4.23228400	11.61417000
52.29999707	0.00000000	4.23228400	12.03248000
52.49999706	0.00000000	11.54035000	10.49459000
52.69999705	0.00000000	15.77264000	7.42495000
52.89999704	0.00000000	15.77264000	3.57406500
53.09999702	0.00000000	11.58341000	0.13533460
53.29999701	0.00000000	4.69980300	-2.18380900
53.49999700	0.00000000	-2.60826800	-2.55905500
53.69999699	0.00000000	-8.32923100	-1.07037400
53.89999698	0.00000000	-10.65453000	1.58095500
54.09999696	0.00000000	-8.75369100	4.26919300
54.29999695	0.00000000	-3.81397600	6.22539300
54.49999694	0.00000000	2.69439000	7.38188900
54.69999693	0.00000000	8.46456700	7.33882900
54.89999692	0.00000000	11.95866000	5.85014700
55.09999691	0.00000000	12.74606000	3.57406500
55.29999689	0.00000000	10.37771000	1.66707700
55.49999688	0.00000000	5.39493100	0.55364170
55.69999687	0.00000000	-1.11343500	0.97194880
55.89999686	0.00000000	-6.84055100	3.24803100
56.09999685	0.00000000	-9.91018600	6.26845500
56.29999683	0.00000000	-9.58415200	8.91978400
56.49999682	0.00000000	-6.09621000	10.07628000
56.69999681	0.00000000	-0.74434050	9.29502900
56.89999680	0.00000000	5.43799200	6.96358300
57.09999679	0.00000000	10.37771000	3.11269700
57.29999677	0.00000000	12.74606000	-1.07037400
57.49999676	0.00000000	12.00172000	-4.13385800
57.69999675	0.00000000	8.93208600	-5.29650500
57.89999674	0.00000000	4.27534400	-4.09079700
58.09999673	0.00000000	-1.07037400	-0.60285430
58.29999672	0.00000000	-5.30265700	4.77977300
58.49999670	0.00000000	-7.25885800	10.53765000
58.69999669	0.00000000	-6.93282500	15.09596000
58.89999668	0.00000000	-4.60752900	16.99680000
59.09999667	0.00000000	-1.11343500	15.05290000
59.29999666	0.00000000	3.11884800	10.07628000
59.49999664	0.00000000	6.93282500	3.15575800
59.69999663	0.00000000	8.83981200	-3.76476400
59.89999662	0.00000000	8.51377900	-8.78444900
60.09999661	0.00000000	6.23154500	-11.10359000
60.29999660	0.00000000	3.20497000	-9.84867000
60.49999658	0.00000000	0.46751960	-4.87819900
60.69999657	0.00000000	-1.48868100	2.78051200
60.89999656	0.00000000	-2.65132900	10.49459000
61.09999655	0.00000000	-2.60826800	16.67692000
61.29999654	0.00000000	-1.11343500	20.11565000
61.49999653	0.00000000	1.20570900	19.32825000
61.69999651	0.00000000	3.49409400	14.72687000
61.89999650	0.00000000	5.39493100	7.38188900
62.09999649	0.00000000	5.77017700	-1.02116100
62.29999648	0.00000000	4.65059000	-7.94783400
62.49999647	0.00000000	2.74360200	-11.47884000
62.69999645	0.00000000	0.41830710	-11.52190000
62.89999644	0.00000000	-1.48868100	-8.36614100
63.09999643	0.00000000	-2.65132900	-2.22687000
63.29999642	0.00000000	-2.60826800	5.43184000
63.49999641	0.00000000	-1.07037400	11.98327000
63.69999639	0.00000000	1.58095500	16.30167000
63.89999638	0.00000000	4.23228400	17.83957000
64.09999637	0.00000000	5.81323800	16.30167000
64.29999636	0.00000000	6.23154500	12.07554000
64.49999635	0.00000000	5.81323800	6.31151500
64.69999634	0.00000000	4.23228400	0.55364170
64.89999632	0.00000000	1.58095500	-3.76476400
65.09999631	0.00000000	-1.07037400	-6.09005900
65.29999630	0.00000000	-2.60826800	-6.50221400
65.49999629	0.00000000	-2.65132900	-4.60137700
65.69999628	0.00000000	-1.48868100	-1.58095500
65.89999626	0.00000000	0.41830710	1.58095500
66.09999625	0.00000000	2.69439000	4.68750000
66.29999624	0.00000000	4.23228400	7.43110200
66.49999623	0.00000000	4.65059000	9.38115100
66.69999622	0.00000000	4.23228400	10.58686000
66.89999620	0.00000000	2.69439000	10.95595000
67.09999619	0.00000000	0.46751960	10.58686000
67.29999618	0.00000000	-1.07037400	9.38115100
67.49999617	0.00000000	-1.48868100	7.43110200
67.69999616	0.00000000	-1.02731300	4.68750000
67.89999615	0.00000000	0.88582670	1.58095500
68.09999613	0.00000000	3.90625000	-1.53174200
68.29999612	0.00000000	6.23154500	-4.26919300
68.49999611	0.00000000	7.76943800	-6.13312000
68.69999610	0.00000000	8.08932000	-6.45300100
68.89999609	0.00000000	6.09621000	-4.14000900
69.09999607	0.00000000	2.32529500	0.09227362
69.29999606	0.00000000	-2.32529500	5.15501900
69.49999605	0.00000000	-6.14542300	10.53765000
69.69999604	0.00000000	-8.46456700	14.76993000
69.89999603	0.00000000	-8.42150500	16.71998000
70.09999601	0.00000000	-5.72711600	16.30167000
70.29999600	0.00000000	-1.02731300	13.18898000
70.49999599	0.00000000	5.11811000	7.80019600
70.69999598	0.00000000	11.25123000	1.62401600
70.89999597	0.00000000	15.07751000	-4.14000900
71.09999596	0.00000000	15.90797000	-7.99089500
71.29999594	0.00000000	13.53962000	-8.78444900
71.49999593	0.00000000	8.51377900	-6.87746000
71.69999592	0.00000000	1.53789400	-2.60211600
71.89999591	0.00000000	-5.72711600	3.11269700
72.09999590	0.00000000	-11.16511000	8.50147600
72.29999588	0.00000000	-13.49655000	11.98942000
72.49999587	0.00000000	-12.69685000	13.18898000
72.69999586	0.00000000	-8.42150500	12.03248000
72.89999585	0.00000000	-1.53789400	9.00590400
73.09999584	0.00000000	5.81323800	5.19808000
73.29999582	0.00000000	12.00172000	2.12844500
73.49999581	0.00000000	15.85876000	0.51058070
73.69999580	0.00000000	16.23400000	0.13533460
73.89999579	0.00000000	13.20743000	0.87967510
74.09999578	0.00000000	7.81250000	2.78051200
74.29999577	0.00000000	1.62401600	4.60137700
74.49999575	0.00000000	-4.18922200	5.38262700
74.69999574	0.00000000	-8.42150500	4.60137700
74.89999573	0.00000000	-10.00246000	2.73745100
75.09999572	0.00000000	-8.83981200	0.46751960
75.29999571	0.00000000	-5.39493100	-1.02116100
75.49999569	0.00000000	-0.41830710	-1.06422200
75.69999568	0.00000000	4.18922200	0.13533460
75.89999567	0.00000000	7.35113100	2.50369100
76.09999566	0.00000000	8.93208600	6.35457700
76.29999565	0.00000000	8.93208600	10.49459000
76.49999563	0.00000000	7.39419200	13.18898000
76.69999562	0.00000000	4.74286400	13.56422000
76.89999561	0.00000000	2.04847400	11.61417000
77.09999560	0.00000000	0.09227362	7.33882900
77.29999559	0.00000000	-1.07037400	1.57480300
77.49999558	0.00000000	-1.11343500	-4.18307100
77.69999556	0.00000000	-0.37524600	-8.40920300
77.89999555	0.00000000	0.37524600	-9.89788300
78.09999554	0.00000000	1.16264800	-7.99089500
78.29999553	0.00000000	1.48868100	-2.97736200
78.49999552	0.00000000	1.16264800	3.53100400
78.69999550	0.00000000	0.41830710	10.11934000
78.89999549	0.00000000	0.09227362	15.09596000
79.09999548	0.00000000	0.46751960	17.46432000
79.29999547	0.00000000	1.62401600	16.67692000
79.49999546	0.00000000	3.16190900	13.23819000
79.69999544	0.00000000	4.69980300	7.84940900
79.89999543	0.00000000	5.85629900	2.08538400
80.09999542	0.00000000	6.23154500	-2.60211600
80.29999541	0.00000000	5.81323800	-5.71481200
80.49999540	0.00000000	4.23228400	-6.87130900
80.69999539	0.00000000	1.58095500	-5.71481200
80.89999537	0.00000000	-1.11343500	-2.69439000
81.09999536	0.00000000	-3.02657500	1.15649600
81.29999535	0.00000000	-3.77091500	4.68750000
81.49999534	0.00000000	-2.65132900	7.84940900
81.69999533	0.00000000	-0.37524600	10.49459000
81.89999531	0.00000000	1.99926200	11.70029000
82.09999530	0.00000000	4.69980300	11.38041000
82.29999529	0.00000000	6.93282500	10.58686000
82.49999528	0.00000000	7.35113100	8.96284400
82.69999527	0.00000000	6.28075700	6.31151500
82.89999525	0.00000000	4.69980300	3.57406500
83.09999524	0.00000000	2.74360200	1.20570900
83.29999523	0.00000000	0.46751960	-1.11343500
83.49999522	0.00000000	-1.07037400	-2.64517700
83.69999521	0.00000000	-1.48868100	-3.06348400
83.89999520	0.00000000	-1.11343500	-2.64517700
84.09999518	0.00000000	0.00000000	-1.07037400
84.29999517	0.00000000	1.16264800	1.66707700
84.49999516	0.00000000	1.95620100	5.15501900
84.69999515	0.00000000	2.69439000	8.96284400
84.89999514	0.00000000	2.69439000	11.65723000
85.09999512	0.00000000	1.99926200	12.49385000
85.29999511	0.00000000	1.62401600	12.07554000
85.49999510	0.00000000	1.62401600	10.07628000
85.69999509	0.00000000	2.04847400	6.21924200
85.89999508	0.00000000	3.16190900	1.66707700
86.09999506	0.00000000	4.27534400	-2.22687000
86.29999505	0.00000000	4.65059000	-4.55831700
86.49999504	0.00000000	4.27534400	-5.29650500
86.69999503	0.00000000	3.11884800	-3.71555100
86.89999502	0.00000000	1.58095500	0.09227362
87.09999501	0.00000000	0.04306102	4.69365100
87.29999499	0.00000000	-1.11343500	8.91978400
87.49999498	0.00000000	-1.48868100	11.65723000
87.69999497	0.00000000	-1.11343500	12.40773000
87.89999496	0.00000000	0.04306102	11.28199000
88.09999495	0.00000000	1.58095500	8.17544300
88.29999493	0.00000000	3.16190900	4.36146600
88.49999492	0.00000000	4.69980300	0.46751960
88.69999491	0.00000000	5.81323800	-2.55905500
88.89999490	0.00000000	5.81323800	-3.71555100
89.09999489	0.00000000	4.65059000	-2.60211600
89.29999487	0.00000000	2.74360200	0.09227362
89.49999486	0.00000000	0.46751960	3.62327700
89.69999485	0.00000000	-1.07037400	7.80019600
89.89999484	0.00000000	-1.53789400	11.18971000
90.09999483	0.00000000	-1.53789400	11.98327000
90.29999482	0.00000000	-1.11343500	10.45152000
90.49999480	0.00000000	0.09227362	7.00664300
90.69999479	0.00000000	1.95620100	2.41756900
90.89999478	0.00000000	3.85703700	-1.39640700
91.09999477	0.00000000	4.65059000	-3.76476400
91.29999476	0.00000000	4.69980300	-4.09079700
91.49999474	0.00000000	4.32455700	-2.18380900
91.69999473	0.00000000	3.53715500	1.66707700
91.89999472	0.00000000	2.78666300	6.26845500
92.09999471	0.00000000	1.99926200	10.49459000
92.29999470	0.00000000	1.67322800	13.14591000
92.49999468	0.00000000	1.95620100	13.14591000
92.69999467	0.00000000	2.32529500	10.45152000
92.89999466	0.00000000	1.91314000	5.85014700
93.09999465	0.00000000	1.20570900	0.51058070
93.29999464	0.00000000	0.41830710	-3.71555100
93.49999463	0.00000000	0.04306102	-5.67175200
93.69999461	0.00000000	0.00000000	-5.29650500
93.89999460	0.00000000	0.04306102	-2.55905500
94.09999459	0.00000000	0.51058070	2.04232300
94.29999458	0.00000000	2.04847400	7.38188900
94.49999457	0.00000000	4.32455700	11.56496000
94.69999455	0.00000000	6.23154500	13.14591000
94.89999454	0.00000000	7.39419200	12.03248000
95.09999453	0.00000000	7.39419200	8.96284400
95.29999452	0.00000000	6.23154500	4.69365100
95.49999451	0.00000000	4.23228400	0.13533460
95.69999449	0.00000000	1.16264800	-3.34645700
95.89999448	0.00000000	-2.27608300	-4.50910400
96.09999447	0.00000000	-4.56446800	-3.76476400
96.29999446	0.00000000	-5.39493100	-1.07037400
96.49999445	0.00000000	-4.56446800	2.73745100
96.69999444	0.00000000	-2.27608300	6.22539300
96.89999442	0.00000000	1.24877000	8.96284400
97.09999441	0.00000000	5.07504900	10.45152000
97.29999440	0.00000000	8.55684000	10.07628000
97.49999439	0.00000000	10.46998000	7.80019600
97.69999438	0.00000000	10.51304000	4.77977300
97.89999436	0.00000000	8.93208600	2.08538400
98.09999435	0.00000000	5.81323800	0.51058070
98.29999434	0.00000000	1.58095500	0.09227362
98.49999433	0.00000000	-2.65132900	0.46136810
98.69999432	0.00000000	-5.72711600	1.62401600
98.89999430	0.00000000	-6.93282500	3.15575800
99.09999429	0.00000000	-6.18848400	4.68750000
99.29999428	0.00000000	-4.23228400	5.85014700
99.49999427	0.00000000	-1.11343500	6.21924200
99.69999426	0.00000000	2.74360200	5.89320800
99.89999425	0.00000000	6.23154500	5.15501900
100.09999423	0.00000000	8.93208600	4.82898600
100.29999422	0.00000000	10.09473000	5.15501900
100.49999421	0.00000000	9.35039300	5.89320800
100.69999420	0.00000000	7.43725300	6.21924200
100.89999419	0.00000000	4.65059000	5.85014700
101.09999417	0.00000000	1.24877000	4.73671200
101.29999416	0.00000000	-1.85777500	3.53100400
101.49999415	0.00000000	-3.44488200	2.36220500
101.69999414	0.00000000	-4.27534400	0.83661410
101.89999413	0.00000000	-4.18922200	0.13533460
102.09999411	0.00000000	-2.65132900	0.46136810
102.29999410	0.00000000	0.00000000	1.66707700
102.49999409	0.00000000	2.69439000	3.61712600
102.69999408	0.00000000	4.69980300	6.31151500
102.89999407	0.00000000	6.23154500	8.96284400
103.09999406	0.00000000	7.01894700	10.49459000
103.29999404	0.00000000	6.65600300	10.49459000
103.49999403	0.00000000	5.85629900	8.96284400
103.69999402	0.00000000	4.27534400	6.26845500
103.89999401	0.00000000	1.99926200	3.19881900
104.09999400	0.00000000	0.09227362	0.46751960
104.29999398	0.00000000	-1.11343500	-1.43946800
104.49999397	0.00000000	-1.53789400	-2.18380900
104.69999396	0.00000000	-1.48868100	-1.02116100
104.89999395	0.00000000	-0.69512790	1.62401600
105.09999394	0.00000000	1.16264800	4.68750000
105.29999392	0.00000000	2.69439000	7.38188900
105.49999391	0.00000000	3.53715500	8.91978400
105.69999390	0.00000000	4.27534400	8.96284400
105.89999389	0.00000000	4.27534400	7.80019600
106.09999388	0.00000000	3.53715500	5.89320800
106.29999387	0.00000000	2.74360200	3.57406500
106.49999385	0.00000000	1.62401600	1.66707700
106.69999384	0.00000000	0.88582670	0.51058070
106.89999383	0.00000000	1.20570900	0.51058070
107.09999382	0.00000000	1.58095500	1.62401600
107.29999381	0.00000000	1.99926200	3.15575800
107.49999379	0.00000000	2.74360200	4.73671200
107.69999378	0.00000000	3.11884800	6.22539300
107.89999377	0.00000000	3.16190900	6.96358300
108.09999376	0.00000000	3.11884800	6.22539300
108.29999375	0.00000000	2.69439000	4.73671200
108.49999374	0.00000000	1.58095500	3.19881900
108.69999372	0.00000000	0.46751960	1.99311000
108.89999371	0.00000000	0.04306102	1.24877000
109.09999370	0.00000000	0.04306102	0.87967510
109.29999369	0.00000000	0.46751960	1.66707700
109.49999368	0.00000000	1.62401600	3.15575800
109.69999366	0.00000000	3.11884800	4.73671200
109.89999365	0.00000000	4.27534400	6.26845500
110.09999364	0.00000000	4.69980300	7.38188900
110.29999363	0.00000000	4.69980300	7.38188900
110.49999362	0.00000000	4.27534400	6.26845500
110.69999360	0.00000000	3.11884800	4.73671200
110.89999359	0.00000000	1.58095500	3.19881900
111.09999358	0.00000000	0.04306102	1.99311000
111.29999357	0.00000000	-1.07037400	1.24877000
111.49999356	0.00000000	-1.11343500	0.83661410
111.69999355	0.00000000	-0.37524600	1.24877000
111.89999353	0.00000000	0.41830710	1.99311000
112.09999352	0.00000000	1.62401600	3.19881900
112.29999351	0.00000000	3.11884800	4.68750000
112.49999350	0.00000000	4.27534400	5.85014700
112.69999349	0.00000000	4.65059000	6.21924200
112.89999347	0.00000000	4.27534400	5.89320800
113.09999346	0.00000000	3.16190900	5.15501900
113.29999345	0.00000000	2.04847400	4.77977300
113.49999344	0.00000000	1.58095500	4.69365100
113.69999343	0.00000000	1.20570900	4.31840500
113.89999341	0.00000000	0.83661410	3.57406500
114.09999340	0.00000000	1.20570900	3.19881900
114.29999339	0.00000000	1.53789400	3.15575800
114.49999338	0.00000000	1.62401600	3.15575800
114.69999337	0.00000000	1.99926200	3.15575800
114.89999336	0.00000000	2.74360200	3.15575800
115.09999334	0.00000000	3.11884800	3.15575800
115.29999333	0.00000000	3.16190900	3.15575800
115.49999332	0.00000000	3.11884800	3.15575800
115.69999331	0.00000000	2.74360200	3.19881900
115.89999330	0.00000000	1.99926200	3.62327700
116.09999328	0.00000000	1.58095500	4.73671200
116.29999327	0.00000000	1.16264800	5.85014700
116.49999326	0.00000000	0.41830710	6.26845500
116.69999325	0.00000000	0.04306102	6.26845500
116.89999324	0.00000000	0.04306102	5.89320800
117.09999322	0.00000000	0.46751960	5.11195900
117.29999321	0.00000000	1.58095500	4.31840500
117.49999320	0.00000000	2.74360200	3.15575800
117.69999319	0.00000000	3.53715500	2.04232300
117.89999318	0.00000000	4.32455700	1.66707700
118.09999317	0.00000000	4.69980300	1.99311000
118.29999315	0.00000000	4.69980300	2.73745100
118.49999314	0.00000000	4.27534400	3.15575800
118.69999313	0.00000000	3.11884800	3.57406500
118.89999312	0.00000000	1.62401600	4.36146600
119.09999311	0.00000000	0.46751960	5.11195900
119.29999309	0.00000000	0.04306102	5.89320800
119.49999308	0.00000000	0.04306102	6.26845500
119.69999307	0.00000000	0.41830710	6.26845500
119.89999306	0.00000000	1.20570900	5.89320800
120.09999305	0.00000000	1.99926200	5.15501900
120.29999303	0.00000000	3.16190900	4.73671200
120.49999302	0.00000000	4.27534400	4.31840500
120.69999301	0.00000000	4.69980300	3.57406500
120.89999300	0.00000000	4.74286400	3.19881900
121.09999299	0.00000000	4.69980300	3.15575800
121.29999298	0.00000000	4.27534400	3.15575800
121.49999296	0.00000000	3.11884800	3.15575800
121.69999295	0.00000000	1.62401600	3.15575800
121.89999294	0.00000000	0.46751960	3.19881900
122.09999293	0.00000000	0.04306102	3.57406500
122.29999292	0.00000000	0.04306102	4.31840500
122.49999290	0.00000000	0.41830710	4.69365100
122.69999289	0.00000000	1.20570900	4.73671200
122.89999288	0.00000000	1.95620100	4.73671200
123.09999287	0.00000000	2.74360200	4.73671200
123.29999286	0.00000000	3.16190900	4.73671200
123.49999284	0.00000000	3.58021600	4.69365100
123.69999283	0.00000000	4.27534400	4.31840500
123.89999282	0.00000000	4.27534400	3.57406500
124.09999281	0.00000000	3.58021600	3.19881900
124.29999280	0.00000000	3.16190900	3.15575800
124.49999279	0.00000000	2.69439000	3.15575800
124.69999277	0.00000000	1.62401600	3.15575800
124.89999276	0.00000000	0.83661410	3.15575800
125.09999275	0.00000000	0.78740150	3.19881900
125.29999274	0.00000000	0.37524600	3.57406500
125.49999273	0.00000000	0.09227362	4.31840500
125.69999271	0.00000000	0.41830710	4.69365100
125.89999270	0.00000000	1.20570900	4.73671200
126.09999269	0.00000000	1.99926200	4.73671200
126.29999268	0.00000000	3.16190900	4.73671200
126.49999267	0.00000000	4.27534400	4.73671200
126.69999265	0.00000000	4.69980300	4.73671200
126.89999264	0.00000000	4.69980300	4.69365100
127.09999263	0.00000000	4.27534400	4.31840500
127.29999262	0.00000000	3.11884800	3.57406500
127.49999261	0.00000000	1.62401600	3.19881900
127.69999260	0.00000000	0.46751960	3.15575800
127.89999258	0.00000000	0.04306102	3.15575800
128.09999257	0.00000000	0.04306102	3.19881900
128.29999256	0.00000000	0.41830710	3.57406500
128.49999255	0.00000000	1.20570900	4.31840500
128.69999254	0.00000000	1.99926200	4.69365100
128.89999252	0.00000000	3.16190900	4.73671200
129.09999251	0.00000000	4.27534400	4.73671200
129.29999250	0.00000000	4.65059000	4.69365100
129.49999249	0.00000000	4.27534400	4.31840500
129.69999248	0.00000000	3.16190900	3.57406500
129.89999246	0.00000000	1.99926200	3.19881900
130.09999245	0.00000000	1.20570900	3.15575800
130.29999244	0.00000000	0.41830710	3.19881900
130.49999243	0.00000000	0.09227362	3.57406500
130.69999242	0.00000000	0.46751960	4.31840500
130.89999241	0.00000000	1.58095500	4.69365100
131.09999239	0.00000000	2.69439000	4.73671200
131.29999238	0.00000000	3.16190900	4.73671200
131.49999237	0.00000000	3.58021600	4.69365100
131.69999236	0.00000000	4.27534400	4.31840500
131.89999235	0.00000000	4.27534400	3.57406500
132.09999233	0.00000000	3.53715500	3.19881900
132.29999232	0.00000000	2.78666300	3.15575800
132.49999231	0.00000000	1.99926200	3.15575800
132.69999230	0.00000000	1.62401600	3.19881900
132.89999229	0.00000000	1.58095500	3.57406500
133.09999227	0.00000000	1.58095500	4.36146600
133.29999226	0.00000000	1.62401600	5.11195900
133.49999225	0.00000000	1.99926200	5.89320800
133.69999224	0.00000000	2.74360200	6.21924200
133.89999223	0.00000000	3.06963600	5.89320800
134.09999222	0.00000000	2.74360200	5.15501900
134.29999220	0.00000000	2.04847400	4.73671200
134.49999219	0.00000000	1.99926200	4.26919300
134.69999218	0.00000000	2.32529500	3.15575800
134.89999217	0.00000000	1.99926200	2.04232300
135.09999216	0.00000000	2.04847400	1.66707700
135.29999214	0.00000000	2.74360200	1.99311000
135.49999213	0.00000000	3.11884800	2.78051200
135.69999212	0.00000000	3.16190900	3.53100400
135.89999211	0.00000000	3.11884800	4.36146600
136.09999210	0.00000000	2.74360200	5.11195900
136.29999208	0.00000000	1.99926200	5.85014700
136.49999207	0.00000000	1.62401600	5.85014700
136.69999206	0.00000000	1.58095500	5.15501900
136.89999205	0.00000000	1.58095500	4.73671200
137.09999204	0.00000000	1.58095500	4.31840500
137.29999203	0.00000000	1.62401600	3.57406500
137.49999201	0.00000000	1.99926200	3.19881900
137.69999200	0.00000000	2.78666300	3.15575800
137.89999199	0.00000000	3.49409400	3.15575800
138.09999198	0.00000000	3.90625000	3.15575800
138.29999197	0.00000000	3.53715500	3.15575800
138.49999195	0.00000000	3.16190900	3.15575800
138.69999194	0.00000000	2.74360200	3.19881900
138.89999193	0.00000000	1.99926200	3.57406500
139.09999192	0.00000000	1.62401600	4.31840500
139.29999191	0.00000000	1.58095500	4.69365100
139.49999189	0.00000000	1.58095500	4.73671200
139.69999188	0.00000000	1.62401600	4.73671200
139.89999187	0.00000000	1.99926200	4.73671200
140.09999186	0.00000000	2.74360200	4.73671200
140.29999185	0.00000000	3.11884800	4.69365100
140.49999184	0.00000000	3.16190900	4.31840500
140.69999182	0.00000000	3.16190900	3.57406500
140.89999181	0.00000000	3.11884800	3.15575800
141.09999180	0.00000000	2.74360200	2.78051200
141.29999179	0.00000000	1.99926200	2.41141700
141.49999178	0.00000000	1.62401600	2.82357300
141.69999176	0.00000000	1.58095500	3.53100400
141.89999175	0.00000000	1.62401600	4.36146600
142.09999174	0.00000000	1.99926200	5.11195900
142.29999173	0.00000000	2.74360200	5.89320800
142.49999172	0.00000000	3.11884800	6.26845500
142.69999170	0.00000000	3.16190900	6.26845500
142.89999169	0.00000000	3.16190900	5.89320800
143.09999168	0.00000000	3.11884800	5.11195900
143.29999167	0.00000000	2.74360200	4.36146600
143.49999166	0.00000000	1.99926200	3.53100400
143.69999165	0.00000000	1.62401600	2.82357300
143.89999163	0.00000000	1.58095500	2.41141700
144.09999162	0.00000000	1.62401600	2.82357300
144.29999161	0.00000000	1.99926200	3.53100400
144.49999160	0.00000000	2.74360200	4.36146600
144.69999159	0.00000000	3.11884800	5.11195900
144.89999157	0.00000000	3.16190900	5.89320800
145.09999156	0.00000000	3.16190900	6.26845500
145.29999155	0.00000000	3.16190900	6.26845500
145.49999154	0.00000000	3.11884800	5.89320800
145.69999153	0.00000000	2.74360200	5.11195900
145.89999151	0.00000000	1.99926200	4.36146600
146.09999150	0.00000000	1.62401600	3.57406500
146.29999149	0.00000000	1.58095500	3.19881900
146.49999148	0.00000000	1.62401600	3.15575800
146.69999147	0.00000000	1.99926200	3.15575800
146.89999146	0.00000000	2.74360200	3.15575800
147.09999144	0.00000000	3.11884800	3.19881900
147.29999143	0.00000000	3.16190900	3.57406500
147.49999142	0.00000000	3.16190900	4.31840500
147.69999141	0.00000000	3.11884800	4.69365100
147.89999140	0.00000000	2.78666300	4.73671200
148.09999138	0.00000000	2.37450800	4.73671200
148.29999137	0.00000000	2.36835600	4.73671200
148.49999136	0.00000000	1.99926200	4.73671200
148.69999135	0.00000000	1.99926200	4.73671200
148.89999134	0.00000000	2.36835600	4.69365100
149.09999132	0.00000000	2.37450800	4.31840500
149.29999131	0.00000000	2.78666300	3.57406500
149.49999130	0.00000000	3.11884800	3.19881900
149.69999129	0.00000000	3.16190900	3.15575800
149.89999128	0.00000000	3.16190900	3.15575800
150.09999127	0.00000000	3.16190900	3.19881900
150.29999125	0.00000000	3.16190900	3.57406500
150.49999124	0.00000000	3.06963600	4.31840500
150.69999123	0.00000000	2.36835600	4.69365100
150.89999122	0.00000000	1.26107300	4.73671200
151.09999121	0.00000000	1.24877000	4.73671200
151.29999119	0.00000000	1.53789400	4.73671200
151.49999118	0.00000000	1.62401600	4.73671200
151.69999117	0.00000000	1.99926200	4.69365100
151.89999116	0.00000000	2.74360200	4.31840500
152.09999115	0.00000000	3.11884800	3.57406500
152.29999113	0.00000000	3.16190900	3.19881900
152.49999112	0.00000000	3.16190900	3.15575800
152.69999111	0.00000000	3.16190900	3.19881900
152.89999110	0.00000000	3.16190900	3.57406500
153.09999109	0.00000000	3.16190900	4.31840500
153.29999108	0.00000000	3.11884800	4.69365100
153.49999106	0.00000000	2.74360200	4.73671200
153.69999105	0.00000000	1.99926200	4.73671200
153.89999104	0.00000000	1.62401600	4.73671200
154.09999103	0.00000000	1.58095500	4.73671200
154.29999102	0.00000000	1.62401600	4.73671200
154.49999100	0.00000000	1.95620100	4.73671200
154.69999099	0.00000000	2.36835600	4.73671200
154.89999098	0.00000000	2.37450800	4.73671200
155.09999097	0.00000000	2.78666300	4.69365100
155.29999096	0.00000000	3.11884800	4.31840500
155.49999094	0.00000000	3.16190900	3.57406500
155.69999093	0.00000000	3.16190900	3.19881900
155.89999092	0.00000000	3.16190900	3.19881900
156.09999091	0.00000000	3.16190900	3.57406500
156.29999090	0.00000000	3.11884800	4.31840500
156.49999089	0.00000000	2.74360200	4.69365100
156.69999087	0.00000000	1.99926200	4.73671200
156.89999086	0.00000000	1.62401600	4.73671200
157.09999085	0.00000000	1.58095500	4.73671200
157.29999084	0.00000000	1.58095500	4.73671200
157.49999083	0.00000000	1.58095500	4.73671200
157.69999081	0.00000000	1.62401600	4.73671200
157.89999080	0.00000000	1.99926200	4.69365100
158.09999079	0.00000000	2.74360200	4.31840500
158.29999078	0.00000000	3.11884800	3.57406500
158.49999077	0.00000000	3.16190900	3.19881900
158.69999075	0.00000000	3.16190900	3.15575800
158.89999074	0.00000000	3.16190900	3.19881900
159.09999073	0.00000000	3.16190900	3.57406500
159.29999072	0.00000000	3.16190900	4.31840500
159.49999071	0.00000000	3.11884800	4.69365100
159.69999070	0.00000000	2.74360200	4.73671200
159.89999068	0.00000000	1.99926200	4.73671200
160.09999067	0.00000000	1.62401600	4.73671200
160.29999066	0.00000000	1.58095500	4.73671200
160.49999065	0.00000000	1.58095500	4.73671200
160.69999064	0.00000000	1.62401600	4.69365100
160.89999062	0.00000000	1.99926200	4.31840500
161.09999061	0.00000000	2.74360200	3.57406500
161.29999060	0.00000000	3.11884800	3.19881900
161.49999059	0.00000000	3.16190900	3.19881900
161.69999058	0.00000000	3.16190900	3.53100400
161.89999056	0.00000000	3.16190900	3.94315900
162.09999055	0.00000000	3.16190900	3.94931100
162.29999054	0.00000000	3.16190900	4.36146600
162.49999053	0.00000000	3.16190900	4.69365100
162.69999052	0.00000000	3.16190900	4.73671200
162.89999051	0.00000000	3.16190900	4.73671200
163.09999049	0.00000000	3.11884800	4.73671200
163.29999048	0.00000000	2.74360200	4.73671200
163.49999047	0.00000000	1.99926200	4.73671200
163.69999046	0.00000000	1.62401600	4.73671200
163.89999045	0.00000000	1.58095500	4.73671200
164.09999043	0.00000000	1.62401600	4.73671200
164.29999042	0.00000000	1.99926200	4.73671200
164.49999041	0.00000000	2.74360200	4.69365100
164.69999040	0.00000000	3.11884800	4.36146600
164.89999039	0.00000000	3.16190900	3.94931100
165.09999037	0.00000000	3.16190900	3.98622000
165.29999036	0.00000000	3.16190900	3.94931100
165.49999035	0.00000000	3.16190900	4.36146600
165.69999034	0.00000000	3.16190900	4.69365100
165.89999033	0.00000000	3.11884800	4.73671200
166.09999032	0.00000000	2.74360200	4.73671200
166.29999030	0.00000000	1.99926200	4.73671200
166.49999029	0.00000000	1.62401600	4.73671200
166.69999028	0.00000000	1.58095500	4.73671200
166.89999027	0.00000000	1.58095500	4.73671200
167.09999026	0.00000000	1.53789400	4.69365100
167.29999024	0.00000000	1.24877000	4.36146600
167.49999023	0.00000000	1.26107300	3.94931100
167.69999022	0.00000000	2.36835600	3.98622000
167.89999021	0.00000000	3.06963600	3.94931100
168.09999020	0.00000000	3.16190900	4.31840500
168.29999018	0.00000000	3.16190900	4.31840500
168.49999017	0.00000000	3.16190900	3.94931100
168.69999016	0.00000000	3.11884800	3.98622000
168.89999015	0.00000000	2.78666300	3.94931100
169.09999014	0.00000000	2.41756900	4.36146600
169.29999013	0.00000000	2.74360200	4.69365100
169.49999011	0.00000000	2.74360200	4.73671200
169.69999010	0.00000000	2.41756900	4.73671200
169.89999009	0.00000000	2.78666300	4.73671200
170.09999008	0.00000000	3.11884800	4.73671200
170.29999007	0.00000000	3.16190900	4.73671200
170.49999005	0.00000000	3.16190900	4.73671200
170.69999004	0.00000000	3.16190900	4.73671200
170.89999003	0.00000000	3.16190900	4.73671200
171.09999002	0.00000000	3.16190900	4.69365100
171.29999001	0.00000000	3.16190900	4.31840500
171.49998999	0.00000000	3.16190900	3.57406500
171.69998998	0.00000000	3.16190900	3.24803100
171.89998997	0.00000000	3.16190900	3.57406500
172.09998996	0.00000000	3.16190900	4.31840500
172.29998995	0.00000000	3.16190900	4.69365100
172.49998994	0.00000000	3.11884800	4.73671200
172.69998992	0.00000000	2.78666300	4.73671200
172.89998991	0.00000000	2.41756900	4.73671200
173.09998990	0.00000000	2.74360200	4.73671200
173.29998989	0.00000000	2.74360200	4.73671200
173.49998988	0.00000000	2.41756900	4.73671200
173.69998986	0.00000000	2.78666300	4.73671200
173.89998985	0.00000000	3.11884800	4.73671200
174.09998984	0.00000000	3.16190900	4.73671200
174.29998983	0.00000000	3.16190900	4.69365100
174.49998982	0.00000000	3.16190900	4.36146600
174.69998980	0.00000000	3.16190900	3.99237200
174.89998979	0.00000000	3.16190900	4.31840500
175.09998978	0.00000000	3.16190900	4.31840500
175.29998977	0.00000000	3.16190900	3.99237200
175.49998976	0.00000000	3.16190900	4.36146600
175.69998975	0.00000000	3.16190900	4.64443900
175.89998973	0.00000000	3.16190900	4.36146600
176.09998972	0.00000000	3.16190900	3.99237200
176.29998971	0.00000000	3.16190900	4.36146600
176.49998970	0.00000000	3.16190900	4.69365100
176.69998969	0.00000000	3.16190900	4.73671200
176.89998967	0.00000000	3.16190900	4.73671200
177.09998966	0.00000000	3.16190900	4.73671200
177.29998965	0.00000000	3.16190900	4.73671200
177.49998964	0.00000000	3.16190900	4.69365100
177.69998963	0.00000000	3.11884800	4.36146600
177.89998961	0.00000000	2.78666300	3.99237200
178.09998960	0.00000000	2.41756900	4.36146600
178.29998959	0.00000000	2.74360200	4.69365100
178.49998958	0.00000000	2.74360200	4.73671200
178.69998957	0.00000000	2.41756900	4.73671200
178.89998956	0.00000000	2.78666300	4.73671200
179.09998954	0.00000000	3.11884800	4.73671200
179.29998953	0.00000000	3.16190900	4.73671200
179.49998952	0.00000000	3.16190900	4.73671200
179.69998951	0.00000000	3.16190900	4.73671200
179.89998950	0.00000000	3.16190900	4.69365100
180.09998948	0.00000000	3.11884800	4.31840500
180.29998947	0.00000000	2.74360200	3.57406500
180.49998946	0.00000000	2.04847400	3.19881900
180.69998945	0.00000000	2.04847400	3.15575800
180.89998944	0.00000000	2.74360200	3.19881900
181.09998942	0.00000000	3.11884800	3.57406500
181.29998941	0.00000000	3.16190900	4.31840500
181.49998940	0.00000000	3.16190900	4.69365100
181.69998939	0.00000000	3.16190900	4.73671200
181.89998938	0.00000000	3.16190900	4.73671200
182.09998937	0.00000000	3.16190900	4.73671200
182.29998935	0.00000000	3.16190900	4.73671200
182.49998934	0.00000000	3.16190900	4.73671200
182.69998933	0.00000000	3.16190900	4.73671200
182.89998932	0.00000000	3.16190900	4.73671200
183.09998931	0.00000000	3.16190900	4.69365100
183.29998929	0.00000000	3.16190900	4.31840500
183.49998928	0.00000000	3.16190900	3.57406500
183.69998927	0.00000000	3.16190900	3.19881900
183.89998926	0.00000000	3.16190900	3.15575800
184.09998925	0.00000000	3.16190900	3.19881900
184.29998923	0.00000000	3.16190900	3.57406500
184.49998922	0.00000000	3.16190900	4.31840500
184.69998921	0.00000000	3.16190900	4.69365100
184.89998920	0.00000000	3.16190900	4.73671200
185.09998919	0.00000000	3.16190900	4.73671200
185.29998918	0.00000000	3.16190900	4.73671200
185.49998916	0.00000000	3.16190900	4.73671200
185.69998915	0.00000000	3.16190900	4.69365100
185.89998914	0.00000000	3.16190900	4.31840500
186.09998913	0.00000000	3.16190900	3.57406500
186.29998912	0.00000000	3.16190900	3.19881900
186.49998910	0.00000000	3.16190900	3.15575800
186.69998909	0.00000000	3.16190900	3.15575800
186.89998908	0.00000000	3.16190900	3.19881900
187.09998907	0.00000000	3.16190900	3.57406500
187.29998906	0.00000000	3.16190900	4.31840500
187.49998904	0.00000000	3.11884800	4.69365100
187.69998903	0.00000000	2.78666300	4.73671200
187.89998902	0.00000000	2.41756900	4.73671200
188.09998901	0.00000000	2.78666300	4.73671200
188.29998900	0.00000000	3.11884800	4.73671200
188.49998899	0.00000000	3.16190900	4.73671200
188.69998897	0.00000000	3.16190900	4.73671200
188.89998896	0.00000000	3.16190900	4.69365100
189.09998895	0.00000000	3.16190900	4.31840500
189.29998894	0.00000000	3.16190900	3.57406500
189.49998893	0.00000000	3.16190900	3.19881900
189.69998891	0.00000000	3.16190900	3.19881900
189.89998890	0.00000000	3.16190900	3.57406500
190.09998889	0.00000000	3.16190900	4.31840500
190.29998888	0.00000000	3.16190900	4.69365100
190.49998887	0.00000000	3.16190900	4.73671200
190.69998885	0.00000000	3.16190900	4.73671200
190.89998884	0.00000000	3.16190900	4.73671200
191.09998883	0.00000000	3.16190900	4.73671200
191.29998882	0.00000000	3.16190900	4.73671200
191.49998881	0.00000000	3.16190900	4.73671200
191.69998880	0.00000000	3.16190900	4.73671200
191.89998878	0.00000000	3.16190900	4.69365100
192.09998877	0.00000000	3.16190900	4.36146600
192.29998876	0.00000000	3.16190900	3.99237200
192.49998875	0.00000000	3.16190900	4.31840500
192.69998874	0.00000000	3.16190900	4.26919300
192.89998872	0.00000000	3.16190900	3.57406500
193.09998871	0.00000000	3.11884800	3.24803100
193.29998870	0.00000000	2.74360200	3.57406500
193.49998869	0.00000000	1.99926200	4.31840500
193.69998868	0.00000000	1.67322800	4.69365100
193.89998866	0.00000000	1.99926200	4.73671200
194.09998865	0.00000000	2.74360200	4.73671200
194.29998864	0.00000000	3.11884800	4.73671200
194.49998863	0.00000000	3.16190900	4.73671200
194.69998862	0.00000000	3.16190900	4.73671200
194.89998861	0.00000000	3.16190900	4.73671200
195.09998859	0.00000000	3.16190900	4.73671200
195.29998858	0.00000000	3.16190900	4.73671200
195.49998857	0.00000000	3.16190900	4.69365100
195.69998856	0.00000000	3.16190900	4.36146600
195.89998855	0.00000000	3.11884800	3.94931100
196.09998853	0.00000000	2.74360200	3.98622000
