Time	Channel A	Channel B	Channel C
(us)	(V)	(mV)	(mV)

-4.49999956	0.00000000	60.08243000	23.72662000
-4.29999957	0.00000000	60.08243000	24.10187000
-4.09999958	0.00000000	60.08243000	24.79700000
-3.89999959	0.00000000	60.08243000	24.79700000
-3.69999960	0.00000000	60.08243000	24.10187000
-3.49999962	0.00000000	60.08243000	23.72662000
-3.29999963	0.00000000	60.08243000	23.72662000
-3.09999964	0.00000000	60.08243000	24.10187000
-2.89999965	0.00000000	60.08243000	24.79700000
-2.69999966	0.00000000	60.08243000	24.79700000
-2.49999968	0.00000000	60.03937000	24.10187000
-2.29999969	0.00000000	59.70718000	23.77584000
-2.09999970	0.00000000	59.33809000	24.05881000
-1.89999971	0.00000000	59.70718000	24.42790000
-1.69999972	0.00000000	60.03937000	24.05881000
-1.49999973	0.00000000	60.08243000	23.77584000
-1.29999975	0.00000000	60.08243000	24.10187000
-1.09999976	0.00000000	60.08243000	24.84621000
-0.89999977	0.00000000	60.08243000	25.17224000
-0.69999978	0.00000000	60.08243000	24.84621000
-0.49999979	0.00000000	60.08243000	24.10187000
-0.29999981	0.31803640	60.08243000	23.77584000
-0.09999982	0.63668800	60.08243000	24.10187000
0.10000017	0.95533960	60.08243000	24.79700000
0.30000016	1.11466500	60.08243000	24.79700000
0.50000015	0.79601380	60.08243000	24.10187000
0.70000013	0.31803640	60.08243000	23.72662000
0.90000012	-0.63668800	60.08243000	23.72662000
1.10000011	-1.59264300	60.08243000	24.10187000
1.30000010	-2.38927200	60.08243000	24.84621000
1.50000009	-2.70792300	60.08243000	25.17224000
1.70000008	-2.38927200	60.08243000	24.88927000
1.90000006	-1.11466500	60.08243000	24.52018000
2.10000005	0.79601380	60.08243000	24.88927000
2.30000004	2.86724900	60.08243000	25.17224000
2.50000003	4.61921700	60.08243000	24.84621000
2.70000002	5.25652100	60.08243000	24.10187000
2.90000000	4.77854300	60.08243000	23.72662000
3.09999999	2.70792300	60.08243000	23.68356000
3.29999998	-0.31803640	60.08243000	23.68356000
3.49999997	-3.66326300	60.08243000	23.68356000
3.69999996	-6.53112700	60.08243000	23.72662000
3.89999994	-7.96444400	60.08243000	24.15108000
4.09999993	-7.32714100	60.08243000	25.21530000
4.29999992	-4.77854300	60.08243000	25.95964000
4.49999991	-0.79601380	60.08243000	25.63976000
4.69999990	3.66326300	60.08243000	25.26452000
4.89999989	7.32714100	60.08243000	24.84621000
5.09999987	9.39837600	60.08243000	24.10187000
5.29999986	8.92039900	60.08243000	23.72662000
5.49999985	6.37180100	60.03937000	23.68356000
5.69999984	2.07062000	59.66412000	23.68356000
5.89999983	-2.70792300	58.96899000	23.68356000
6.09999981	-6.84916400	58.96899000	23.72662000
6.29999980	-9.23905000	59.66412000	24.10187000
6.49999979	-9.23905000	60.03937000	24.84621000
6.69999978	-7.00848900	60.08243000	25.22145000
6.89999977	-3.18590100	60.08243000	25.26452000
7.09999975	1.27399100	60.08243000	25.26452000
7.29999974	5.09719500	60.08243000	25.22145000
7.49999973	7.32714100	60.08243000	24.84621000
7.69999972	7.64579200	60.08243000	24.10187000
7.89999971	6.05315000	60.08243000	23.72662000
8.09999970	3.18590100	60.08243000	23.68356000
8.29999968	-0.15871060	60.03937000	23.68356000
8.49999967	-3.02657500	59.70718000	23.68356000
8.69999966	-4.77854300	59.33809000	23.68356000
8.89999965	-5.25652100	59.70718000	23.68356000
9.09999964	-4.30056600	60.03937000	23.68356000
9.29999962	-2.54859700	60.08243000	23.72662000
9.49999961	-0.47736220	60.08243000	24.10187000
9.69999960	1.11466500	60.08243000	24.79700000
9.89999959	2.22994600	60.08243000	24.79700000
10.09999958	2.54859700	60.03937000	24.10187000
10.29999956	2.22994600	59.70718000	23.72662000
10.49999955	1.27399100	59.33809000	23.72662000
10.69999954	0.47736220	59.70718000	24.05881000
10.89999953	-0.31803640	60.03937000	24.42790000
11.09999952	-0.79601380	60.08243000	24.05881000
11.29999951	-0.95533960	60.08243000	23.72662000
11.49999949	-0.95533960	60.03937000	23.68356000
11.69999948	-0.63668800	59.70718000	23.68356000
11.89999947	-0.47736220	59.33809000	23.68356000
12.09999946	-0.15871060	59.66412000	23.68356000
12.29999945	-0.15871060	59.66412000	23.68356000
12.49999943	-0.15871060	59.33809000	23.68356000
12.69999942	0.00000000	59.70718000	23.68356000
12.89999941	0.00000000	60.03937000	23.68356000
13.09999940	0.00000000	60.08243000	23.68356000
13.29999939	0.00000000	60.08243000	23.68356000
13.49999937	0.00000000	60.08243000	23.68356000
13.69999936	0.00000000	60.08243000	23.72662000
13.89999935	0.00000000	60.08243000	24.05881000
14.09999934	-0.15871060	60.03937000	24.42790000
14.29999933	-0.15871060	59.70718000	24.05881000
14.49999932	-0.15871060	59.33809000	23.72662000
14.69999930	0.00000000	59.70718000	23.72662000
14.89999929	0.00000000	60.03937000	24.10187000
15.09999928	0.00000000	60.03937000	24.79700000
15.29999927	0.00000000	59.66412000	24.79700000
15.49999926	0.00000000	58.96899000	24.10187000
15.69999924	0.00000000	58.91978000	23.72662000
15.89999923	0.00000000	59.28888000	23.72662000
16.09999922	0.00000000	59.29502000	24.05881000
16.29999921	0.00000000	59.70718000	24.42790000
16.49999920	-0.15871060	60.03937000	24.05881000
16.69999919	-0.15871060	60.08243000	23.72662000
16.89999917	0.00000000	60.08243000	23.72662000
17.09999916	0.00000000	60.12549000	24.05881000
17.29999915	0.00000000	60.50073000	24.42790000
17.49999914	0.00000000	61.19586000	24.05881000
17.69999913	0.00000000	61.19586000	23.72662000
17.89999911	0.00000000	60.45767000	23.72662000
18.09999910	0.00000000	59.66412000	24.10187000
18.29999909	0.00000000	58.45841000	24.79700000
18.49999908	0.00000000	56.92052000	24.79700000
18.69999907	0.00000000	55.38263000	24.10187000
18.89999905	-0.15871060	54.26919000	23.77584000
19.09999904	0.00000000	54.26919000	24.10187000
19.29999903	0.00000000	55.47490000	24.79700000
19.49999902	0.00000000	57.80634000	24.79700000
19.69999901	0.00000000	61.28814000	24.10187000
19.89999900	0.00000000	64.78223000	23.77584000
20.09999898	0.00000000	67.90108000	24.10187000
20.29999897	0.00000000	70.13410000	24.79700000
20.49999896	0.00000000	70.09104000	24.84621000
20.69999895	0.00000000	67.30437000	24.47712000
20.89999894	0.00000000	61.89714000	24.47096000
21.09999892	0.00000000	54.50910000	24.05881000
21.29999891	0.00000000	47.19488000	23.72662000
21.49999890	0.00000000	41.06176000	23.68356000
21.69999889	0.00000000	38.45349000	23.68356000
21.89999888	0.00000000	40.77264000	23.68356000
22.09999886	0.00000000	47.42864000	23.68356000
22.29999885	0.00000000	57.94168000	23.68356000
22.49999884	0.00000000	70.64468000	23.68356000
22.69999883	0.00000000	82.18504000	23.68356000
22.89999882	0.00000000	89.48695000	23.72662000
23.09999881	0.00000000	90.56348000	24.10187000
23.29999879	0.00000000	84.28272000	24.84621000
23.49999878	0.00000000	71.11835000	25.22145000
23.69999877	0.00000000	53.71555000	25.26452000
23.89999876	0.00000000	35.98671000	25.26452000
24.09999875	0.00000000	22.16412000	25.26452000
24.29999873	0.00000000	16.43701000	25.22145000
24.49999872	0.00000000	20.71850000	24.79700000
24.69999871	0.00000000	34.25812000	23.64050000
24.89999870	0.00000000	54.35531000	22.05955000
25.09999869	0.00000000	76.41486000	20.15256000
25.29999867	0.00000000	95.72465000	18.29478000
25.49999866	0.00000000	108.00930000	17.91953000
25.69999865	0.00000000	109.45500000	19.08218000
25.89999864	0.00000000	99.03420000	21.40748000
26.09999863	0.00000000	78.93085000	24.93233000
26.29999862	0.00000000	53.85088000	28.79552000
26.49999860	0.00000000	29.51525000	32.64640000
26.69999859	0.00000000	11.78642000	35.29773000
26.89999858	0.00000000	4.81053100	35.62377000
27.09999857	0.00000000	10.20546000	33.25541000
27.29999856	0.00000000	26.39640000	27.82357000
27.49999854	0.00000000	49.61245000	20.47859000
27.69999853	0.00000000	74.74163000	12.76452000
27.89999852	0.00000000	96.37672000	6.21924200
28.09999851	0.00000000	109.49800000	2.81742100
28.29999850	0.00000000	111.03590000	3.65403500
28.49999848	0.00000000	100.70130000	9.51033400
28.69999847	0.00000000	81.44070000	19.58661000
28.89999846	0.00000000	58.63681000	31.90822000
29.09999845	0.00000000	36.91560000	43.84227000
29.29999844	0.00000000	20.67544000	51.93774000
29.49999843	0.00000000	13.27510000	54.63213000
29.69999841	0.00000000	15.97564000	51.05191000
29.89999840	0.00000000	27.93430000	40.96949000
30.09999839	0.00000000	46.40748000	26.28568000
30.29999838	0.00000000	66.46161000	10.07013000
30.49999837	0.00000000	83.16314000	-4.18922200
30.69999835	0.00000000	93.72539000	-13.01673000
30.89999834	0.00000000	96.79502000	-14.13017000
31.09999833	0.00000000	91.81225000	-6.79133800
31.29999832	0.00000000	79.85973000	7.51107200
31.49999831	0.00000000	64.45004000	25.68282000
31.69999829	0.00000000	48.91732000	44.21752000
31.89999828	0.00000000	36.58341000	58.85826000
32.09999827	0.00000000	29.93356000	66.19709000
32.29999826	0.00000000	30.25959000	64.66535000
32.49999825	0.00000000	36.40502000	54.58292000
32.69999824	0.00000000	46.87500000	37.99213000
32.89999822	0.00000000	59.57185000	18.34400000
33.09999821	0.00000000	71.16142000	0.54749010
33.29999820	0.00000000	78.93085000	-11.86024000
33.49999819	0.00000000	81.67445000	-16.91683000
33.69999818	0.00000000	78.98006000	-13.39198000
33.89999816	0.00000000	71.71505000	-2.23302100
34.09999815	0.00000000	62.08169000	14.38853000
34.29999814	0.00000000	52.82357000	32.46801000
34.49999813	0.00000000	45.89075000	47.98228000
34.69999812	0.00000000	43.14714000	57.65256000
34.89999810	0.00000000	45.00492000	60.01476000
35.09999809	0.00000000	49.98769000	54.63213000
35.29999808	0.00000000	56.96358000	43.06102000
35.49999807	0.00000000	64.18552000	28.00197000
35.69999806	0.00000000	69.20522000	12.57997000
35.89999805	0.00000000	70.42323000	0.63976370
36.09999803	0.00000000	68.55315000	-5.16732200
36.29999802	0.00000000	64.27164000	-3.67864200
36.49999801	0.00000000	58.50147000	4.35531500
36.69999800	0.00000000	52.77436000	16.25246000
36.89999799	0.00000000	48.96653000	28.98007000
37.09999797	0.00000000	48.54207000	39.39468000
37.29999796	0.00000000	51.19340000	45.19562000
37.49999795	0.00000000	55.80708000	45.15256000
37.69999794	0.00000000	61.19586000	39.06250000
37.89999793	0.00000000	65.80955000	28.79552000
38.09999791	0.00000000	68.55315000	18.43012000
38.29999790	0.00000000	68.92839000	10.71604000
38.49999789	0.00000000	67.01525000	7.23425100
38.69999788	0.00000000	63.20127000	9.22736200
38.89999787	0.00000000	58.96899000	16.01870000
39.09999786	0.00000000	55.43184000	25.62746000
39.29999784	0.00000000	52.68823000	34.42421000
39.49999783	0.00000000	51.15034000	40.55118000
39.69999782	0.00000000	51.15034000	41.57849000
39.89999781	0.00000000	52.68823000	36.27584000
40.09999780	0.00000000	55.38263000	26.74705000
40.29999778	0.00000000	58.45841000	16.38164000
40.49999777	0.00000000	61.19586000	7.92937900
40.69999776	0.00000000	63.15207000	3.70324800
40.89999775	0.00000000	64.35777000	4.85974400
41.09999774	0.00000000	64.78223000	10.99901000
41.29999772	0.00000000	64.78223000	20.66314000
41.49999771	0.00000000	64.35777000	31.39763000
41.69999770	0.00000000	63.15207000	40.59424000
41.89999769	0.00000000	61.19586000	45.15256000
42.09999768	0.00000000	58.50147000	43.70694000
42.29999767	0.00000000	55.80708000	37.20472000
42.49999765	0.00000000	53.85088000	28.00197000
42.69999764	0.00000000	52.64517000	18.33784000
42.89999763	0.00000000	52.26993000	10.62377000
43.09999762	0.00000000	52.64517000	6.35457700
43.29999761	0.00000000	53.89394000	6.39763700
43.49999759	0.00000000	56.17618000	10.95595000
43.69999758	0.00000000	59.24582000	18.57160000
43.89999757	0.00000000	61.52805000	26.24262000
44.09999756	0.00000000	62.82603000	32.09276000
44.29999755	0.00000000	63.61958000	35.24852000
44.49999753	0.00000000	64.35777000	35.67298000
44.69999752	0.00000000	64.35777000	33.76599000
44.89999751	0.00000000	63.61958000	29.90895000
45.09999750	0.00000000	62.82603000	25.26452000
45.29999749	0.00000000	61.57111000	20.61393000
45.49999748	0.00000000	59.61491000	16.80610000
45.69999746	0.00000000	56.87746000	15.26821000
45.89999745	0.00000000	53.75861000	16.33858000
46.09999744	0.00000000	50.68897000	18.94685000
46.29999743	0.00000000	48.40674000	21.68430000
46.49999742	0.00000000	48.03149000	24.05881000
46.69999740	0.00000000	49.61245000	26.42101000
46.89999739	0.00000000	53.19881000	28.32800000
47.09999738	0.00000000	58.96899000	29.49065000
47.29999737	0.00000000	65.52657000	29.44759000
47.49999736	0.00000000	70.97687000	27.90969000
47.69999734	0.00000000	74.79084000	25.26452000
47.89999733	0.00000000	75.48597000	22.57013000
48.09999732	0.00000000	71.99802000	20.57087000
48.29999731	0.00000000	65.43430000	19.03912000
48.49999730	0.00000000	56.87746000	18.29478000
48.69999729	0.00000000	48.03149000	19.08218000
48.89999727	0.00000000	41.10482000	21.03838000
49.09999726	0.00000000	38.02903000	24.10187000
49.29999725	0.00000000	39.56693000	27.54060000
49.49999724	0.00000000	45.42937000	29.82283000
49.69999723	0.00000000	54.68750000	30.64714000
49.89999721	0.00000000	65.43430000	29.86589000
50.09999720	0.00000000	74.28026000	27.90969000
50.29999719	0.00000000	78.93085000	24.79700000
50.49999718	0.00000000	78.55560000	20.94611000
50.69999717	0.00000000	73.16068000	17.50123000
50.89999715	0.00000000	64.31471000	15.22515000
51.09999714	0.00000000	54.31225000	15.22515000
51.29999713	0.00000000	45.84769000	17.50123000
51.49999712	0.00000000	41.19094000	20.98917000
51.69999711	0.00000000	41.19094000	25.26452000
51.89999710	0.00000000	45.75541000	29.44759000
52.09999708	0.00000000	53.47564000	32.14198000
52.29999707	0.00000000	61.90329000	32.56028000
52.49999706	0.00000000	69.24827000	31.02239000
52.69999705	0.00000000	73.02534000	27.90969000
52.89999704	0.00000000	72.36712000	23.72662000
53.09999702	0.00000000	67.72268000	19.91880000
53.29999701	0.00000000	60.86983000	17.91953000
53.49999700	0.00000000	53.52485000	17.50123000
53.69999699	0.00000000	48.21604000	18.33784000
53.89999698	0.00000000	46.22293000	20.98917000
54.09999696	0.00000000	48.16683000	24.37869000
54.29999695	0.00000000	53.10654000	26.70398000
54.49999694	0.00000000	59.66412000	27.90969000
54.69999693	0.00000000	65.76648000	27.86663000
54.89999692	0.00000000	69.62352000	26.32874000
55.09999691	0.00000000	69.99876000	23.72662000
55.29999689	0.00000000	66.97219000	21.49975000
55.49999688	0.00000000	61.57726000	21.08145000
55.69999687	0.00000000	55.43184000	22.19488000
55.89999686	0.00000000	50.07997000	24.10187000
56.09999685	0.00000000	47.38558000	26.42101000
56.29999683	0.00000000	48.12377000	28.32800000
56.49999682	0.00000000	51.56865000	29.44759000
56.69999681	0.00000000	56.96358000	28.98007000
56.89999680	0.00000000	62.73376000	26.28568000
57.09999679	0.00000000	67.34743000	22.10261000
57.29999677	0.00000000	69.67273000	17.87647000
57.49999676	0.00000000	68.88533000	14.80684000
57.69999675	0.00000000	65.47736000	13.73647000
57.89999674	0.00000000	60.45767000	15.64960000
58.09999673	0.00000000	55.47490000	20.24483000
58.29999672	0.00000000	51.56865000	25.63976000
58.49999670	0.00000000	49.66166000	31.06545000
58.69999669	0.00000000	50.03691000	35.24852000
58.89999668	0.00000000	52.73130000	36.73720000
59.09999667	0.00000000	56.92052000	34.78716000
59.29999666	0.00000000	61.15280000	29.39837000
59.49999664	0.00000000	64.22859000	22.15182000
59.69999663	0.00000000	65.43430000	15.18209000
59.89999662	0.00000000	64.68996000	10.20546000
60.09999661	0.00000000	62.77681000	8.26156400
60.29999660	0.00000000	60.03937000	10.20546000
60.49999658	0.00000000	57.01279000	15.22515000
60.69999657	0.00000000	54.68750000	22.57013000
60.89999656	0.00000000	53.89394000	30.60408000
61.09999655	0.00000000	54.26919000	36.74335000
61.29999654	0.00000000	55.80708000	39.43774000
61.49999653	0.00000000	58.08316000	37.94907000
61.69999651	0.00000000	59.99015000	32.93553000
61.89999650	0.00000000	61.19586000	26.00270000
62.09999649	0.00000000	61.57111000	18.24557000
62.29999648	0.00000000	61.15280000	11.73720000
62.49999647	0.00000000	59.61491000	7.88631800
62.69999645	0.00000000	57.33883000	7.92937900
62.89999644	0.00000000	55.43184000	12.11245000
63.09999643	0.00000000	54.26919000	18.98991000
63.29999642	0.00000000	54.31225000	26.32874000
63.49999641	0.00000000	55.80708000	32.51107000
63.69999639	0.00000000	58.12622000	36.41117000
63.89999638	0.00000000	60.41461000	37.20472000
64.09999637	0.00000000	62.35851000	35.29773000
64.29999636	0.00000000	63.06594000	31.02239000
64.49999635	0.00000000	62.31545000	25.26452000
64.69999634	0.00000000	60.03937000	19.50049000
64.89999632	0.00000000	57.38804000	15.22515000
65.09999631	0.00000000	55.43184000	13.27510000
65.29999630	0.00000000	54.26919000	13.60113000
65.49999629	0.00000000	54.26919000	15.87721000
65.69999628	0.00000000	55.43184000	18.94685000
65.89999626	0.00000000	57.33883000	22.10261000
66.09999625	0.00000000	59.61491000	25.21530000
66.29999624	0.00000000	61.15280000	27.95891000
66.49999623	0.00000000	61.52805000	29.90895000
66.69999622	0.00000000	60.77756000	31.06545000
66.89999620	0.00000000	58.87672000	31.11466000
67.09999619	0.00000000	56.96358000	30.37647000
67.29999618	0.00000000	55.43184000	29.53371000
67.49999617	0.00000000	54.68750000	27.86663000
67.69999616	0.00000000	55.47490000	24.79700000
67.89999615	0.00000000	57.43110000	20.98917000
68.09999613	0.00000000	60.45767000	17.83341000
68.29999612	0.00000000	63.47809000	15.45891000
68.49999611	0.00000000	64.64690000	13.60113000
68.69999610	0.00000000	64.27164000	13.64419000
68.89999609	0.00000000	62.27239000	15.96334000
69.09999607	0.00000000	58.40920000	19.87574000
69.29999606	0.00000000	53.85088000	25.30758000
69.49999605	0.00000000	49.98769000	31.02239000
69.69999604	0.00000000	48.08071000	35.24852000
69.89999603	0.00000000	48.45595000	36.82948000
70.09999601	0.00000000	51.19340000	35.67298000
70.29999600	0.00000000	55.85014000	32.18504000
70.49999599	0.00000000	61.66338000	26.75320000
70.69999598	0.00000000	67.39050000	20.61393000
70.89999597	0.00000000	71.20448000	15.18209000
71.09999596	0.00000000	71.62893000	11.73720000
71.29999594	0.00000000	68.92839000	10.95595000
71.49999593	0.00000000	63.85334000	13.27510000
71.69999592	0.00000000	56.92052000	17.83341000
71.89999591	0.00000000	49.98769000	23.21604000
72.09999590	0.00000000	44.96186000	27.86663000
72.29999588	0.00000000	42.64272000	30.97933000
72.49999587	0.00000000	43.84842000	32.13582000
72.69999586	0.00000000	48.45595000	31.02239000
72.89999585	0.00000000	55.38263000	28.32800000
73.09999584	0.00000000	62.69069000	24.88927000
73.29999582	0.00000000	68.51008000	21.45669000
73.49999581	0.00000000	71.67200000	19.54355000
73.69999580	0.00000000	72.04723000	19.45743000
73.89999579	0.00000000	69.67273000	20.61393000
74.09999578	0.00000000	64.27164000	22.47785000
74.29999577	0.00000000	57.38804000	24.33563000
74.49999575	0.00000000	51.24261000	24.75394000
74.69999574	0.00000000	47.33637000	24.01575000
74.89999573	0.00000000	46.49975000	22.84695000
75.09999572	0.00000000	47.98843000	20.90305000
75.29999571	0.00000000	51.10728000	19.08218000
75.49999569	0.00000000	55.38263000	18.33784000
75.69999568	0.00000000	59.99015000	19.54355000
75.89999567	0.00000000	63.85334000	22.61319000
76.09999566	0.00000000	65.76033000	26.79626000
76.29999565	0.00000000	65.47736000	30.60408000
76.49999563	0.00000000	63.57652000	32.56028000
76.69999562	0.00000000	61.24508000	32.56028000
76.89999561	0.00000000	58.54454000	30.56102000
77.09999560	0.00000000	56.26845000	26.28568000
77.29999559	0.00000000	55.43184000	20.52780000
77.49999558	0.00000000	55.38263000	14.80684000
77.69999556	0.00000000	55.75787000	10.95595000
77.89999555	0.00000000	56.54527000	10.20546000
78.09999554	0.00000000	57.25270000	12.48770000
78.29999553	0.00000000	57.66486000	17.50123000
78.49999552	0.00000000	57.29576000	23.68356000
78.69999550	0.00000000	56.96358000	29.86589000
78.89999549	0.00000000	56.96358000	34.87943000
79.09999548	0.00000000	57.38804000	37.16166000
79.29999547	0.00000000	58.54454000	36.41117000
79.49999546	0.00000000	60.08243000	32.56028000
79.69999544	0.00000000	61.62032000	26.83932000
79.89999543	0.00000000	62.73376000	21.03223000
80.09999542	0.00000000	62.73376000	16.38779000
80.29999541	0.00000000	61.57111000	13.60113000
80.49999540	0.00000000	59.61491000	12.80758000
80.69999539	0.00000000	56.92052000	13.60113000
80.89999537	0.00000000	54.26919000	16.33858000
81.09999536	0.00000000	52.68823000	20.52780000
81.29999535	0.00000000	52.31299000	24.75394000
81.49999534	0.00000000	53.10654000	27.90969000
81.69999533	0.00000000	55.38263000	29.90895000
81.89999531	0.00000000	58.08316000	31.06545000
82.09999530	0.00000000	60.41461000	31.06545000
82.29999529	0.00000000	62.35851000	29.90895000
82.49999528	0.00000000	63.06594000	27.95891000
82.69999527	0.00000000	62.35851000	25.26452000
82.89999525	0.00000000	60.45767000	22.57013000
83.09999524	0.00000000	58.50147000	20.52780000
83.29999523	0.00000000	56.54527000	18.57160000
83.49999522	0.00000000	54.68750000	16.67077000
83.69999521	0.00000000	54.26919000	15.96334000
83.89999520	0.00000000	54.96432000	16.71383000
84.09999518	0.00000000	55.75787000	19.03297000
84.29999517	0.00000000	56.92052000	22.10261000
84.49999516	0.00000000	58.03395000	25.26452000
84.69999515	0.00000000	58.40920000	28.32800000
84.89999514	0.00000000	58.12622000	30.69636000
85.09999512	0.00000000	57.75713000	31.81594000
85.29999511	0.00000000	58.12622000	31.76673000
85.49999510	0.00000000	58.45841000	29.40452000
85.69999509	0.00000000	58.54454000	25.22145000
85.89999508	0.00000000	58.91978000	20.57087000
86.09999506	0.00000000	59.66412000	16.33858000
86.29999505	0.00000000	59.99015000	13.64419000
86.49999504	0.00000000	59.61491000	13.27510000
86.69999503	0.00000000	58.45841000	15.18209000
86.89999502	0.00000000	56.92052000	19.03912000
87.09999501	0.00000000	55.38263000	23.64050000
87.29999499	0.00000000	54.22613000	27.90969000
87.49999498	0.00000000	53.85088000	30.97933000
87.69999497	0.00000000	54.22613000	32.09276000
87.89999496	0.00000000	55.38263000	30.56102000
88.09999495	0.00000000	56.96358000	26.79626000
88.29999493	0.00000000	58.87672000	22.57013000
88.49999492	0.00000000	60.77756000	19.08218000
88.69999491	0.00000000	61.52805000	16.71383000
88.89999490	0.00000000	61.19586000	16.01255000
89.09999489	0.00000000	60.03937000	17.13213000
89.29999487	0.00000000	58.50147000	20.23868000
89.49999486	0.00000000	56.92052000	24.05881000
89.69999485	0.00000000	55.38263000	27.90969000
89.89999484	0.00000000	54.26919000	30.56102000
90.09999483	0.00000000	54.26919000	30.93627000
90.29999482	0.00000000	55.38263000	29.02928000
90.49999480	0.00000000	56.87746000	25.22145000
90.69999479	0.00000000	58.08316000	20.98917000
90.89999478	0.00000000	58.87672000	17.50123000
91.09999477	0.00000000	59.66412000	15.18209000
91.29999476	0.00000000	59.99015000	14.84990000
91.49999474	0.00000000	59.66412000	16.80610000
91.69999473	0.00000000	58.91978000	21.03223000
91.89999472	0.00000000	58.50147000	26.32874000
92.09999471	0.00000000	58.08316000	30.56102000
92.29999470	0.00000000	57.33883000	32.51107000
92.49999468	0.00000000	56.96358000	32.09276000
92.69999467	0.00000000	56.92052000	29.02928000
92.89999466	0.00000000	56.87746000	24.05881000
93.09999465	0.00000000	56.50221000	19.08218000
93.29999464	0.00000000	55.75787000	15.18209000
93.49999463	0.00000000	55.38263000	13.27510000
93.69999461	0.00000000	55.33957000	13.69340000
93.89999460	0.00000000	55.43184000	16.75689000
94.09999459	0.00000000	56.22539000	21.72736000
94.29999458	0.00000000	58.12622000	26.70398000
94.49999457	0.00000000	59.99015000	30.56102000
94.69999455	0.00000000	61.24508000	32.09276000
94.89999454	0.00000000	61.99557000	30.97933000
95.09999453	0.00000000	62.35851000	27.90969000
95.29999452	0.00000000	61.52805000	23.64050000
95.49999451	0.00000000	59.57185000	19.08218000
95.69999449	0.00000000	56.50221000	15.64960000
95.89999448	0.00000000	53.06348000	14.84990000
96.09999447	0.00000000	50.77510000	16.33858000
96.29999446	0.00000000	49.98769000	19.40822000
96.49999445	0.00000000	51.15034000	23.26525000
96.69999444	0.00000000	53.85088000	26.70398000
96.89999442	0.00000000	57.33883000	29.07234000
97.09999441	0.00000000	61.24508000	29.82283000
97.29999440	0.00000000	64.68996000	29.07234000
97.49999439	0.00000000	66.97219000	26.75320000
97.69999438	0.00000000	66.97219000	23.72662000
97.89999436	0.00000000	64.68996000	21.03838000
98.09999435	0.00000000	61.24508000	19.45743000
98.29999434	0.00000000	57.29576000	19.03912000
98.49999433	0.00000000	53.42642000	19.41437000
98.69999432	0.00000000	49.94463000	20.57087000
98.89999430	0.00000000	48.08071000	22.10261000
99.09999429	0.00000000	48.45595000	23.64050000
99.29999428	0.00000000	51.10728000	24.79700000
99.49999427	0.00000000	54.92125000	25.17224000
99.69999426	0.00000000	58.45841000	24.84621000
99.89999425	0.00000000	61.57111000	24.10187000
100.09999423	0.00000000	63.89641000	23.77584000
100.29999422	0.00000000	64.68996000	24.10187000
100.49999421	0.00000000	64.31471000	24.84621000
100.69999420	0.00000000	62.73376000	25.17224000
100.89999419	0.00000000	60.03937000	24.79700000
101.09999417	0.00000000	56.96358000	23.64050000
101.29999416	0.00000000	54.22613000	22.10261000
101.49999415	0.00000000	52.31299000	20.57087000
101.69999414	0.00000000	51.48252000	19.41437000
101.89999413	0.00000000	51.89468000	19.03912000
102.09999411	0.00000000	53.01427000	19.45743000
102.29999410	0.00000000	55.00738000	21.03838000
102.49999409	0.00000000	57.29576000	23.68356000
102.69999408	0.00000000	59.61491000	26.37795000
102.89999407	0.00000000	61.15280000	28.32800000
103.09999406	0.00000000	61.57111000	29.49065000
103.29999404	0.00000000	61.24508000	29.44759000
103.49999403	0.00000000	60.45767000	27.90969000
103.69999402	0.00000000	59.61491000	25.21530000
103.89999401	0.00000000	58.03395000	22.15182000
104.09999400	0.00000000	55.80708000	19.40822000
104.29999398	0.00000000	54.26919000	17.54429000
104.49999397	0.00000000	53.85088000	17.18135000
104.69999396	0.00000000	54.22613000	19.03297000
104.89999395	0.00000000	55.33957000	21.68430000
105.09999394	0.00000000	56.50221000	24.05881000
105.29999392	0.00000000	57.29576000	26.37795000
105.49999391	0.00000000	58.12622000	27.86663000
105.69999390	0.00000000	58.83366000	27.90969000
105.89999389	0.00000000	59.19660000	26.75320000
106.09999388	0.00000000	58.45841000	24.84621000
106.29999387	0.00000000	57.33883000	22.52091000
106.49999385	0.00000000	56.54527000	20.61393000
106.69999384	0.00000000	55.80708000	19.45743000
106.89999383	0.00000000	55.80708000	19.45743000
107.09999382	0.00000000	56.54527000	20.57087000
107.29999381	0.00000000	57.29576000	22.10261000
107.49999379	0.00000000	58.08316000	23.64050000
107.69999378	0.00000000	58.45841000	24.79700000
107.89999377	0.00000000	58.45841000	25.17224000
108.09999376	0.00000000	58.08316000	24.79700000
108.29999375	0.00000000	57.29576000	23.64050000
108.49999374	0.00000000	56.54527000	22.10261000
108.69999372	0.00000000	55.71481000	20.61393000
108.89999371	0.00000000	55.00738000	19.83268000
109.09999370	0.00000000	54.64444000	20.19562000
109.29999369	0.00000000	55.43184000	20.94611000
109.49999368	0.00000000	56.87746000	22.15182000
109.69999366	0.00000000	58.08316000	23.68356000
109.89999365	0.00000000	58.87672000	25.21530000
110.09999364	0.00000000	59.61491000	26.32874000
110.29999363	0.00000000	59.61491000	26.32874000
110.49999362	0.00000000	58.87672000	25.21530000
110.69999360	0.00000000	58.08316000	23.68356000
110.89999359	0.00000000	56.87746000	22.15182000
111.09999358	0.00000000	55.38263000	20.98917000
111.29999357	0.00000000	54.22613000	20.57087000
111.49999356	0.00000000	53.85088000	20.57087000
111.69999355	0.00000000	54.22613000	20.94611000
111.89999353	0.00000000	55.38263000	21.72736000
112.09999352	0.00000000	56.87746000	22.52091000
112.29999351	0.00000000	58.08316000	23.68356000
112.49999350	0.00000000	58.83366000	24.79700000
112.69999349	0.00000000	59.24582000	25.22145000
112.89999347	0.00000000	58.83366000	25.22145000
113.09999346	0.00000000	58.12622000	24.84621000
113.29999345	0.00000000	57.29576000	24.10187000
113.49999344	0.00000000	56.54527000	23.72662000
113.69999343	0.00000000	55.75787000	23.64050000
113.89999341	0.00000000	55.43184000	23.26525000
114.09999340	0.00000000	55.75787000	22.57013000
114.29999339	0.00000000	56.50221000	22.52091000
114.49999338	0.00000000	56.92052000	22.84695000
114.69999337	0.00000000	57.33883000	22.43479000
114.89999336	0.00000000	58.08316000	21.77658000
115.09999334	0.00000000	58.45841000	21.36442000
115.29999333	0.00000000	58.50147000	21.72736000
115.49999332	0.00000000	58.45841000	22.10261000
115.69999331	0.00000000	58.08316000	22.52091000
115.89999330	0.00000000	57.29576000	23.30832000
116.09999328	0.00000000	56.54527000	24.05881000
116.29999327	0.00000000	55.75787000	24.84621000
116.49999326	0.00000000	55.38263000	25.22145000
116.69999325	0.00000000	55.38263000	25.22145000
116.89999324	0.00000000	55.71481000	24.84621000
117.09999322	0.00000000	56.17002000	24.05881000
117.29999321	0.00000000	56.55142000	23.30832000
117.49999320	0.00000000	57.70792000	22.47785000
117.69999319	0.00000000	58.45841000	21.72736000
117.89999318	0.00000000	58.87672000	20.94611000
118.09999317	0.00000000	59.24582000	20.62008000
118.29999315	0.00000000	58.83366000	20.98917000
118.49999314	0.00000000	58.12622000	22.10261000
118.69999313	0.00000000	57.29576000	23.21604000
118.89999312	0.00000000	56.50221000	23.64050000
119.09999311	0.00000000	55.33957000	23.68356000
119.29999309	0.00000000	54.22613000	23.72662000
119.49999308	0.00000000	53.85088000	24.05881000
119.69999307	0.00000000	54.22613000	24.42790000
119.89999306	0.00000000	55.38263000	24.05881000
120.09999305	0.00000000	56.87746000	23.68356000
120.29999303	0.00000000	58.08316000	23.26525000
120.49999302	0.00000000	58.87672000	22.52091000
120.69999301	0.00000000	59.66412000	22.14567000
120.89999300	0.00000000	59.99015000	22.10261000
121.09999299	0.00000000	59.61491000	22.05955000
121.29999298	0.00000000	58.45841000	21.72736000
121.49999296	0.00000000	56.96358000	21.36442000
121.69999295	0.00000000	55.80708000	21.77658000
121.89999294	0.00000000	55.38263000	22.47785000
122.09999293	0.00000000	55.33957000	23.26525000
122.29999292	0.00000000	55.33957000	23.64050000
122.49999290	0.00000000	55.38263000	23.68356000
122.69999289	0.00000000	55.75787000	23.68356000
122.89999288	0.00000000	56.50221000	23.68356000
123.09999287	0.00000000	56.92052000	23.68356000
123.29999286	0.00000000	57.33883000	23.64050000
123.49999284	0.00000000	58.08316000	23.26525000
123.69999283	0.00000000	58.45841000	22.52091000
123.89999282	0.00000000	58.50147000	22.14567000
124.09999281	0.00000000	58.45841000	22.10261000
124.29999280	0.00000000	58.03395000	22.10261000
124.49999279	0.00000000	56.92052000	22.10261000
124.69999277	0.00000000	55.80708000	22.10261000
124.89999276	0.00000000	55.38263000	22.14567000
125.09999275	0.00000000	55.33957000	22.52091000
125.29999274	0.00000000	55.33957000	23.26525000
125.49999273	0.00000000	55.33957000	23.64050000
125.69999271	0.00000000	55.38263000	23.68356000
125.89999270	0.00000000	55.75787000	23.68356000
126.09999269	0.00000000	56.54527000	23.68356000
126.29999268	0.00000000	57.29576000	23.68356000
126.49999267	0.00000000	58.08316000	23.68356000
126.69999265	0.00000000	58.45841000	23.68356000
126.89999264	0.00000000	58.45841000	23.68356000
127.09999263	0.00000000	58.08316000	23.64050000
127.29999262	0.00000000	57.29576000	23.26525000
127.49999261	0.00000000	56.50221000	22.52091000
127.69999260	0.00000000	55.33957000	22.14567000
127.89999258	0.00000000	54.26919000	22.10261000
128.09999257	0.00000000	54.22613000	22.10261000
128.29999256	0.00000000	54.96432000	22.14567000
128.49999255	0.00000000	55.75787000	22.52091000
128.69999254	0.00000000	56.92052000	23.26525000
128.89999252	0.00000000	58.03395000	23.64050000
129.09999251	0.00000000	58.45841000	23.68356000
129.29999250	0.00000000	58.50147000	23.68356000
129.49999249	0.00000000	58.45841000	23.64050000
129.69999248	0.00000000	58.03395000	23.26525000
129.89999246	0.00000000	56.87746000	22.52091000
130.09999245	0.00000000	55.38263000	22.14567000
130.29999244	0.00000000	54.26919000	22.14567000
130.49999243	0.00000000	54.22613000	22.52091000
130.69999242	0.00000000	54.96432000	23.26525000
130.89999241	0.00000000	55.75787000	23.64050000
131.09999239	0.00000000	56.92052000	23.68356000
131.29999238	0.00000000	58.03395000	23.68356000
131.49999237	0.00000000	58.45841000	23.64050000
131.69999236	0.00000000	58.45841000	23.26525000
131.89999235	0.00000000	58.08316000	22.52091000
132.09999233	0.00000000	57.29576000	22.14567000
132.29999232	0.00000000	56.54527000	22.10261000
132.49999231	0.00000000	55.75787000	22.10261000
132.69999230	0.00000000	55.38263000	22.14567000
132.89999229	0.00000000	55.33957000	22.52091000
133.09999227	0.00000000	55.38263000	23.26525000
133.29999226	0.00000000	55.75787000	23.68356000
133.49999225	0.00000000	56.50221000	24.10187000
133.69999224	0.00000000	56.87746000	24.79700000
133.89999223	0.00000000	56.92052000	24.79700000
134.09999222	0.00000000	56.92052000	24.05881000
134.29999220	0.00000000	56.92052000	23.26525000
134.49999219	0.00000000	56.92052000	22.10261000
134.69999218	0.00000000	56.92052000	20.98917000
134.89999217	0.00000000	56.92052000	20.57087000
135.09999216	0.00000000	56.92052000	20.57087000
135.29999214	0.00000000	56.92052000	20.94611000
135.49999213	0.00000000	56.92052000	21.72736000
135.69999212	0.00000000	56.92052000	22.52091000
135.89999211	0.00000000	56.87746000	23.64050000
136.09999210	0.00000000	56.50221000	24.37869000
136.29999208	0.00000000	55.75787000	24.05881000
136.49999207	0.00000000	55.38263000	23.72662000
136.69999206	0.00000000	55.33957000	23.68356000
136.89999205	0.00000000	55.33957000	23.64050000
137.09999204	0.00000000	55.38263000	23.26525000
137.29999203	0.00000000	55.75787000	22.52091000
137.49999201	0.00000000	56.50221000	22.14567000
137.69999200	0.00000000	56.92052000	22.10261000
137.89999199	0.00000000	57.33883000	22.10261000
138.09999198	0.00000000	58.03395000	22.10261000
138.29999197	0.00000000	58.03395000	22.05955000
138.49999195	0.00000000	57.29576000	21.72736000
138.69999194	0.00000000	56.54527000	21.36442000
138.89999193	0.00000000	55.75787000	21.77658000
139.09999192	0.00000000	55.38263000	22.47785000
139.29999191	0.00000000	55.33957000	23.26525000
139.49999189	0.00000000	55.33957000	23.64050000
139.69999188	0.00000000	55.38263000	23.68356000
139.89999187	0.00000000	55.75787000	23.68356000
140.09999186	0.00000000	56.50221000	23.68356000
140.29999185	0.00000000	56.87746000	23.64050000
140.49999184	0.00000000	56.92052000	23.21604000
140.69999182	0.00000000	56.92052000	22.10261000
140.89999181	0.00000000	56.92052000	20.98917000
141.09999180	0.00000000	56.87746000	20.57087000
141.29999179	0.00000000	56.50221000	20.57087000
141.49999178	0.00000000	55.75787000	20.98917000
141.69999176	0.00000000	55.38263000	22.10261000
141.89999175	0.00000000	55.38263000	23.26525000
142.09999174	0.00000000	55.75787000	24.05881000
142.29999173	0.00000000	56.50221000	24.84621000
142.49999172	0.00000000	56.87746000	25.17224000
142.69999170	0.00000000	56.92052000	24.84621000
142.89999169	0.00000000	56.87746000	24.05881000
143.09999168	0.00000000	56.54527000	23.30832000
143.29999167	0.00000000	56.13312000	22.47785000
143.49999166	0.00000000	56.12696000	21.72736000
143.69999165	0.00000000	55.71481000	20.94611000
143.89999163	0.00000000	55.38263000	20.62008000
144.09999162	0.00000000	55.38263000	20.94611000
144.29999161	0.00000000	55.75787000	21.72736000
144.49999160	0.00000000	56.50221000	22.47785000
144.69999159	0.00000000	56.87746000	23.26525000
144.89999157	0.00000000	56.92052000	23.68356000
145.09999156	0.00000000	56.92052000	24.05881000
145.29999155	0.00000000	56.87746000	24.42790000
145.49999154	0.00000000	56.50221000	24.01575000
145.69999153	0.00000000	55.75787000	23.30832000
145.89999151	0.00000000	55.38263000	22.52091000
146.09999150	0.00000000	55.33957000	22.14567000
146.29999149	0.00000000	55.38263000	22.10261000
146.49999148	0.00000000	55.75787000	22.10261000
146.69999147	0.00000000	56.50221000	22.10261000
146.89999146	0.00000000	56.87746000	22.10261000
147.09999144	0.00000000	56.92052000	22.14567000
147.29999143	0.00000000	56.92052000	22.52091000
147.49999142	0.00000000	56.92052000	23.26525000
147.69999141	0.00000000	56.87746000	23.64050000
147.89999140	0.00000000	56.50221000	23.68356000
148.09999138	0.00000000	55.75787000	23.68356000
148.29999137	0.00000000	55.38263000	23.68356000
148.49999136	0.00000000	55.33957000	23.68356000
148.69999135	0.00000000	55.33957000	23.64050000
148.89999134	0.00000000	55.33957000	23.26525000
149.09999132	0.00000000	55.38263000	22.52091000
149.29999131	0.00000000	55.75787000	22.14567000
149.49999130	0.00000000	56.50221000	22.10261000
149.69999129	0.00000000	56.87746000	22.10261000
149.89999128	0.00000000	56.92052000	22.10261000
150.09999127	0.00000000	56.92052000	22.10261000
150.29999125	0.00000000	56.87746000	22.14567000
150.49999124	0.00000000	56.50221000	22.52091000
150.69999123	0.00000000	55.75787000	23.26525000
150.89999122	0.00000000	55.38263000	23.64050000
151.09999121	0.00000000	55.33957000	23.64050000
151.29999119	0.00000000	55.33957000	23.26525000
151.49999118	0.00000000	55.33957000	22.52091000
151.69999117	0.00000000	55.33957000	22.14567000
151.89999116	0.00000000	55.38263000	22.10261000
152.09999115	0.00000000	55.75787000	22.05955000
152.29999113	0.00000000	56.50221000	21.72736000
152.49999112	0.00000000	56.87746000	21.36442000
152.69999111	0.00000000	56.92052000	21.72736000
152.89999110	0.00000000	56.92052000	22.05955000
153.09999109	0.00000000	56.87746000	22.14567000
153.29999108	0.00000000	56.50221000	22.52091000
153.49999106	0.00000000	55.75787000	23.26525000
153.69999105	0.00000000	55.38263000	23.64050000
153.89999104	0.00000000	55.33957000	23.68356000
154.09999103	0.00000000	55.33957000	23.68356000
154.29999102	0.00000000	55.33957000	23.64050000
154.49999100	0.00000000	55.33957000	23.30832000
154.69999099	0.00000000	55.33957000	22.93922000
154.89999098	0.00000000	55.38263000	23.26525000
155.09999097	0.00000000	55.75787000	23.21604000
155.29999096	0.00000000	56.50221000	22.52091000
155.49999094	0.00000000	56.87746000	22.14567000
155.69999093	0.00000000	56.92052000	22.10261000
155.89999092	0.00000000	56.92052000	22.10261000
156.09999091	0.00000000	56.87746000	22.10261000
156.29999090	0.00000000	56.50221000	22.10261000
156.49999089	0.00000000	55.75787000	22.10261000
156.69999087	0.00000000	55.38263000	22.14567000
156.89999086	0.00000000	55.33957000	22.52091000
157.09999085	0.00000000	55.33957000	23.26525000
157.29999084	0.00000000	55.33957000	23.64050000
157.49999083	0.00000000	55.33957000	23.64050000
157.69999081	0.00000000	55.38263000	23.30832000
157.89999080	0.00000000	55.71481000	22.89616000
158.09999079	0.00000000	56.12696000	22.89001000
158.29999078	0.00000000	56.13312000	22.47785000
158.49999077	0.00000000	56.54527000	22.14567000
158.69999075	0.00000000	56.87746000	22.05955000
158.89999074	0.00000000	56.87746000	21.72736000
159.09999073	0.00000000	56.50221000	21.40748000
159.29999072	0.00000000	55.75787000	22.15182000
159.49999071	0.00000000	55.38263000	23.21604000
159.69999070	0.00000000	55.33957000	23.64050000
159.89999068	0.00000000	55.33957000	23.68356000
160.09999067	0.00000000	55.33957000	23.68356000
160.29999066	0.00000000	55.33957000	23.68356000
160.49999065	0.00000000	55.33957000	23.64050000
160.69999064	0.00000000	55.33957000	23.26525000
160.89999062	0.00000000	55.33957000	22.52091000
161.09999061	0.00000000	55.38263000	22.14567000
161.29999060	0.00000000	55.75787000	22.10261000
161.49999059	0.00000000	56.50221000	22.10261000
161.69999058	0.00000000	56.87746000	22.10261000
161.89999056	0.00000000	56.92052000	22.10261000
162.09999055	0.00000000	56.92052000	22.14567000
162.29999054	0.00000000	56.92052000	22.52091000
162.49999053	0.00000000	56.92052000	23.26525000
162.69999052	0.00000000	56.87746000	23.64050000
162.89999051	0.00000000	56.50221000	23.68356000
163.09999049	0.00000000	55.75787000	23.68356000
163.29999048	0.00000000	55.38263000	23.68356000
163.49999047	0.00000000	55.33957000	23.68356000
163.69999046	0.00000000	55.33957000	23.64050000
163.89999045	0.00000000	55.33957000	23.26525000
164.09999043	0.00000000	55.33957000	22.52091000
164.29999042	0.00000000	55.33957000	22.14567000
164.49999041	0.00000000	55.38263000	22.10261000
164.69999040	0.00000000	55.75787000	22.10261000
164.89999039	0.00000000	56.50221000	22.10261000
165.09999037	0.00000000	56.87746000	22.10261000
165.29999036	0.00000000	56.92052000	22.10261000
165.49999035	0.00000000	56.92052000	22.14567000
165.69999034	0.00000000	56.87746000	22.47785000
165.89999033	0.00000000	56.50221000	22.84695000
166.09999032	0.00000000	55.75787000	22.47785000
166.29999030	0.00000000	55.38263000	22.14567000
166.49999029	0.00000000	55.33957000	22.10261000
166.69999028	0.00000000	55.33957000	22.10261000
166.89999027	0.00000000	55.33957000	22.10261000
167.09999026	0.00000000	55.33957000	22.10261000
167.29999024	0.00000000	55.33957000	22.10261000
167.49999023	0.00000000	55.33957000	22.10261000
167.69999022	0.00000000	55.33957000	22.10261000
167.89999021	0.00000000	55.33957000	22.10261000
168.09999020	0.00000000	55.33957000	22.10261000
168.29999018	0.00000000	55.33957000	22.10261000
168.49999017	0.00000000	55.33957000	22.10261000
168.69999016	0.00000000	55.33957000	22.10261000
168.89999015	0.00000000	55.33957000	22.10261000
169.09999014	0.00000000	55.33957000	22.10261000
169.29999013	0.00000000	55.33957000	22.10261000
169.49999011	0.00000000	55.33957000	22.10261000
169.69999010	0.00000000	55.33957000	22.10261000
169.89999009	0.00000000	55.33957000	22.10261000
170.09999008	0.00000000	55.33957000	22.10261000
170.29999007	0.00000000	55.33957000	22.10261000
170.49999005	0.00000000	55.33957000	22.10261000
170.69999004	0.00000000	55.33957000	22.10261000
170.89999003	0.00000000	55.38263000	22.10261000
171.09999002	0.00000000	55.71481000	22.10261000
171.29999001	0.00000000	56.08390000	22.10261000
171.49998999	0.00000000	55.75787000	22.10261000
171.69998998	0.00000000	55.75787000	22.10261000
171.89998997	0.00000000	56.08390000	22.10261000
172.09998996	0.00000000	55.71481000	22.10261000
172.29998995	0.00000000	55.38263000	22.10261000
172.49998994	0.00000000	55.33957000	22.10261000
172.69998992	0.00000000	55.33957000	22.14567000
172.89998991	0.00000000	55.33957000	22.52091000
173.09998990	0.00000000	55.33957000	23.21604000
173.29998989	0.00000000	55.33957000	23.21604000
173.49998988	0.00000000	55.33957000	22.52091000
173.69998986	0.00000000	55.33957000	22.14567000
173.89998985	0.00000000	55.38263000	22.10261000
174.09998984	0.00000000	55.75787000	22.14567000
174.29998983	0.00000000	56.45300000	22.47785000
174.49998982	0.00000000	56.45300000	22.84695000
174.69998980	0.00000000	55.75787000	22.47785000
174.89998979	0.00000000	55.38263000	22.14567000
175.09998978	0.00000000	55.33957000	22.10261000
175.29998977	0.00000000	55.33957000	22.10261000
175.49998976	0.00000000	55.33957000	22.10261000
175.69998975	0.00000000	55.33957000	22.10261000
175.89998973	0.00000000	55.33957000	22.10261000
176.09998972	0.00000000	55.33957000	22.10261000
176.29998971	0.00000000	55.33957000	22.14567000
176.49998970	0.00000000	55.33957000	22.47785000
176.69998969	0.00000000	55.33957000	22.84695000
176.89998967	0.00000000	55.33957000	22.47785000
177.09998966	0.00000000	55.33957000	22.14567000
177.29998965	0.00000000	55.33957000	22.10261000
177.49998964	0.00000000	55.33957000	22.10261000
177.69998963	0.00000000	55.33957000	22.10261000
177.89998961	0.00000000	55.33957000	22.10261000
178.09998960	0.00000000	55.33957000	22.10261000
178.29998959	0.00000000	55.33957000	22.10261000
178.49998958	0.00000000	55.33957000	22.14567000
178.69998957	0.00000000	55.33957000	22.47785000
178.89998956	0.00000000	55.33957000	22.84695000
179.09998954	0.00000000	55.33957000	22.47785000
179.29998953	0.00000000	55.38263000	22.14567000
179.49998952	0.00000000	55.71481000	22.14567000
179.69998951	0.00000000	56.08390000	22.47785000
179.89998950	0.00000000	55.71481000	22.84695000
180.09998948	0.00000000	55.38263000	22.47785000
180.29998947	0.00000000	55.33957000	22.14567000
180.49998946	0.00000000	55.33957000	22.10261000
180.69998945	0.00000000	55.33957000	22.10261000
180.89998944	0.00000000	55.29650000	22.10261000
181.09998942	0.00000000	54.96432000	22.10261000
181.29998941	0.00000000	54.59522000	22.10261000
181.49998940	0.00000000	54.96432000	22.14567000
181.69998939	0.00000000	55.29650000	22.52091000
181.89998938	0.00000000	55.33957000	23.21604000
182.09998937	0.00000000	55.33957000	23.21604000
182.29998935	0.00000000	55.33957000	22.52091000
182.49998934	0.00000000	55.33957000	22.14567000
182.69998933	0.00000000	55.33957000	22.10261000
182.89998932	0.00000000	55.33957000	22.10261000
183.09998931	0.00000000	55.33957000	22.10261000
183.29998929	0.00000000	55.33957000	22.05955000
183.49998928	0.00000000	55.33957000	21.72736000
183.69998927	0.00000000	55.33957000	21.36442000
183.89998926	0.00000000	55.33957000	21.72736000
184.09998925	0.00000000	55.33957000	22.05955000
184.29998923	0.00000000	55.33957000	22.10261000
184.49998922	0.00000000	55.33957000	22.14567000
184.69998921	0.00000000	55.33957000	22.52091000
184.89998920	0.00000000	55.33957000	23.26525000
185.09998919	0.00000000	55.33957000	23.64050000
185.29998918	0.00000000	55.33957000	23.64050000
185.49998916	0.00000000	55.33957000	23.26525000
185.69998915	0.00000000	55.33957000	22.52091000
185.89998914	0.00000000	55.33957000	22.14567000
186.09998913	0.00000000	55.33957000	22.05955000
186.29998912	0.00000000	55.33957000	21.72736000
186.49998910	0.00000000	55.33957000	21.32136000
186.69998909	0.00000000	55.33957000	21.35827000
186.89998908	0.00000000	55.33957000	21.36442000
187.09998907	0.00000000	55.33957000	22.10261000
187.29998906	0.00000000	55.33957000	22.79773000
187.49998904	0.00000000	55.33957000	22.52091000
187.69998903	0.00000000	55.33957000	22.57013000
187.89998902	0.00000000	55.33957000	23.26525000
188.09998901	0.00000000	55.33957000	23.59129000
188.29998900	0.00000000	55.33957000	23.26525000
188.49998899	0.00000000	55.33957000	22.52091000
188.69998897	0.00000000	55.33957000	22.14567000
188.89998896	0.00000000	55.33957000	22.10261000
189.09998895	0.00000000	55.33957000	22.10261000
189.29998894	0.00000000	55.33957000	22.10261000
189.49998893	0.00000000	55.33957000	22.10261000
189.69998891	0.00000000	55.33957000	22.05955000
189.89998890	0.00000000	55.29650000	21.72736000
190.09998889	0.00000000	54.96432000	21.36442000
190.29998888	0.00000000	54.59522000	21.72736000
190.49998887	0.00000000	54.92125000	22.05955000
190.69998885	0.00000000	54.92125000	22.14567000
190.89998884	0.00000000	54.59522000	22.52091000
191.09998883	0.00000000	54.96432000	23.21604000
191.29998882	0.00000000	55.29650000	23.21604000
191.49998881	0.00000000	55.33957000	22.52091000
191.69998880	0.00000000	55.33957000	22.14567000
191.89998878	0.00000000	55.33957000	22.10261000
192.09998877	0.00000000	55.33957000	22.10261000
192.29998876	0.00000000	55.33957000	22.10261000
192.49998875	0.00000000	55.33957000	22.10261000
192.69998874	0.00000000	55.33957000	22.10261000
192.89998872	0.00000000	55.33957000	22.10261000
193.09998871	0.00000000	55.29650000	22.10261000
193.29998870	0.00000000	54.96432000	22.10261000
193.49998869	0.00000000	54.59522000	22.14567000
193.69998868	0.00000000	54.96432000	22.52091000
193.89998866	0.00000000	55.29650000	23.21604000
194.09998865	0.00000000	55.33957000	23.21604000
194.29998864	0.00000000	55.33957000	22.52091000
194.49998863	0.00000000	55.33957000	22.14567000
194.69998862	0.00000000	55.33957000	22.10261000
194.89998861	0.00000000	55.33957000	22.10261000
195.09998859	0.00000000	55.33957000	22.10261000
195.29998858	0.00000000	55.33957000	22.10261000
195.49998857	0.00000000	55.33957000	22.10261000
195.69998856	0.00000000	55.33957000	22.10261000
195.89998855	0.00000000	55.29650000	22.10261000
196.09998853	0.00000000	54.96432000	22.10261000
