Time	Channel A	Channel B	Channel C
(us)	(V)	(mV)	(mV)

-4.49999956	0.00000000	7.90477300	6.31151500
-4.29999957	0.00000000	7.90477300	6.31151500
-4.09999958	0.00000000	7.90477300	6.31151500
-3.89999959	0.00000000	7.90477300	6.31151500
-3.69999960	0.00000000	7.90477300	6.31151500
-3.49999962	0.00000000	7.90477300	6.31151500
-3.29999963	0.00000000	7.90477300	6.31151500
-3.09999964	0.00000000	7.90477300	6.31151500
-2.89999965	0.00000000	7.90477300	6.31151500
-2.69999966	0.00000000	7.90477300	6.31151500
-2.49999968	0.00000000	7.90477300	6.31151500
-2.29999969	0.00000000	7.90477300	6.31151500
-2.09999970	0.00000000	7.90477300	6.31151500
-1.89999971	0.00000000	7.90477300	6.31151500
-1.69999972	0.00000000	7.90477300	6.31151500
-1.49999973	0.00000000	7.90477300	6.31151500
-1.29999975	0.00000000	7.90477300	6.31151500
-1.09999976	0.00000000	7.90477300	6.31151500
-0.89999977	0.00000000	7.90477300	6.31151500
-0.69999978	0.00000000	7.90477300	6.31151500
-0.49999979	0.00000000	7.90477300	6.31151500
-0.29999981	0.31803640	7.90477300	6.31151500
-0.09999982	0.63668800	7.90477300	6.31151500
0.10000017	0.95533960	7.90477300	6.31151500
0.30000016	0.95533960	7.90477300	6.31151500
0.50000015	0.79601380	7.94783400	6.35457700
0.70000013	0.15871060	8.28001900	6.64370100
0.90000012	-0.63668800	8.64911400	6.68061000
1.10000011	-1.75196900	8.28001900	5.94857300
1.30000010	-2.54859700	7.94783400	5.98548200
1.50000009	-2.70792300	7.90477300	6.26845500
1.70000008	-2.22994600	7.90477300	6.31151500
1.90000006	-0.95533960	7.90477300	6.31151500
2.10000005	0.95533960	7.90477300	6.31151500
2.30000004	3.02657500	7.90477300	6.31151500
2.50000003	4.77854300	7.90477300	6.31151500
2.70000002	5.41584600	7.90477300	6.31151500
2.90000000	4.61921700	7.90477300	6.26845500
3.09999999	2.38927200	7.90477300	5.93626900
3.29999998	-0.79601380	7.90477300	5.57332700
3.49999997	-4.14124000	7.90477300	5.93626900
3.69999996	-6.84916400	7.90477300	6.26845500
3.89999994	-7.96444400	7.90477300	6.35457700
4.09999993	-7.16781500	7.90477300	6.72982200
4.29999992	-4.30056600	7.90477300	7.47416300
4.49999991	-0.15871060	7.90477300	7.84940900
4.69999990	4.14124000	7.90477300	7.84940900
4.89999989	7.64579200	7.90477300	7.47416300
5.09999987	9.39837600	7.90477300	6.72982200
5.29999986	8.76107300	7.90477300	6.35457700
5.49999985	5.89382400	7.90477300	6.26845500
5.69999984	1.43331700	7.90477300	5.89320800
5.89999983	-3.34522600	7.90477300	5.19808000
6.09999981	-7.32714100	7.90477300	5.19808000
6.29999980	-9.23905000	7.90477300	5.89320800
6.49999979	-9.07972400	7.90477300	6.31151500
6.69999978	-6.53112700	7.90477300	6.68676100
6.89999977	-2.54859700	7.90477300	7.05585600
7.09999975	1.75196900	7.90477300	6.68676100
7.29999974	5.41584600	7.90477300	6.35457700
7.49999973	7.48646600	7.90477300	6.31151500
7.69999972	7.64579200	7.90477300	6.26845500
7.89999971	5.73449800	7.90477300	5.93626900
8.09999970	2.70792300	7.90477300	5.57332700
8.29999968	-0.63668800	7.90477300	5.93626900
8.49999967	-3.34522600	7.90477300	6.26845500
8.69999966	-4.93786900	7.90477300	6.31151500
8.89999965	-5.09719500	7.90477300	6.31151500
9.09999964	-4.14124000	7.90477300	6.31151500
9.29999962	-2.22994600	7.90477300	6.31151500
9.49999961	-0.31803640	7.90477300	6.31151500
9.69999960	1.27399100	7.90477300	6.31151500
9.89999959	2.22994600	7.90477300	6.31151500
10.09999958	2.54859700	7.90477300	6.31151500
10.29999956	2.07062000	7.90477300	6.31151500
10.49999955	1.27399100	7.90477300	6.31151500
10.69999954	0.31803640	7.90477300	6.31151500
10.89999953	-0.31803640	7.90477300	6.31151500
11.09999952	-0.79601380	7.90477300	6.31151500
11.29999951	-0.95533960	7.90477300	6.31151500
11.49999949	-0.95533960	7.90477300	6.31151500
11.69999948	-0.63668800	7.90477300	6.31151500
11.89999947	-0.31803640	7.90477300	6.31151500
12.09999946	-0.15871060	7.90477300	6.31151500
12.29999945	-0.15871060	7.90477300	6.31151500
12.49999943	-0.15871060	7.90477300	6.31151500
12.69999942	0.00000000	7.90477300	6.31151500
12.89999941	0.00000000	7.90477300	6.31151500
13.09999940	0.00000000	7.90477300	6.31151500
13.29999939	0.15871060	7.90477300	6.31151500
13.49999937	0.00000000	7.90477300	6.31151500
13.69999936	0.00000000	7.90477300	6.31151500
13.89999935	0.00000000	7.90477300	6.31151500
14.09999934	-0.15871060	7.90477300	6.31151500
14.29999933	-0.15871060	7.90477300	6.31151500
14.49999932	0.00000000	7.90477300	6.31151500
14.69999930	0.00000000	7.90477300	6.31151500
14.89999929	0.00000000	7.90477300	6.31151500
15.09999928	0.00000000	7.90477300	6.31151500
15.29999927	0.00000000	7.90477300	6.31151500
15.49999926	0.00000000	7.86171200	6.31151500
15.69999924	0.00000000	7.48646600	6.31151500
15.89999923	0.00000000	6.79133800	6.31151500
16.09999922	0.00000000	6.79133800	6.31151500
16.29999921	0.00000000	7.48646600	6.31151500
16.49999920	-0.15871060	7.90477300	6.31151500
16.69999919	-0.15871060	8.32308000	6.31151500
16.89999917	0.00000000	9.06742000	6.31151500
17.09999916	0.00000000	9.44266700	6.31151500
17.29999915	0.00000000	9.48572700	6.31151500
17.49999914	0.00000000	9.48572700	6.31151500
17.69999913	0.00000000	9.44266700	6.31151500
17.89999911	0.00000000	9.06742000	6.31151500
18.09999910	0.00000000	8.28001900	6.31151500
18.29999909	0.00000000	7.43725300	6.31151500
18.49999908	0.00000000	5.90551100	6.31151500
18.69999907	0.00000000	3.99852300	6.31151500
18.89999905	0.00000000	2.87893700	6.31151500
19.09999904	0.00000000	2.50984200	6.31151500
19.29999903	0.00000000	3.71555100	6.31151500
19.49999902	0.00000000	6.41609200	6.31151500
19.69999901	0.00000000	9.90403500	6.31151500
19.89999900	0.00000000	13.81028000	6.31151500
20.09999898	0.00000000	17.25517000	6.31151500
20.29999897	0.00000000	19.48819000	6.31151500
20.49999896	0.00000000	19.06988000	6.31151500
20.69999895	0.00000000	15.58194000	6.31151500
20.89999894	0.00000000	10.09473000	6.31151500
21.09999892	0.00000000	2.74360200	6.31151500
21.29999891	0.00000000	-4.92741100	6.31151500
21.49999890	0.00000000	-10.28543000	6.31151500
21.69999889	0.00000000	-12.23548000	6.31151500
21.89999888	0.00000000	-9.77485200	6.31151500
22.09999886	0.00000000	-2.74975400	6.31151500
22.29999885	0.00000000	8.45841400	6.31151500
22.49999884	0.00000000	21.16142000	6.31151500
22.69999883	0.00000000	31.95743000	6.31151500
22.89999882	0.00000000	38.47195000	6.31151500
23.09999881	0.00000000	38.37967000	6.35457700
23.29999879	0.00000000	30.98548000	6.72982200
23.49999878	0.00000000	17.39665000	7.51722400
23.69999877	0.00000000	0.00000000	8.22465500
23.89999876	0.00000000	-17.31053000	8.63681000
24.09999875	0.00000000	-30.00738000	8.26771600
24.29999873	0.00000000	-34.57185000	7.89247000
24.49999872	0.00000000	-29.49680000	7.38188900
24.69999871	0.00000000	-15.16978000	5.85014700
24.89999870	0.00000000	5.33956700	3.61712600
25.09999869	0.00000000	27.72515000	2.04232300
25.29999867	0.00000000	46.98573000	1.24877000
25.49999866	0.00000000	57.73868000	0.92888770
25.69999865	0.00000000	57.36343000	2.12844500
25.89999864	0.00000000	45.68774000	4.82283400
26.09999863	0.00000000	24.84006000	8.35998900
26.29999862	0.00000000	-0.60900590	12.58612000
26.49999860	0.00000000	-24.15108000	16.39395000
26.69999859	0.00000000	-40.43430000	18.30093000
26.89999858	0.00000000	-46.20448000	17.92569000
27.09999857	0.00000000	-39.96678000	15.09596000
27.29999856	0.00000000	-22.61319000	9.65797200
27.49999854	0.00000000	1.71628900	1.95004900
27.69999853	0.00000000	27.17150000	-5.75787400
27.89999852	0.00000000	48.05610000	-11.94021000
28.09999851	0.00000000	59.27042000	-15.28666000
28.29999850	0.00000000	58.94439000	-13.66265000
28.49999848	0.00000000	47.35482000	-6.74212600
28.69999847	0.00000000	27.30684000	3.70939900
28.89999846	0.00000000	3.75861200	15.74188000
29.09999845	0.00000000	-17.91339000	27.31299000
29.29999844	0.00000000	-32.99704000	35.67913000
29.49999843	0.00000000	-38.47810000	37.95522000
29.69999841	0.00000000	-33.55069000	32.89862000
29.89999840	0.00000000	-20.42938000	21.69045000
30.09999839	0.00000000	-2.23302100	6.22539300
30.29999838	0.00000000	17.48893000	-9.99015700
30.49999837	0.00000000	34.10433000	-23.51132000
30.69999835	0.00000000	44.24212000	-31.55143000
30.89999834	0.00000000	46.19833000	-31.50221000
31.09999833	0.00000000	40.05290000	-23.00689000
31.29999832	0.00000000	27.34990000	-7.94783400
31.49999831	0.00000000	11.53420000	10.62992000
31.69999829	0.00000000	-3.58636800	28.75861000
31.89999828	0.00000000	-15.26206000	42.64886000
32.09999827	0.00000000	-21.45054000	48.78198000
32.29999826	0.00000000	-21.07529000	45.75541000
32.49999825	0.00000000	-14.14862000	34.56570000
32.69999824	0.00000000	-2.65132900	17.93184000
32.89999822	0.00000000	10.09473000	-1.02116100
33.09999821	0.00000000	20.97687000	-18.39936000
33.29999820	0.00000000	28.32800000	-30.38878000
33.49999819	0.00000000	30.65330000	-34.65797000
33.69999818	0.00000000	27.21457000	-30.38878000
33.89999816	0.00000000	19.58046000	-18.44242000
34.09999815	0.00000000	9.90403500	-1.44562000
34.29999814	0.00000000	0.68897630	16.67692000
34.49999813	0.00000000	-5.86860200	32.14813000
34.69999812	0.00000000	-7.82480200	41.40009000
34.89999810	0.00000000	-5.21653500	42.64886000
35.09999809	0.00000000	0.55364170	36.09744000
35.29999808	0.00000000	7.86171200	23.73892000
35.49999807	0.00000000	14.74532000	7.94168200
35.69999806	0.00000000	19.02067000	-7.43725300
35.89999805	0.00000000	19.82037000	-18.31324000
36.09999803	0.00000000	17.53199000	-23.00074000
36.29999802	0.00000000	12.51230000	-21.05069000
36.49999801	0.00000000	6.41609200	-12.59227000
36.69999800	0.00000000	1.02116100	0.04306102
36.89999799	0.00000000	-2.05462600	13.10285000
37.09999797	0.00000000	-2.09768700	23.13607000
37.29999796	0.00000000	0.59670270	27.78666000
37.49999795	0.00000000	5.21038300	26.29798000
37.69999794	0.00000000	10.59916000	19.42052000
37.89999793	0.00000000	15.21284000	9.47342500
38.09999791	0.00000000	17.90723000	-0.51673230
38.29999790	0.00000000	17.95029000	-7.81250000
38.49999789	0.00000000	15.67421000	-10.50689000
38.69999788	0.00000000	12.18012000	-7.81250000
38.89999787	0.00000000	7.90477300	-0.51673230
39.09999786	0.00000000	3.71555100	9.38730200
39.29999784	0.00000000	0.97194880	18.53469000
39.49999783	0.00000000	0.13533460	23.51132000
39.69999782	0.00000000	0.51058070	23.18528000
39.89999781	0.00000000	2.09153500	17.74729000
40.09999780	0.00000000	4.78592500	8.59375000
40.29999778	0.00000000	7.86171200	-1.76550200
40.49999777	0.00000000	10.59916000	-9.80561000
40.69999776	0.00000000	12.55536000	-13.66265000
40.89999775	0.00000000	13.76107000	-12.08169000
41.09999774	0.00000000	14.18553000	-5.16117100
41.29999772	0.00000000	14.13632000	5.15501900
41.49999771	0.00000000	13.34276000	15.93258000
41.69999770	0.00000000	11.44193000	23.97884000
41.89999769	0.00000000	9.48572700	27.49754000
42.09999768	0.00000000	7.48646600	25.55364000
42.29999767	0.00000000	5.16117100	19.04527000
42.49999765	0.00000000	3.25418300	9.43036400
42.69999764	0.00000000	2.09153500	-0.51673230
42.89999763	0.00000000	2.09153500	-7.85556000
43.09999762	0.00000000	3.20497000	-11.01132000
43.29999761	0.00000000	4.74286400	-9.89788300
43.49999759	0.00000000	6.36687900	-5.29650500
43.69999758	0.00000000	8.32308000	1.62401600
43.89999757	0.00000000	10.59916000	8.96284400
44.09999756	0.00000000	12.18012000	15.14518000
44.29999755	0.00000000	13.02288000	19.00221000
44.49999753	0.00000000	13.76107000	19.37131000
44.69999752	0.00000000	13.76107000	16.39395000
44.89999751	0.00000000	13.02288000	11.42347000
45.09999750	0.00000000	12.18012000	6.40378900
45.29999749	0.00000000	10.55610000	2.12844500
45.49999748	0.00000000	7.86171200	-0.60285430
45.69999746	0.00000000	4.78592500	-1.39640700
45.89999745	0.00000000	1.99926200	-0.69512790
46.09999744	0.00000000	-0.33218500	1.29183100
46.29999743	0.00000000	-2.23302100	3.94931100
46.49999742	0.00000000	-2.51599400	7.09891700
46.69999740	0.00000000	-0.55979330	9.75639700
46.89999739	0.00000000	3.67249000	11.74951000
47.09999738	0.00000000	9.15354300	12.49385000
47.29999737	0.00000000	14.97908000	12.11860000
47.49999736	0.00000000	20.73696000	10.53765000
47.69999734	0.00000000	24.13878000	7.84940900
47.89999733	0.00000000	24.13878000	4.77977300
48.09999732	0.00000000	20.60162000	2.08538400
48.29999731	0.00000000	13.63189000	0.55364170
48.49999730	0.00000000	4.78592500	0.55364170
48.69999729	0.00000000	-3.72170300	2.04232300
48.89999727	0.00000000	-9.86712600	4.40452700
49.09999726	0.00000000	-12.19242000	7.10506800
49.29999725	0.00000000	-9.82406400	10.21161000
49.49999724	0.00000000	-3.26033400	12.49385000
49.69999723	0.00000000	6.41609200	13.65650000
49.89999721	0.00000000	16.74459000	13.18898000
50.09999720	0.00000000	24.88312000	10.53765000
50.29999719	0.00000000	28.74631000	6.72982200
50.49999718	0.00000000	27.95275000	3.19881900
50.69999717	0.00000000	22.13952000	0.09227362
50.89999715	0.00000000	12.60458000	-2.14074800
51.09999714	0.00000000	2.60211600	-2.09153500
51.29999713	0.00000000	-5.16732200	0.55364170
51.49999712	0.00000000	-9.44881800	4.73671200
51.69999711	0.00000000	-9.40575800	9.00590400
51.89999710	0.00000000	-4.74901600	12.49385000
52.09999708	0.00000000	3.62942900	14.81299000
52.29999707	0.00000000	12.83218000	15.14518000
52.49999706	0.00000000	19.77116000	13.28125000
52.69999705	0.00000000	23.25910000	9.79945900
52.89999704	0.00000000	22.09646000	5.98548200
53.09999702	0.00000000	16.79380000	2.50369100
53.29999701	0.00000000	9.52879000	0.59670270
53.49999700	0.00000000	2.60211600	0.55364170
53.69999699	0.00000000	-2.05462600	2.04232300
53.89999698	0.00000000	-3.58636800	4.36146600
54.09999696	0.00000000	-1.67938000	6.68676100
54.29999695	0.00000000	3.34030500	9.00590400
54.49999694	0.00000000	9.81791200	10.45152000
54.69999693	0.00000000	15.95103000	10.11934000
54.89999692	0.00000000	19.35285000	8.21850300
55.09999691	0.00000000	19.06988000	5.98548200
55.29999689	0.00000000	15.58194000	4.03543200
55.49999688	0.00000000	10.23007000	3.33415300
55.69999687	0.00000000	3.99852300	4.08464600
55.89999686	0.00000000	-1.26722400	6.36072800
56.09999685	0.00000000	-3.95546200	9.00590400
56.29999683	0.00000000	-2.47293300	10.96211000
56.49999682	0.00000000	1.67322800	12.07554000
56.69999681	0.00000000	6.79133800	11.61417000
56.89999680	0.00000000	12.55536000	8.91978400
57.09999679	0.00000000	17.48893000	4.73671200
57.29999677	0.00000000	19.39591000	0.51058070
57.49999676	0.00000000	17.95029000	-2.51599400
57.69999675	0.00000000	14.09326000	-3.25418300
57.89999674	0.00000000	9.11048200	-0.93503930
58.09999673	0.00000000	4.09079700	3.66633800
58.29999672	0.00000000	0.59670270	9.47342500
58.49999670	0.00000000	-0.98425190	15.18824000
58.69999669	0.00000000	-0.55979330	19.04527000
58.89999668	0.00000000	2.13459600	19.79577000
59.09999667	0.00000000	6.32381900	17.46432000
59.29999666	0.00000000	10.55610000	12.03248000
59.49999664	0.00000000	13.67495000	4.77977300
59.69999663	0.00000000	15.21284000	-2.18380900
59.89999662	0.00000000	14.83760000	-7.16043300
60.09999661	0.00000000	12.55536000	-9.06126900
60.29999660	0.00000000	9.48572700	-6.69291300
60.49999658	0.00000000	6.41609200	-0.60285430
60.69999657	0.00000000	4.13385800	7.47416300
60.89999656	0.00000000	3.67249000	15.18824000
61.09999655	0.00000000	4.45989200	20.95226000
61.29999654	0.00000000	6.00393600	23.22835000
61.49999653	0.00000000	8.69217500	20.95226000
61.69999651	0.00000000	10.93135000	15.23130000
61.89999650	0.00000000	12.13706000	7.84940900
62.09999649	0.00000000	12.13706000	0.13533460
62.29999648	0.00000000	10.97441000	-6.36687900
62.49999647	0.00000000	9.06742000	-9.43036400
62.69999645	0.00000000	6.74212600	-8.36614100
62.89999644	0.00000000	4.87819900	-4.09694900
63.09999643	0.00000000	4.09079700	2.46063000
63.29999642	0.00000000	4.87819900	10.11934000
63.49999641	0.00000000	6.74212600	16.30167000
63.69999639	0.00000000	9.06742000	19.83883000
63.89999638	0.00000000	11.02362000	20.57702000
64.09999637	0.00000000	12.55536000	17.88263000
64.29999636	0.00000000	13.25664000	12.58612000
64.49999635	0.00000000	12.09400000	6.77903500
64.69999634	0.00000000	9.48572700	1.71013800
64.89999632	0.00000000	6.83439900	-2.18380900
65.09999631	0.00000000	5.21038300	-4.09079700
65.29999630	0.00000000	4.41067900	-3.76476400
65.49999629	0.00000000	4.09079700	-1.44562000
65.69999628	0.00000000	5.25344500	1.95004900
65.89999626	0.00000000	7.48646600	5.47490100
66.09999625	0.00000000	9.39345400	8.21850300
66.29999624	0.00000000	10.59916000	10.62992000
66.49999623	0.00000000	10.93135000	12.53691000
66.69999622	0.00000000	10.18086000	13.69956000
66.89999620	0.00000000	8.28001900	13.74262000
67.09999619	0.00000000	6.36687900	12.96137000
67.29999618	0.00000000	4.83513700	11.79257000
67.49999617	0.00000000	4.13385800	9.75639700
67.69999616	0.00000000	5.29650500	7.05585600
67.89999615	0.00000000	7.94783400	3.53100400
68.09999613	0.00000000	11.02362000	0.13533460
68.29999612	0.00000000	13.71801000	-2.22687000
68.49999611	0.00000000	15.21284000	-3.02042300
68.69999610	0.00000000	14.78838000	-2.60211600
68.89999609	0.00000000	12.09400000	-0.55979330
69.09999607	0.00000000	7.86171200	3.66633800
69.29999606	0.00000000	3.25418300	9.05511800
69.49999605	0.00000000	-0.60900590	14.07480000
69.69999604	0.00000000	-2.51599400	17.93184000
69.89999603	0.00000000	-2.09768700	19.46358000
70.09999601	0.00000000	1.02116100	18.30093000
70.29999600	0.00000000	6.41609200	14.76993000
70.49999599	0.00000000	12.55536000	9.00590400
70.69999598	0.00000000	17.95029000	2.50369100
70.89999597	0.00000000	21.02608000	-2.51599400
71.09999596	0.00000000	21.06914000	-5.29650500
71.29999594	0.00000000	18.32554000	-5.62253900
71.49999593	0.00000000	13.25664000	-3.29724400
71.69999592	0.00000000	6.32381900	1.66707700
71.89999591	0.00000000	-0.55979330	7.38188900
72.09999590	0.00000000	-5.21653500	12.07554000
72.29999588	0.00000000	-6.79749000	15.14518000
72.49999587	0.00000000	-5.21653500	15.92642000
72.69999586	0.00000000	-0.55979330	14.07480000
72.89999585	0.00000000	6.36687900	11.04823000
73.09999584	0.00000000	13.67495000	7.89247000
73.29999582	0.00000000	19.48819000	4.87204700
73.49999581	0.00000000	22.60704000	2.97121000
73.69999580	0.00000000	22.55782000	3.29109200
73.89999579	0.00000000	19.11294000	4.73671200
74.09999578	0.00000000	13.02288000	6.31151500
74.29999577	0.00000000	6.83439900	7.80019600
74.49999575	0.00000000	1.71628900	8.54453700
74.69999574	0.00000000	-2.14074800	7.75713500
74.89999573	0.00000000	-3.63558100	5.89320800
75.09999572	0.00000000	-2.14074800	3.61712600
75.29999571	0.00000000	1.67322800	2.12844500
75.49999569	0.00000000	6.32381900	2.12844500
75.69999568	0.00000000	10.93135000	3.70939900
75.89999567	0.00000000	14.41314000	6.77903500
76.09999566	0.00000000	15.63115000	10.62992000
76.29999565	0.00000000	15.29897000	14.07480000
76.49999563	0.00000000	13.71801000	16.35089000
76.69999562	0.00000000	11.06668000	16.30167000
76.89999561	0.00000000	8.37229300	13.56422000
77.09999560	0.00000000	6.41609200	8.58759800
77.29999559	0.00000000	5.25344500	2.41756900
77.49999558	0.00000000	5.25344500	-2.93430100
77.69999556	0.00000000	6.32381900	-6.40994000
77.89999555	0.00000000	7.43725300	-6.78518600
78.09999554	0.00000000	7.86171200	-4.09079700
78.29999553	0.00000000	7.86171200	0.92888770
78.49999552	0.00000000	7.48646600	7.47416300
78.69999550	0.00000000	6.74212600	13.61343000
78.89999549	0.00000000	6.41609200	17.93184000
79.09999548	0.00000000	6.83439900	19.83883000
79.29999547	0.00000000	8.32308000	19.04527000
79.49999546	0.00000000	10.27313000	15.18824000
79.69999544	0.00000000	11.77411000	9.47342500
79.89999543	0.00000000	12.96752000	3.66633800
80.09999542	0.00000000	12.88755000	-0.97810030
80.29999541	0.00000000	11.76181000	-3.71555100
80.49999540	0.00000000	9.44266700	-4.14000900
80.69999539	0.00000000	6.74212600	-2.60211600
80.89999537	0.00000000	4.41067900	0.46751960
81.09999536	0.00000000	2.50984200	4.36146600
81.29999535	0.00000000	2.17765700	8.22465500
81.49999534	0.00000000	3.67249000	11.70029000
81.69999533	0.00000000	6.32381900	13.65650000
81.89999531	0.00000000	9.06742000	14.11786000
82.09999530	0.00000000	11.39887000	13.74262000
82.29999529	0.00000000	13.29970000	12.53691000
82.49999528	0.00000000	13.67495000	10.62992000
82.69999527	0.00000000	12.55536000	8.26771600
82.89999525	0.00000000	10.64838000	5.93626900
83.09999524	0.00000000	8.32308000	3.53100400
83.29999523	0.00000000	6.41609200	1.24877000
83.49999522	0.00000000	5.25344500	-0.64591530
83.69999521	0.00000000	5.21038300	-1.02116100
83.89999520	0.00000000	5.94857300	0.09227362
84.09999518	0.00000000	6.74212600	2.04232300
84.29999517	0.00000000	7.90477300	4.82283400
84.49999516	0.00000000	9.01820900	8.26771600
84.69999515	0.00000000	9.39345400	11.74951000
84.89999514	0.00000000	9.06742000	14.07480000
85.09999512	0.00000000	8.32308000	15.23130000
85.29999511	0.00000000	7.94783400	14.76993000
85.49999510	0.00000000	7.94783400	12.07554000
85.69999509	0.00000000	8.32308000	7.84940900
85.89999508	0.00000000	9.11048200	3.24803100
86.09999506	0.00000000	9.86097400	-0.60285430
86.29999505	0.00000000	10.59916000	-2.55905500
86.49999504	0.00000000	10.55610000	-2.55905500
86.69999503	0.00000000	9.44266700	-0.60285430
86.89999502	0.00000000	7.90477300	3.24803100
87.09999501	0.00000000	6.32381900	7.84940900
87.29999499	0.00000000	4.83513700	12.07554000
87.49999498	0.00000000	4.04773600	14.76993000
87.69999497	0.00000000	4.45989200	15.18824000
87.89999496	0.00000000	5.62869100	13.65650000
88.09999495	0.00000000	7.90477300	10.53765000
88.29999493	0.00000000	10.18086000	6.31151500
88.49999492	0.00000000	11.39887000	2.12844500
88.69999491	0.00000000	12.18012000	-0.55979330
88.89999490	0.00000000	12.13706000	-0.97810030
89.09999489	0.00000000	10.97441000	0.55364170
89.29999487	0.00000000	9.06742000	3.66633800
89.49999486	0.00000000	6.79133800	7.84940900
89.69999485	0.00000000	5.25344500	11.70029000
89.89999484	0.00000000	4.83513700	13.98253000
90.09999483	0.00000000	5.16117100	14.35162000
90.29999482	0.00000000	5.99163300	12.03248000
90.49999480	0.00000000	7.16043300	7.89247000
90.69999479	0.00000000	9.06742000	3.62327700
90.89999478	0.00000000	10.55610000	0.17839570
91.09999477	0.00000000	11.02362000	-1.76550200
91.29999476	0.00000000	11.02362000	-1.31028500
91.49999474	0.00000000	10.64838000	1.34719500
91.69999473	0.00000000	9.86097400	5.93626900
91.89999472	0.00000000	9.11048200	10.53765000
92.09999471	0.00000000	8.32308000	14.07480000
92.29999470	0.00000000	7.94783400	16.30167000
92.49999468	0.00000000	7.90477300	15.88336000
92.69999467	0.00000000	7.90477300	12.45079000
92.89999466	0.00000000	7.86171200	7.51722400
93.09999465	0.00000000	7.48646600	2.46063000
93.29999464	0.00000000	6.74212600	-1.35334600
93.49999463	0.00000000	6.36687900	-3.29724400
93.69999461	0.00000000	6.36687900	-2.46678100
93.89999460	0.00000000	6.79133800	0.92888770
94.09999459	0.00000000	7.94783400	5.93626900
94.29999458	0.00000000	9.48572700	10.91289000
94.49999457	0.00000000	11.06668000	14.76993000
94.69999455	0.00000000	12.60458000	16.25861000
94.89999454	0.00000000	13.71801000	14.76993000
95.09999453	0.00000000	13.67495000	10.95595000
95.29999452	0.00000000	12.13706000	6.35457700
95.49999451	0.00000000	9.44266700	2.08538400
95.69999449	0.00000000	6.36687900	-0.97810030
95.89999448	0.00000000	3.62942900	-2.09153500
96.09999447	0.00000000	1.67322800	-0.60285430
96.29999446	0.00000000	0.59670270	2.82972400
96.49999445	0.00000000	1.39640700	6.64370100
96.69999444	0.00000000	4.45989200	10.16855000
96.89999442	0.00000000	8.28001900	12.45079000
97.09999441	0.00000000	12.22933000	13.23819000
97.29999440	0.00000000	15.67421000	12.07554000
97.49999439	0.00000000	17.95029000	9.42421200
97.69999438	0.00000000	17.95029000	6.40378900
97.89999436	0.00000000	15.67421000	4.03543200
98.09999435	0.00000000	12.18012000	2.87278500
98.29999434	0.00000000	7.90477300	2.46063000
98.49999433	0.00000000	3.67249000	3.24803100
98.69999432	0.00000000	0.59670270	4.73671200
98.89999430	0.00000000	-0.60900590	6.26845500
99.09999429	0.00000000	0.17839570	7.42495000
99.29999428	0.00000000	2.50984200	7.84940900
99.49999427	0.00000000	6.36687900	7.89247000
99.69999426	0.00000000	10.55610000	7.89247000
99.89999425	0.00000000	13.71801000	7.89247000
100.09999423	0.00000000	15.67421000	7.89247000
100.29999422	0.00000000	16.46161000	7.93553100
100.49999421	0.00000000	15.67421000	8.31077700
100.69999420	0.00000000	13.76107000	9.00590400
100.89999419	0.00000000	11.02362000	8.96284400
101.09999417	0.00000000	7.94783400	7.84940900
101.29999416	0.00000000	5.21038300	6.31151500
101.49999415	0.00000000	3.29724400	4.77977300
101.69999414	0.00000000	2.50984200	3.62327700
101.89999413	0.00000000	3.25418300	3.19881900
102.09999411	0.00000000	4.78592500	3.24803100
102.29999410	0.00000000	6.74212600	4.08464600
102.49999409	0.00000000	9.06742000	6.36072800
102.69999408	0.00000000	11.02362000	9.00590400
102.89999407	0.00000000	12.55536000	10.96211000
103.09999406	0.00000000	13.29970000	12.11860000
103.29999404	0.00000000	12.55536000	12.07554000
103.49999403	0.00000000	11.06668000	10.53765000
103.69999402	0.00000000	9.48572700	7.84940900
103.89999401	0.00000000	7.90477300	4.77977300
104.09999400	0.00000000	6.36687900	2.08538400
104.29999398	0.00000000	5.21038300	0.55364170
104.49999397	0.00000000	4.83513700	0.55364170
104.69999396	0.00000000	5.21038300	2.08538400
104.89999395	0.00000000	6.36687900	4.73671200
105.09999394	0.00000000	7.86171200	7.47416300
105.29999392	0.00000000	9.06742000	9.79945900
105.49999391	0.00000000	9.86097400	11.70029000
105.69999390	0.00000000	10.59916000	12.03248000
105.89999389	0.00000000	10.59916000	10.58686000
106.09999388	0.00000000	9.86097400	8.26771600
106.29999387	0.00000000	9.06742000	5.98548200
106.49999385	0.00000000	7.90477300	4.03543200
106.69999384	0.00000000	6.83439900	3.29109200
106.89999383	0.00000000	6.79133800	3.62327700
107.09999382	0.00000000	7.52952700	4.77977300
107.29999381	0.00000000	8.28001900	6.31151500
107.49999379	0.00000000	9.06742000	7.84940900
107.69999378	0.00000000	9.44266700	9.00590400
107.89999377	0.00000000	9.44266700	9.38115100
108.09999376	0.00000000	9.06742000	9.00590400
108.29999375	0.00000000	8.28001900	7.84940900
108.49999374	0.00000000	7.52952700	6.31151500
108.69999372	0.00000000	6.74212600	4.77977300
108.89999371	0.00000000	6.36687900	3.66633800
109.09999370	0.00000000	6.36687900	3.66633800
109.29999369	0.00000000	6.79133800	4.77977300
109.49999368	0.00000000	7.94783400	6.31151500
109.69999366	0.00000000	9.44266700	7.89247000
109.89999365	0.00000000	10.59916000	9.38115100
110.09999364	0.00000000	11.02362000	10.16855000
110.29999363	0.00000000	11.02362000	9.79945900
110.49999362	0.00000000	10.59916000	9.05511800
110.69999360	0.00000000	9.44266700	7.84940900
110.89999359	0.00000000	7.90477300	6.31151500
111.09999358	0.00000000	6.41609200	4.77977300
111.29999357	0.00000000	5.62869100	3.66633800
111.49999356	0.00000000	5.99163300	3.62327700
111.69999355	0.00000000	6.74212600	4.36146600
111.89999353	0.00000000	7.90477300	5.15501900
112.09999352	0.00000000	9.06742000	6.31151500
112.29999351	0.00000000	9.86097400	7.42495000
112.49999350	0.00000000	10.64838000	7.84940900
112.69999349	0.00000000	10.97441000	7.89247000
112.89999347	0.00000000	10.59916000	7.89247000
113.09999346	0.00000000	9.48572700	7.89247000
113.29999345	0.00000000	8.37229300	7.84940900
113.49999344	0.00000000	7.94783400	7.47416300
113.69999343	0.00000000	7.90477300	6.72982200
113.89999341	0.00000000	7.90477300	6.35457700
114.09999340	0.00000000	7.90477300	6.26845500
114.29999339	0.00000000	7.90477300	5.89320800
114.49999338	0.00000000	7.94783400	5.15501900
114.69999337	0.00000000	8.32308000	4.77977300
114.89999336	0.00000000	9.06742000	4.77977300
115.09999334	0.00000000	9.48572700	5.15501900
115.29999333	0.00000000	9.86097400	5.89320800
115.49999332	0.00000000	10.23007000	6.31151500
115.69999331	0.00000000	9.81791200	6.72982200
115.89999330	0.00000000	9.11048200	7.47416300
116.09999328	0.00000000	8.32308000	7.89247000
116.29999327	0.00000000	7.90477300	8.31077700
116.49999326	0.00000000	7.52952700	9.00590400
116.69999325	0.00000000	7.16043300	9.00590400
116.89999324	0.00000000	7.52952700	8.26771600
117.09999322	0.00000000	7.90477300	7.51722400
117.29999321	0.00000000	8.32308000	6.68676100
117.49999320	0.00000000	9.11048200	5.93626900
117.69999319	0.00000000	9.86097400	5.15501900
117.89999318	0.00000000	10.64838000	4.77977300
118.09999317	0.00000000	10.97441000	4.73671200
118.29999315	0.00000000	10.59916000	4.77977300
118.49999314	0.00000000	9.48572700	5.19808000
118.69999313	0.00000000	8.32308000	6.31151500
118.89999312	0.00000000	7.52952700	7.42495000
119.09999311	0.00000000	6.74212600	7.84940900
119.29999309	0.00000000	6.36687900	7.89247000
119.49999308	0.00000000	6.36687900	7.89247000
119.69999307	0.00000000	6.79133800	7.89247000
119.89999306	0.00000000	7.94783400	7.84940900
120.09999305	0.00000000	9.39345400	7.47416300
120.29999303	0.00000000	10.27313000	6.72982200
120.49999302	0.00000000	10.65453000	6.35457700
120.69999301	0.00000000	11.43578000	6.31151500
120.89999300	0.00000000	11.34966000	6.26845500
121.09999299	0.00000000	10.64838000	5.93626900
121.29999298	0.00000000	9.48572700	5.57332700
121.49999296	0.00000000	8.32308000	5.93626900
121.69999295	0.00000000	7.52952700	6.31151500
121.89999294	0.00000000	6.74212600	6.72982200
122.09999293	0.00000000	6.36687900	7.47416300
122.29999292	0.00000000	6.36687900	7.84940900
122.49999290	0.00000000	6.74212600	7.89247000
122.69999289	0.00000000	7.52952700	7.89247000
122.89999288	0.00000000	8.28001900	7.89247000
123.09999287	0.00000000	9.06742000	7.89247000
123.29999286	0.00000000	9.48572700	7.84940900
123.49999284	0.00000000	9.90403500	7.47416300
123.69999283	0.00000000	10.59916000	6.72982200
123.89999282	0.00000000	10.59916000	6.35457700
124.09999281	0.00000000	9.90403500	6.31151500
124.29999280	0.00000000	9.48572700	6.31151500
124.49999279	0.00000000	9.06742000	6.31151500
124.69999277	0.00000000	8.32308000	6.31151500
124.89999276	0.00000000	7.90477300	6.31151500
125.09999275	0.00000000	7.52952700	6.35457700
125.29999274	0.00000000	7.16043300	6.72982200
125.49999273	0.00000000	7.52952700	7.47416300
125.69999271	0.00000000	7.86171200	7.84940900
125.89999270	0.00000000	7.94783400	7.89247000
126.09999269	0.00000000	8.37229300	7.89247000
126.29999268	0.00000000	9.48572700	7.89247000
126.49999267	0.00000000	10.59916000	7.89247000
126.69999265	0.00000000	11.02362000	7.84940900
126.89999264	0.00000000	11.02362000	7.47416300
127.09999263	0.00000000	10.59916000	6.72982200
127.29999262	0.00000000	9.44266700	6.35457700
127.49999261	0.00000000	7.94783400	6.31151500
127.69999260	0.00000000	6.79133800	6.31151500
127.89999258	0.00000000	6.36687900	6.31151500
128.09999257	0.00000000	6.36687900	6.31151500
128.29999256	0.00000000	6.79133800	6.35457700
128.49999255	0.00000000	7.90477300	6.72982200
128.69999254	0.00000000	9.06742000	7.42495000
128.89999252	0.00000000	9.86097400	7.47416300
129.09999251	0.00000000	10.64838000	7.10506800
129.29999250	0.00000000	10.97441000	7.09891700
129.49999249	0.00000000	10.59916000	6.68676100
129.69999248	0.00000000	9.44266700	6.35457700
129.89999246	0.00000000	7.94783400	6.31151500
130.09999245	0.00000000	6.79133800	6.31151500
130.29999244	0.00000000	6.36687900	6.31151500
130.49999243	0.00000000	6.36687900	6.31151500
130.69999242	0.00000000	6.79133800	6.35457700
130.89999241	0.00000000	7.94783400	6.72982200
131.09999239	0.00000000	9.44266700	7.47416300
131.29999238	0.00000000	10.59916000	7.80019600
131.49999237	0.00000000	10.97441000	7.47416300
131.69999236	0.00000000	10.64838000	6.72982200
131.89999235	0.00000000	9.86097400	6.31151500
132.09999233	0.00000000	9.11048200	5.89320800
132.29999232	0.00000000	8.32308000	5.19808000
132.49999231	0.00000000	7.94783400	5.19808000
132.69999230	0.00000000	7.90477300	5.89320800
132.89999229	0.00000000	7.90477300	6.31151500
133.09999227	0.00000000	7.94783400	6.72982200
133.29999226	0.00000000	8.32308000	7.51722400
133.49999225	0.00000000	9.06742000	8.22465500
133.69999224	0.00000000	9.44266700	8.63681000
133.89999223	0.00000000	9.48572700	8.26771600
134.09999222	0.00000000	9.48572700	7.89247000
134.29999220	0.00000000	9.44266700	7.42495000
134.49999219	0.00000000	9.06742000	6.31151500
134.69999218	0.00000000	8.32308000	5.19808000
134.89999217	0.00000000	7.99704600	4.77977300
135.09999216	0.00000000	8.32308000	4.77977300
135.29999214	0.00000000	9.06742000	5.15501900
135.49999213	0.00000000	9.44266700	5.93626900
135.69999212	0.00000000	9.48572700	6.68676100
135.89999211	0.00000000	9.44266700	7.47416300
136.09999210	0.00000000	9.06742000	7.84940900
136.29999208	0.00000000	8.32308000	7.89247000
136.49999207	0.00000000	7.94783400	7.89247000
136.69999206	0.00000000	7.86171200	7.84940900
136.89999205	0.00000000	7.52952700	7.51722400
137.09999204	0.00000000	7.20964500	7.10506800
137.29999203	0.00000000	7.94783400	7.09891700
137.49999201	0.00000000	9.01820900	6.68676100
137.69999200	0.00000000	9.48572700	6.35457700
137.89999199	0.00000000	9.86097400	6.31151500
138.09999198	0.00000000	10.23007000	6.31151500
138.29999197	0.00000000	9.86097400	6.31151500
138.49999195	0.00000000	9.48572700	6.31151500
138.69999194	0.00000000	9.01820900	6.31151500
138.89999193	0.00000000	7.94783400	6.35457700
139.09999192	0.00000000	7.20964500	6.72982200
139.29999191	0.00000000	7.52952700	7.47416300
139.49999189	0.00000000	7.86171200	7.84940900
139.69999188	0.00000000	7.94783400	7.89247000
139.89999187	0.00000000	8.32308000	7.89247000
140.09999186	0.00000000	9.06742000	7.84940900
140.29999185	0.00000000	9.44266700	7.47416300
140.49999184	0.00000000	9.48572700	6.68676100
140.69999182	0.00000000	9.48572700	5.93626900
140.89999181	0.00000000	9.44266700	5.15501900
141.09999180	0.00000000	9.06742000	4.77977300
141.29999179	0.00000000	8.32308000	4.77977300
141.49999178	0.00000000	7.94783400	5.15501900
141.69999176	0.00000000	7.90477300	5.93626900
141.89999175	0.00000000	7.94783400	6.72982200
142.09999174	0.00000000	8.32308000	7.89247000
142.29999173	0.00000000	9.06742000	9.00590400
142.49999172	0.00000000	9.44266700	9.38115100
142.69999170	0.00000000	9.48572700	9.05511800
142.89999169	0.00000000	9.48572700	8.26771600
143.09999168	0.00000000	9.48572700	7.51722400
143.29999167	0.00000000	9.44266700	6.68676100
143.49999166	0.00000000	9.06742000	5.93626900
143.69999165	0.00000000	8.37229300	5.15501900
143.89999163	0.00000000	8.32308000	4.82898600
144.09999162	0.00000000	8.69217500	5.15501900
144.29999161	0.00000000	8.69832600	5.93626900
144.49999160	0.00000000	9.11048200	6.68676100
144.69999159	0.00000000	9.44266700	7.47416300
144.89999157	0.00000000	9.48572700	7.84940900
145.09999156	0.00000000	9.48572700	7.89247000
145.29999155	0.00000000	9.48572700	7.89247000
145.49999154	0.00000000	9.44266700	7.84940900
145.69999153	0.00000000	9.06742000	7.47416300
145.89999151	0.00000000	8.32308000	6.72982200
146.09999150	0.00000000	7.94783400	6.35457700
146.29999149	0.00000000	7.94783400	6.31151500
146.49999148	0.00000000	8.32308000	6.31151500
146.69999147	0.00000000	9.06742000	6.31151500
146.89999146	0.00000000	9.44266700	6.31151500
147.09999144	0.00000000	9.48572700	6.35457700
147.29999143	0.00000000	9.48572700	6.72982200
147.49999142	0.00000000	9.48572700	7.47416300
147.69999141	0.00000000	9.44266700	7.84940900
147.89999140	0.00000000	9.06742000	7.89247000
148.09999138	0.00000000	8.32308000	7.89247000
148.29999137	0.00000000	7.94783400	7.89247000
148.49999136	0.00000000	7.90477300	7.84940900
148.69999135	0.00000000	7.90477300	7.47416300
148.89999134	0.00000000	7.94783400	6.72982200
149.09999132	0.00000000	8.32308000	6.35457700
149.29999131	0.00000000	9.06742000	6.31151500
149.49999130	0.00000000	9.44266700	6.31151500
149.69999129	0.00000000	9.48572700	6.31151500
149.89999128	0.00000000	9.48572700	6.31151500
150.09999127	0.00000000	9.48572700	6.31151500
150.29999125	0.00000000	9.48572700	6.35457700
150.49999124	0.00000000	9.44266700	6.72982200
150.69999123	0.00000000	9.06742000	7.47416300
150.89999122	0.00000000	8.32308000	7.84940900
151.09999121	0.00000000	7.94783400	7.89247000
151.29999119	0.00000000	7.90477300	7.89247000
151.49999118	0.00000000	7.94783400	7.84940900
151.69999117	0.00000000	8.32308000	7.47416300
151.89999116	0.00000000	9.06742000	6.72982200
152.09999115	0.00000000	9.48572700	6.35457700
152.29999113	0.00000000	9.81791200	6.31151500
152.49999112	0.00000000	9.85482200	6.31151500
152.69999111	0.00000000	9.11663300	6.35457700
152.89999110	0.00000000	9.15354300	6.68676100
153.09999109	0.00000000	9.44266700	7.05585600
153.29999108	0.00000000	9.44266700	6.72982200
153.49999106	0.00000000	9.06742000	6.77903500
153.69999105	0.00000000	8.32308000	7.47416300
153.89999104	0.00000000	7.94783400	7.84940900
154.09999103	0.00000000	7.90477300	7.89247000
154.29999102	0.00000000	7.90477300	7.89247000
154.49999100	0.00000000	7.90477300	7.84940900
154.69999099	0.00000000	7.94783400	7.47416300
154.89999098	0.00000000	8.32308000	6.72982200
155.09999097	0.00000000	9.06742000	6.35457700
155.29999096	0.00000000	9.44266700	6.31151500
155.49999094	0.00000000	9.48572700	6.31151500
155.69999093	0.00000000	9.48572700	6.31151500
155.89999092	0.00000000	9.48572700	6.31151500
156.09999091	0.00000000	9.48572700	6.31151500
156.29999090	0.00000000	9.44266700	6.35457700
156.49999089	0.00000000	9.06742000	6.72982200
156.69999087	0.00000000	8.32308000	7.47416300
156.89999086	0.00000000	7.94783400	7.84940900
157.09999085	0.00000000	7.90477300	7.89247000
157.29999084	0.00000000	7.90477300	7.89247000
157.49999083	0.00000000	7.90477300	7.84940900
157.69999081	0.00000000	7.90477300	7.47416300
157.89999080	0.00000000	7.94783400	6.72982200
158.09999079	0.00000000	8.32308000	6.35457700
158.29999078	0.00000000	9.06742000	6.31151500
158.49999077	0.00000000	9.44266700	6.31151500
158.69999075	0.00000000	9.48572700	6.31151500
158.89999074	0.00000000	9.48572700	6.31151500
159.09999073	0.00000000	9.48572700	6.31151500
159.29999072	0.00000000	9.44266700	6.35457700
159.49999071	0.00000000	9.06742000	6.72982200
159.69999070	0.00000000	8.32308000	7.47416300
159.89999068	0.00000000	7.94783400	7.84940900
160.09999067	0.00000000	7.90477300	7.89247000
160.29999066	0.00000000	7.90477300	7.89247000
160.49999065	0.00000000	7.90477300	7.84940900
160.69999064	0.00000000	7.90477300	7.47416300
160.89999062	0.00000000	7.94783400	6.72982200
161.09999061	0.00000000	8.32308000	6.35457700
161.29999060	0.00000000	9.06742000	6.31151500
161.49999059	0.00000000	9.44266700	6.31151500
161.69999058	0.00000000	9.48572700	6.31151500
161.89999056	0.00000000	9.48572700	6.31151500
162.09999055	0.00000000	9.48572700	6.31151500
162.29999054	0.00000000	9.48572700	6.35457700
162.49999053	0.00000000	9.48572700	6.72982200
162.69999052	0.00000000	9.44266700	7.47416300
162.89999051	0.00000000	9.06742000	7.84940900
163.09999049	0.00000000	8.32308000	7.89247000
163.29999048	0.00000000	7.94783400	7.89247000
163.49999047	0.00000000	7.90477300	7.84940900
163.69999046	0.00000000	7.90477300	7.47416300
163.89999045	0.00000000	7.90477300	6.72982200
164.09999043	0.00000000	7.90477300	6.35457700
164.29999042	0.00000000	7.94783400	6.31151500
164.49999041	0.00000000	8.32308000	6.31151500
164.69999040	0.00000000	9.06742000	6.31151500
164.89999039	0.00000000	9.44266700	6.31151500
165.09999037	0.00000000	9.48572700	6.31151500
165.29999036	0.00000000	9.48572700	6.31151500
165.49999035	0.00000000	9.48572700	6.35457700
165.69999034	0.00000000	9.44266700	6.72982200
165.89999033	0.00000000	9.06742000	7.42495000
166.09999032	0.00000000	8.32308000	7.47416300
166.29999030	0.00000000	7.94783400	7.10506800
166.49999029	0.00000000	7.90477300	7.14197800
166.69999028	0.00000000	7.90477300	7.06200700
166.89999027	0.00000000	7.94783400	7.09891700
167.09999026	0.00000000	8.28001900	6.68676100
167.29999024	0.00000000	8.69217500	6.40378900
167.49999023	0.00000000	8.69832600	6.68676100
167.69999022	0.00000000	9.11048200	7.05585600
167.89999021	0.00000000	9.44266700	6.68676100
168.09999020	0.00000000	9.48572700	6.35457700
168.29999018	0.00000000	9.48572700	6.31151500
168.49999017	0.00000000	9.48572700	6.31151500
168.69999016	0.00000000	9.48572700	6.31151500
168.89999015	0.00000000	9.44266700	6.31151500
169.09999014	0.00000000	9.11048200	6.31151500
169.29999013	0.00000000	8.69832600	6.31151500
169.49999011	0.00000000	8.69217500	6.31151500
169.69999010	0.00000000	8.28001900	6.31151500
169.89999009	0.00000000	7.99704600	6.35457700
170.09999008	0.00000000	8.32308000	6.68676100
170.29999007	0.00000000	9.06742000	7.05585600
170.49999005	0.00000000	9.44266700	6.68676100
170.69999004	0.00000000	9.48572700	6.35457700
170.89999003	0.00000000	9.48572700	6.31151500
171.09999002	0.00000000	9.48572700	6.31151500
171.29999001	0.00000000	9.48572700	6.31151500
171.49998999	0.00000000	9.48572700	6.31151500
171.69998998	0.00000000	9.48572700	6.31151500
171.89998997	0.00000000	9.48572700	6.31151500
172.09998996	0.00000000	9.48572700	6.31151500
172.29998995	0.00000000	9.48572700	6.31151500
172.49998994	0.00000000	9.44266700	6.31151500
172.69998992	0.00000000	9.11048200	6.31151500
172.89998991	0.00000000	8.69832600	6.31151500
173.09998990	0.00000000	8.73523500	6.35457700
173.29998989	0.00000000	8.69832600	6.72982200
173.49998988	0.00000000	9.11048200	7.42495000
173.69998986	0.00000000	9.44266700	7.42495000
173.89998985	0.00000000	9.48572700	6.72982200
174.09998984	0.00000000	9.48572700	6.35457700
174.29998983	0.00000000	9.48572700	6.31151500
174.49998982	0.00000000	9.48572700	6.31151500
174.69998980	0.00000000	9.48572700	6.31151500
174.89998979	0.00000000	9.48572700	6.31151500
175.09998978	0.00000000	9.44266700	6.31151500
175.29998977	0.00000000	9.06742000	6.31151500
175.49998976	0.00000000	8.37229300	6.31151500
175.69998975	0.00000000	8.32308000	6.31151500
175.89998973	0.00000000	8.69217500	6.35457700
176.09998972	0.00000000	8.69832600	6.72982200
176.29998971	0.00000000	9.11048200	7.42495000
176.49998970	0.00000000	9.44266700	7.47416300
176.69998969	0.00000000	9.48572700	7.10506800
176.89998967	0.00000000	9.44266700	7.09891700
177.09998966	0.00000000	9.11048200	6.68676100
177.29998965	0.00000000	8.74138700	6.35457700
177.49998964	0.00000000	9.06742000	6.31151500
177.69998963	0.00000000	9.01820900	6.31151500
177.89998961	0.00000000	8.32308000	6.31151500
178.09998960	0.00000000	7.99704600	6.31151500
178.29998959	0.00000000	8.28001900	6.31151500
178.49998958	0.00000000	8.69217500	6.31151500
178.69998957	0.00000000	8.69832600	6.35457700
178.89998956	0.00000000	9.11048200	6.72982200
179.09998954	0.00000000	9.44266700	7.47416300
179.29998953	0.00000000	9.48572700	7.80019600
179.49998952	0.00000000	9.48572700	7.47416300
179.69998951	0.00000000	9.48572700	6.72982200
179.89998950	0.00000000	9.48572700	6.35457700
180.09998948	0.00000000	9.44266700	6.31151500
180.29998947	0.00000000	9.11048200	6.31151500
180.49998946	0.00000000	8.74138700	6.31151500
180.69998945	0.00000000	9.11048200	6.31151500
180.89998944	0.00000000	9.39345400	6.31151500
181.09998942	0.00000000	9.11048200	6.31151500
181.29998941	0.00000000	8.74138700	6.31151500
181.49998940	0.00000000	9.11048200	6.35457700
181.69998939	0.00000000	9.44266700	6.72982200
181.89998938	0.00000000	9.48572700	7.47416300
182.09998937	0.00000000	9.44266700	7.80019600
182.29998935	0.00000000	9.11048200	7.51722400
182.49998934	0.00000000	8.74138700	7.10506800
182.69998933	0.00000000	9.11048200	7.09891700
182.89998932	0.00000000	9.44266700	6.68676100
183.09998931	0.00000000	9.48572700	6.35457700
183.29998929	0.00000000	9.48572700	6.31151500
183.49998928	0.00000000	9.48572700	6.31151500
183.69998927	0.00000000	9.48572700	6.31151500
183.89998926	0.00000000	9.44266700	6.31151500
184.09998925	0.00000000	9.11048200	6.35457700
184.29998923	0.00000000	8.69832600	6.72982200
184.49998922	0.00000000	8.73523500	7.47416300
184.69998921	0.00000000	8.69832600	7.84940900
184.89998920	0.00000000	9.11048200	7.89247000
185.09998919	0.00000000	9.44266700	7.89247000
185.29998918	0.00000000	9.48572700	7.89247000
185.49998916	0.00000000	9.48572700	7.84940900
185.69998915	0.00000000	9.48572700	7.47416300
185.89998914	0.00000000	9.48572700	6.72982200
186.09998913	0.00000000	9.48572700	6.35457700
186.29998912	0.00000000	9.48572700	6.31151500
186.49998910	0.00000000	9.44266700	6.26845500
186.69998909	0.00000000	9.11048200	5.93626900
186.89998908	0.00000000	8.69832600	5.57332700
187.09998907	0.00000000	8.73523500	5.98548200
187.29998906	0.00000000	8.65526600	6.68676100
187.49998904	0.00000000	8.73523500	7.47416300
187.69998903	0.00000000	8.69832600	7.84940900
187.89998902	0.00000000	9.11048200	7.89247000
188.09998901	0.00000000	9.44266700	7.89247000
188.29998900	0.00000000	9.48572700	7.89247000
188.49998899	0.00000000	9.48572700	7.84940900
188.69998897	0.00000000	9.48572700	7.47416300
188.89998896	0.00000000	9.48572700	6.72982200
189.09998895	0.00000000	9.48572700	6.35457700
189.29998894	0.00000000	9.48572700	6.31151500
189.49998893	0.00000000	9.48572700	6.31151500
189.69998891	0.00000000	9.48572700	6.31151500
189.89998890	0.00000000	9.48572700	6.31151500
190.09998889	0.00000000	9.48572700	6.31151500
190.29998888	0.00000000	9.48572700	6.35457700
190.49998887	0.00000000	9.44266700	6.72982200
190.69998885	0.00000000	9.11048200	7.47416300
190.89998884	0.00000000	8.74138700	7.84940900
191.09998883	0.00000000	9.11048200	7.89247000
191.29998882	0.00000000	9.44266700	7.84940900
191.49998881	0.00000000	9.48572700	7.51722400
191.69998880	0.00000000	9.48572700	7.10506800
191.89998878	0.00000000	9.48572700	7.09891700
192.09998877	0.00000000	9.48572700	6.68676100
192.29998876	0.00000000	9.48572700	6.35457700
192.49998875	0.00000000	9.48572700	6.31151500
192.69998874	0.00000000	9.48572700	6.31151500
192.89998872	0.00000000	9.44266700	6.31151500
193.09998871	0.00000000	9.11048200	6.31151500
193.29998870	0.00000000	8.69832600	6.35457700
193.49998869	0.00000000	8.73523500	6.72982200
193.69998868	0.00000000	8.69832600	7.47416300
193.89998866	0.00000000	9.11048200	7.84940900
194.09998865	0.00000000	9.44266700	7.89247000
194.29998864	0.00000000	9.48572700	7.89247000
194.49998863	0.00000000	9.52879000	7.89247000
194.69998862	0.00000000	9.86097400	7.89247000
194.89998861	0.00000000	10.23007000	7.89247000
195.09998859	0.00000000	9.86097400	7.89247000
195.29998858	0.00000000	9.52879000	7.89247000
195.49998857	0.00000000	9.48572700	7.84940900
195.69998856	0.00000000	9.48572700	7.47416300
195.89998855	0.00000000	9.44266700	6.72982200
196.09998853	0.00000000	9.06742000	6.35457700
