Time	Channel A	Channel B	Channel C
(us)	(V)	(mV)	(mV)

-4.59999956	0.00000000	82.17889000	34.73794000
-4.39999957	0.00000000	82.22194000	34.73794000
-4.19999958	0.00000000	82.22194000	34.73794000
-3.99999959	0.00000000	82.22194000	34.73794000
-3.79999960	0.00000000	82.22194000	34.73794000
-3.59999962	0.00000000	82.22194000	34.73794000
-3.39999963	0.00000000	82.22194000	34.73794000
-3.19999964	0.00000000	82.22194000	34.73794000
-2.99999965	0.00000000	82.22194000	34.73794000
-2.79999966	0.00000000	82.22194000	34.73794000
-2.59999968	0.00000000	82.17889000	34.73794000
-2.39999969	0.00000000	81.84669000	34.73794000
-2.19999970	0.00000000	81.47760000	34.73794000
-1.99999971	0.00000000	81.84669000	34.73794000
-1.79999972	0.00000000	82.17889000	34.73794000
-1.59999973	0.00000000	82.22194000	34.73794000
-1.39999975	0.00000000	82.22194000	34.78100000
-1.19999976	0.00000000	82.22194000	35.15625000
-0.99999977	0.00000000	82.22194000	35.89444000
-0.79999978	0.00000000	82.22194000	36.22047000
-0.59999979	0.00000000	82.22194000	35.93750000
-0.39999981	0.15871060	82.22194000	35.53149000
-0.19999982	0.47736220	82.22194000	35.51919000
0.00000017	0.79601380	82.22194000	35.11319000
0.20000016	0.95533960	82.22194000	34.78100000
0.40000015	0.95533960	82.22194000	34.73794000
0.60000013	0.63668800	82.22194000	34.73794000
0.80000012	-0.15871060	82.22194000	34.73794000
1.00000011	-1.11466500	82.22194000	34.73794000
1.20000010	-2.07062000	82.22194000	34.78100000
1.40000009	-2.70792300	82.22194000	35.15625000
1.60000008	-2.70792300	82.22194000	35.89444000
1.80000006	-1.91129400	82.22194000	36.26968000
2.00000005	-0.15871060	82.22194000	36.31274000
2.20000004	1.91129400	82.22194000	36.26968000
2.40000003	3.82258900	82.17889000	35.89444000
2.60000002	5.09719500	81.84669000	35.15625000
2.80000000	5.25652100	81.47760000	34.78100000
2.99999999	3.82258900	81.80363000	34.73794000
3.19999998	1.11466500	81.80363000	34.73794000
3.39999997	-2.22994600	81.47760000	34.78100000
3.59999996	-5.41584600	81.84669000	35.15625000
3.79999994	-7.64579200	82.17889000	35.89444000
3.99999993	-7.80511800	82.22194000	36.26968000
4.19999992	-6.21247500	82.22194000	36.31274000
4.39999991	-2.70792300	82.22194000	36.31274000
4.59999990	1.59264300	82.22194000	36.31274000
4.79999989	5.89382400	82.17889000	36.26968000
4.99999987	8.76107300	81.80363000	35.85138000
5.19999986	9.39837600	81.10851000	34.78100000
5.39999985	7.80511800	81.05930000	33.99360000
5.59999984	4.14124000	81.42839000	33.94439000
5.79999983	-0.63668800	81.43454000	33.57529000
5.99999981	-5.09719500	81.80363000	33.62450000
6.19999980	-8.44242100	81.80363000	34.31963000
6.39999979	-9.55770200	81.47760000	34.69488000
6.59999978	-8.28309500	81.84669000	34.73794000
6.79999977	-4.93786900	82.17889000	34.73794000
6.99999975	-0.63668800	82.17889000	34.73794000
7.19999974	3.50393700	81.80363000	34.73794000
7.39999973	6.53112700	81.05930000	34.73794000
7.59999972	7.80511800	80.73326000	34.69488000
7.79999971	7.00848900	81.01624000	34.36269000
7.99999970	4.61921700	81.38533000	33.99360000
8.19999968	1.43331700	81.01624000	34.36269000
8.39999967	-1.75196900	80.68405000	34.69488000
8.59999966	-4.14124000	80.68405000	34.73794000
8.79999965	-5.09719500	81.05930000	34.73794000
8.99999964	-4.77854300	81.80363000	34.73794000
9.19999962	-3.34522600	82.17889000	34.73794000
9.39999961	-1.43331700	82.22194000	34.73794000
9.59999960	0.47736220	82.22194000	34.73794000
9.79999959	1.75196900	82.22194000	34.73794000
9.99999958	2.54859700	82.22194000	34.73794000
10.19999956	2.38927200	82.22194000	34.73794000
10.39999955	1.75196900	82.17889000	34.73794000
10.59999954	0.95533960	81.84669000	34.73794000
10.79999953	0.00000000	81.47760000	34.73794000
10.99999952	-0.63668800	81.80363000	34.73794000
11.19999951	-0.95533960	81.80363000	34.73794000
11.39999949	-0.95533960	81.47760000	34.78100000
11.59999948	-0.79601380	81.84669000	35.11319000
11.79999947	-0.47736220	82.17889000	35.51919000
11.99999946	-0.15871060	82.22194000	35.53149000
12.19999945	-0.15871060	82.22194000	35.93750000
12.39999943	-0.15871060	82.22194000	36.22047000
12.59999942	0.00000000	82.22194000	35.89444000
12.79999941	0.00000000	82.22194000	35.15625000
12.99999940	0.00000000	82.22194000	34.78100000
13.19999939	0.15871060	82.22194000	34.78100000
13.39999937	0.00000000	82.22194000	35.11319000
13.59999936	0.00000000	82.22194000	35.47613000
13.79999935	0.00000000	82.22194000	35.11319000
13.99999934	0.00000000	82.22194000	34.83022000
14.19999933	-0.15871060	82.17889000	35.11319000
14.39999932	-0.15871060	81.80363000	35.47613000
14.59999930	-0.15871060	81.10851000	35.11319000
14.79999929	0.00000000	81.05930000	34.78100000
14.99999928	0.00000000	81.38533000	34.73794000
15.19999927	0.00000000	81.05930000	34.73794000
15.39999926	0.00000000	81.05930000	34.73794000
15.59999924	0.00000000	81.38533000	34.73794000
15.79999923	0.00000000	81.01624000	34.73794000
15.99999922	0.00000000	80.73326000	34.73794000
16.19999921	0.00000000	81.05930000	34.73794000
16.39999920	0.00000000	81.80363000	34.73794000
16.59999919	-0.15871060	82.17889000	34.73794000
16.79999917	0.00000000	82.22194000	34.73794000
16.99999916	0.00000000	82.26501000	34.73794000
17.19999915	0.00000000	82.64025000	34.73794000
17.39999914	0.00000000	83.38459000	34.73794000
17.59999913	0.00000000	83.71062000	34.73794000
17.79999911	0.00000000	83.38459000	34.73794000
17.99999910	0.00000000	82.59719000	34.73794000
18.19999909	0.00000000	81.80363000	34.73794000
18.39999908	0.00000000	80.59792000	34.73794000
18.59999907	0.00000000	79.06004000	34.73794000
18.79999905	0.00000000	77.52214000	34.73794000
18.99999904	0.00000000	76.40871000	34.73794000
19.19999903	0.00000000	76.45177000	34.73794000
19.39999902	0.00000000	78.03272000	34.73794000
19.59999901	0.00000000	81.10851000	34.73794000
19.79999900	0.00000000	84.96555000	34.73794000
19.99999898	0.00000000	88.45349000	34.73794000
20.19999897	0.00000000	91.15402000	34.73794000
20.39999896	0.00000000	92.22440000	34.73794000
20.59999895	0.00000000	90.64346000	34.73794000
20.79999894	0.00000000	86.36810000	34.73794000
20.99999892	0.00000000	80.13041000	34.73794000
21.19999891	0.00000000	72.77928000	34.73794000
21.39999890	0.00000000	65.88951000	34.73794000
21.59999889	0.00000000	61.70029000	34.73794000
21.79999888	0.00000000	61.74335000	34.73794000
21.99999886	0.00000000	66.44315000	34.73794000
22.19999885	0.00000000	75.42445000	34.73794000
22.39999884	0.00000000	87.38312000	34.73794000
22.59999883	0.00000000	99.71703000	34.73794000
22.79999882	0.00000000	108.97510000	34.73794000
22.99999881	0.00000000	113.12130000	34.73794000
23.19999879	0.00000000	110.32230000	34.78100000
23.39999878	0.00000000	99.82160000	35.15625000
23.59999877	0.00000000	83.98745000	35.93750000
23.79999876	0.00000000	65.80339000	36.64493000
23.99999875	0.00000000	49.65551000	37.05708000
24.19999873	0.00000000	39.69611000	36.64493000
24.39999872	0.00000000	39.00098000	35.89444000
24.59999871	0.00000000	48.62820000	34.68873000
24.79999870	0.00000000	66.07406000	33.15699000
24.99999869	0.00000000	87.75835000	31.57603000
25.19999867	0.00000000	109.76250000	30.04429000
25.39999866	0.00000000	126.24260000	28.93085000
25.59999865	0.00000000	132.80020000	28.97392000
25.79999864	0.00000000	127.35600000	30.55487000
25.99999863	0.00000000	111.16510000	33.66756000
26.19999862	0.00000000	87.94906000	37.89370000
26.39999860	0.00000000	62.86294000	42.11983000
26.59999859	0.00000000	41.60310000	45.23868000
26.79999858	0.00000000	29.26919000	46.72736000
26.99999857	0.00000000	28.48179000	45.84153000
27.19999856	0.00000000	39.73917000	41.56618000
27.39999854	0.00000000	60.54379000	34.64567000
27.59999853	0.00000000	86.03592000	26.88853000
27.79999852	0.00000000	109.95940000	19.54355000
27.99999851	0.00000000	127.03000000	14.24705000
28.19999850	0.00000000	133.59380000	13.12746000
28.39999848	0.00000000	128.61100000	17.02756000
28.59999847	0.00000000	113.16440000	25.16609000
28.79999846	0.00000000	91.19709000	36.44808000
28.99999845	0.00000000	67.98105000	48.76968000
29.19999844	0.00000000	48.62204000	59.54724000
29.39999843	0.00000000	36.99557000	65.63730000
29.59999841	0.00000000	35.41462000	65.21899000
29.79999840	0.00000000	43.83612000	57.83095000
29.99999839	0.00000000	59.65797000	44.68504000
30.19999838	0.00000000	79.01083000	28.46333000
30.39999837	0.00000000	97.95152000	12.66609000
30.59999835	0.00000000	112.27850000	1.10113200
30.79999834	0.00000000	118.93450000	-3.50024600
30.99999833	0.00000000	117.44590000	-0.01230315
31.19999832	0.00000000	108.55680000	11.22662000
31.39999831	0.00000000	94.27287000	27.86048000
31.59999829	0.00000000	78.07578000	46.77042000
31.79999828	0.00000000	63.74876000	63.73031000
31.99999827	0.00000000	54.39837000	74.55708000
32.19999826	0.00000000	51.23646000	77.25147000
32.39999825	0.00000000	54.34916000	71.06914000
32.59999824	0.00000000	63.23819000	57.17889000
32.79999822	0.00000000	75.89813000	39.00713000
32.99999821	0.00000000	88.64419000	20.05413000
33.19999820	0.00000000	98.36982000	4.25688900
33.39999819	0.00000000	103.76480000	-4.66289300
33.59999818	0.00000000	103.39570000	-5.08120100
33.79999816	0.00000000	97.29945000	2.63287400
33.99999815	0.00000000	88.12745000	16.94144000
34.19999814	0.00000000	78.45103000	34.68873000
34.39999813	0.00000000	70.72466000	52.06693000
34.59999812	0.00000000	66.44315000	65.21899000
34.79999810	0.00000000	66.40009000	71.39517000
34.99999809	0.00000000	70.21407000	69.53740000
35.19999808	0.00000000	76.36565000	60.29158000
35.39999807	0.00000000	83.33538000	46.39517000
35.59999806	0.00000000	89.43774000	30.55487000
35.79999805	0.00000000	92.87647000	16.33858000
35.99999803	0.00000000	92.18134000	7.41264700
36.19999802	0.00000000	88.36737000	5.46259800
36.39999801	0.00000000	82.96629000	10.43922000
36.59999800	0.00000000	76.82701000	21.16757000
36.79999799	0.00000000	72.26254000	34.22736000
36.99999797	0.00000000	70.63853000	46.17372000
37.19999796	0.00000000	71.80117000	54.29995000
37.39999795	0.00000000	75.24606000	56.58218000
37.59999794	0.00000000	80.26574000	52.81126000
37.79999793	0.00000000	85.24852000	43.98376000
37.99999791	0.00000000	89.15477000	33.29232000
38.19999790	0.00000000	91.01869000	23.67741000
38.39999789	0.00000000	90.31126000	17.95645000
38.59999788	0.00000000	87.24778000	17.91339000
38.79999787	0.00000000	83.38459000	23.25295000
38.99999786	0.00000000	79.10310000	32.04355000
39.19999784	0.00000000	75.28912000	41.61540000
39.39999783	0.00000000	73.28986000	48.91117000
39.59999782	0.00000000	72.87155000	51.93159000
39.79999781	0.00000000	73.66510000	49.60630000
39.99999780	0.00000000	75.99039000	41.98450000
40.19999778	0.00000000	79.01697000	32.04355000
40.39999777	0.00000000	81.75443000	22.79158000
40.59999776	0.00000000	83.75984000	16.28937000
40.79999775	0.00000000	85.34079000	14.80069000
40.99999774	0.00000000	86.49728000	18.98376000
41.19999772	0.00000000	86.87254000	27.43602000
41.39999771	0.00000000	86.49728000	37.80142000
41.59999770	0.00000000	85.34079000	47.46555000
41.79999769	0.00000000	83.75984000	53.98006000
41.99999768	0.00000000	81.80363000	55.87475000
42.19999767	0.00000000	79.47834000	52.02386000
42.39999765	0.00000000	77.52214000	43.65773000
42.59999764	0.00000000	75.94118000	33.66756000
42.79999763	0.00000000	74.82775000	24.79084000
42.99999762	0.00000000	74.82775000	18.94070000
43.19999761	0.00000000	75.94118000	17.02756000
43.39999759	0.00000000	77.52214000	19.30979000
43.59999758	0.00000000	79.47834000	25.44291000
43.79999757	0.00000000	81.80363000	33.11393000
43.99999756	0.00000000	83.75984000	40.45275000
44.19999755	0.00000000	85.34079000	45.84153000
44.39999753	0.00000000	86.49728000	47.84079000
44.59999752	0.00000000	86.87254000	46.72736000
44.79999751	0.00000000	86.54650000	43.28247000
44.99999750	0.00000000	85.71604000	38.26894000
45.19999749	0.00000000	84.54724000	33.29232000
45.39999748	0.00000000	82.55412000	29.39222000
45.59999746	0.00000000	80.22269000	27.43602000
45.79999745	0.00000000	77.43602000	27.39296000
45.99999744	0.00000000	74.36023000	28.93085000
46.19999743	0.00000000	71.70891000	31.57603000
46.39999742	0.00000000	70.54626000	34.31963000
46.59999740	0.00000000	71.33366000	36.68799000
46.79999739	0.00000000	73.75738000	39.00713000
46.99999738	0.00000000	78.45103000	40.50196000
47.19999737	0.00000000	84.96555000	40.54502000
47.39999736	0.00000000	91.15402000	39.38238000
47.59999734	0.00000000	95.80462000	37.43233000
47.79999733	0.00000000	98.03764000	34.73794000
47.99999732	0.00000000	96.45669000	32.04355000
48.19999731	0.00000000	91.06176000	30.08735000
48.39999730	0.00000000	83.29231000	28.93085000
48.59999729	0.00000000	74.40329000	28.97392000
48.79999727	0.00000000	66.35703000	30.51181000
48.99999726	0.00000000	61.70029000	33.20005000
49.19999725	0.00000000	61.32504000	36.31274000
49.39999724	0.00000000	65.23744000	39.38238000
49.59999723	0.00000000	73.33292000	41.65846000
49.79999721	0.00000000	83.33538000	42.03371000
49.99999720	0.00000000	92.64886000	40.50196000
50.19999719	0.00000000	99.58169000	37.43233000
50.39999718	0.00000000	102.18990000	33.57529000
50.59999717	0.00000000	99.11417000	30.08735000
50.79999715	0.00000000	91.11097000	27.39296000
50.99999714	0.00000000	81.10851000	26.27953000
51.19999713	0.00000000	71.84424000	27.44217000
51.39999712	0.00000000	65.23744000	30.51181000
51.59999711	0.00000000	62.95521000	34.73794000
51.79999710	0.00000000	65.23744000	38.92101000
51.99999708	0.00000000	71.79503000	41.65846000
52.19999707	0.00000000	80.54871000	42.45201000
52.39999706	0.00000000	88.68725000	41.70152000
52.59999705	0.00000000	94.04527000	39.33932000
52.79999704	0.00000000	95.62007000	35.89444000
52.99999702	0.00000000	92.55659000	32.04355000
53.19999701	0.00000000	86.45423000	29.01698000
53.39999700	0.00000000	79.10310000	27.81127000
53.59999699	0.00000000	72.26254000	28.55561000
53.79999698	0.00000000	68.44857000	30.46260000
53.99999696	0.00000000	69.14369000	33.15699000
54.19999695	0.00000000	73.28986000	35.80217000
54.39999694	0.00000000	79.10310000	37.34006000
54.59999693	0.00000000	85.24852000	37.38312000
54.79999692	0.00000000	90.22514000	36.22662000
54.99999691	0.00000000	92.13213000	34.31963000
55.19999689	0.00000000	90.64346000	32.08661000
55.39999688	0.00000000	86.41116000	30.93012000
55.59999687	0.00000000	80.64099000	31.29306000
55.79999686	0.00000000	74.87081000	32.46186000
55.99999685	0.00000000	70.68159000	34.78100000
56.19999683	0.00000000	69.52509000	37.43233000
56.39999682	0.00000000	71.80117000	39.33932000
56.59999681	0.00000000	76.40871000	40.08366000
56.79999680	0.00000000	82.17889000	38.82874000
56.99999679	0.00000000	87.52460000	35.43307000
57.19999677	0.00000000	90.64346000	30.83784000
57.39999676	0.00000000	91.06176000	27.01772000
57.59999675	0.00000000	89.10555000	24.74778000
57.79999674	0.00000000	84.87327000	25.16609000
57.99999673	0.00000000	79.52755000	28.59867000
58.19999672	0.00000000	74.91387000	33.62450000
58.39999670	0.00000000	72.17642000	39.43159000
58.59999669	0.00000000	71.75196000	44.77116000
58.79999668	0.00000000	73.28986000	47.79773000
58.99999667	0.00000000	76.40871000	47.42249000
59.19999666	0.00000000	80.64099000	43.56545000
59.39999664	0.00000000	84.83022000	37.38312000
59.59999663	0.00000000	87.52460000	30.08735000
59.79999662	0.00000000	87.94906000	23.58514000
59.99999661	0.00000000	86.45423000	20.14641000
60.19999660	0.00000000	83.75984000	20.47244000
60.39999658	0.00000000	80.68405000	24.37254000
60.59999657	0.00000000	77.98966000	30.88090000
60.79999656	0.00000000	76.45177000	38.63804000
60.99999655	0.00000000	76.40871000	45.52165000
61.19999654	0.00000000	77.57135000	50.15994000
61.39999653	0.00000000	79.47834000	50.86122000
61.59999651	0.00000000	81.80363000	47.46555000
61.79999650	0.00000000	83.66756000	40.87721000
61.99999649	0.00000000	84.45496000	32.83095000
62.19999648	0.00000000	83.71062000	25.12303000
62.39999647	0.00000000	82.17889000	20.09719000
62.59999645	0.00000000	80.22269000	18.52239000
62.79999644	0.00000000	77.94660000	20.47244000
62.99999643	0.00000000	76.45177000	25.86122000
63.19999642	0.00000000	76.40871000	33.15699000
63.39999641	0.00000000	77.57135000	40.50196000
63.59999639	0.00000000	79.52755000	46.25984000
63.79999638	0.00000000	82.22194000	48.95423000
63.99999637	0.00000000	84.83022000	47.84079000
64.19999636	0.00000000	85.99286000	43.70079000
64.39999635	0.00000000	85.24852000	38.26894000
64.59999634	0.00000000	83.38459000	32.82480000
64.79999632	0.00000000	81.01624000	27.76821000
64.99999631	0.00000000	78.72785000	24.37254000
65.19999630	0.00000000	76.82701000	23.49901000
65.39999629	0.00000000	76.40871000	25.02460000
65.59999628	0.00000000	77.14690000	27.67593000
65.79999626	0.00000000	78.31569000	31.20078000
65.99999625	0.00000000	80.26574000	34.64567000
66.19999624	0.00000000	82.12967000	37.43233000
66.39999623	0.00000000	83.29231000	39.38238000
66.59999622	0.00000000	83.24926000	40.58809000
66.79999620	0.00000000	81.75443000	41.01255000
66.99999619	0.00000000	79.47834000	41.01255000
67.19999618	0.00000000	77.57135000	40.54502000
67.39999617	0.00000000	76.45177000	38.96407000
67.59999616	0.00000000	76.82701000	36.26968000
67.79999615	0.00000000	78.72785000	33.15699000
67.99999613	0.00000000	81.05930000	30.00123000
68.19999612	0.00000000	83.75984000	26.93159000
68.39999611	0.00000000	86.03592000	24.61245000
68.59999610	0.00000000	86.73721000	23.90502000
68.79999609	0.00000000	85.56840000	25.07382000
68.99999607	0.00000000	82.08661000	28.59867000
69.19999606	0.00000000	77.52214000	33.57529000
69.39999605	0.00000000	73.24680000	39.00713000
69.59999604	0.00000000	70.22022000	43.65773000
69.79999603	0.00000000	69.47588000	46.72736000
69.99999601	0.00000000	71.75196000	47.42249000
70.19999600	0.00000000	75.99039000	44.72810000
70.39999599	0.00000000	81.10851000	39.38238000
70.59999598	0.00000000	86.92175000	33.20005000
70.79999597	0.00000000	92.18134000	27.39296000
70.99999596	0.00000000	94.50048000	23.16683000
71.19999594	0.00000000	92.97490000	21.58587000
71.39999593	0.00000000	88.77952000	22.74852000
71.59999592	0.00000000	82.50491000	26.23647000
71.79999591	0.00000000	75.61516000	31.62524000
71.99999590	0.00000000	69.38361000	37.34006000
72.19999588	0.00000000	65.60654000	41.61540000
72.39999587	0.00000000	65.15132000	43.56545000
72.59999586	0.00000000	68.26402000	43.19635000
72.79999585	0.00000000	73.66510000	40.54502000
72.99999584	0.00000000	80.64099000	36.73105000
73.19999582	0.00000000	87.57381000	33.29232000
73.39999581	0.00000000	92.59965000	30.93012000
73.59999580	0.00000000	94.91880000	30.13656000
73.79999579	0.00000000	93.71308000	30.51181000
73.99999578	0.00000000	89.15477000	32.04355000
74.19999577	0.00000000	82.64025000	34.27042000
74.39999575	0.00000000	76.45177000	35.75910000
74.59999574	0.00000000	71.75196000	35.80217000
74.79999573	0.00000000	69.05757000	34.64567000
74.99999572	0.00000000	69.05757000	32.73868000
75.19999571	0.00000000	71.70891000	30.51181000
75.39999569	0.00000000	75.94118000	29.39222000
75.59999568	0.00000000	80.59792000	30.17962000
75.79999567	0.00000000	84.83022000	32.50492000
75.99999566	0.00000000	87.52460000	36.36196000
76.19999565	0.00000000	87.99212000	40.54502000
76.39999563	0.00000000	86.87254000	43.61467000
76.59999562	0.00000000	84.91634000	44.77116000
76.79999561	0.00000000	82.22194000	43.57160000
76.99999560	0.00000000	79.57062000	40.08366000
77.19999559	0.00000000	77.98966000	34.69488000
77.39999558	0.00000000	77.57135000	28.93085000
77.59999556	0.00000000	77.89738000	24.28026000
77.79999555	0.00000000	78.68478000	21.63509000
77.99999554	0.00000000	79.39222000	22.05339000
78.19999553	0.00000000	79.84743000	25.90428000
78.39999552	0.00000000	79.85359000	31.99434000
78.59999550	0.00000000	80.22269000	38.58883000
78.79999549	0.00000000	80.17347000	43.98376000
78.99999548	0.00000000	79.52755000	47.50861000
79.19999547	0.00000000	79.57062000	48.16683000
79.39999546	0.00000000	80.73326000	45.60162000
79.59999544	0.00000000	82.59719000	40.55118000
79.79999543	0.00000000	84.49802000	35.19316000
79.99999542	0.00000000	85.20546000	29.67520000
80.19999541	0.00000000	84.49802000	25.53518000
80.39999540	0.00000000	82.55412000	23.49901000
80.59999539	0.00000000	80.26574000	23.91117000
80.79999537	0.00000000	77.89738000	26.14419000
80.99999536	0.00000000	75.99039000	29.66904000
81.19999535	0.00000000	74.82775000	33.53223000
81.39999534	0.00000000	74.87081000	37.38312000
81.59999533	0.00000000	76.40871000	40.12672000
81.79999531	0.00000000	79.10310000	41.33858000
81.99999530	0.00000000	82.12967000	41.75073000
82.19999529	0.00000000	84.45496000	40.92027000
82.39999528	0.00000000	85.24852000	39.05635000
82.59999527	0.00000000	84.91634000	36.68799000
82.79999525	0.00000000	83.71062000	34.31963000
82.99999524	0.00000000	81.80363000	31.57603000
83.19999523	0.00000000	79.47834000	28.93085000
83.39999522	0.00000000	77.61442000	27.34990000
83.59999521	0.00000000	76.78395000	26.88238000
83.79999520	0.00000000	77.14690000	26.93159000
83.99999518	0.00000000	77.89738000	27.76821000
84.19999517	0.00000000	79.06004000	30.13656000
84.39999516	0.00000000	80.17347000	33.57529000
84.59999515	0.00000000	80.59792000	37.43233000
84.79999514	0.00000000	80.59792000	40.50196000
84.99999512	0.00000000	80.22269000	42.07677000
85.19999511	0.00000000	79.52755000	42.07677000
85.39999510	0.00000000	79.52755000	40.50196000
85.59999509	0.00000000	80.22269000	37.38312000
85.79999508	0.00000000	80.64099000	33.15699000
85.99999506	0.00000000	81.05930000	28.93085000
86.19999505	0.00000000	81.80363000	25.86122000
86.39999504	0.00000000	82.12967000	24.65551000
86.59999503	0.00000000	81.75443000	25.44291000
86.79999502	0.00000000	80.54871000	27.76821000
86.99999501	0.00000000	78.68478000	31.66830000
87.19999499	0.00000000	76.78395000	36.22662000
87.39999498	0.00000000	76.03346000	40.07751000
87.59999497	0.00000000	76.36565000	42.03371000
87.79999496	0.00000000	77.52214000	42.03371000
87.99999495	0.00000000	79.10310000	40.07751000
88.19999493	0.00000000	81.01624000	36.26968000
88.39999492	0.00000000	82.96629000	32.04355000
88.59999491	0.00000000	84.08587000	28.59867000
88.79999490	0.00000000	84.49802000	26.65477000
88.99999489	0.00000000	83.66756000	27.06693000
89.19999487	0.00000000	81.80363000	29.34916000
89.39999486	0.00000000	79.47834000	33.20005000
89.59999485	0.00000000	77.57135000	37.38312000
89.79999484	0.00000000	76.36565000	40.50196000
89.99999483	0.00000000	75.99039000	42.03371000
90.19999482	0.00000000	76.36565000	41.61540000
90.39999480	0.00000000	77.52214000	38.92101000
90.59999479	0.00000000	79.06004000	34.69488000
90.79999478	0.00000000	80.59792000	30.13656000
90.99999477	0.00000000	81.75443000	26.70398000
91.19999476	0.00000000	82.17889000	25.90428000
91.39999474	0.00000000	82.17889000	27.39296000
91.59999473	0.00000000	81.80363000	30.55487000
91.79999472	0.00000000	81.01624000	35.15625000
91.99999471	0.00000000	80.26574000	40.08366000
92.19999470	0.00000000	79.47834000	43.14714000
92.39999468	0.00000000	79.10310000	43.56545000
92.59999467	0.00000000	79.06004000	41.65846000
92.79999466	0.00000000	79.06004000	37.80142000
92.99999465	0.00000000	79.01697000	33.15699000
93.19999464	0.00000000	78.64173000	28.55561000
93.39999463	0.00000000	77.89738000	25.12303000
93.59999461	0.00000000	77.52214000	24.37254000
93.79999460	0.00000000	77.52214000	26.27953000
93.99999459	0.00000000	77.98966000	30.51181000
94.19999458	0.00000000	79.52755000	35.85138000
94.39999457	0.00000000	81.80363000	40.45275000
94.59999455	0.00000000	83.71062000	43.14714000
94.79999454	0.00000000	84.91634000	43.14714000
94.99999453	0.00000000	85.24852000	40.50196000
95.19999452	0.00000000	84.45496000	36.26968000
95.39999451	0.00000000	82.12967000	31.66830000
95.59999449	0.00000000	79.10310000	27.81127000
95.79999448	0.00000000	76.31644000	25.86122000
95.99999447	0.00000000	73.98499000	25.86122000
96.19999446	0.00000000	72.08414000	27.81127000
96.39999445	0.00000000	71.80117000	31.61909000
96.59999444	0.00000000	73.66510000	35.80217000
96.79999442	0.00000000	77.14690000	38.92101000
96.99999441	0.00000000	81.01624000	40.45890000
97.19999440	0.00000000	84.87327000	40.08366000
97.39999439	0.00000000	87.57381000	37.85064000
97.59999438	0.00000000	88.36737000	35.15625000
97.79999436	0.00000000	87.57381000	32.83095000
97.99999435	0.00000000	84.87327000	30.88090000
98.19999434	0.00000000	81.01624000	30.09350000
98.39999433	0.00000000	77.14690000	30.09350000
98.59999432	0.00000000	73.62204000	30.88090000
98.79999430	0.00000000	71.33366000	32.78174000
98.99999429	0.00000000	70.54626000	34.60261000
99.19999428	0.00000000	71.75196000	35.43307000
99.39999427	0.00000000	74.78469000	35.11319000
99.59999426	0.00000000	78.68478000	34.78100000
99.79999425	0.00000000	82.50491000	34.73794000
99.99999423	0.00000000	85.61761000	34.73794000
100.19999422	0.00000000	86.78642000	34.78100000
100.39999421	0.00000000	86.49728000	35.15625000
100.59999420	0.00000000	85.29158000	35.85138000
100.79999419	0.00000000	83.33538000	35.85138000
100.99999417	0.00000000	80.59792000	35.11319000
101.19999416	0.00000000	77.52214000	34.27042000
101.39999415	0.00000000	74.82775000	32.73868000
101.59999414	0.00000000	73.28986000	30.88090000
101.79999413	0.00000000	73.24680000	30.09350000
101.99999411	0.00000000	74.36023000	30.09350000
102.19999410	0.00000000	75.94118000	30.88090000
102.39999409	0.00000000	77.94660000	32.83095000
102.59999408	0.00000000	80.59792000	35.11319000
102.79999407	0.00000000	82.91708000	37.47539000
102.99999406	0.00000000	84.08587000	39.33932000
103.19999404	0.00000000	84.49802000	40.08366000
103.39999403	0.00000000	83.71062000	38.92101000
103.59999402	0.00000000	82.22194000	36.26968000
103.79999401	0.00000000	80.59792000	33.20005000
103.99999400	0.00000000	78.68478000	30.46260000
104.19999398	0.00000000	76.78395000	28.55561000
104.39999397	0.00000000	75.99039000	27.76821000
104.59999396	0.00000000	75.94118000	28.55561000
104.79999395	0.00000000	76.36565000	30.46260000
104.99999394	0.00000000	77.52214000	33.20005000
105.19999392	0.00000000	79.06004000	36.22662000
105.39999391	0.00000000	80.59792000	38.54576000
105.59999390	0.00000000	81.75443000	39.33932000
105.79999389	0.00000000	82.12967000	38.96407000
105.99999388	0.00000000	81.75443000	37.43233000
106.19999387	0.00000000	80.64099000	35.11319000
106.39999385	0.00000000	79.47834000	32.83095000
106.59999384	0.00000000	78.68478000	30.88090000
106.79999383	0.00000000	77.94660000	30.17962000
106.99999382	0.00000000	77.94660000	30.88090000
107.19999381	0.00000000	78.68478000	32.78174000
107.39999379	0.00000000	79.43528000	34.68873000
107.59999378	0.00000000	80.22269000	36.22662000
107.79999377	0.00000000	80.59792000	37.00787000
107.99999376	0.00000000	80.59792000	36.64493000
108.19999375	0.00000000	80.17347000	35.89444000
108.39999374	0.00000000	79.06004000	34.68873000
108.59999372	0.00000000	77.94660000	33.15699000
108.79999371	0.00000000	77.52214000	31.66830000
108.99999370	0.00000000	77.52214000	30.93012000
109.19999369	0.00000000	77.89738000	31.66830000
109.39999368	0.00000000	78.68478000	33.15699000
109.59999366	0.00000000	79.47834000	34.68873000
109.79999365	0.00000000	80.64099000	35.89444000
109.99999364	0.00000000	81.75443000	36.64493000
110.19999363	0.00000000	82.08661000	37.05708000
110.39999362	0.00000000	81.38533000	36.59571000
110.59999360	0.00000000	79.85359000	35.47613000
110.79999359	0.00000000	78.72785000	33.57529000
110.99999358	0.00000000	77.85432000	32.04355000
111.19999357	0.00000000	77.10384000	31.25000000
111.39999356	0.00000000	76.36565000	30.83784000
111.59999355	0.00000000	76.40871000	31.20078000
111.79999353	0.00000000	77.52214000	31.57603000
111.99999352	0.00000000	79.01697000	32.04355000
112.19999351	0.00000000	80.17347000	33.15699000
112.39999350	0.00000000	80.59792000	34.27042000
112.59999349	0.00000000	80.64099000	34.69488000
112.79999347	0.00000000	80.59792000	34.73794000
112.99999346	0.00000000	80.22269000	34.69488000
113.19999345	0.00000000	79.43528000	34.31963000
113.39999344	0.00000000	78.68478000	33.57529000
113.59999343	0.00000000	77.89738000	33.20005000
113.79999341	0.00000000	77.52214000	33.15699000
113.99999340	0.00000000	77.52214000	33.15699000
114.19999339	0.00000000	77.89738000	33.11393000
114.39999338	0.00000000	78.68478000	32.78174000
114.59999337	0.00000000	79.43528000	32.36959000
114.79999336	0.00000000	80.22269000	32.40649000
114.99999334	0.00000000	80.59792000	32.36959000
115.19999333	0.00000000	80.64099000	32.78174000
115.39999332	0.00000000	80.59792000	33.11393000
115.59999331	0.00000000	80.22269000	33.20005000
115.79999330	0.00000000	79.47834000	33.57529000
115.99999328	0.00000000	79.10310000	34.31963000
116.19999327	0.00000000	79.01697000	34.69488000
116.39999326	0.00000000	78.64173000	34.73794000
116.59999325	0.00000000	77.89738000	34.73794000
116.79999324	0.00000000	77.52214000	34.69488000
116.99999322	0.00000000	77.52214000	34.31963000
117.19999321	0.00000000	77.89738000	33.53223000
117.39999320	0.00000000	78.68478000	32.78174000
117.59999319	0.00000000	79.43528000	31.99434000
117.79999318	0.00000000	80.22269000	31.61909000
117.99999317	0.00000000	80.59792000	31.57603000
118.19999315	0.00000000	80.59792000	31.61909000
118.39999314	0.00000000	80.22269000	31.99434000
118.59999313	0.00000000	79.43528000	32.78174000
118.79999312	0.00000000	78.64173000	33.53223000
118.99999311	0.00000000	77.47908000	34.31963000
119.19999309	0.00000000	76.36565000	34.69488000
119.39999308	0.00000000	75.99039000	34.73794000
119.59999307	0.00000000	76.36565000	34.73794000
119.79999306	0.00000000	77.52214000	34.73794000
119.99999305	0.00000000	79.01697000	34.73794000
120.19999303	0.00000000	80.22269000	34.69488000
120.39999302	0.00000000	81.01624000	34.31963000
120.59999301	0.00000000	81.80363000	33.57529000
120.79999300	0.00000000	82.12967000	33.20005000
120.99999299	0.00000000	81.80363000	33.15699000
121.19999298	0.00000000	81.01624000	33.15699000
121.39999296	0.00000000	80.22269000	33.15699000
121.59999295	0.00000000	79.06004000	33.15699000
121.79999294	0.00000000	77.94660000	33.20005000
121.99999293	0.00000000	77.52214000	33.57529000
122.19999292	0.00000000	77.47908000	34.31963000
122.39999290	0.00000000	77.52214000	34.69488000
122.59999289	0.00000000	77.89738000	34.73794000
122.79999288	0.00000000	78.68478000	34.73794000
122.99999287	0.00000000	79.43528000	34.73794000
123.19999286	0.00000000	80.22269000	34.73794000
123.39999284	0.00000000	80.59792000	34.69488000
123.59999283	0.00000000	80.64099000	34.31963000
123.79999282	0.00000000	80.64099000	33.57529000
123.99999281	0.00000000	80.64099000	33.20005000
124.19999280	0.00000000	80.59792000	33.15699000
124.39999279	0.00000000	80.22269000	33.15699000
124.59999277	0.00000000	79.43528000	33.15699000
124.79999276	0.00000000	78.68478000	33.15699000
124.99999275	0.00000000	77.89738000	33.15699000
125.19999274	0.00000000	77.52214000	33.15699000
125.39999273	0.00000000	77.47908000	33.20005000
125.59999271	0.00000000	77.52214000	33.53223000
125.79999270	0.00000000	77.94660000	33.94439000
125.99999269	0.00000000	79.06004000	33.95054000
126.19999268	0.00000000	80.17347000	34.36269000
126.39999267	0.00000000	80.59792000	34.64567000
126.59999265	0.00000000	80.64099000	34.36269000
126.79999264	0.00000000	80.64099000	33.95054000
126.99999263	0.00000000	80.59792000	33.94439000
127.19999262	0.00000000	80.17347000	33.53223000
127.39999261	0.00000000	79.06004000	33.20005000
127.59999260	0.00000000	77.89738000	33.15699000
127.79999258	0.00000000	77.14690000	33.15699000
127.99999257	0.00000000	76.73474000	33.15699000
128.19999256	0.00000000	77.10384000	33.15699000
128.39999255	0.00000000	77.47908000	33.15699000
128.59999254	0.00000000	77.94660000	33.15699000
128.79999252	0.00000000	79.06004000	33.20005000
128.99999251	0.00000000	80.17347000	33.53223000
129.19999250	0.00000000	80.54871000	33.90133000
129.39999249	0.00000000	80.22269000	33.53223000
129.59999248	0.00000000	79.43528000	33.20005000
129.79999246	0.00000000	78.68478000	33.15699000
129.99999245	0.00000000	77.85432000	33.15699000
130.19999244	0.00000000	77.10384000	33.15699000
130.39999243	0.00000000	76.36565000	33.15699000
130.59999242	0.00000000	76.40871000	33.15699000
130.79999241	0.00000000	77.47908000	33.15699000
130.99999239	0.00000000	78.64173000	33.15699000
131.19999238	0.00000000	79.43528000	33.15699000
131.39999237	0.00000000	80.22269000	33.15699000
131.59999236	0.00000000	80.59792000	33.15699000
131.79999235	0.00000000	80.59792000	33.11393000
131.99999233	0.00000000	80.17347000	32.73868000
132.19999232	0.00000000	79.06004000	31.99434000
132.39999231	0.00000000	77.94660000	31.66830000
132.59999230	0.00000000	77.52214000	31.99434000
132.79999229	0.00000000	77.47908000	32.78174000
132.99999227	0.00000000	77.52214000	33.53223000
133.19999226	0.00000000	77.89738000	34.31963000
133.39999225	0.00000000	78.64173000	34.73794000
133.59999224	0.00000000	79.01697000	35.11319000
133.79999223	0.00000000	79.06004000	35.47613000
133.99999222	0.00000000	79.06004000	35.06397000
134.19999220	0.00000000	79.06004000	34.36269000
134.39999219	0.00000000	79.01697000	33.53223000
134.59999218	0.00000000	78.68478000	32.78174000
134.79999217	0.00000000	78.31569000	31.99434000
134.99999216	0.00000000	78.68478000	31.61909000
135.19999214	0.00000000	79.01697000	31.57603000
135.39999213	0.00000000	79.06004000	31.61909000
135.59999212	0.00000000	79.06004000	32.04355000
135.79999211	0.00000000	79.06004000	33.15699000
135.99999210	0.00000000	79.01697000	34.27042000
136.19999208	0.00000000	78.64173000	34.69488000
136.39999207	0.00000000	77.89738000	34.73794000
136.59999206	0.00000000	77.52214000	34.73794000
136.79999205	0.00000000	77.47908000	34.69488000
136.99999204	0.00000000	77.52214000	34.31963000
137.19999203	0.00000000	77.89738000	33.57529000
137.39999201	0.00000000	78.68478000	33.20005000
137.59999200	0.00000000	79.43528000	33.11393000
137.79999199	0.00000000	80.22269000	32.78174000
137.99999198	0.00000000	80.59792000	32.41265000
138.19999197	0.00000000	80.59792000	32.78174000
138.39999195	0.00000000	80.22269000	33.11393000
138.59999194	0.00000000	79.43528000	33.15699000
138.79999193	0.00000000	78.68478000	33.20005000
138.99999192	0.00000000	77.89738000	33.57529000
139.19999191	0.00000000	77.52214000	34.31963000
139.39999189	0.00000000	77.47908000	34.69488000
139.59999188	0.00000000	77.52214000	34.73794000
139.79999187	0.00000000	77.89738000	34.73794000
139.99999186	0.00000000	78.64173000	34.69488000
140.19999185	0.00000000	79.01697000	34.31963000
140.39999184	0.00000000	79.06004000	33.57529000
140.59999182	0.00000000	79.06004000	33.15699000
140.79999181	0.00000000	79.06004000	32.73868000
140.99999180	0.00000000	79.01697000	31.99434000
141.19999179	0.00000000	78.64173000	31.61909000
141.39999178	0.00000000	77.89738000	31.61909000
141.59999176	0.00000000	77.52214000	31.99434000
141.79999175	0.00000000	77.52214000	32.78174000
141.99999174	0.00000000	77.89738000	33.53223000
142.19999173	0.00000000	78.64173000	34.36269000
142.39999172	0.00000000	79.06004000	35.11319000
142.59999170	0.00000000	79.43528000	35.85138000
142.79999169	0.00000000	79.80437000	35.80217000
142.99999168	0.00000000	79.43528000	34.73794000
143.19999167	0.00000000	79.06004000	33.57529000
143.39999166	0.00000000	78.64173000	32.78174000
143.59999165	0.00000000	77.89738000	31.99434000
143.79999163	0.00000000	77.52214000	31.61909000
143.99999162	0.00000000	77.52214000	31.61909000
144.19999161	0.00000000	77.89738000	31.99434000
144.39999160	0.00000000	78.64173000	32.78174000
144.59999159	0.00000000	79.01697000	33.53223000
144.79999157	0.00000000	79.06004000	34.31963000
144.99999156	0.00000000	79.06004000	34.69488000
145.19999155	0.00000000	79.06004000	34.73794000
145.39999154	0.00000000	79.01697000	34.69488000
145.59999153	0.00000000	78.64173000	34.31963000
145.79999151	0.00000000	77.89738000	33.53223000
145.99999150	0.00000000	77.52214000	32.78174000
146.19999149	0.00000000	77.47908000	31.99434000
146.39999148	0.00000000	77.47908000	31.61909000
146.59999147	0.00000000	77.47908000	31.57603000
146.79999146	0.00000000	77.52214000	31.61909000
146.99999144	0.00000000	77.89738000	31.99434000
147.19999143	0.00000000	78.64173000	32.73868000
147.39999142	0.00000000	79.01697000	33.11393000
147.59999141	0.00000000	79.01697000	33.15699000
147.79999140	0.00000000	78.64173000	33.20005000
147.99999138	0.00000000	77.89738000	33.53223000
148.19999137	0.00000000	77.52214000	33.90133000
148.39999136	0.00000000	77.47908000	33.53223000
148.59999135	0.00000000	77.47908000	33.20005000
148.79999134	0.00000000	77.52214000	33.15699000
148.99999132	0.00000000	77.85432000	33.15699000
149.19999131	0.00000000	78.26648000	33.15699000
149.39999130	0.00000000	78.27264000	33.15699000
149.59999129	0.00000000	78.68478000	33.15699000
149.79999128	0.00000000	79.01697000	33.15699000
149.99999127	0.00000000	79.06004000	33.15699000
150.19999125	0.00000000	79.01697000	33.15699000
150.39999124	0.00000000	78.68478000	33.20005000
150.59999123	0.00000000	78.27264000	33.57529000
150.79999122	0.00000000	78.26648000	34.31963000
150.99999121	0.00000000	77.85432000	34.64567000
151.19999119	0.00000000	77.52214000	34.31963000
151.39999118	0.00000000	77.47908000	33.57529000
151.59999117	0.00000000	77.52214000	33.20005000
151.79999116	0.00000000	77.89738000	33.15699000
151.99999115	0.00000000	78.64173000	33.15699000
152.19999113	0.00000000	79.01697000	33.15699000
152.39999112	0.00000000	79.06004000	33.15699000
152.59999111	0.00000000	79.06004000	33.15699000
152.79999110	0.00000000	79.06004000	33.15699000
152.99999109	0.00000000	79.06004000	33.15699000
153.19999108	0.00000000	79.01697000	33.15699000
153.39999106	0.00000000	78.64173000	33.20005000
153.59999105	0.00000000	77.89738000	33.57529000
153.79999104	0.00000000	77.52214000	34.27042000
153.99999103	0.00000000	77.47908000	34.31963000
154.19999102	0.00000000	77.47908000	33.95054000
154.39999100	0.00000000	77.47908000	33.94439000
154.59999099	0.00000000	77.47908000	33.53223000
154.79999098	0.00000000	77.52214000	33.20005000
154.99999097	0.00000000	77.89738000	33.15699000
155.19999096	0.00000000	78.64173000	33.11393000
155.39999094	0.00000000	79.01697000	32.78174000
155.59999093	0.00000000	79.06004000	32.41265000
155.79999092	0.00000000	79.06004000	32.78174000
155.99999091	0.00000000	79.06004000	33.11393000
156.19999090	0.00000000	79.01697000	33.15699000
156.39999089	0.00000000	78.64173000	33.15699000
156.59999087	0.00000000	77.89738000	33.15699000
156.79999086	0.00000000	77.52214000	33.20005000
156.99999085	0.00000000	77.47908000	33.57529000
157.19999084	0.00000000	77.47908000	34.27042000
157.39999083	0.00000000	77.47908000	34.27042000
157.59999081	0.00000000	77.47908000	33.57529000
157.79999080	0.00000000	77.52214000	33.20005000
157.99999079	0.00000000	77.89738000	33.11393000
158.19999078	0.00000000	78.64173000	32.78174000
158.39999077	0.00000000	79.01697000	32.36959000
158.59999075	0.00000000	79.06004000	32.36343000
158.79999074	0.00000000	79.01697000	31.99434000
158.99999073	0.00000000	78.68478000	32.04355000
159.19999072	0.00000000	78.27264000	32.73868000
159.39999071	0.00000000	78.26648000	33.11393000
159.59999070	0.00000000	77.85432000	33.20005000
159.79999068	0.00000000	77.52214000	33.57529000
159.99999067	0.00000000	77.47908000	34.27042000
160.19999066	0.00000000	77.47908000	34.27042000
160.39999065	0.00000000	77.47908000	33.57529000
160.59999064	0.00000000	77.47908000	33.20005000
160.79999062	0.00000000	77.47908000	33.11393000
160.99999061	0.00000000	77.47908000	32.73868000
161.19999060	0.00000000	77.47908000	31.99434000
161.39999059	0.00000000	77.47908000	31.61909000
161.59999058	0.00000000	77.47908000	31.57603000
161.79999056	0.00000000	77.52214000	31.61909000
161.99999055	0.00000000	77.89738000	31.99434000
162.19999054	0.00000000	78.59251000	32.73868000
162.39999053	0.00000000	78.64173000	33.11393000
162.59999052	0.00000000	78.27264000	33.15699000
162.79999051	0.00000000	78.26648000	33.15699000
162.99999049	0.00000000	77.85432000	33.15699000
163.19999048	0.00000000	77.52214000	33.15699000
163.39999047	0.00000000	77.47908000	33.15699000
163.59999046	0.00000000	77.47908000	33.15699000
163.79999045	0.00000000	77.47908000	33.15699000
163.99999043	0.00000000	77.47908000	33.15699000
164.19999042	0.00000000	77.47908000	33.15699000
164.39999041	0.00000000	77.47908000	33.15699000
164.59999040	0.00000000	77.52214000	33.15699000
164.79999039	0.00000000	77.89738000	33.15699000
164.99999037	0.00000000	78.64173000	33.15699000
165.19999036	0.00000000	79.01697000	33.15699000
165.39999035	0.00000000	79.06004000	33.15699000
165.59999034	0.00000000	79.01697000	33.15699000
165.79999033	0.00000000	78.64173000	33.15699000
165.99999032	0.00000000	77.89738000	33.15699000
166.19999030	0.00000000	77.52214000	33.15699000
166.39999029	0.00000000	77.47908000	33.15699000
166.59999028	0.00000000	77.47908000	33.15699000
166.79999027	0.00000000	77.47908000	33.15699000
166.99999026	0.00000000	77.47908000	33.15699000
167.19999024	0.00000000	77.47908000	33.15699000
167.39999023	0.00000000	77.52214000	33.15699000
167.59999022	0.00000000	77.85432000	33.15699000
167.79999021	0.00000000	78.22342000	33.15699000
167.99999020	0.00000000	77.89738000	33.15699000
168.19999018	0.00000000	77.94660000	33.15699000
168.39999017	0.00000000	78.59251000	33.15699000
168.59999016	0.00000000	78.59251000	33.15699000
168.79999015	0.00000000	77.89738000	33.15699000
168.99999014	0.00000000	77.52214000	33.15699000
169.19999013	0.00000000	77.47908000	33.15699000
169.39999011	0.00000000	77.47908000	33.15699000
169.59999010	0.00000000	77.47908000	33.15699000
169.79999009	0.00000000	77.47908000	33.15699000
169.99999008	0.00000000	77.47908000	33.20005000
170.19999007	0.00000000	77.47908000	33.53223000
170.39999005	0.00000000	77.47908000	33.90133000
170.59999004	0.00000000	77.47908000	33.53223000
170.79999003	0.00000000	77.52214000	33.20005000
170.99999002	0.00000000	77.85432000	33.15699000
171.19999001	0.00000000	78.22342000	33.15699000
171.39998999	0.00000000	77.89738000	33.15699000
171.59998998	0.00000000	77.89738000	33.15699000
171.79998997	0.00000000	78.22342000	33.15699000
171.99998996	0.00000000	77.85432000	33.15699000
172.19998995	0.00000000	77.52214000	33.15699000
172.39998994	0.00000000	77.47908000	33.15699000
172.59998992	0.00000000	77.47908000	33.15699000
172.79998991	0.00000000	77.47908000	33.15699000
172.99998990	0.00000000	77.47908000	33.15699000
173.19998989	0.00000000	77.47908000	33.15699000
173.39998988	0.00000000	77.47908000	33.15699000
173.59998986	0.00000000	77.47908000	33.15699000
173.79998985	0.00000000	77.47908000	33.15699000
173.99998984	0.00000000	77.47908000	33.11393000
174.19998983	0.00000000	77.47908000	32.73868000
174.39998982	0.00000000	77.47908000	32.04355000
174.59998980	0.00000000	77.47908000	32.04355000
174.79998979	0.00000000	77.47908000	32.73868000
174.99998978	0.00000000	77.47908000	33.11393000
175.19998977	0.00000000	77.47908000	33.15699000
175.39998976	0.00000000	77.47908000	33.15699000
175.59998975	0.00000000	77.47908000	33.15699000
175.79998973	0.00000000	77.47908000	33.15699000
175.99998972	0.00000000	77.47908000	33.15699000
176.19998971	0.00000000	77.47908000	33.15699000
176.39998970	0.00000000	77.47908000	33.11393000
176.59998969	0.00000000	77.47908000	32.73868000
176.79998967	0.00000000	77.47908000	31.99434000
176.99998966	0.00000000	77.47908000	31.66830000
177.19998965	0.00000000	77.47908000	31.95128000
177.39998964	0.00000000	77.47908000	32.32037000
177.59998963	0.00000000	77.47908000	31.95128000
177.79998961	0.00000000	77.47908000	31.61909000
177.99998960	0.00000000	77.47908000	31.57603000
178.19998959	0.00000000	77.47908000	31.61909000
178.39998958	0.00000000	77.47908000	31.99434000
178.59998957	0.00000000	77.47908000	32.73868000
178.79998956	0.00000000	77.47908000	33.11393000
178.99998954	0.00000000	77.47908000	33.15699000
179.19998953	0.00000000	77.47908000	33.15699000
179.39998952	0.00000000	77.47908000	33.15699000
179.59998951	0.00000000	77.47908000	33.15699000
179.79998950	0.00000000	77.47908000	33.15699000
179.99998948	0.00000000	77.47908000	33.15699000
180.19998947	0.00000000	77.47908000	33.15699000
180.39998946	0.00000000	77.47908000	33.15699000
180.59998945	0.00000000	77.47908000	33.15699000
180.79998944	0.00000000	77.47908000	33.15699000
180.99998942	0.00000000	77.47908000	33.15699000
181.19998941	0.00000000	77.47908000	33.15699000
181.39998940	0.00000000	77.47908000	33.15699000
181.59998939	0.00000000	77.47908000	33.15699000
181.79998938	0.00000000	77.47908000	33.20005000
181.99998937	0.00000000	77.47908000	33.53223000
182.19998935	0.00000000	77.47908000	33.90133000
182.39998934	0.00000000	77.47908000	33.53223000
182.59998933	0.00000000	77.47908000	33.20005000
182.79998932	0.00000000	77.47908000	33.15699000
182.99998931	0.00000000	77.47908000	33.15699000
183.19998929	0.00000000	77.47908000	33.15699000
183.39998928	0.00000000	77.47908000	33.15699000
183.59998927	0.00000000	77.47908000	33.15699000
183.79998926	0.00000000	77.47908000	33.15699000
183.99998925	0.00000000	77.47908000	33.15699000
184.19998923	0.00000000	77.47908000	33.15699000
184.39998922	0.00000000	77.47908000	33.15699000
184.59998921	0.00000000	77.47908000	33.15699000
184.79998920	0.00000000	77.47908000	33.20005000
184.99998919	0.00000000	77.47908000	33.53223000
185.19998918	0.00000000	77.47908000	33.90133000
185.39998916	0.00000000	77.52214000	33.53223000
185.59998915	0.00000000	77.85432000	33.20005000
185.79998914	0.00000000	78.22342000	33.15699000
185.99998913	0.00000000	77.85432000	33.11393000
186.19998912	0.00000000	77.52214000	32.73868000
186.39998910	0.00000000	77.47908000	31.99434000
186.59998909	0.00000000	77.47908000	31.61909000
186.79998908	0.00000000	77.47908000	31.57603000
186.99998907	0.00000000	77.47908000	31.61909000
187.19998906	0.00000000	77.47908000	31.99434000
187.39998904	0.00000000	77.47908000	32.73868000
187.59998903	0.00000000	77.47908000	33.11393000
187.79998902	0.00000000	77.47908000	33.15699000
187.99998901	0.00000000	77.47908000	33.15699000
188.19998900	0.00000000	77.52214000	33.15699000
188.39998899	0.00000000	77.85432000	33.15699000
188.59998897	0.00000000	78.22342000	33.11393000
188.79998896	0.00000000	77.85432000	32.73868000
188.99998895	0.00000000	77.52214000	31.99434000
189.19998894	0.00000000	77.47908000	31.61909000
189.39998893	0.00000000	77.47908000	31.57603000
189.59998891	0.00000000	77.47908000	31.57603000
189.79998890	0.00000000	77.47908000	31.61909000
189.99998889	0.00000000	77.47908000	31.99434000
190.19998888	0.00000000	77.47908000	32.73868000
190.39998887	0.00000000	77.47908000	33.11393000
190.59998885	0.00000000	77.47908000	33.15699000
190.79998884	0.00000000	77.47908000	33.15699000
190.99998883	0.00000000	77.47908000	33.15699000
191.19998882	0.00000000	77.47908000	33.15699000
191.39998881	0.00000000	77.47908000	33.15699000
191.59998880	0.00000000	77.47908000	33.15699000
191.79998878	0.00000000	77.47908000	33.15699000
191.99998877	0.00000000	77.47908000	33.11393000
192.19998876	0.00000000	77.47908000	32.73868000
192.39998875	0.00000000	77.47908000	31.99434000
192.59998874	0.00000000	77.47908000	31.61909000
192.79998872	0.00000000	77.47908000	31.57603000
192.99998871	0.00000000	77.43602000	31.57603000
193.19998870	0.00000000	77.06077000	31.61909000
193.39998869	0.00000000	76.31644000	31.99434000
193.59998868	0.00000000	75.94118000	32.73868000
193.79998866	0.00000000	75.94118000	33.11393000
193.99998865	0.00000000	76.31644000	33.15699000
194.19998864	0.00000000	77.06077000	33.15699000
194.39998863	0.00000000	77.43602000	33.15699000
194.59998862	0.00000000	77.47908000	33.15699000
194.79998861	0.00000000	77.47908000	33.15699000
194.99998859	0.00000000	77.47908000	33.15699000
195.19998858	0.00000000	77.47908000	33.15699000
195.39998857	0.00000000	77.47908000	33.11393000
195.59998856	0.00000000	77.47908000	32.73868000
195.79998855	0.00000000	77.43602000	31.99434000
195.99998853	0.00000000	77.06077000	31.61909000
