Time	Channel A	Channel B	Channel C
(us)	(V)	(mV)	(mV)

-4.49999956	0.00000000	25.29527000	15.78494000
-4.29999957	0.00000000	25.29527000	15.78494000
-4.09999958	0.00000000	25.29527000	15.78494000
-3.89999959	0.00000000	25.29527000	15.78494000
-3.69999960	0.00000000	25.29527000	15.78494000
-3.49999962	0.00000000	25.29527000	15.78494000
-3.29999963	0.00000000	25.29527000	15.78494000
-3.09999964	0.00000000	25.29527000	15.78494000
-2.89999965	0.00000000	25.29527000	15.78494000
-2.69999966	0.00000000	25.29527000	15.78494000
-2.49999968	0.00000000	25.29527000	15.78494000
-2.29999969	0.00000000	25.29527000	15.78494000
-2.09999970	0.00000000	25.29527000	15.78494000
-1.89999971	0.00000000	25.29527000	15.78494000
-1.69999972	0.00000000	25.29527000	15.78494000
-1.49999973	0.00000000	25.29527000	15.78494000
-1.29999975	0.00000000	25.29527000	15.78494000
-1.09999976	0.00000000	25.29527000	15.78494000
-0.89999977	0.00000000	25.29527000	15.78494000
-0.69999978	0.00000000	25.29527000	15.78494000
-0.49999979	0.00000000	25.29527000	15.78494000
-0.29999981	0.31803640	25.29527000	15.78494000
-0.09999982	0.63668800	25.29527000	15.78494000
0.10000017	0.95533960	25.29527000	15.78494000
0.30000016	1.11466500	25.29527000	15.78494000
0.50000015	0.79601380	25.29527000	15.78494000
0.70000013	0.31803640	25.29527000	15.78494000
0.90000012	-0.63668800	25.29527000	15.78494000
1.10000011	-1.59264300	25.29527000	15.78494000
1.30000010	-2.38927200	25.29527000	15.78494000
1.50000009	-2.70792300	25.29527000	15.78494000
1.70000008	-2.38927200	25.29527000	15.78494000
1.90000006	-1.11466500	25.29527000	15.78494000
2.10000005	0.79601380	25.29527000	15.78494000
2.30000004	2.86724900	25.29527000	15.78494000
2.50000003	4.61921700	25.29527000	15.74188000
2.70000002	5.41584600	25.29527000	15.36663000
2.90000000	4.77854300	25.29527000	14.62844000
3.09999999	2.70792300	25.29527000	14.25320000
3.29999998	-0.31803640	25.29527000	14.21014000
3.49999997	-3.66326300	25.29527000	14.21014000
3.69999996	-6.69045300	25.29527000	14.25320000
3.89999994	-7.96444400	25.29527000	14.62844000
4.09999993	-7.32714100	25.29527000	15.36663000
4.29999992	-4.77854300	25.29527000	15.74188000
4.49999991	-0.79601380	25.29527000	15.78494000
4.69999990	3.66326300	25.29527000	15.74188000
4.89999989	7.32714100	25.29527000	15.36663000
5.09999987	9.39837600	25.29527000	14.62844000
5.29999986	8.92039900	25.29527000	14.25320000
5.49999985	6.37180100	25.29527000	14.21014000
5.69999984	2.07062000	25.29527000	14.21014000
5.89999983	-2.70792300	25.29527000	14.25320000
6.09999981	-6.84916400	25.29527000	14.62844000
6.29999980	-9.23905000	25.33834000	15.36663000
6.49999979	-9.23905000	25.67052000	15.74188000
6.69999978	-7.00848900	26.03961000	15.78494000
6.89999977	-3.02657500	25.67052000	15.78494000
7.09999975	1.27399100	25.33834000	15.78494000
7.29999974	5.09719500	25.29527000	15.78494000
7.49999973	7.32714100	25.29527000	15.78494000
7.69999972	7.64579200	25.29527000	15.78494000
7.89999971	6.05315000	25.29527000	15.78494000
8.09999970	3.18590100	25.29527000	15.78494000
8.29999968	-0.15871060	25.29527000	15.78494000
8.49999967	-3.02657500	25.33834000	15.78494000
8.69999966	-4.77854300	25.67052000	15.78494000
8.89999965	-5.25652100	26.08268000	15.78494000
9.09999964	-4.30056600	26.08883000	15.82800000
9.29999962	-2.54859700	26.45792000	16.20325000
9.49999961	-0.63668800	26.45792000	16.94759000
9.69999960	1.11466500	26.13189000	17.27362000
9.89999959	2.22994600	26.45792000	16.94759000
10.09999958	2.54859700	26.45792000	16.20325000
10.29999956	2.22994600	26.13189000	15.82800000
10.49999955	1.27399100	26.45792000	15.78494000
10.69999954	0.47736220	26.45792000	15.78494000
10.89999953	-0.31803640	26.13189000	15.78494000
11.09999952	-0.79601380	26.50098000	15.78494000
11.29999951	-0.95533960	26.83317000	15.78494000
11.49999949	-0.95533960	26.87623000	15.78494000
11.69999948	-0.79601380	26.87623000	15.78494000
11.89999947	-0.31803640	26.87623000	15.78494000
12.09999946	-0.15871060	26.87623000	15.78494000
12.29999945	-0.15871060	26.87623000	15.78494000
12.49999943	-0.15871060	26.87623000	15.78494000
12.69999942	0.00000000	26.87623000	15.78494000
12.89999941	0.00000000	26.87623000	15.78494000
13.09999940	0.15871060	26.87623000	15.78494000
13.29999939	0.00000000	26.87623000	15.78494000
13.49999937	0.00000000	26.87623000	15.78494000
13.69999936	0.00000000	26.87623000	15.78494000
13.89999935	0.00000000	26.87623000	15.78494000
14.09999934	-0.15871060	26.87623000	15.78494000
14.29999933	-0.15871060	26.87623000	15.78494000
14.49999932	-0.15871060	26.87623000	15.78494000
14.69999930	0.00000000	26.83317000	15.78494000
14.89999929	0.00000000	26.45792000	15.78494000
15.09999928	0.00000000	25.76279000	15.78494000
15.29999927	0.00000000	25.71358000	15.78494000
15.49999926	0.00000000	26.08268000	15.78494000
15.69999924	0.00000000	26.04577000	15.78494000
15.89999923	0.00000000	26.08268000	15.78494000
16.09999922	0.00000000	25.67052000	15.78494000
16.29999921	0.00000000	25.38755000	15.78494000
16.49999920	-0.15871060	25.71358000	15.78494000
16.69999919	-0.15871060	26.45792000	15.78494000
16.89999917	-0.15871060	26.87623000	15.78494000
17.09999916	0.00000000	27.29453000	15.78494000
17.29999915	0.00000000	28.03888000	15.78494000
17.49999914	0.00000000	28.41412000	15.78494000
17.69999913	0.00000000	28.41412000	15.78494000
17.89999911	0.00000000	27.98966000	15.78494000
18.09999910	0.00000000	26.83317000	15.78494000
18.29999909	0.00000000	25.29527000	15.78494000
18.49999908	0.00000000	23.71432000	15.78494000
18.69999907	0.00000000	22.17643000	15.78494000
18.89999905	0.00000000	21.06299000	15.78494000
19.09999904	0.00000000	21.06299000	15.78494000
19.29999903	0.00000000	22.26870000	15.78494000
19.49999902	0.00000000	24.60015000	15.78494000
19.69999901	0.00000000	28.12500000	15.78494000
19.89999900	0.00000000	31.95128000	15.78494000
20.09999898	0.00000000	35.43922000	15.78494000
20.29999897	0.00000000	37.35236000	15.78494000
20.49999896	0.00000000	37.30315000	15.78494000
20.69999895	0.00000000	34.88558000	15.78494000
20.89999894	0.00000000	29.44143000	15.78494000
21.09999892	0.00000000	22.09030000	15.78494000
21.29999891	0.00000000	14.40699000	15.78494000
21.49999890	0.00000000	8.27386800	15.78494000
21.69999889	0.00000000	6.03469500	15.78494000
21.89999888	0.00000000	8.35998900	15.78494000
22.09999886	0.00000000	15.38509000	15.78494000
22.29999885	0.00000000	25.84892000	15.74188000
22.49999884	0.00000000	37.89985000	15.40969000
22.69999883	0.00000000	49.39714000	15.04675000
22.89999882	0.00000000	57.02509000	15.40969000
23.09999881	0.00000000	57.72638000	15.74188000
23.29999879	0.00000000	51.11958000	15.82800000
23.49999878	0.00000000	37.91216000	16.20325000
23.69999877	0.00000000	20.55241000	16.99065000
23.89999876	0.00000000	3.19881900	17.69808000
24.09999875	0.00000000	-9.92249000	18.06102000
24.29999873	0.00000000	-15.64345000	17.32283000
24.49999872	0.00000000	-12.06324000	16.20325000
24.69999871	0.00000000	1.10113200	15.32357000
24.89999870	0.00000000	21.19833000	13.79183000
25.09999869	0.00000000	43.62696000	11.88484000
25.29999867	0.00000000	63.63803000	10.76525000
25.49999866	0.00000000	75.91657000	10.40231000
25.69999865	0.00000000	76.71629000	11.60187000
25.89999864	0.00000000	66.24631000	14.25320000
26.09999863	0.00000000	46.51205000	17.45817000
26.29999862	0.00000000	21.39518000	21.32136000
26.49999860	0.00000000	-2.85433100	25.54134000
26.69999859	0.00000000	-20.62008000	28.14960000
26.89999858	0.00000000	-27.22687000	28.51870000
27.09999857	0.00000000	-21.83194000	25.78125000
27.29999856	0.00000000	-5.96087600	20.34941000
27.49999854	0.00000000	17.61811000	13.33046000
27.69999853	0.00000000	43.07332000	5.24729300
27.89999852	0.00000000	64.70840000	-1.63016700
28.09999851	0.00000000	77.45448000	-5.06889700
28.29999850	0.00000000	78.29724000	-4.23228400
28.49999848	0.00000000	67.91338000	1.61786400
28.69999847	0.00000000	48.97884000	11.69414000
28.89999846	0.00000000	25.80585000	24.00960000
29.09999845	0.00000000	3.80167300	35.99286000
29.29999844	0.00000000	-12.10630000	44.41437000
29.49999843	0.00000000	-18.76230000	47.47785000
29.69999841	0.00000000	-15.68651000	43.52854000
29.89999840	0.00000000	-3.72785400	33.12008000
30.09999839	0.00000000	14.40699000	18.39321000
30.29999838	0.00000000	34.09818000	2.17765700
30.49999837	0.00000000	51.16265000	-12.08784000
30.69999835	0.00000000	62.05708000	-20.91535000
30.89999834	0.00000000	65.16978000	-22.02879000
31.09999833	0.00000000	60.18700000	-14.64075000
31.29999832	0.00000000	48.23449000	-0.00615157
31.49999831	0.00000000	32.82480000	18.52854000
31.69999829	0.00000000	17.29208000	36.69414000
31.89999828	0.00000000	4.91510800	51.00885000
32.09999827	0.00000000	-2.06077700	58.30462000
32.29999826	0.00000000	-2.10383800	56.72367000
32.49999825	0.00000000	4.40452700	46.35826000
32.69999824	0.00000000	15.20054000	29.73056000
32.89999822	0.00000000	27.94660000	10.76525000
33.09999821	0.00000000	39.53617000	-7.39419200
33.29999820	0.00000000	47.30561000	-20.49705000
33.49999819	0.00000000	50.04921000	-25.55979000
33.69999818	0.00000000	47.35482000	-22.12106000
33.89999816	0.00000000	40.08981000	-10.88213000
34.09999815	0.00000000	30.45644000	5.70866100
34.29999814	0.00000000	21.19833000	24.20029000
34.49999813	0.00000000	14.22244000	40.04060000
34.69999812	0.00000000	11.14665000	49.75393000
34.89999810	0.00000000	12.64149000	52.12229000
35.09999809	0.00000000	17.98720000	46.68430000
35.29999808	0.00000000	25.25221000	34.78716000
35.49999807	0.00000000	32.18504000	19.36516000
35.69999806	0.00000000	36.83563000	4.31225400
35.89999805	0.00000000	38.42273000	-7.30191900
36.09999803	0.00000000	36.83563000	-13.10900000
36.29999802	0.00000000	32.27116000	-11.94636000
36.49999801	0.00000000	26.13189000	-4.27534400
36.69999800	0.00000000	20.78002000	7.98474400
36.89999799	0.00000000	17.29208000	21.03838000
37.09999797	0.00000000	16.91683000	31.49606000
37.29999796	0.00000000	19.56816000	37.26009000
37.49999795	0.00000000	24.18184000	36.88484000
37.69999794	0.00000000	29.57677000	30.42569000
37.89999793	0.00000000	34.18430000	20.47859000
38.09999791	0.00000000	36.92790000	10.11934000
38.29999790	0.00000000	37.30315000	2.07923200
38.49999789	0.00000000	35.39001000	-0.98425190
38.69999788	0.00000000	31.57603000	1.66092500
38.89999787	0.00000000	27.34375000	8.91363100
39.09999786	0.00000000	23.80659000	18.47933000
39.29999784	0.00000000	21.06299000	27.26993000
39.49999783	0.00000000	19.52510000	32.65871000
39.69999782	0.00000000	19.52510000	33.03395000
39.89999781	0.00000000	21.06299000	28.42643000
40.09999780	0.00000000	23.71432000	19.93110000
40.29999778	0.00000000	26.45792000	9.65182000
40.49999777	0.00000000	28.83243000	0.83046260
40.69999776	0.00000000	31.15157000	-3.35876000
40.89999775	0.00000000	32.73252000	-2.23917300
41.09999774	0.00000000	33.53223000	4.31225400
41.29999772	0.00000000	33.90133000	14.25320000
41.49999771	0.00000000	33.11393000	24.66781000
41.69999770	0.00000000	31.57603000	33.12008000
41.89999769	0.00000000	29.61983000	37.34621000
42.09999768	0.00000000	27.29453000	36.18971000
42.29999767	0.00000000	25.33834000	30.09350000
42.49999765	0.00000000	23.75738000	20.85384000
42.69999764	0.00000000	22.60088000	11.27584000
42.89999763	0.00000000	22.22564000	3.52485200
43.09999762	0.00000000	22.60088000	-0.33218500
43.29999761	0.00000000	23.75738000	-0.04921259
43.49999759	0.00000000	25.33834000	3.84473400
43.69999758	0.00000000	27.29453000	10.40231000
43.89999757	0.00000000	29.61983000	18.43627000
44.09999756	0.00000000	31.57603000	25.35679000
44.29999755	0.00000000	33.11393000	29.21998000
44.49999753	0.00000000	33.90133000	29.71826000
44.69999752	0.00000000	33.57529000	27.03617000
44.89999751	0.00000000	33.20005000	22.84695000
45.09999750	0.00000000	32.73252000	17.78420000
45.29999749	0.00000000	31.48376000	13.18282000
45.49999748	0.00000000	29.20152000	10.07013000
45.69999746	0.00000000	26.08883000	8.86441900
45.89999745	0.00000000	23.33907000	9.60875900
46.09999744	0.00000000	20.59547000	11.51575000
46.29999743	0.00000000	18.31939000	14.21014000
46.49999742	0.00000000	17.61811000	16.94759000
46.69999740	0.00000000	18.78691000	19.27288000
46.89999739	0.00000000	22.40403000	21.22293000
47.09999738	0.00000000	28.09424000	21.96727000
47.29999737	0.00000000	34.73179000	21.59203000
47.49999736	0.00000000	40.10212000	20.01722000
47.69999734	0.00000000	43.99606000	17.36589000
47.89999733	0.00000000	44.61122000	14.62844000
48.09999732	0.00000000	41.20940000	12.30315000
48.29999731	0.00000000	34.60876000	10.40231000
48.49999730	0.00000000	26.45792000	10.02707000
48.69999729	0.00000000	17.94414000	11.14050000
48.89999727	0.00000000	11.06053000	13.13976000
49.09999726	0.00000000	7.98474400	16.25246000
49.29999725	0.00000000	9.56569900	20.06029000
49.49999724	0.00000000	15.76033000	23.08686000
49.69999723	0.00000000	25.38755000	24.24335000
49.89999721	0.00000000	35.76525000	23.12992000
50.09999720	0.00000000	44.27903000	20.47859000
50.29999719	0.00000000	48.88656000	17.32283000
50.49999718	0.00000000	48.51131000	13.83489000
50.69999717	0.00000000	43.11638000	10.40231000
50.89999715	0.00000000	34.27657000	8.48917200
51.09999714	0.00000000	24.26796000	8.48917200
51.29999713	0.00000000	15.80339000	10.44537000
51.49999712	0.00000000	11.14665000	14.25320000
51.69999711	0.00000000	11.10359000	18.47933000
51.89999710	0.00000000	15.33587000	22.01649000
52.09999708	0.00000000	22.64394000	24.66166000
52.29999707	0.00000000	31.10851000	25.40600000
52.49999706	0.00000000	38.41658000	23.54823000
52.69999705	0.00000000	42.61196000	20.47859000
52.89999704	0.00000000	42.27977000	16.94759000
53.09999702	0.00000000	37.67839000	13.13976000
53.29999701	0.00000000	30.82554000	10.48843000
53.49999700	0.00000000	23.48056000	10.07013000
53.69999699	0.00000000	18.17175000	11.55881000
53.89999698	0.00000000	16.17864000	14.25320000
54.09999696	0.00000000	18.07948000	17.27977000
54.29999695	0.00000000	22.68701000	19.59892000
54.49999694	0.00000000	28.87549000	20.39247000
54.69999693	0.00000000	35.34695000	20.01722000
54.89999692	0.00000000	39.53617000	18.47933000
55.09999691	0.00000000	39.95448000	16.20325000
55.29999689	0.00000000	36.88484000	14.34547000
55.49999688	0.00000000	31.15772000	13.55807000
55.69999687	0.00000000	24.68627000	14.34547000
55.89999686	0.00000000	20.03568000	16.25246000
56.09999685	0.00000000	17.98720000	18.89764000
56.29999683	0.00000000	18.07948000	21.22293000
56.49999682	0.00000000	20.82923000	22.34252000
56.69999681	0.00000000	26.54404000	22.24409000
56.89999680	0.00000000	32.60334000	19.55585000
57.09999679	0.00000000	36.92790000	15.04675000
57.29999677	0.00000000	38.88410000	11.18356000
57.49999676	0.00000000	38.50886000	8.44611200
57.69999675	0.00000000	35.76525000	7.37573800
57.89999674	0.00000000	31.15772000	8.95669300
58.09999673	0.00000000	25.80585000	13.18282000
58.29999672	0.00000000	21.57357000	18.94685000
58.49999670	0.00000000	19.61737000	24.71087000
58.69999669	0.00000000	19.99262000	28.89395000
58.89999668	0.00000000	22.68701000	30.05044000
59.09999667	0.00000000	26.87623000	27.73130000
59.29999666	0.00000000	31.10851000	22.71161000
59.49999664	0.00000000	34.23351000	15.74188000
59.69999663	0.00000000	35.76525000	8.48917200
59.89999662	0.00000000	35.39001000	3.10039400
60.09999661	0.00000000	33.11393000	1.19340500
60.29999660	0.00000000	30.08120000	3.10039400
60.49999658	0.00000000	27.34375000	8.53223400
60.69999657	0.00000000	25.38755000	16.20325000
60.89999656	0.00000000	24.26796000	24.28642000
61.09999655	0.00000000	24.64321000	30.42569000
61.29999654	0.00000000	26.54404000	33.12008000
61.49999653	0.00000000	28.83243000	31.63140000
61.69999651	0.00000000	31.15157000	26.61786000
61.89999650	0.00000000	32.64640000	19.64198000
62.09999649	0.00000000	32.68946000	11.55881000
62.29999648	0.00000000	31.52682000	4.68134800
62.49999647	0.00000000	29.61983000	1.19955700
62.69999645	0.00000000	27.29453000	1.52559000
62.89999644	0.00000000	25.43061000	5.42568800
63.09999643	0.00000000	24.64321000	11.93405000
63.29999642	0.00000000	25.38755000	19.64198000
63.49999641	0.00000000	26.91929000	26.15034000
63.69999639	0.00000000	28.87549000	30.09350000
63.89999638	0.00000000	31.15157000	30.88705000
64.09999637	0.00000000	32.68946000	28.93701000
64.29999636	0.00000000	33.10777000	24.33563000
64.49999635	0.00000000	32.68946000	18.20251000
64.69999634	0.00000000	31.10851000	12.76452000
64.89999632	0.00000000	28.45718000	8.48917200
65.09999631	0.00000000	25.80585000	6.17002900
65.29999630	0.00000000	24.26796000	6.48991100
65.49999629	0.00000000	24.26796000	8.40305000
65.69999628	0.00000000	25.76279000	11.51575000
65.89999626	0.00000000	28.03888000	15.32357000
66.09999625	0.00000000	29.94586000	18.47933000
66.29999624	0.00000000	31.15157000	20.85384000
66.49999623	0.00000000	31.52682000	22.80389000
66.69999622	0.00000000	31.10851000	23.59129000
66.89999620	0.00000000	29.57062000	23.64050000
67.09999619	0.00000000	27.34375000	23.21604000
67.29999618	0.00000000	25.80585000	22.01649000
67.49999617	0.00000000	25.43061000	20.06029000
67.69999616	0.00000000	26.22416000	17.32283000
67.89999615	0.00000000	28.54946000	14.21014000
68.09999613	0.00000000	31.57603000	11.09744000
68.29999612	0.00000000	34.27657000	8.40305000
68.49999611	0.00000000	35.76525000	6.86515700
68.69999610	0.00000000	35.39001000	6.90821800
68.89999609	0.00000000	33.06471000	8.90747900
69.09999607	0.00000000	29.57062000	13.18282000
69.29999606	0.00000000	25.29527000	18.90379000
69.49999605	0.00000000	21.10605000	24.29257000
69.69999604	0.00000000	18.45472000	27.82357000
69.89999603	0.00000000	18.49778000	29.35531000
70.09999601	0.00000000	21.57357000	28.56176000
70.29999600	0.00000000	26.96850000	25.03691000
70.49999599	0.00000000	33.11393000	19.69119000
70.69999598	0.00000000	38.55192000	13.51501000
70.89999597	0.00000000	42.00295000	8.48917200
71.09999596	0.00000000	42.79035000	5.37647600
71.29999594	0.00000000	40.42199000	4.63828700
71.49999593	0.00000000	35.39001000	6.95743000
71.69999592	0.00000000	28.41412000	11.51575000
71.89999591	0.00000000	21.14911000	16.94759000
72.09999590	0.00000000	15.71112000	21.96727000
72.29999588	0.00000000	13.42889000	25.77510000
72.49999587	0.00000000	14.59769000	26.93774000
72.69999586	0.00000000	19.61737000	25.12918000
72.89999585	0.00000000	26.87623000	22.10261000
73.09999584	0.00000000	34.23351000	18.94685000
73.29999582	0.00000000	40.08981000	15.87721000
73.49999581	0.00000000	43.54084000	13.60113000
73.69999580	0.00000000	43.95300000	13.22589000
73.89999579	0.00000000	40.84030000	14.67150000
74.09999578	0.00000000	35.48228000	16.90453000
74.29999577	0.00000000	28.87549000	18.43627000
74.49999575	0.00000000	22.77928000	18.81152000
74.69999574	0.00000000	18.87303000	18.06102000
74.89999573	0.00000000	18.03642000	16.16018000
75.09999572	0.00000000	19.56816000	14.25320000
75.29999571	0.00000000	23.06225000	12.72146000
75.49999569	0.00000000	28.03888000	12.02018000
75.69999568	0.00000000	32.64640000	13.22589000
75.89999567	0.00000000	35.81446000	16.29552000
76.09999566	0.00000000	37.39542000	20.52780000
76.29999565	0.00000000	37.39542000	24.71087000
76.49999563	0.00000000	35.85752000	27.35605000
76.69999562	0.00000000	33.15699000	27.35605000
76.89999561	0.00000000	30.13041000	24.66781000
77.09999560	0.00000000	27.80512000	20.01722000
77.29999559	0.00000000	27.01156000	14.21014000
77.49999558	0.00000000	27.29453000	8.48917200
77.69999556	0.00000000	28.03888000	4.63828700
77.89999555	0.00000000	28.45718000	3.88779500
78.09999554	0.00000000	28.83243000	6.17002900
78.29999553	0.00000000	29.20152000	11.18356000
78.49999552	0.00000000	28.83243000	17.32283000
78.69999550	0.00000000	28.50024000	23.17298000
78.89999549	0.00000000	28.50024000	27.82357000
79.09999548	0.00000000	28.92470000	30.46875000
79.29999547	0.00000000	30.08120000	30.05044000
79.49999546	0.00000000	31.61909000	26.24262000
79.69999544	0.00000000	33.15699000	20.52780000
79.89999543	0.00000000	34.27657000	14.72072000
80.09999542	0.00000000	34.27657000	10.02707000
80.29999541	0.00000000	33.11393000	6.91437000
80.49999540	0.00000000	31.15157000	5.75172200
80.69999539	0.00000000	28.45718000	6.91437000
80.89999537	0.00000000	25.80585000	9.98400600
81.09999536	0.00000000	24.26796000	14.21014000
81.29999535	0.00000000	24.22490000	18.43627000
81.49999534	0.00000000	25.38755000	21.59203000
81.69999533	0.00000000	27.34375000	23.59129000
81.89999531	0.00000000	30.03814000	24.75394000
82.09999530	0.00000000	32.73868000	24.71087000
82.29999529	0.00000000	34.65182000	23.22219000
82.49999528	0.00000000	35.43922000	20.90305000
82.69999527	0.00000000	34.65182000	18.57160000
82.89999525	0.00000000	32.78174000	16.16018000
83.09999524	0.00000000	30.45644000	13.83489000
83.29999523	0.00000000	28.54946000	11.51575000
83.49999522	0.00000000	27.34375000	9.98400600
83.69999521	0.00000000	26.96850000	9.56569900
83.89999520	0.00000000	27.29453000	9.98400600
84.09999518	0.00000000	28.08194000	11.60187000
84.29999517	0.00000000	28.83243000	14.67150000
84.49999516	0.00000000	29.61983000	18.52854000
84.69999515	0.00000000	29.99508000	22.01649000
84.89999514	0.00000000	30.03814000	24.75394000
85.09999512	0.00000000	30.03814000	26.24262000
85.29999511	0.00000000	30.03814000	25.82431000
85.49999510	0.00000000	30.08120000	23.12992000
85.69999509	0.00000000	30.45644000	18.90379000
85.89999508	0.00000000	31.24384000	14.30241000
86.09999506	0.00000000	31.99434000	10.40231000
86.29999505	0.00000000	32.73252000	8.12007800
86.49999504	0.00000000	32.68946000	7.70792300
86.69999503	0.00000000	31.57603000	9.65182000
86.89999502	0.00000000	30.03814000	13.09670000
87.09999501	0.00000000	28.45718000	17.36589000
87.29999499	0.00000000	26.96850000	21.59203000
87.49999498	0.00000000	26.22416000	24.66166000
87.69999497	0.00000000	26.96850000	25.82431000
87.89999496	0.00000000	28.45718000	24.66166000
88.09999495	0.00000000	30.08120000	21.59203000
88.29999493	0.00000000	31.99434000	17.36589000
88.49999492	0.00000000	33.90133000	13.18282000
88.69999491	0.00000000	34.65182000	10.48843000
88.89999490	0.00000000	34.31963000	10.07013000
89.09999489	0.00000000	33.11393000	11.60187000
89.29999487	0.00000000	31.20078000	14.72072000
89.49999486	0.00000000	28.92470000	18.90379000
89.69999485	0.00000000	27.38681000	22.75467000
89.89999484	0.00000000	26.91929000	25.03691000
90.09999483	0.00000000	26.91929000	25.44906000
90.29999482	0.00000000	27.34375000	23.50517000
90.49999480	0.00000000	28.50024000	20.06029000
90.69999479	0.00000000	30.03814000	15.83415000
90.89999478	0.00000000	31.57603000	11.97711000
91.09999477	0.00000000	32.73252000	9.69488100
91.29999476	0.00000000	33.10777000	9.33193800
91.49999474	0.00000000	32.78174000	11.69414000
91.69999473	0.00000000	32.03740000	16.20325000
91.89999472	0.00000000	31.61909000	21.22293000
92.09999471	0.00000000	31.20078000	25.03691000
92.29999470	0.00000000	30.45644000	26.98080000
92.49999468	0.00000000	30.08120000	26.19955000
92.69999467	0.00000000	30.03814000	23.12992000
92.89999466	0.00000000	29.99508000	18.52854000
93.09999465	0.00000000	29.61983000	13.55807000
93.29999464	0.00000000	28.83243000	10.07013000
93.49999463	0.00000000	28.12500000	8.48917200
93.69999461	0.00000000	27.71284000	8.90747900
93.89999460	0.00000000	28.12500000	11.64493000
94.09999459	0.00000000	28.92470000	16.20325000
94.29999458	0.00000000	30.50566000	21.17372000
94.49999457	0.00000000	32.78174000	24.66166000
94.69999455	0.00000000	34.69488000	26.19955000
94.89999454	0.00000000	35.85752000	25.39985000
95.09999453	0.00000000	35.81446000	21.96727000
95.29999452	0.00000000	34.27657000	17.40895000
95.49999451	0.00000000	31.57603000	13.13976000
95.69999449	0.00000000	28.50024000	10.07013000
95.89999448	0.00000000	25.76279000	8.91363100
96.09999447	0.00000000	23.84965000	10.07013000
96.29999446	0.00000000	23.06225000	13.09670000
96.49999445	0.00000000	23.89271000	16.94759000
96.69999444	0.00000000	26.22416000	20.39247000
96.89999442	0.00000000	30.08735000	22.75467000
97.09999441	0.00000000	34.27657000	23.50517000
97.29999440	0.00000000	37.39542000	22.75467000
97.49999439	0.00000000	38.97638000	20.43553000
97.69999438	0.00000000	38.97638000	17.41511000
97.89999436	0.00000000	37.39542000	14.72072000
98.09999435	0.00000000	34.27657000	13.13976000
98.29999434	0.00000000	30.03814000	12.76452000
98.49999433	0.00000000	25.80585000	13.50886000
98.69999432	0.00000000	22.73007000	15.40969000
98.89999430	0.00000000	21.52436000	17.27362000
99.09999429	0.00000000	22.31176000	18.47933000
99.29999428	0.00000000	24.60015000	18.90379000
99.49999427	0.00000000	28.12500000	18.94685000
99.69999426	0.00000000	31.95128000	18.94685000
99.89999425	0.00000000	35.48228000	18.94685000
100.09999423	0.00000000	37.77067000	18.94685000
100.29999422	0.00000000	38.60113000	18.98991000
100.49999421	0.00000000	37.81373000	19.32210000
100.69999420	0.00000000	35.90059000	19.69119000
100.89999419	0.00000000	33.15699000	19.27903000
101.09999417	0.00000000	30.08120000	18.52854000
101.29999416	0.00000000	27.34375000	17.32283000
101.49999415	0.00000000	25.43061000	15.78494000
101.69999414	0.00000000	24.64321000	14.29626000
101.89999413	0.00000000	25.38755000	13.55807000
102.09999411	0.00000000	26.91929000	14.29626000
102.29999410	0.00000000	28.87549000	15.83415000
102.49999409	0.00000000	31.20078000	17.83341000
102.69999408	0.00000000	33.15699000	20.47859000
102.89999407	0.00000000	34.73794000	22.75467000
103.09999406	0.00000000	35.85752000	23.54823000
103.29999404	0.00000000	35.85752000	23.21604000
103.49999403	0.00000000	34.69488000	21.96727000
103.69999402	0.00000000	32.82480000	19.64198000
103.89999401	0.00000000	30.83169000	16.20325000
104.09999400	0.00000000	29.28765000	13.18282000
104.29999398	0.00000000	27.71284000	11.60187000
104.49999397	0.00000000	27.01156000	11.60187000
104.69999396	0.00000000	27.34375000	13.13976000
104.89999395	0.00000000	28.50024000	15.83415000
105.09999394	0.00000000	30.03814000	18.89764000
105.29999392	0.00000000	31.57603000	21.59203000
105.49999391	0.00000000	32.73252000	23.12992000
105.69999390	0.00000000	33.15699000	23.17298000
105.89999389	0.00000000	33.15699000	22.01649000
106.09999388	0.00000000	32.73252000	20.06029000
106.29999387	0.00000000	31.61909000	17.41511000
106.49999385	0.00000000	30.50566000	15.13902000
106.69999384	0.00000000	30.08120000	14.34547000
106.89999383	0.00000000	30.03814000	14.67150000
107.09999382	0.00000000	30.08120000	15.83415000
107.29999381	0.00000000	30.50566000	17.36589000
107.49999379	0.00000000	31.61909000	18.90379000
107.69999378	0.00000000	32.68946000	20.06029000
107.89999377	0.00000000	32.73252000	20.43553000
108.09999376	0.00000000	31.99434000	20.06029000
108.29999375	0.00000000	31.20078000	18.90379000
108.49999374	0.00000000	30.03814000	17.36589000
108.69999372	0.00000000	28.92470000	15.83415000
108.89999371	0.00000000	28.54946000	14.72072000
109.09999370	0.00000000	28.92470000	14.72072000
109.29999369	0.00000000	30.03814000	15.83415000
109.49999368	0.00000000	31.20078000	17.36589000
109.69999366	0.00000000	32.03740000	18.94685000
109.89999365	0.00000000	33.20005000	20.43553000
110.09999364	0.00000000	34.27657000	21.22293000
110.29999363	0.00000000	34.27657000	20.85384000
110.49999362	0.00000000	33.15699000	20.10950000
110.69999360	0.00000000	31.61909000	18.90379000
110.89999359	0.00000000	30.03814000	17.36589000
111.09999358	0.00000000	28.54946000	15.83415000
111.29999357	0.00000000	27.80512000	14.67150000
111.49999356	0.00000000	28.50024000	14.30241000
111.69999355	0.00000000	29.61983000	14.67150000
111.89999353	0.00000000	30.45644000	15.83415000
112.09999352	0.00000000	31.61909000	17.32283000
112.29999351	0.00000000	32.73252000	18.47933000
112.49999350	0.00000000	33.15699000	18.90379000
112.69999349	0.00000000	33.20005000	18.94685000
112.89999347	0.00000000	33.15699000	18.94685000
113.09999346	0.00000000	32.73252000	18.90379000
113.29999345	0.00000000	31.61909000	18.52854000
113.49999344	0.00000000	30.50566000	17.78420000
113.69999343	0.00000000	30.08120000	17.40895000
113.89999341	0.00000000	30.03814000	17.36589000
114.09999340	0.00000000	30.03814000	17.36589000
114.29999339	0.00000000	30.08120000	17.36589000
114.49999338	0.00000000	30.50566000	17.36589000
114.69999337	0.00000000	31.61909000	17.32283000
114.89999336	0.00000000	32.73252000	16.94759000
115.09999334	0.00000000	33.15699000	16.25246000
115.29999333	0.00000000	33.15699000	16.25246000
115.49999332	0.00000000	32.78174000	16.94759000
115.69999331	0.00000000	32.03740000	17.36589000
115.89999330	0.00000000	31.61909000	17.78420000
116.09999328	0.00000000	31.20078000	18.57160000
116.29999327	0.00000000	30.45644000	19.32210000
116.49999326	0.00000000	30.08120000	20.10950000
116.69999325	0.00000000	30.03814000	20.43553000
116.89999324	0.00000000	30.08120000	20.10950000
117.09999322	0.00000000	30.45644000	19.32210000
117.29999321	0.00000000	31.24384000	18.52854000
117.49999320	0.00000000	31.99434000	17.36589000
117.69999319	0.00000000	32.82480000	16.25246000
117.89999318	0.00000000	33.57529000	15.82800000
118.09999317	0.00000000	34.31963000	15.82800000
118.29999315	0.00000000	34.27657000	16.20325000
118.49999314	0.00000000	33.15699000	16.99065000
118.69999313	0.00000000	31.66215000	17.74114000
118.89999312	0.00000000	30.45644000	18.57160000
119.09999311	0.00000000	29.66289000	19.32210000
119.29999309	0.00000000	28.92470000	20.10950000
119.49999308	0.00000000	28.92470000	20.48474000
119.69999307	0.00000000	29.66289000	20.48474000
119.89999306	0.00000000	30.45644000	20.15256000
120.09999305	0.00000000	31.61909000	19.74040000
120.29999303	0.00000000	32.82480000	19.69119000
120.49999302	0.00000000	33.95054000	18.94685000
120.69999301	0.00000000	35.10704000	18.20251000
120.89999300	0.00000000	35.07013000	18.15330000
121.09999299	0.00000000	34.36884000	17.74114000
121.29999298	0.00000000	33.20005000	17.40895000
121.49999296	0.00000000	32.03740000	17.36589000
121.69999295	0.00000000	31.24384000	17.36589000
121.89999294	0.00000000	30.45644000	17.40895000
122.09999293	0.00000000	30.08120000	17.78420000
122.29999292	0.00000000	30.03814000	18.52854000
122.49999290	0.00000000	30.08120000	18.90379000
122.69999289	0.00000000	30.45644000	18.94685000
122.89999288	0.00000000	31.24384000	18.94685000
123.09999287	0.00000000	31.99434000	18.94685000
123.29999286	0.00000000	32.78174000	18.94685000
123.49999284	0.00000000	33.20005000	18.90379000
123.69999283	0.00000000	33.57529000	18.52854000
123.89999282	0.00000000	33.94439000	17.78420000
124.09999281	0.00000000	33.57529000	17.40895000
124.29999280	0.00000000	33.20005000	17.36589000
124.49999279	0.00000000	32.78174000	17.36589000
124.69999277	0.00000000	31.99434000	17.36589000
124.89999276	0.00000000	31.24384000	17.40895000
125.09999275	0.00000000	30.45644000	17.78420000
125.29999274	0.00000000	30.08120000	18.52854000
125.49999273	0.00000000	30.08120000	18.90379000
125.69999271	0.00000000	30.45644000	18.94685000
125.89999270	0.00000000	31.24384000	18.94685000
126.09999269	0.00000000	31.99434000	18.94685000
126.29999268	0.00000000	32.82480000	18.94685000
126.49999267	0.00000000	33.57529000	18.94685000
126.69999265	0.00000000	34.31963000	18.94685000
126.89999264	0.00000000	34.31963000	18.94685000
127.09999263	0.00000000	33.57529000	18.90379000
127.29999262	0.00000000	32.78174000	18.52854000
127.49999261	0.00000000	31.61909000	17.78420000
127.69999260	0.00000000	30.50566000	17.40895000
127.89999258	0.00000000	30.08120000	17.40895000
128.09999257	0.00000000	30.08120000	17.74114000
128.29999256	0.00000000	30.50566000	18.15330000
128.49999255	0.00000000	31.61909000	18.15945000
128.69999254	0.00000000	32.78174000	18.57160000
128.89999252	0.00000000	33.57529000	18.90379000
129.09999251	0.00000000	34.31963000	18.94685000
129.29999250	0.00000000	34.31963000	18.94685000
129.49999249	0.00000000	33.57529000	18.90379000
129.69999248	0.00000000	32.78174000	18.52854000
129.89999246	0.00000000	31.61909000	17.78420000
130.09999245	0.00000000	30.50566000	17.40895000
130.29999244	0.00000000	30.08120000	17.40895000
130.49999243	0.00000000	30.08120000	17.78420000
130.69999242	0.00000000	30.45644000	18.52854000
130.89999241	0.00000000	31.24384000	18.90379000
131.09999239	0.00000000	32.03740000	18.90379000
131.29999238	0.00000000	33.20005000	18.57160000
131.49999237	0.00000000	34.31963000	18.15945000
131.69999236	0.00000000	34.69488000	18.15330000
131.89999235	0.00000000	34.31963000	17.74114000
132.09999233	0.00000000	33.20005000	17.36589000
132.29999232	0.00000000	32.08661000	16.99065000
132.49999231	0.00000000	31.66215000	16.62155000
132.69999230	0.00000000	31.61909000	17.03371000
132.89999229	0.00000000	31.61909000	17.74114000
133.09999227	0.00000000	31.66215000	18.57160000
133.29999226	0.00000000	32.03740000	19.32210000
133.49999225	0.00000000	32.78174000	20.10950000
133.69999224	0.00000000	33.15699000	20.43553000
133.89999223	0.00000000	33.20005000	20.10950000
134.09999222	0.00000000	33.15699000	19.32210000
134.29999220	0.00000000	32.78174000	18.57160000
134.49999219	0.00000000	32.03740000	17.78420000
134.69999218	0.00000000	31.71137000	17.36589000
134.89999217	0.00000000	32.03740000	16.99065000
135.09999216	0.00000000	32.78174000	16.62155000
135.29999214	0.00000000	33.15699000	17.03371000
135.49999213	0.00000000	33.20005000	17.74114000
135.69999212	0.00000000	33.20005000	18.52854000
135.89999211	0.00000000	33.20005000	18.94685000
136.09999210	0.00000000	33.15699000	19.36516000
136.29999208	0.00000000	32.78174000	20.10950000
136.49999207	0.00000000	32.03740000	20.43553000
136.69999206	0.00000000	31.66215000	20.15256000
136.89999205	0.00000000	31.61909000	19.74040000
137.09999204	0.00000000	31.66215000	19.69119000
137.29999203	0.00000000	32.03740000	18.90379000
137.49999201	0.00000000	32.82480000	17.83341000
137.69999200	0.00000000	33.57529000	17.40895000
137.89999199	0.00000000	34.36884000	17.36589000
138.09999198	0.00000000	34.69488000	17.40895000
138.29999197	0.00000000	34.36884000	17.78420000
138.49999195	0.00000000	33.57529000	18.52854000
138.69999194	0.00000000	32.82480000	18.90379000
138.89999193	0.00000000	32.03740000	18.94685000
139.09999192	0.00000000	31.66215000	18.94685000
139.29999191	0.00000000	31.61909000	18.98991000
139.49999189	0.00000000	31.61909000	19.36516000
139.69999188	0.00000000	31.66215000	20.10950000
139.89999187	0.00000000	32.03740000	20.43553000
140.09999186	0.00000000	32.82480000	20.10950000
140.29999185	0.00000000	33.57529000	19.32210000
140.49999184	0.00000000	34.31963000	18.57160000
140.69999182	0.00000000	34.31963000	17.78420000
140.89999181	0.00000000	33.57529000	17.40895000
141.09999180	0.00000000	32.82480000	17.36589000
141.29999179	0.00000000	32.03740000	17.36589000
141.49999178	0.00000000	31.66215000	17.40895000
141.69999176	0.00000000	31.61909000	17.78420000
141.89999175	0.00000000	31.66215000	18.57160000
142.09999174	0.00000000	32.03740000	19.32210000
142.29999173	0.00000000	32.78174000	20.10950000
142.49999172	0.00000000	33.15699000	20.43553000
142.69999170	0.00000000	33.20005000	20.10950000
142.89999169	0.00000000	33.20005000	19.32210000
143.09999168	0.00000000	33.15699000	18.57160000
143.29999167	0.00000000	32.82480000	17.78420000
143.49999166	0.00000000	32.41265000	17.36589000
143.69999165	0.00000000	32.40649000	16.94759000
143.89999163	0.00000000	31.99434000	16.25246000
144.09999162	0.00000000	31.71137000	16.25246000
144.29999161	0.00000000	32.03740000	16.99065000
144.49999160	0.00000000	32.78174000	17.74114000
144.69999159	0.00000000	33.15699000	18.57160000
144.89999157	0.00000000	33.20005000	19.32210000
145.09999156	0.00000000	33.20005000	20.06029000
145.29999155	0.00000000	33.20005000	20.06029000
145.49999154	0.00000000	33.20005000	19.36516000
145.69999153	0.00000000	33.20005000	18.94685000
145.89999151	0.00000000	33.15699000	18.52854000
146.09999150	0.00000000	32.78174000	17.78420000
146.29999149	0.00000000	32.08661000	17.40895000
146.49999148	0.00000000	32.08661000	17.36589000
146.69999147	0.00000000	32.78174000	17.36589000
146.89999146	0.00000000	33.15699000	17.36589000
147.09999144	0.00000000	33.20005000	17.40895000
147.29999143	0.00000000	33.20005000	17.78420000
147.49999142	0.00000000	33.20005000	18.52854000
147.69999141	0.00000000	33.20005000	18.90379000
147.89999140	0.00000000	33.20005000	18.98991000
148.09999138	0.00000000	33.20005000	19.32210000
148.29999137	0.00000000	33.15699000	19.69119000
148.49999136	0.00000000	32.82480000	19.32210000
148.69999135	0.00000000	32.45571000	18.98991000
148.89999134	0.00000000	32.82480000	18.94685000
149.09999132	0.00000000	33.20005000	18.94685000
149.29999131	0.00000000	33.61835000	18.94685000
149.49999130	0.00000000	34.36884000	18.94685000
149.69999129	0.00000000	34.74409000	18.94685000
149.89999128	0.00000000	34.78716000	18.94685000
150.09999127	0.00000000	34.74409000	18.94685000
150.29999125	0.00000000	34.36884000	18.98991000
150.49999124	0.00000000	33.61835000	19.36516000
150.69999123	0.00000000	33.24311000	20.10950000
150.89999122	0.00000000	33.20005000	20.48474000
151.09999121	0.00000000	33.20005000	20.52780000
151.29999119	0.00000000	33.20005000	20.48474000
151.49999118	0.00000000	33.20005000	20.10950000
151.69999117	0.00000000	33.20005000	19.36516000
151.89999116	0.00000000	33.24311000	18.98991000
152.09999115	0.00000000	33.61835000	18.94685000
152.29999113	0.00000000	34.31963000	18.94685000
152.49999112	0.00000000	34.36884000	18.94685000
152.69999111	0.00000000	33.99975000	18.90379000
152.89999110	0.00000000	34.03666000	18.61466000
153.09999109	0.00000000	33.99975000	18.57775000
153.29999108	0.00000000	34.36884000	19.31594000
153.49999106	0.00000000	34.31963000	19.27903000
153.69999105	0.00000000	33.61835000	18.98991000
153.89999104	0.00000000	33.24311000	18.94685000
154.09999103	0.00000000	33.15699000	18.94685000
154.29999102	0.00000000	32.82480000	18.94685000
154.49999100	0.00000000	32.45571000	18.94685000
154.69999099	0.00000000	32.82480000	18.94685000
154.89999098	0.00000000	33.15699000	18.94685000
155.09999097	0.00000000	33.24311000	18.94685000
155.29999096	0.00000000	33.61835000	18.94685000
155.49999094	0.00000000	34.36884000	18.94685000
155.69999093	0.00000000	34.74409000	18.94685000
155.89999092	0.00000000	34.78716000	18.94685000
156.09999091	0.00000000	34.74409000	18.94685000
156.29999090	0.00000000	34.36884000	18.94685000
156.49999089	0.00000000	33.61835000	18.94685000
156.69999087	0.00000000	33.20005000	18.98991000
156.89999086	0.00000000	32.82480000	19.36516000
157.09999085	0.00000000	32.41265000	20.06029000
157.29999084	0.00000000	32.44956000	20.06029000
157.49999083	0.00000000	32.41265000	19.36516000
157.69999081	0.00000000	32.82480000	18.98991000
157.89999080	0.00000000	33.20005000	18.94685000
158.09999079	0.00000000	33.61835000	18.90379000
158.29999078	0.00000000	34.36884000	18.52854000
158.49999077	0.00000000	34.74409000	17.78420000
158.69999075	0.00000000	34.78716000	17.45817000
158.89999074	0.00000000	34.74409000	17.78420000
159.09999073	0.00000000	34.36884000	18.52854000
159.29999072	0.00000000	33.61835000	18.90379000
159.49999071	0.00000000	33.24311000	18.98991000
159.69999070	0.00000000	33.20005000	19.32210000
159.89999068	0.00000000	33.20005000	19.73425000
160.09999067	0.00000000	33.20005000	19.74040000
160.29999066	0.00000000	33.20005000	20.10950000
160.49999065	0.00000000	33.20005000	20.06029000
160.69999064	0.00000000	33.20005000	19.36516000
160.89999062	0.00000000	33.20005000	18.98991000
161.09999061	0.00000000	33.20005000	18.90379000
161.29999060	0.00000000	33.24311000	18.52854000
161.49999059	0.00000000	33.61835000	17.83341000
161.69999058	0.00000000	34.31963000	17.83341000
161.89999056	0.00000000	34.36884000	18.52854000
162.09999055	0.00000000	34.04282000	18.90379000
162.29999054	0.00000000	34.41191000	18.94685000
162.49999053	0.00000000	34.74409000	18.94685000
162.69999052	0.00000000	34.78716000	18.98991000
162.89999051	0.00000000	34.74409000	19.36516000
163.09999049	0.00000000	34.36884000	20.06029000
163.29999048	0.00000000	33.61835000	20.06029000
163.49999047	0.00000000	33.24311000	19.36516000
163.69999046	0.00000000	33.20005000	18.98991000
163.89999045	0.00000000	33.20005000	18.94685000
164.09999043	0.00000000	33.20005000	18.94685000
164.29999042	0.00000000	33.20005000	18.94685000
164.49999041	0.00000000	33.24311000	18.94685000
164.69999040	0.00000000	33.61835000	18.94685000
164.89999039	0.00000000	34.36884000	18.94685000
165.09999037	0.00000000	34.74409000	18.94685000
165.29999036	0.00000000	34.78716000	18.94685000
165.49999035	0.00000000	34.78716000	18.94685000
165.69999034	0.00000000	34.78716000	18.94685000
165.89999033	0.00000000	34.74409000	18.98991000
166.09999032	0.00000000	34.36884000	19.36516000
166.29999030	0.00000000	33.61835000	20.06029000
166.49999029	0.00000000	33.24311000	20.06029000
166.69999028	0.00000000	33.20005000	19.36516000
166.89999027	0.00000000	33.24311000	19.03912000
167.09999026	0.00000000	33.61835000	19.32210000
167.29999024	0.00000000	34.36884000	19.69119000
167.49999023	0.00000000	34.74409000	19.32210000
167.69999022	0.00000000	34.78716000	18.98991000
167.89999021	0.00000000	34.78716000	18.94685000
168.09999020	0.00000000	34.78716000	18.94685000
168.29999018	0.00000000	34.78716000	18.98991000
168.49999017	0.00000000	34.78716000	19.32210000
168.69999016	0.00000000	34.78716000	19.69119000
168.89999015	0.00000000	34.78716000	19.32210000
169.09999014	0.00000000	34.78716000	18.98991000
169.29999013	0.00000000	34.78716000	18.94685000
169.49999011	0.00000000	34.74409000	18.94685000
169.69999010	0.00000000	34.36884000	18.94685000
169.89999009	0.00000000	33.66756000	18.94685000
170.09999008	0.00000000	33.66756000	18.94685000
170.29999007	0.00000000	34.31963000	18.94685000
170.49999005	0.00000000	34.36884000	18.94685000
170.69999004	0.00000000	34.04282000	18.94685000
170.89999003	0.00000000	34.41191000	18.94685000
171.09999002	0.00000000	34.74409000	18.94685000
171.29999001	0.00000000	34.78716000	18.94685000
171.49998999	0.00000000	34.78716000	18.94685000
171.69998998	0.00000000	34.78716000	18.94685000
171.89998997	0.00000000	34.78716000	18.94685000
172.09998996	0.00000000	34.78716000	18.94685000
172.29998995	0.00000000	34.74409000	18.94685000
172.49998994	0.00000000	34.36884000	18.94685000
172.69998992	0.00000000	33.66756000	18.94685000
172.89998991	0.00000000	33.66756000	18.94685000
173.09998990	0.00000000	34.36884000	18.94685000
173.29998989	0.00000000	34.74409000	18.94685000
173.49998988	0.00000000	34.78716000	18.94685000
173.69998986	0.00000000	34.78716000	18.94685000
173.89998985	0.00000000	34.78716000	18.94685000
174.09998984	0.00000000	34.78716000	18.94685000
174.29998983	0.00000000	34.78716000	18.94685000
174.49998982	0.00000000	34.78716000	18.94685000
174.69998980	0.00000000	34.78716000	18.94685000
174.89998979	0.00000000	34.78716000	18.94685000
175.09998978	0.00000000	34.74409000	18.94685000
175.29998977	0.00000000	34.41191000	18.94685000
175.49998976	0.00000000	34.04282000	18.94685000
175.69998975	0.00000000	34.41191000	18.94685000
175.89998973	0.00000000	34.74409000	18.98991000
176.09998972	0.00000000	34.78716000	19.36516000
176.29998971	0.00000000	34.78716000	20.10950000
176.49998970	0.00000000	34.78716000	20.48474000
176.69998969	0.00000000	34.78716000	20.48474000
176.89998967	0.00000000	34.78716000	20.10950000
177.09998966	0.00000000	34.78716000	19.36516000
177.29998965	0.00000000	34.78716000	18.98991000
177.49998964	0.00000000	34.78716000	18.94685000
177.69998963	0.00000000	34.78716000	18.94685000
177.89998961	0.00000000	34.78716000	18.94685000
178.09998960	0.00000000	34.78716000	18.94685000
178.29998959	0.00000000	34.78716000	18.98991000
178.49998958	0.00000000	34.78716000	19.32210000
178.69998957	0.00000000	34.78716000	19.73425000
178.89998956	0.00000000	34.78716000	19.74040000
179.09998954	0.00000000	34.78716000	20.15256000
179.29998953	0.00000000	34.78716000	20.43553000
179.49998952	0.00000000	34.78716000	20.10950000
179.69998951	0.00000000	34.78716000	19.36516000
179.89998950	0.00000000	34.78716000	18.98991000
180.09998948	0.00000000	34.78716000	18.94685000
180.29998947	0.00000000	34.78716000	18.94685000
180.49998946	0.00000000	34.78716000	18.94685000
180.69998945	0.00000000	34.78716000	18.94685000
180.89998944	0.00000000	34.78716000	18.94685000
181.09998942	0.00000000	34.78716000	18.94685000
181.29998941	0.00000000	34.78716000	18.94685000
181.49998940	0.00000000	34.78716000	18.98991000
181.69998939	0.00000000	34.78716000	19.36516000
181.89998938	0.00000000	34.78716000	20.10950000
182.09998937	0.00000000	34.78716000	20.48474000
182.29998935	0.00000000	34.78716000	20.52780000
182.49998934	0.00000000	34.78716000	20.52780000
182.69998933	0.00000000	34.78716000	20.48474000
182.89998932	0.00000000	34.83022000	20.10950000
183.09998931	0.00000000	35.16240000	19.41437000
183.29998929	0.00000000	35.53149000	19.36516000
183.49998928	0.00000000	35.16240000	19.69119000
183.69998927	0.00000000	34.83022000	19.32210000
183.89998926	0.00000000	34.78716000	18.98991000
184.09998925	0.00000000	34.74409000	18.94685000
184.29998923	0.00000000	34.41191000	18.98991000
184.49998922	0.00000000	34.04282000	19.36516000
184.69998921	0.00000000	34.41191000	20.10950000
184.89998920	0.00000000	34.74409000	20.48474000
185.09998919	0.00000000	34.78716000	20.52780000
185.29998918	0.00000000	34.83022000	20.52780000
185.49998916	0.00000000	35.16240000	20.52780000
185.69998915	0.00000000	35.53149000	20.48474000
185.89998914	0.00000000	35.20546000	20.10950000
186.09998913	0.00000000	35.20546000	19.36516000
186.29998912	0.00000000	35.57455000	18.98991000
186.49998910	0.00000000	35.53765000	18.94685000
186.69998909	0.00000000	35.57455000	18.94685000
186.89998908	0.00000000	35.16240000	18.94685000
187.09998907	0.00000000	34.83022000	18.98991000
187.29998906	0.00000000	34.78716000	19.36516000
187.49998904	0.00000000	34.78716000	20.10950000
187.69998903	0.00000000	34.78716000	20.48474000
187.89998902	0.00000000	34.78716000	20.52780000
188.09998901	0.00000000	34.78716000	20.52780000
188.29998900	0.00000000	34.78716000	20.48474000
188.49998899	0.00000000	34.78716000	20.10950000
188.69998897	0.00000000	34.78716000	19.36516000
188.89998896	0.00000000	34.78716000	18.98991000
189.09998895	0.00000000	34.78716000	18.94685000
189.29998894	0.00000000	34.78716000	18.94685000
189.49998893	0.00000000	34.78716000	18.94685000
189.69998891	0.00000000	34.78716000	18.94685000
189.89998890	0.00000000	34.78716000	18.94685000
190.09998889	0.00000000	34.78716000	18.94685000
190.29998888	0.00000000	34.78716000	18.98991000
190.49998887	0.00000000	34.78716000	19.36516000
190.69998885	0.00000000	34.78716000	20.10950000
190.89998884	0.00000000	34.78716000	20.48474000
191.09998883	0.00000000	34.78716000	20.48474000
191.29998882	0.00000000	34.83022000	20.10950000
191.49998881	0.00000000	35.20546000	19.36516000
191.69998880	0.00000000	35.90059000	18.98991000
191.89998878	0.00000000	35.94980000	18.94685000
192.09998877	0.00000000	35.62377000	18.94685000
192.29998876	0.00000000	35.99286000	18.94685000
192.49998875	0.00000000	36.27584000	18.94685000
192.69998874	0.00000000	35.94980000	18.94685000
192.89998872	0.00000000	35.20546000	18.94685000
193.09998871	0.00000000	34.83022000	18.94685000
193.29998870	0.00000000	34.78716000	18.94685000
193.49998869	0.00000000	34.78716000	18.94685000
193.69998868	0.00000000	34.78716000	18.98991000
193.89998866	0.00000000	34.83022000	19.36516000
194.09998865	0.00000000	35.20546000	20.10950000
194.29998864	0.00000000	35.94980000	20.48474000
194.49998863	0.00000000	36.32505000	20.52780000
194.69998862	0.00000000	36.36811000	20.52780000
194.89998861	0.00000000	36.36811000	20.52780000
195.09998859	0.00000000	36.36811000	20.52780000
195.29998858	0.00000000	36.36811000	20.52780000
195.49998857	0.00000000	36.36811000	20.48474000
195.69998856	0.00000000	36.32505000	20.10950000
195.89998855	0.00000000	35.94980000	19.41437000
196.09998853	0.00000000	35.20546000	19.41437000
