Time	Channel A	Channel B	Channel C
(us)	(V)	(mV)	(mV)

-4.59999956	0.00000000	-7.94783400	-8.72293300
-4.39999957	0.00000000	-7.94783400	-8.64296200
-4.19999958	0.00000000	-8.28001900	-8.67987200
-3.99999959	0.00000000	-8.69217500	-8.26771600
-3.79999960	0.00000000	-8.65526600	-7.93553100
-3.59999962	0.00000000	-8.69217500	-7.89247000
-3.39999963	0.00000000	-8.28001900	-7.89247000
-3.19999964	0.00000000	-7.94783400	-7.89247000
-2.99999965	0.00000000	-7.94783400	-7.93553100
-2.79999966	0.00000000	-8.32308000	-8.31077700
-2.59999968	0.00000000	-9.01820900	-9.05511800
-2.39999969	0.00000000	-9.01820900	-9.38115100
-2.19999970	0.00000000	-8.37229300	-9.09817800
-1.99999971	0.00000000	-8.37229300	-8.68602300
-1.79999972	0.00000000	-9.06742000	-8.72293300
-1.59999973	0.00000000	-9.44266700	-8.64296200
-1.39999975	0.00000000	-9.48572700	-8.67987200
-1.19999976	0.00000000	-9.48572700	-8.26771600
-0.99999977	0.00000000	-9.48572700	-7.98474400
-0.79999978	0.00000000	-9.44266700	-8.26771600
-0.59999979	0.00000000	-9.06742000	-8.67987200
-0.39999981	0.15871060	-8.37229300	-8.64296200
-0.19999982	0.47736220	-8.37229300	-8.67987200
0.00000017	0.79601380	-9.06742000	-8.31077700
0.20000016	0.95533960	-9.44266700	-8.35998900
0.40000015	0.95533960	-9.44266700	-9.05511800
0.60000013	0.63668800	-9.11048200	-9.43036400
0.80000012	0.00000000	-8.74138700	-9.47342500
1.00000011	-0.95533960	-9.11048200	-9.47342500
1.20000010	-1.91129400	-9.39345400	-9.43036400
1.40000009	-2.70792300	-9.06742000	-9.05511800
1.60000008	-2.70792300	-8.32308000	-8.31077700
1.80000006	-1.91129400	-7.94783400	-7.93553100
2.00000005	-0.47736220	-7.94783400	-7.89247000
2.20000004	1.59264300	-8.32308000	-7.93553100
2.40000003	3.66326300	-9.06742000	-8.31077700
2.60000002	5.09719500	-9.44266700	-9.05511800
2.80000000	5.25652100	-9.48572700	-9.43036400
2.99999999	3.98191400	-9.48572700	-9.47342500
3.19999998	1.59264300	-9.48572700	-9.47342500
3.39999997	-1.75196900	-9.48572700	-9.47342500
3.59999996	-5.09719500	-9.44266700	-9.43036400
3.79999994	-7.32714100	-9.06742000	-9.05511800
3.99999993	-7.96444400	-8.32308000	-8.31077700
4.19999992	-6.53112700	-7.94783400	-7.93553100
4.39999991	-3.18590100	-7.90477300	-7.89247000
4.59999990	1.27399100	-7.94783400	-7.89247000
4.79999989	5.41584600	-8.32308000	-7.93553100
4.99999987	8.44242100	-9.06742000	-8.31077700
5.19999986	9.55770200	-9.44266700	-9.05511800
5.39999985	8.12377000	-9.48572700	-9.43036400
5.59999984	4.61921700	-9.44266700	-9.47342500
5.79999983	0.00000000	-9.06742000	-9.47342500
5.99999981	-4.61921700	-8.37229300	-9.43036400
6.19999980	-8.12377000	-8.37229300	-9.05511800
6.39999979	-9.39837600	-9.01820900	-8.31077700
6.59999978	-8.44242100	-9.01820900	-7.93553100
6.79999977	-5.41584600	-8.32308000	-7.89247000
6.99999975	-1.11466500	-7.94783400	-7.89247000
7.19999974	3.02657500	-7.94783400	-7.89247000
7.39999973	6.37180100	-8.32308000	-7.93553100
7.59999972	7.64579200	-9.06742000	-8.31077700
7.79999971	7.16781500	-9.44266700	-9.05511800
7.99999970	4.93786900	-9.48572700	-9.43036400
8.19999968	1.75196900	-9.48572700	-9.47342500
8.39999967	-1.43331700	-9.48572700	-9.47342500
8.59999966	-3.98191400	-9.48572700	-9.47342500
8.79999965	-5.09719500	-9.44266700	-9.43036400
8.99999964	-4.93786900	-9.11048200	-9.05511800
9.19999962	-3.66326300	-8.74138700	-8.31077700
9.39999961	-1.59264300	-9.11048200	-7.98474400
9.59999960	0.31803640	-9.44266700	-8.31077700
9.79999959	1.75196900	-9.48572700	-9.05511800
9.99999958	2.54859700	-9.48572700	-9.43036400
10.19999956	2.38927200	-9.48572700	-9.47342500
10.39999955	1.75196900	-9.48572700	-9.47342500
10.59999954	0.95533960	-9.44266700	-9.47342500
10.79999953	0.15871060	-9.11048200	-9.43036400
10.99999952	-0.47736220	-8.74138700	-9.09817800
11.19999951	-0.79601380	-9.11048200	-8.72908400
11.39999949	-0.95533960	-9.39345400	-9.09817800
11.59999948	-0.79601380	-9.11048200	-9.38115100
11.79999947	-0.63668800	-8.74138700	-9.09817800
11.99999946	-0.31803640	-9.11048200	-8.68602300
12.19999945	-0.15871060	-9.44266700	-8.72293300
12.39999943	-0.15871060	-9.48572700	-8.64296200
12.59999942	0.00000000	-9.44266700	-8.67987200
12.79999941	0.00000000	-9.06742000	-8.31077700
12.99999940	0.00000000	-8.37229300	-8.35998900
13.19999939	0.00000000	-8.37229300	-9.05511800
13.39999937	0.00000000	-9.06742000	-9.43036400
13.59999936	0.00000000	-9.44266700	-9.47342500
13.79999935	0.00000000	-9.48572700	-9.43036400
13.99999934	-0.15871060	-9.48572700	-9.05511800
14.19999933	-0.15871060	-9.48572700	-8.31077700
14.39999932	-0.15871060	-9.48572700	-7.98474400
14.59999930	0.00000000	-9.48572700	-8.31077700
14.79999929	0.00000000	-9.48572700	-9.00590400
14.99999928	0.00000000	-9.48572700	-9.00590400
15.19999927	0.00000000	-9.48572700	-8.31077700
15.39999926	0.00000000	-9.48572700	-7.98474400
15.59999924	0.00000000	-9.48572700	-8.26771600
15.79999923	0.00000000	-9.48572700	-8.67987200
15.99999922	0.00000000	-9.48572700	-8.68602300
16.19999921	0.00000000	-9.48572700	-9.09817800
16.39999920	0.00000000	-9.44266700	-9.38115100
16.59999919	-0.15871060	-9.06742000	-9.09817800
16.79999917	0.00000000	-8.28001900	-8.72908400
16.99999916	0.00000000	-7.57258800	-9.09817800
17.19999915	0.00000000	-7.16043300	-9.43036400
17.39999914	0.00000000	-7.48646600	-9.47342500
17.59999913	0.00000000	-7.48646600	-9.47342500
17.79999911	0.00000000	-7.20964500	-9.47342500
17.99999910	0.00000000	-7.99704600	-9.47342500
18.19999909	0.00000000	-9.48572700	-9.47342500
18.39999908	0.00000000	-11.02362000	-9.43036400
18.59999907	0.00000000	-12.22933000	-9.05511800
18.79999905	0.00000000	-13.02288000	-8.31077700
18.99999904	0.00000000	-13.76107000	-7.93553100
19.19999903	0.00000000	-13.67495000	-7.89247000
19.39999902	0.00000000	-12.09400000	-7.93553100
19.59999901	0.00000000	-8.97514600	-8.31077700
19.79999900	0.00000000	-4.78592500	-9.00590400
19.99999898	0.00000000	-0.92888770	-9.05511800
20.19999897	0.00000000	1.40255900	-8.68602300
20.39999896	0.00000000	2.14074800	-8.72293300
20.59999895	0.00000000	0.47367120	-8.68602300
20.79999894	0.00000000	-4.18307100	-9.09817800
20.99999892	0.00000000	-11.15896000	-9.43036400
21.19999891	0.00000000	-18.83612000	-9.47342500
21.39999890	0.00000000	-25.39370000	-9.47342500
21.59999889	0.00000000	-28.83858000	-9.43036400
21.79999888	0.00000000	-28.37721000	-9.09817800
21.99999886	0.00000000	-23.25910000	-8.72908400
22.19999885	0.00000000	-13.58268000	-9.09817800
22.39999884	0.00000000	-1.58095500	-9.38115100
22.59999883	0.00000000	10.37771000	-9.09817800
22.79999882	0.00000000	19.58661000	-8.68602300
22.99999881	0.00000000	22.93922000	-8.67987200
23.19999879	0.00000000	19.03297000	-8.26771600
23.39999878	0.00000000	7.77559000	-7.93553100
23.59999877	0.00000000	-8.45841400	-7.84940900
23.79999876	0.00000000	-26.23647000	-7.47416300
23.99999875	0.00000000	-41.63386000	-6.77903500
24.19999873	0.00000000	-50.43061000	-6.77903500
24.39999872	0.00000000	-50.01230000	-7.51722400
24.59999871	0.00000000	-39.91757000	-8.35998900
24.79999870	0.00000000	-22.09646000	-9.93479300
24.99999869	0.00000000	-0.09227362	-12.16781000
25.19999867	0.00000000	21.12451000	-13.69956000
25.39999866	0.00000000	36.15895000	-14.11786000
25.59999865	0.00000000	41.50467000	-13.65650000
25.79999864	0.00000000	35.27313000	-11.70029000
25.99999863	0.00000000	18.33784000	-8.26771600
26.19999862	0.00000000	-4.83513700	-4.73671200
26.39999860	0.00000000	-28.83858000	-1.24877000
26.59999859	0.00000000	-48.93578000	1.80856300
26.79999858	0.00000000	-60.43307000	2.88508800
26.99999857	0.00000000	-60.05782000	1.72244100
27.19999856	0.00000000	-47.73007000	-2.22071800
27.39999854	0.00000000	-26.93159000	-8.40305000
27.59999853	0.00000000	-2.55290300	-15.78494000
27.79999852	0.00000000	19.82652000	-23.08686000
27.99999851	0.00000000	35.35925000	-28.42643000
28.19999850	0.00000000	40.76648000	-29.87205000
28.39999848	0.00000000	35.40846000	-26.38410000
28.59999847	0.00000000	20.33710000	-18.25787000
28.79999846	0.00000000	-0.46751960	-7.38188900
28.99999845	0.00000000	-22.13952000	4.60137700
29.19999844	0.00000000	-39.91757000	15.32972000
29.39999843	0.00000000	-50.05536000	21.41978000
29.59999841	0.00000000	-50.89813000	21.00148000
29.79999840	0.00000000	-43.21481000	13.61343000
29.99999839	0.00000000	-28.93085000	0.51673230
30.19999838	0.00000000	-11.53420000	-15.32357000
30.39999837	0.00000000	5.12426100	-30.37647000
30.59999835	0.00000000	17.95645000	-41.62155000
30.79999834	0.00000000	24.56939000	-46.55511000
30.99999833	0.00000000	24.19414000	-43.76230000
31.19999832	0.00000000	16.88607000	-32.56643000
31.39999831	0.00000000	4.56446800	-15.65576000
31.59999829	0.00000000	-9.35039300	2.55905500
31.79999828	0.00000000	-22.18873000	18.81767000
31.99999827	0.00000000	-31.49606000	29.92126000
32.19999826	0.00000000	-35.77140000	32.61565000
32.39999825	0.00000000	-34.23966000	26.11343000
32.59999824	0.00000000	-27.34990000	12.59227000
32.79999822	0.00000000	-17.29823000	-5.20423200
32.99999821	0.00000000	-6.45915300	-23.73892000
33.19999820	0.00000000	3.26033400	-38.84104000
33.39999819	0.00000000	9.82406400	-47.71161000
33.59999818	0.00000000	12.14321000	-48.49901000
33.79999816	0.00000000	9.44881800	-40.79109000
33.99999815	0.00000000	2.56520700	-26.89468000
34.19999814	0.00000000	-6.32381900	-9.51648500
34.39999813	0.00000000	-15.16363000	7.48031400
34.59999812	0.00000000	-21.72121000	20.26329000
34.79999810	0.00000000	-24.09572000	26.85777000
34.99999809	0.00000000	-22.60704000	25.65207000
35.19999808	0.00000000	-17.99951000	16.81841000
35.39999807	0.00000000	-11.44193000	2.55905500
35.59999806	0.00000000	-4.92125900	-13.57037000
35.79999805	0.00000000	0.09842519	-27.49754000
35.99999803	0.00000000	2.00541300	-36.01132000
36.19999802	0.00000000	0.55979330	-37.99828000
36.39999801	0.00000000	-3.29724400	-32.98474000
36.59999800	0.00000000	-8.28001900	-22.66855000
36.79999799	0.00000000	-13.29970000	-9.94094400
36.99999797	0.00000000	-16.74459000	2.00541300
37.19999796	0.00000000	-17.95029000	10.45768000
37.39999795	0.00000000	-16.79380000	13.15207000
37.59999794	0.00000000	-13.71801000	9.38730200
37.79999793	0.00000000	-9.44266700	0.97810030
37.99999791	0.00000000	-4.87819900	-9.38730200
38.19999790	0.00000000	-1.39640700	-18.95300000
38.39999789	0.00000000	-0.22760820	-24.71703000
38.59999788	0.00000000	-0.97194880	-25.13533000
38.79999787	0.00000000	-3.67249000	-20.52780000
38.99999786	0.00000000	-7.52952700	-12.11860000
39.19999784	0.00000000	-11.39887000	-2.55290300
39.39999783	0.00000000	-14.88066000	5.06889700
39.59999782	0.00000000	-16.83686000	8.55068800
39.79999781	0.00000000	-17.25517000	6.60679100
39.99999780	0.00000000	-16.46161000	0.09227362
40.19999778	0.00000000	-14.13632000	-9.52263600
40.39999777	0.00000000	-11.02362000	-19.42052000
40.59999776	0.00000000	-7.52952700	-26.34104000
40.79999775	0.00000000	-4.04773600	-28.24803000
40.99999774	0.00000000	-1.75935000	-24.80315000
41.19999772	0.00000000	-0.92888770	-16.71998000
41.39999771	0.00000000	-1.67322800	-6.40378900
41.59999770	0.00000000	-3.25418300	3.21112200
41.79999769	0.00000000	-5.62869100	9.38730200
41.99999768	0.00000000	-9.06742000	10.96826000
42.19999767	0.00000000	-12.13706000	7.89862200
42.39999765	0.00000000	-14.13632000	0.93503930
42.59999764	0.00000000	-15.34203000	-8.26771600
42.79999763	0.00000000	-15.67421000	-17.50738000
42.99999762	0.00000000	-14.92372000	-24.02190000
43.19999761	0.00000000	-13.02288000	-26.38410000
43.39999759	0.00000000	-11.10974000	-24.10802000
43.59999758	0.00000000	-9.48572700	-18.43627000
43.79999757	0.00000000	-7.94783400	-11.47269000
43.99999756	0.00000000	-6.74212600	-4.87204700
44.19999755	0.00000000	-5.94857300	0.51673230
44.39999753	0.00000000	-5.16117100	3.21112200
44.59999752	0.00000000	-4.78592500	2.51599400
44.79999751	0.00000000	-4.74286400	-0.51058070
44.99999750	0.00000000	-4.78592500	-4.77977300
45.19999749	0.00000000	-5.21038300	-9.38115100
45.39999748	0.00000000	-6.41609200	-13.23819000
45.59999746	0.00000000	-8.37229300	-15.18824000
45.79999745	0.00000000	-11.10974000	-15.27436000
45.99999744	0.00000000	-14.22859000	-14.11786000
46.19999743	0.00000000	-17.29823000	-12.16781000
46.39999742	0.00000000	-19.53125000	-9.47342500
46.59999740	0.00000000	-19.48819000	-6.77903500
46.79999739	0.00000000	-16.79380000	-4.87204700
46.99999738	0.00000000	-12.13706000	-4.04158400
47.19999737	0.00000000	-6.32381900	-4.40452700
47.39999736	0.00000000	-0.46751960	-5.19808000
47.59999734	0.00000000	4.51525500	-6.77903500
47.79999733	0.00000000	7.49261800	-9.09817800
47.99999732	0.00000000	6.28690900	-11.38041000
48.19999731	0.00000000	0.93503930	-13.32431000
48.39999730	0.00000000	-6.79133800	-14.07480000
48.59999729	0.00000000	-15.34203000	-13.69956000
48.79999727	0.00000000	-22.98228000	-12.11860000
48.99999726	0.00000000	-27.62672000	-9.47342500
49.19999725	0.00000000	-27.63287000	-6.72982200
49.39999724	0.00000000	-23.76353000	-4.36146600
49.59999723	0.00000000	-16.36934000	-2.08538400
49.79999721	0.00000000	-6.74212600	-1.01501000
49.99999720	0.00000000	2.47293300	-2.22071800
50.19999719	0.00000000	8.98129900	-5.61638700
50.39999718	0.00000000	10.56225000	-10.21161000
50.59999717	0.00000000	7.12352300	-14.07480000
50.79999715	0.00000000	0.18454720	-16.81225000
50.99999714	0.00000000	-9.06742000	-17.92569000
51.19999713	0.00000000	-17.90723000	-16.76919000
51.39999712	0.00000000	-24.09572000	-13.69956000
51.59999711	0.00000000	-26.42101000	-9.43036400
51.79999710	0.00000000	-24.09572000	-4.82898600
51.99999708	0.00000000	-17.99951000	-1.02116100
52.19999707	0.00000000	-9.90403500	0.51673230
52.39999706	0.00000000	-2.22687000	-0.59670270
52.59999705	0.00000000	3.16806100	-3.62327700
52.79999704	0.00000000	4.70595500	-7.51722400
52.99999702	0.00000000	2.09768700	-11.33120000
53.19999701	0.00000000	-3.29724400	-14.43775000
53.39999700	0.00000000	-9.86097400	-15.56348000
53.59999699	0.00000000	-16.32628000	-14.90526000
53.79999698	0.00000000	-20.18332000	-12.91215000
53.99999696	0.00000000	-20.23868000	-10.25467000
54.19999695	0.00000000	-17.57505000	-7.19734200
54.39999694	0.00000000	-12.55536000	-5.29035400
54.59999693	0.00000000	-6.83439900	-4.87204700
54.79999692	0.00000000	-2.17765700	-5.61638700
54.99999691	0.00000000	0.47367120	-7.56643700
55.19999689	0.00000000	0.09842519	-9.79945900
55.39999688	0.00000000	-3.29724400	-11.70029000
55.59999687	0.00000000	-7.86171200	-12.03248000
55.79999686	0.00000000	-12.18012000	-10.53765000
55.99999685	0.00000000	-15.63115000	-7.89247000
56.19999683	0.00000000	-17.53199000	-5.24729300
56.39999682	0.00000000	-16.79380000	-3.70939900
56.59999681	0.00000000	-14.13632000	-3.70939900
56.79999680	0.00000000	-10.64838000	-5.29035400
56.99999679	0.00000000	-6.79133800	-8.40305000
57.19999677	0.00000000	-3.71555100	-12.58612000
57.39999676	0.00000000	-2.17765700	-16.39395000
57.59999675	0.00000000	-2.55290300	-18.30093000
57.79999674	0.00000000	-4.83513700	-17.88263000
57.99999673	0.00000000	-7.86171200	-14.76993000
58.19999672	0.00000000	-10.59916000	-9.38115100
58.39999670	0.00000000	-12.51230000	-3.24803100
58.59999669	0.00000000	-13.34276000	2.09153500
58.79999668	0.00000000	-12.93061000	4.78592500
58.99999667	0.00000000	-11.81102000	3.99852300
59.19999666	0.00000000	-9.86097400	0.14148620
59.39999664	0.00000000	-7.99704600	-6.40378900
59.59999663	0.00000000	-6.83439900	-13.69956000
59.79999662	0.00000000	-6.83439900	-19.88189000
59.99999661	0.00000000	-7.90477300	-23.73892000
60.19999660	0.00000000	-9.06742000	-24.06496000
60.39999658	0.00000000	-9.86097400	-20.57702000
60.59999657	0.00000000	-10.59916000	-13.65650000
60.79999656	0.00000000	-10.55610000	-5.24729300
60.99999655	0.00000000	-9.44266700	2.09153500
61.19999654	0.00000000	-7.94783400	6.74212600
61.39999653	0.00000000	-6.79133800	7.89862200
61.59999651	0.00000000	-6.36687900	5.16117100
61.79999650	0.00000000	-6.36687900	-1.02116100
61.99999649	0.00000000	-6.83439900	-9.47342500
62.19999648	0.00000000	-8.37229300	-17.93184000
62.39999647	0.00000000	-10.64838000	-24.06496000
62.59999645	0.00000000	-12.55536000	-26.38410000
62.79999644	0.00000000	-13.71801000	-24.10802000
62.99999643	0.00000000	-13.71801000	-18.39321000
63.19999642	0.00000000	-12.55536000	-11.00517000
63.39999641	0.00000000	-10.59916000	-3.29109200
63.59999639	0.00000000	-7.90477300	3.25418300
63.79999638	0.00000000	-5.25344500	6.69291300
63.99999637	0.00000000	-3.71555100	6.36687900
64.19999636	0.00000000	-3.67249000	2.51599400
64.39999635	0.00000000	-4.83513700	-3.57406500
64.59999634	0.00000000	-6.79133800	-10.16855000
64.79999632	0.00000000	-9.52879000	-15.60654000
64.99999631	0.00000000	-12.55536000	-19.54970000
65.19999630	0.00000000	-14.83760000	-21.46284000
65.39999629	0.00000000	-15.25591000	-21.08760000
65.59999628	0.00000000	-14.13632000	-18.35015000
65.79999626	0.00000000	-12.18012000	-13.79183000
65.99999625	0.00000000	-9.48572700	-8.77829600
66.19999624	0.00000000	-6.83439900	-4.87204700
66.39999623	0.00000000	-5.29650500	-2.08538400
66.59999622	0.00000000	-5.25344500	-0.51058070
66.79999620	0.00000000	-6.41609200	-0.09227362
66.99999619	0.00000000	-8.32308000	-0.51058070
67.19999618	0.00000000	-10.64838000	-2.08538400
67.39999617	0.00000000	-12.51230000	-4.77977300
67.59999616	0.00000000	-13.25664000	-7.93553100
67.79999615	0.00000000	-12.09400000	-11.42347000
67.99999613	0.00000000	-9.44266700	-14.90526000
68.19999612	0.00000000	-6.41609200	-17.23056000
68.39999611	0.00000000	-4.13385800	-18.43627000
68.59999610	0.00000000	-3.71555100	-18.35015000
68.79999609	0.00000000	-4.87819900	-16.39395000
68.99999607	0.00000000	-7.25270600	-12.53691000
69.19999606	0.00000000	-11.06668000	-7.93553100
69.39999605	0.00000000	-14.88066000	-3.62327700
69.59999604	0.00000000	-17.21210000	-0.13533460
69.79999603	0.00000000	-17.99951000	2.14074800
69.99999601	0.00000000	-16.74459000	2.14074800
70.19999600	0.00000000	-13.29970000	-0.17839570
70.39999599	0.00000000	-8.28001900	-4.08464600
70.59999598	0.00000000	-3.29724400	-9.47342500
70.79999597	0.00000000	0.60900590	-14.81299000
70.99999596	0.00000000	2.47293300	-18.35015000
71.19999594	0.00000000	1.67938000	-19.88189000
71.39999593	0.00000000	-2.17765700	-19.08834000
71.59999592	0.00000000	-7.90477300	-15.64960000
71.79999591	0.00000000	-13.76107000	-11.09129000
71.99999590	0.00000000	-18.79306000	-6.77903500
72.19999588	0.00000000	-22.23179000	-3.29109200
72.39999587	0.00000000	-22.60704000	-1.01501000
72.59999586	0.00000000	-19.90650000	-0.97194880
72.79999585	0.00000000	-14.88066000	-2.87278500
72.99999584	0.00000000	-8.37229300	-5.53026500
73.19999582	0.00000000	-2.60211600	-8.63681000
73.39999581	0.00000000	0.93503930	-10.86983000
73.59999580	0.00000000	2.14074800	-11.74336000
73.79999579	0.00000000	0.93503930	-11.38041000
73.99999578	0.00000000	-2.50984200	-10.62992000
74.19999577	0.00000000	-7.52952700	-9.47342500
74.39999575	0.00000000	-12.51230000	-8.40305000
74.59999574	0.00000000	-16.41855000	-8.40305000
74.79999573	0.00000000	-18.37475000	-9.51648500
74.99999572	0.00000000	-18.37475000	-11.04823000
75.19999571	0.00000000	-16.46161000	-12.53691000
75.39999569	0.00000000	-13.02288000	-13.28125000
75.59999568	0.00000000	-9.57800100	-12.49385000
75.79999567	0.00000000	-6.79133800	-10.53765000
75.99999566	0.00000000	-4.87819900	-7.42495000
76.19999565	0.00000000	-4.09079700	-3.62327700
76.39999563	0.00000000	-4.83513700	-0.59670270
76.59999562	0.00000000	-6.32381900	0.55979330
76.79999561	0.00000000	-7.86171200	-0.59670270
76.99999560	0.00000000	-9.06742000	-3.70939900
77.19999559	0.00000000	-9.81791200	-8.35998900
77.39999558	0.00000000	-10.23007000	-13.74262000
77.59999556	0.00000000	-9.90403500	-18.35015000
77.79999555	0.00000000	-9.95324800	-21.03838000
77.99999554	0.00000000	-10.64838000	-21.03838000
78.19999553	0.00000000	-11.06668000	-18.30093000
78.39999552	0.00000000	-11.48499000	-13.28125000
78.59999550	0.00000000	-12.18012000	-6.77903500
78.79999549	0.00000000	-12.18012000	-1.01501000
78.99999548	0.00000000	-11.44193000	2.51599400
79.19999547	0.00000000	-10.59916000	3.71555100
79.39999546	0.00000000	-9.01820900	2.51599400
79.59999544	0.00000000	-6.74212600	-0.97194880
79.79999543	0.00000000	-4.87819900	-6.36072800
79.99999542	0.00000000	-4.09079700	-12.11860000
80.19999541	0.00000000	-4.83513700	-16.76919000
80.39999540	0.00000000	-6.36687900	-19.50664000
80.59999539	0.00000000	-8.37229300	-19.93110000
80.79999537	0.00000000	-11.06668000	-18.43627000
80.99999536	0.00000000	-13.71801000	-15.64960000
81.19999535	0.00000000	-15.21284000	-11.79257000
81.39999534	0.00000000	-14.88066000	-7.14812900
81.59999533	0.00000000	-12.97982000	-3.33415300
81.79999531	0.00000000	-10.64838000	-0.92888770
81.99999530	0.00000000	-7.90477300	-0.13533460
82.19999529	0.00000000	-5.25344500	-0.46136810
82.39999528	0.00000000	-3.71555100	-1.71013800
82.59999527	0.00000000	-3.71555100	-4.03543200
82.79999525	0.00000000	-5.21038300	-7.51722400
82.99999524	0.00000000	-7.48646600	-11.00517000
83.19999523	0.00000000	-9.44266700	-14.16092000
83.39999522	0.00000000	-11.02362000	-16.81225000
83.59999521	0.00000000	-12.13706000	-17.97490000
83.79999520	0.00000000	-12.18012000	-17.23056000
83.99999518	0.00000000	-11.44193000	-15.27436000
84.19999517	0.00000000	-10.69144000	-12.16166000
84.39999516	0.00000000	-9.90403500	-8.26771600
84.59999515	0.00000000	-9.52879000	-4.40452700
84.79999514	0.00000000	-9.48572700	-0.88582670
84.99999512	0.00000000	-9.48572700	1.35334600
85.19999511	0.00000000	-9.48572700	1.71628900
85.39999510	0.00000000	-9.44266700	-0.64591530
85.59999509	0.00000000	-9.06742000	-5.15501900
85.79999508	0.00000000	-8.28001900	-10.16855000
85.99999506	0.00000000	-7.57258800	-14.11786000
86.19999505	0.00000000	-7.16043300	-17.23056000
86.39999504	0.00000000	-7.57258800	-19.13140000
86.59999503	0.00000000	-8.32308000	-18.67618000
86.79999502	0.00000000	-9.52879000	-16.01870000
86.99999501	0.00000000	-11.02362000	-11.38041000
87.19999499	0.00000000	-12.18012000	-6.40378900
87.39999498	0.00000000	-12.60458000	-2.12844500
87.59999497	0.00000000	-12.60458000	0.51673230
87.79999496	0.00000000	-12.13706000	0.55979330
87.99999495	0.00000000	-10.59916000	-1.71013800
88.19999493	0.00000000	-8.37229300	-5.19808000
88.39999492	0.00000000	-6.83439900	-9.47342500
88.59999491	0.00000000	-6.36687900	-13.69956000
88.79999490	0.00000000	-6.36687900	-16.72613000
88.99999489	0.00000000	-6.79133800	-17.50738000
89.19999487	0.00000000	-7.94783400	-15.60654000
89.39999486	0.00000000	-9.48572700	-12.16166000
89.59999485	0.00000000	-11.02362000	-7.93553100
89.79999484	0.00000000	-12.18012000	-4.08464600
89.99999483	0.00000000	-12.55536000	-1.75319900
90.19999482	0.00000000	-12.18012000	-1.01501000
90.39999480	0.00000000	-11.02362000	-2.54675200
90.59999479	0.00000000	-9.52879000	-5.98548200
90.79999478	0.00000000	-8.32308000	-9.84867000
90.99999477	0.00000000	-7.57258800	-13.69956000
91.19999476	0.00000000	-7.16043300	-16.30167000
91.39999474	0.00000000	-7.52952700	-16.35089000
91.59999473	0.00000000	-7.90477300	-14.07480000
91.79999472	0.00000000	-8.32308000	-10.58686000
91.99999471	0.00000000	-9.06742000	-6.35457700
92.19999470	0.00000000	-9.44266700	-2.54675200
92.39999468	0.00000000	-9.48572700	-0.63976370
92.59999467	0.00000000	-9.52879000	-1.01501000
92.79999466	0.00000000	-9.90403500	-3.75246000
92.99999465	0.00000000	-10.64838000	-8.31077700
93.19999464	0.00000000	-11.06668000	-13.28125000
93.39999463	0.00000000	-11.48499000	-16.72613000
93.59999461	0.00000000	-12.18012000	-17.92569000
93.79999460	0.00000000	-12.13706000	-16.76919000
93.99999459	0.00000000	-11.02362000	-13.69956000
94.19999458	0.00000000	-9.48572700	-9.47342500
94.39999457	0.00000000	-7.90477300	-5.24729300
94.59999455	0.00000000	-6.36687900	-2.17765700
94.79999454	0.00000000	-5.21038300	-1.05807100
94.99999453	0.00000000	-4.83513700	-2.54675200
95.19999452	0.00000000	-5.25344500	-5.98548200
95.39999451	0.00000000	-6.83439900	-9.84867000
95.59999449	0.00000000	-9.52879000	-13.69956000
95.79999448	0.00000000	-12.60458000	-16.35089000
95.99999447	0.00000000	-15.29897000	-16.76919000
96.19999446	0.00000000	-16.79380000	-15.23130000
96.39999445	0.00000000	-16.46161000	-12.16166000
96.59999444	0.00000000	-14.51156000	-8.35998900
96.79999442	0.00000000	-11.76181000	-5.29035400
96.99999441	0.00000000	-7.90477300	-3.70939900
97.19999440	0.00000000	-4.09079700	-3.70939900
97.39999439	0.00000000	-1.71628900	-5.19808000
97.59999438	0.00000000	-0.55364170	-7.51722400
97.79999436	0.00000000	-1.02116100	-9.84867000
97.99999435	0.00000000	-3.71555100	-12.11860000
98.19999434	0.00000000	-7.90477300	-13.28125000
98.39999433	0.00000000	-12.18012000	-12.91215000
98.59999432	0.00000000	-15.67421000	-11.79257000
98.79999430	0.00000000	-17.99951000	-9.89173200
98.99999429	0.00000000	-18.37475000	-8.35998900
99.19999428	0.00000000	-16.83686000	-7.51722400
99.39999427	0.00000000	-13.76107000	-6.77903500
99.59999426	0.00000000	-9.90403500	-6.77903500
99.79999425	0.00000000	-6.41609200	-7.47416300
99.99999423	0.00000000	-3.67249000	-7.84940900
100.19999422	0.00000000	-2.13459600	-7.89247000
100.39999421	0.00000000	-2.09153500	-7.89247000
100.59999420	0.00000000	-3.29724400	-7.89247000
100.79999419	0.00000000	-5.62869100	-7.89247000
100.99999417	0.00000000	-9.11048200	-7.93553100
101.19999416	0.00000000	-12.51230000	-8.35998900
101.39999415	0.00000000	-14.88066000	-9.51648500
101.59999414	0.00000000	-15.71727000	-11.04823000
101.79999413	0.00000000	-15.71727000	-12.53691000
101.99999411	0.00000000	-14.92372000	-13.28125000
102.19999410	0.00000000	-12.97982000	-12.53691000
102.39999409	0.00000000	-10.69144000	-11.00517000
102.59999408	0.00000000	-8.32308000	-9.00590400
102.79999407	0.00000000	-6.41609200	-6.36072800
102.99999406	0.00000000	-5.21038300	-4.08464600
103.19999404	0.00000000	-4.83513700	-3.29109200
103.39999403	0.00000000	-5.25344500	-3.66633800
103.59999402	0.00000000	-6.79133800	-5.24729300
103.79999401	0.00000000	-9.06742000	-7.93553100
103.99999400	0.00000000	-11.02362000	-11.00517000
104.19999398	0.00000000	-12.60458000	-13.69956000
104.39999397	0.00000000	-13.71801000	-15.23130000
104.59999396	0.00000000	-13.71801000	-15.23130000
104.79999395	0.00000000	-12.60458000	-13.69956000
104.99999394	0.00000000	-11.06668000	-11.00517000
105.19999392	0.00000000	-9.48572700	-7.93553100
105.39999391	0.00000000	-7.94783400	-5.24729300
105.59999390	0.00000000	-6.83439900	-3.70939900
105.79999389	0.00000000	-6.83439900	-3.70939900
105.99999388	0.00000000	-7.90477300	-5.19808000
106.19999387	0.00000000	-9.06742000	-7.47416300
106.39999385	0.00000000	-9.86097400	-9.42421200
106.59999384	0.00000000	-10.64838000	-11.00517000
106.79999383	0.00000000	-11.02362000	-12.11860000
106.99999382	0.00000000	-11.02362000	-12.11860000
107.19999381	0.00000000	-10.59916000	-11.00517000
107.39999379	0.00000000	-9.48572700	-9.47342500
107.59999378	0.00000000	-8.37229300	-7.93553100
107.79999377	0.00000000	-7.94783400	-6.77903500
107.99999376	0.00000000	-7.94783400	-6.40378900
108.19999375	0.00000000	-8.37229300	-6.77903500
108.39999374	0.00000000	-9.52879000	-7.93553100
108.59999372	0.00000000	-11.02362000	-9.47342500
108.79999371	0.00000000	-12.18012000	-11.00517000
108.99999370	0.00000000	-12.55536000	-12.11860000
109.19999369	0.00000000	-12.18012000	-12.11860000
109.39999368	0.00000000	-11.02362000	-10.96211000
109.59999366	0.00000000	-9.48572700	-9.05511800
109.79999365	0.00000000	-7.94783400	-6.82209600
109.99999364	0.00000000	-6.79133800	-5.61638700
110.19999363	0.00000000	-6.41609200	-5.61023600
110.39999362	0.00000000	-6.79133800	-5.99163300
110.59999360	0.00000000	-7.94783400	-7.51722400
110.79999359	0.00000000	-9.48572700	-9.00590400
110.99999358	0.00000000	-11.02362000	-9.89173200
111.19999357	0.00000000	-12.18012000	-11.04823000
111.39999356	0.00000000	-12.55536000	-12.11860000
111.59999355	0.00000000	-12.22933000	-12.11860000
111.79999353	0.00000000	-11.44193000	-11.00517000
111.99999352	0.00000000	-10.64838000	-9.51648500
112.19999351	0.00000000	-9.48572700	-8.35998900
112.39999350	0.00000000	-8.32308000	-7.89247000
112.59999349	0.00000000	-7.57258800	-7.51722400
112.79999347	0.00000000	-7.20964500	-7.14812900
112.99999346	0.00000000	-7.94783400	-7.51722400
113.19999345	0.00000000	-9.06742000	-7.89247000
113.39999344	0.00000000	-9.86097400	-8.31077700
113.59999343	0.00000000	-10.64838000	-9.05511800
113.79999341	0.00000000	-11.02362000	-9.43036400
113.99999340	0.00000000	-11.06668000	-9.47342500
114.19999339	0.00000000	-11.02362000	-9.47342500
114.39999338	0.00000000	-10.64838000	-9.47342500
114.59999337	0.00000000	-9.90403500	-9.47342500
114.79999336	0.00000000	-9.48572700	-9.47342500
114.99999334	0.00000000	-9.06742000	-9.51648500
115.19999333	0.00000000	-8.32308000	-9.84867000
115.39999332	0.00000000	-7.99704600	-10.21161000
115.59999331	0.00000000	-8.32308000	-9.84867000
115.79999330	0.00000000	-9.06742000	-9.47342500
115.99999328	0.00000000	-9.48572700	-9.05511800
116.19999327	0.00000000	-9.90403500	-8.31077700
116.39999326	0.00000000	-10.64838000	-7.89247000
116.59999325	0.00000000	-11.02362000	-7.47416300
116.79999324	0.00000000	-11.02362000	-6.77903500
116.99999322	0.00000000	-10.64838000	-6.82209600
117.19999321	0.00000000	-9.90403500	-7.89247000
117.39999320	0.00000000	-9.48572700	-9.00590400
117.59999319	0.00000000	-9.06742000	-9.47342500
117.79999318	0.00000000	-8.32308000	-9.89173200
117.99999317	0.00000000	-7.94783400	-10.62992000
118.19999315	0.00000000	-7.94783400	-11.00517000
118.39999314	0.00000000	-8.32308000	-11.00517000
118.59999313	0.00000000	-9.11048200	-10.62992000
118.79999312	0.00000000	-9.90403500	-9.84867000
118.99999311	0.00000000	-11.06668000	-9.09817800
119.19999309	0.00000000	-12.18012000	-8.31077700
119.39999308	0.00000000	-12.60458000	-7.93553100
119.59999307	0.00000000	-12.60458000	-7.89247000
119.79999306	0.00000000	-12.18012000	-7.89247000
119.99999305	0.00000000	-11.02362000	-7.89247000
120.19999303	0.00000000	-9.48572700	-7.89247000
120.39999302	0.00000000	-7.94783400	-7.93553100
120.59999301	0.00000000	-6.79133800	-8.31077700
120.79999300	0.00000000	-6.41609200	-9.05511800
120.99999299	0.00000000	-6.79133800	-9.47342500
121.19999298	0.00000000	-7.90477300	-9.89173200
121.39999296	0.00000000	-9.06742000	-10.62992000
121.59999295	0.00000000	-9.90403500	-10.95595000
121.79999294	0.00000000	-11.06668000	-10.62992000
121.99999293	0.00000000	-12.18012000	-9.89173200
122.19999292	0.00000000	-12.55536000	-9.47342500
122.39999290	0.00000000	-12.18012000	-9.00590400
122.59999289	0.00000000	-11.06668000	-7.93553100
122.79999288	0.00000000	-9.90403500	-7.14812900
122.99999287	0.00000000	-9.11048200	-7.14197800
123.19999286	0.00000000	-8.32308000	-7.10506800
123.39999284	0.00000000	-7.94783400	-7.56028500
123.59999283	0.00000000	-7.90477300	-8.26771600
123.79999282	0.00000000	-7.90477300	-9.09817800
123.99999281	0.00000000	-7.90477300	-9.84867000
124.19999280	0.00000000	-7.99704600	-10.62992000
124.39999279	0.00000000	-8.74138700	-10.95595000
124.59999277	0.00000000	-10.23007000	-10.62992000
124.79999276	0.00000000	-10.97441000	-9.89173200
124.99999275	0.00000000	-11.06668000	-9.47342500
125.19999274	0.00000000	-11.06668000	-9.05511800
125.39999273	0.00000000	-11.06668000	-8.31077700
125.59999271	0.00000000	-11.02362000	-7.93553100
125.79999270	0.00000000	-10.64838000	-7.89247000
125.99999269	0.00000000	-9.86097400	-7.89247000
126.19999268	0.00000000	-9.11048200	-7.89247000
126.39999267	0.00000000	-8.32308000	-7.89247000
126.59999265	0.00000000	-7.94783400	-7.93553100
126.79999264	0.00000000	-7.94783400	-8.31077700
126.99999263	0.00000000	-8.32308000	-9.05511800
127.19999262	0.00000000	-9.11048200	-9.43036400
127.39999261	0.00000000	-9.86097400	-9.47342500
127.59999260	0.00000000	-10.69144000	-9.47342500
127.79999258	0.00000000	-11.44193000	-9.47342500
127.99999257	0.00000000	-12.18012000	-9.47342500
128.19999256	0.00000000	-12.13706000	-9.47342500
128.39999255	0.00000000	-11.06668000	-9.43036400
128.59999254	0.00000000	-9.90403500	-9.05511800
128.79999252	0.00000000	-9.11048200	-8.31077700
128.99999251	0.00000000	-8.32308000	-7.93553100
129.19999250	0.00000000	-7.94783400	-7.93553100
129.39999249	0.00000000	-7.94783400	-8.31077700
129.59999248	0.00000000	-8.37229300	-9.05511800
129.79999246	0.00000000	-9.48572700	-9.43036400
129.99999245	0.00000000	-10.64838000	-9.47342500
130.19999244	0.00000000	-11.44193000	-9.47342500
130.39999243	0.00000000	-12.18012000	-9.47342500
130.59999242	0.00000000	-12.18012000	-9.43036400
130.79999241	0.00000000	-11.44193000	-9.05511800
130.99999239	0.00000000	-10.64838000	-8.31077700
131.19999238	0.00000000	-9.44266700	-7.93553100
131.39999237	0.00000000	-7.99704600	-7.93553100
131.59999236	0.00000000	-7.20964500	-8.31077700
131.79999235	0.00000000	-7.57258800	-9.09817800
131.99999233	0.00000000	-8.28001900	-9.84867000
132.19999232	0.00000000	-9.11048200	-10.62992000
132.39999231	0.00000000	-9.90403500	-10.95595000
132.59999230	0.00000000	-11.02362000	-10.67298000
132.79999229	0.00000000	-11.76181000	-10.21776000
132.99999227	0.00000000	-11.39887000	-9.83636800
133.19999226	0.00000000	-10.69144000	-8.64296200
133.39999225	0.00000000	-9.90403500	-7.56028500
133.59999224	0.00000000	-9.52879000	-6.72982200
133.79999223	0.00000000	-9.48572700	-6.40378900
133.99999222	0.00000000	-9.48572700	-6.77903500
134.19999220	0.00000000	-9.48572700	-7.89247000
134.39999219	0.00000000	-9.48572700	-9.05511800
134.59999218	0.00000000	-9.48572700	-9.84867000
134.79999217	0.00000000	-9.48572700	-10.62992000
134.99999216	0.00000000	-9.48572700	-11.00517000
135.19999214	0.00000000	-9.48572700	-11.04823000
135.39999213	0.00000000	-9.48572700	-11.00517000
135.59999212	0.00000000	-9.48572700	-10.58686000
135.79999211	0.00000000	-9.48572700	-9.47342500
135.99999210	0.00000000	-9.52879000	-8.35998900
136.19999208	0.00000000	-9.90403500	-7.93553100
136.39999207	0.00000000	-10.64838000	-7.89247000
136.59999206	0.00000000	-11.02362000	-7.89247000
136.79999205	0.00000000	-11.06668000	-7.89247000
136.99999204	0.00000000	-11.06668000	-7.93553100
137.19999203	0.00000000	-11.02362000	-8.31077700
137.39999201	0.00000000	-10.64838000	-9.05511800
137.59999200	0.00000000	-9.86097400	-9.43036400
137.79999199	0.00000000	-9.11048200	-9.51648500
137.99999198	0.00000000	-8.32308000	-9.89173200
138.19999197	0.00000000	-7.99704600	-10.58686000
138.39999195	0.00000000	-8.32308000	-10.58686000
138.59999194	0.00000000	-9.11048200	-9.89173200
138.79999193	0.00000000	-9.86097400	-9.51648500
138.99999192	0.00000000	-10.64838000	-9.43036400
139.19999191	0.00000000	-11.02362000	-9.05511800
139.39999189	0.00000000	-11.06668000	-8.31077700
139.59999188	0.00000000	-11.02362000	-7.93553100
139.79999187	0.00000000	-10.64838000	-7.89247000
139.99999186	0.00000000	-9.90403500	-7.89247000
140.19999185	0.00000000	-9.52879000	-7.93553100
140.39999184	0.00000000	-9.44266700	-8.31077700
140.59999182	0.00000000	-9.11048200	-9.09817800
140.79999181	0.00000000	-8.74138700	-9.84867000
140.99999180	0.00000000	-9.11048200	-10.62992000
141.19999179	0.00000000	-9.48572700	-11.00517000
141.39999178	0.00000000	-9.90403500	-11.00517000
141.59999176	0.00000000	-10.64838000	-10.58686000
141.79999175	0.00000000	-10.97441000	-9.47342500
141.99999174	0.00000000	-10.64838000	-8.31077700
142.19999173	0.00000000	-9.90403500	-7.51722400
142.39999172	0.00000000	-9.52879000	-6.72982200
142.59999170	0.00000000	-9.48572700	-6.40378900
142.79999169	0.00000000	-9.48572700	-6.77903500
142.99999168	0.00000000	-9.48572700	-7.89247000
143.19999167	0.00000000	-9.48572700	-9.05511800
143.39999166	0.00000000	-9.48572700	-9.84867000
143.59999165	0.00000000	-9.52879000	-10.62992000
143.79999163	0.00000000	-9.86097400	-11.00517000
143.99999162	0.00000000	-10.23007000	-11.00517000
144.19999161	0.00000000	-9.86097400	-10.62992000
144.39999160	0.00000000	-9.52879000	-9.84867000
144.59999159	0.00000000	-9.48572700	-9.09817800
144.79999157	0.00000000	-9.48572700	-8.31077700
144.99999156	0.00000000	-9.48572700	-7.89247000
145.19999155	0.00000000	-9.48572700	-7.51722400
145.39999154	0.00000000	-9.52879000	-7.14812900
145.59999153	0.00000000	-9.90403500	-7.56028500
145.79999151	0.00000000	-10.64838000	-8.26771600
145.99999150	0.00000000	-11.02362000	-9.05511800
146.19999149	0.00000000	-11.06668000	-9.43036400
146.39999148	0.00000000	-11.02362000	-9.47342500
146.59999147	0.00000000	-10.64838000	-9.47342500
146.79999146	0.00000000	-9.90403500	-9.47342500
146.99999144	0.00000000	-9.52879000	-9.47342500
147.19999143	0.00000000	-9.48572700	-9.47342500
147.39999142	0.00000000	-9.48572700	-9.43036400
147.59999141	0.00000000	-9.48572700	-9.09817800
147.79999140	0.00000000	-9.52879000	-8.68602300
147.99999138	0.00000000	-9.90403500	-8.67987200
148.19999137	0.00000000	-10.59916000	-8.22465500
148.39999136	0.00000000	-10.64838000	-7.56028500
148.59999135	0.00000000	-10.32234000	-7.19734200
148.79999134	0.00000000	-10.64838000	-7.93553100
148.99999132	0.00000000	-10.59916000	-9.00590400
149.19999131	0.00000000	-9.90403500	-9.43036400
149.39999130	0.00000000	-9.52879000	-9.47342500
149.59999129	0.00000000	-9.48572700	-9.47342500
149.79999128	0.00000000	-9.48572700	-9.47342500
149.99999127	0.00000000	-9.48572700	-9.47342500
150.19999125	0.00000000	-9.48572700	-9.47342500
150.39999124	0.00000000	-9.48572700	-9.43036400
150.59999123	0.00000000	-9.52879000	-9.05511800
150.79999122	0.00000000	-9.90403500	-8.31077700
150.99999121	0.00000000	-10.64838000	-7.93553100
151.19999119	0.00000000	-11.02362000	-7.89247000
151.39999118	0.00000000	-11.06668000	-7.93553100
151.59999117	0.00000000	-11.02362000	-8.31077700
151.79999116	0.00000000	-10.64838000	-9.05511800
151.99999115	0.00000000	-9.90403500	-9.43036400
152.19999113	0.00000000	-9.52879000	-9.47342500
152.39999112	0.00000000	-9.48572700	-9.47342500
152.59999111	0.00000000	-9.48572700	-9.47342500
152.79999110	0.00000000	-9.48572700	-9.47342500
152.99999109	0.00000000	-9.48572700	-9.47342500
153.19999108	0.00000000	-9.48572700	-9.43036400
153.39999106	0.00000000	-9.48572700	-9.05511800
153.59999105	0.00000000	-9.52879000	-8.31077700
153.79999104	0.00000000	-9.90403500	-7.93553100
153.99999103	0.00000000	-10.64838000	-7.89247000
154.19999102	0.00000000	-11.02362000	-7.93553100
154.39999100	0.00000000	-11.06668000	-8.26771600
154.59999099	0.00000000	-11.02362000	-8.67987200
154.79999098	0.00000000	-10.64838000	-8.68602300
154.99999097	0.00000000	-9.90403500	-9.09817800
155.19999096	0.00000000	-9.52879000	-9.43036400
155.39999094	0.00000000	-9.48572700	-9.47342500
155.59999093	0.00000000	-9.48572700	-9.47342500
155.79999092	0.00000000	-9.48572700	-9.47342500
155.99999091	0.00000000	-9.48572700	-9.47342500
156.19999090	0.00000000	-9.48572700	-9.47342500
156.39999089	0.00000000	-9.48572700	-9.43036400
156.59999087	0.00000000	-9.48572700	-9.05511800
156.79999086	0.00000000	-9.52879000	-8.31077700
156.99999085	0.00000000	-9.90403500	-7.93553100
157.19999084	0.00000000	-10.64838000	-7.89247000
157.39999083	0.00000000	-11.02362000	-7.89247000
157.59999081	0.00000000	-11.06668000	-7.93553100
157.79999080	0.00000000	-11.02362000	-8.31077700
157.99999079	0.00000000	-10.64838000	-9.05511800
158.19999078	0.00000000	-9.90403500	-9.43036400
158.39999077	0.00000000	-9.52879000	-9.47342500
158.59999075	0.00000000	-9.48572700	-9.47342500
158.79999074	0.00000000	-9.48572700	-9.47342500
158.99999073	0.00000000	-9.48572700	-9.47342500
159.19999072	0.00000000	-9.48572700	-9.47342500
159.39999071	0.00000000	-9.48572700	-9.43036400
159.59999070	0.00000000	-9.52879000	-9.05511800
159.79999068	0.00000000	-9.90403500	-8.31077700
159.99999067	0.00000000	-10.64838000	-7.93553100
160.19999066	0.00000000	-11.02362000	-7.89247000
160.39999065	0.00000000	-11.06668000	-7.89247000
160.59999064	0.00000000	-11.02362000	-7.93553100
160.79999062	0.00000000	-10.64838000	-8.31077700
160.99999061	0.00000000	-9.90403500	-9.05511800
161.19999060	0.00000000	-9.52879000	-9.43036400
161.39999059	0.00000000	-9.48572700	-9.47342500
161.59999058	0.00000000	-9.48572700	-9.47342500
161.79999056	0.00000000	-9.48572700	-9.47342500
161.99999055	0.00000000	-9.48572700	-9.47342500
162.19999054	0.00000000	-9.48572700	-9.47342500
162.39999053	0.00000000	-9.48572700	-9.43036400
162.59999052	0.00000000	-9.48572700	-9.05511800
162.79999051	0.00000000	-9.48572700	-8.31077700
162.99999049	0.00000000	-9.52879000	-7.93553100
163.19999048	0.00000000	-9.90403500	-7.89247000
163.39999047	0.00000000	-10.64838000	-7.93553100
163.59999046	0.00000000	-11.02362000	-8.31077700
163.79999045	0.00000000	-11.06668000	-9.05511800
163.99999043	0.00000000	-11.02362000	-9.43036400
164.19999042	0.00000000	-10.64838000	-9.47342500
164.39999041	0.00000000	-9.90403500	-9.47342500
164.59999040	0.00000000	-9.52879000	-9.47342500
164.79999039	0.00000000	-9.48572700	-9.47342500
164.99999037	0.00000000	-9.48572700	-9.47342500
165.19999036	0.00000000	-9.44266700	-9.43036400
165.39999035	0.00000000	-9.11048200	-9.09817800
165.59999034	0.00000000	-8.74138700	-8.72908400
165.79999033	0.00000000	-9.11048200	-9.09817800
165.99999032	0.00000000	-9.48572700	-9.43036400
166.19999030	0.00000000	-9.90403500	-9.47342500
166.39999029	0.00000000	-10.64838000	-9.47342500
166.59999028	0.00000000	-11.02362000	-9.47342500
166.79999027	0.00000000	-11.06668000	-9.47342500
166.99999026	0.00000000	-11.06668000	-9.47342500
167.19999024	0.00000000	-11.02362000	-9.47342500
167.39999023	0.00000000	-10.64838000	-9.47342500
167.59999022	0.00000000	-9.90403500	-9.47342500
167.79999021	0.00000000	-9.52879000	-9.47342500
167.99999020	0.00000000	-9.48572700	-9.47342500
168.19999018	0.00000000	-9.48572700	-9.47342500
168.39999017	0.00000000	-9.48572700	-9.47342500
168.59999016	0.00000000	-9.48572700	-9.47342500
168.79999015	0.00000000	-9.48572700	-9.47342500
168.99999014	0.00000000	-9.48572700	-9.47342500
169.19999013	0.00000000	-9.48572700	-9.47342500
169.39999011	0.00000000	-9.52879000	-9.47342500
169.59999010	0.00000000	-9.90403500	-9.47342500
169.79999009	0.00000000	-10.64838000	-9.47342500
169.99999008	0.00000000	-11.02362000	-9.47342500
170.19999007	0.00000000	-11.06668000	-9.47342500
170.39999005	0.00000000	-11.02362000	-9.43036400
170.59999004	0.00000000	-10.64838000	-9.09817800
170.79999003	0.00000000	-9.90403500	-8.72908400
170.99999002	0.00000000	-9.52879000	-9.09817800
171.19999001	0.00000000	-9.48572700	-9.43036400
171.39998999	0.00000000	-9.48572700	-9.47342500
171.59998998	0.00000000	-9.48572700	-9.47342500
171.79998997	0.00000000	-9.48572700	-9.47342500
171.99998996	0.00000000	-9.48572700	-9.47342500
172.19998995	0.00000000	-9.48572700	-9.47342500
172.39998994	0.00000000	-9.48572700	-9.47342500
172.59998992	0.00000000	-9.48572700	-9.47342500
172.79998991	0.00000000	-9.52879000	-9.47342500
172.99998990	0.00000000	-9.86097400	-9.43036400
173.19998989	0.00000000	-10.23007000	-9.09817800
173.39998988	0.00000000	-9.86097400	-8.68602300
173.59998986	0.00000000	-9.52879000	-8.72293300
173.79998985	0.00000000	-9.48572700	-8.68602300
173.99998984	0.00000000	-9.48572700	-9.09817800
174.19998983	0.00000000	-9.48572700	-9.43036400
174.39998982	0.00000000	-9.48572700	-9.47342500
174.59998980	0.00000000	-9.48572700	-9.47342500
174.79998979	0.00000000	-9.52879000	-9.47342500
174.99998978	0.00000000	-9.86097400	-9.47342500
175.19998977	0.00000000	-10.23007000	-9.47342500
175.39998976	0.00000000	-9.90403500	-9.47342500
175.59998975	0.00000000	-9.90403500	-9.47342500
175.79998973	0.00000000	-10.23007000	-9.47342500
175.99998972	0.00000000	-9.86097400	-9.47342500
176.19998971	0.00000000	-9.52879000	-9.47342500
176.39998970	0.00000000	-9.48572700	-9.43036400
176.59998969	0.00000000	-9.48572700	-9.09817800
176.79998967	0.00000000	-9.48572700	-8.72908400
176.99998966	0.00000000	-9.48572700	-9.09817800
177.19998965	0.00000000	-9.48572700	-9.43036400
177.39998964	0.00000000	-9.52879000	-9.47342500
177.59998963	0.00000000	-9.86097400	-9.51648500
177.79998961	0.00000000	-10.27313000	-9.84867000
177.99998960	0.00000000	-10.27928000	-10.21161000
178.19998959	0.00000000	-10.69144000	-9.84867000
178.39998958	0.00000000	-11.02362000	-9.51648500
178.59998957	0.00000000	-11.02362000	-9.43036400
178.79998956	0.00000000	-10.64838000	-9.09817800
178.99998954	0.00000000	-9.90403500	-8.68602300
179.19998953	0.00000000	-9.52879000	-8.72293300
179.39998952	0.00000000	-9.48572700	-8.68602300
179.59998951	0.00000000	-9.48572700	-9.09817800
179.79998950	0.00000000	-9.48572700	-9.43036400
179.99998948	0.00000000	-9.48572700	-9.47342500
180.19998947	0.00000000	-9.48572700	-9.47342500
180.39998946	0.00000000	-9.48572700	-9.47342500
180.59998945	0.00000000	-9.52879000	-9.47342500
180.79998944	0.00000000	-9.90403500	-9.47342500
180.99998942	0.00000000	-10.59916000	-9.47342500
181.19998941	0.00000000	-10.59916000	-9.47342500
181.39998940	0.00000000	-9.90403500	-9.43036400
181.59998939	0.00000000	-9.52879000	-9.05511800
181.79998938	0.00000000	-9.48572700	-8.31077700
181.99998937	0.00000000	-9.48572700	-7.93553100
182.19998935	0.00000000	-9.48572700	-7.93553100
182.39998934	0.00000000	-9.48572700	-8.31077700
182.59998933	0.00000000	-9.48572700	-9.05511800
182.79998932	0.00000000	-9.48572700	-9.43036400
182.99998931	0.00000000	-9.52879000	-9.47342500
183.19998929	0.00000000	-9.86097400	-9.47342500
183.39998928	0.00000000	-10.23007000	-9.47342500
183.59998927	0.00000000	-9.86097400	-9.47342500
183.79998926	0.00000000	-9.57800100	-9.47342500
183.99998925	0.00000000	-9.86097400	-9.47342500
184.19998923	0.00000000	-10.23007000	-9.47342500
184.39998922	0.00000000	-9.90403500	-9.43036400
184.59998921	0.00000000	-9.95324800	-9.05511800
184.79998920	0.00000000	-10.59916000	-8.31077700
184.99998919	0.00000000	-10.64838000	-7.93553100
185.19998918	0.00000000	-10.27928000	-7.89247000
185.39998916	0.00000000	-10.27313000	-7.93553100
185.59998915	0.00000000	-9.86097400	-8.31077700
185.79998914	0.00000000	-9.52879000	-9.05511800
185.99998913	0.00000000	-9.48572700	-9.47342500
186.19998912	0.00000000	-9.48572700	-9.89173200
186.39998910	0.00000000	-9.48572700	-10.58686000
186.59998909	0.00000000	-9.52879000	-10.58686000
186.79998908	0.00000000	-9.90403500	-9.89173200
186.99998907	0.00000000	-10.64838000	-9.51648500
187.19998906	0.00000000	-11.02362000	-9.43036400
187.39998904	0.00000000	-11.06668000	-9.05511800
187.59998903	0.00000000	-11.06668000	-8.31077700
187.79998902	0.00000000	-11.02362000	-7.93553100
187.99998901	0.00000000	-10.64838000	-7.89247000
188.19998900	0.00000000	-9.90403500	-7.89247000
188.39998899	0.00000000	-9.52879000	-7.93553100
188.59998897	0.00000000	-9.48572700	-8.31077700
188.79998896	0.00000000	-9.48572700	-9.05511800
188.99998895	0.00000000	-9.48572700	-9.43036400
189.19998894	0.00000000	-9.48572700	-9.47342500
189.39998893	0.00000000	-9.48572700	-9.47342500
189.59998891	0.00000000	-9.48572700	-9.47342500
189.79998890	0.00000000	-9.48572700	-9.47342500
189.99998889	0.00000000	-9.52879000	-9.47342500
190.19998888	0.00000000	-9.90403500	-9.47342500
190.39998887	0.00000000	-10.64838000	-9.47342500
190.59998885	0.00000000	-11.02362000	-9.43036400
190.79998884	0.00000000	-11.02362000	-9.05511800
190.99998883	0.00000000	-10.64838000	-8.35998900
191.19998882	0.00000000	-9.90403500	-8.31077700
191.39998881	0.00000000	-9.52879000	-8.63681000
191.59998880	0.00000000	-9.48572700	-8.31077700
191.79998878	0.00000000	-9.48572700	-8.35998900
191.99998877	0.00000000	-9.48572700	-9.05511800
192.19998876	0.00000000	-9.48572700	-9.43036400
192.39998875	0.00000000	-9.48572700	-9.51648500
192.59998874	0.00000000	-9.52879000	-9.84867000
192.79998872	0.00000000	-9.90403500	-10.21161000
192.99998871	0.00000000	-10.64838000	-9.84867000
193.19998870	0.00000000	-11.02362000	-9.51648500
193.39998869	0.00000000	-11.06668000	-9.47342500
193.59998868	0.00000000	-11.06668000	-9.47342500
193.79998866	0.00000000	-11.06668000	-9.43036400
193.99998865	0.00000000	-11.06668000	-9.05511800
194.19998864	0.00000000	-11.02362000	-8.35998900
194.39998863	0.00000000	-10.64838000	-8.31077700
194.59998862	0.00000000	-9.90403500	-8.67987200
194.79998861	0.00000000	-9.52879000	-8.68602300
194.99998859	0.00000000	-9.48572700	-9.09817800
195.19998858	0.00000000	-9.48572700	-9.43036400
195.39998857	0.00000000	-9.48572700	-9.47342500
195.59998856	0.00000000	-9.52879000	-9.47342500
195.79998855	0.00000000	-9.90403500	-9.47342500
195.99998853	0.00000000	-10.64838000	-9.47342500
