Time	Channel A	Channel B	Channel C
(us)	(V)	(mV)	(mV)

-4.49999956	0.00000000	-11.06668000	-9.47342500
-4.29999957	0.00000000	-11.06668000	-9.47342500
-4.09999958	0.00000000	-11.06668000	-9.47342500
-3.89999959	0.00000000	-11.06668000	-9.47342500
-3.69999960	0.00000000	-11.06668000	-9.47342500
-3.49999962	0.00000000	-11.06668000	-9.47342500
-3.29999963	0.00000000	-11.06668000	-9.47342500
-3.09999964	0.00000000	-11.06668000	-9.47342500
-2.89999965	0.00000000	-11.06668000	-9.47342500
-2.69999966	0.00000000	-11.06668000	-9.47342500
-2.49999968	0.00000000	-11.06668000	-9.47342500
-2.29999969	0.00000000	-11.06668000	-9.47342500
-2.09999970	0.00000000	-11.06668000	-9.47342500
-1.89999971	0.00000000	-11.06668000	-9.47342500
-1.69999972	0.00000000	-11.02362000	-9.47342500
-1.49999973	0.00000000	-10.69144000	-9.47342500
-1.29999975	0.00000000	-10.27928000	-9.47342500
-1.09999976	0.00000000	-10.27313000	-9.47342500
-0.89999977	0.00000000	-9.90403500	-9.47342500
-0.69999978	0.00000000	-9.95324800	-9.47342500
-0.49999979	0.00000000	-10.64838000	-9.47342500
-0.29999981	0.15871060	-11.02362000	-9.47342500
-0.09999982	0.63668800	-11.06668000	-9.47342500
0.10000017	0.95533960	-11.06668000	-9.47342500
0.30000016	1.11466500	-11.06668000	-9.47342500
0.50000015	0.95533960	-11.06668000	-9.47342500
0.70000013	0.47736220	-11.06668000	-9.47342500
0.90000012	-0.31803640	-11.06668000	-9.47342500
1.10000011	-1.27399100	-11.06668000	-9.47342500
1.30000010	-2.22994600	-11.02362000	-9.47342500
1.50000009	-2.70792300	-10.69144000	-9.47342500
1.70000008	-2.54859700	-10.27928000	-9.47342500
1.90000006	-1.59264300	-10.31619000	-9.47342500
2.10000005	0.15871060	-10.27928000	-9.47342500
2.30000004	2.22994600	-10.69144000	-9.47342500
2.50000003	4.14124000	-11.02362000	-9.47342500
2.70000002	5.25652100	-11.06668000	-9.51648500
2.90000000	5.09719500	-11.06668000	-9.84867000
3.09999999	3.50393700	-11.06668000	-10.21161000
3.29999998	0.63668800	-11.06668000	-9.84867000
3.49999997	-2.70792300	-11.06668000	-9.51648500
3.69999996	-5.89382400	-11.06668000	-9.47342500
3.89999994	-7.80511800	-11.02362000	-9.43036400
4.09999993	-7.64579200	-10.64838000	-9.05511800
4.29999992	-5.73449800	-9.90403500	-8.35998900
4.49999991	-2.07062000	-9.57800100	-8.35998900
4.69999990	2.38927200	-9.90403500	-9.05511800
4.89999989	6.53112700	-10.64838000	-9.43036400
5.09999987	8.92039900	-11.02362000	-9.51648500
5.29999986	9.39837600	-11.06668000	-9.84867000
5.49999985	7.32714100	-11.06668000	-10.21161000
5.69999984	3.34522600	-11.06668000	-9.84867000
5.89999983	-1.27399100	-11.02362000	-9.51648500
6.09999981	-5.73449800	-10.69144000	-9.47342500
6.29999980	-8.76107300	-10.32234000	-9.43036400
6.49999979	-9.39837600	-10.69144000	-9.09817800
6.69999978	-7.80511800	-10.97441000	-8.72908400
6.89999977	-4.30056600	-10.69144000	-9.09817800
7.09999975	0.00000000	-10.32234000	-9.38115100
7.29999974	4.14124000	-10.69144000	-9.09817800
7.49999973	6.84916400	-11.02362000	-8.72908400
7.69999972	7.80511800	-11.06668000	-9.09817800
7.89999971	6.69045300	-11.06668000	-9.43036400
8.09999970	4.14124000	-11.06668000	-9.47342500
8.29999968	0.79601380	-11.06668000	-9.47342500
8.49999967	-2.22994600	-11.06668000	-9.47342500
8.69999966	-4.45989200	-11.06668000	-9.47342500
8.89999965	-5.25652100	-11.06668000	-9.47342500
9.09999964	-4.61921700	-11.06668000	-9.47342500
9.29999962	-3.18590100	-11.06668000	-9.47342500
9.49999961	-1.11466500	-11.06668000	-9.47342500
9.69999960	0.79601380	-11.06668000	-9.47342500
9.89999959	2.07062000	-11.06668000	-9.47342500
10.09999958	2.54859700	-11.02362000	-9.47342500
10.29999956	2.38927200	-10.69144000	-9.47342500
10.49999955	1.59264300	-10.32234000	-9.47342500
10.69999954	0.63668800	-10.69144000	-9.47342500
10.89999953	0.00000000	-11.02362000	-9.47342500
11.09999952	-0.63668800	-11.06668000	-9.47342500
11.29999951	-0.95533960	-11.06668000	-9.47342500
11.49999949	-0.95533960	-11.06668000	-9.47342500
11.69999948	-0.79601380	-11.02362000	-9.47342500
11.89999947	-0.47736220	-10.69144000	-9.47342500
12.09999946	-0.15871060	-10.32234000	-9.47342500
12.29999945	-0.15871060	-10.69144000	-9.47342500
12.49999943	0.00000000	-11.02362000	-9.47342500
12.69999942	0.00000000	-11.06668000	-9.47342500
12.89999941	0.00000000	-11.06668000	-9.47342500
13.09999940	0.00000000	-11.06668000	-9.47342500
13.29999939	0.00000000	-11.06668000	-9.47342500
13.49999937	0.00000000	-11.06668000	-9.47342500
13.69999936	0.00000000	-11.06668000	-9.47342500
13.89999935	0.00000000	-11.06668000	-9.47342500
14.09999934	0.00000000	-11.06668000	-9.47342500
14.29999933	-0.15871060	-11.06668000	-9.47342500
14.49999932	-0.15871060	-11.02362000	-9.47342500
14.69999930	0.00000000	-10.69144000	-9.47342500
14.89999929	0.00000000	-10.32234000	-9.47342500
15.09999928	0.00000000	-10.64838000	-9.47342500
15.29999927	0.00000000	-10.64838000	-9.47342500
15.49999926	0.00000000	-10.32234000	-9.47342500
15.69999924	0.00000000	-10.69144000	-9.47342500
15.89999923	0.00000000	-11.02362000	-9.47342500
16.09999922	0.00000000	-11.06668000	-9.51648500
16.29999921	-0.15871060	-11.02362000	-9.79945900
16.49999920	0.00000000	-10.69144000	-9.83636800
16.69999919	-0.15871060	-10.27928000	-9.10433000
16.89999917	0.00000000	-10.27313000	-9.14124000
17.09999916	0.00000000	-9.86097400	-9.43036400
17.29999915	0.00000000	-9.52879000	-9.47342500
17.49999914	0.00000000	-9.48572700	-9.47342500
17.69999913	0.00000000	-9.48572700	-9.47342500
17.89999911	0.00000000	-9.52879000	-9.47342500
18.09999910	0.00000000	-9.95324800	-9.47342500
18.29999909	0.00000000	-11.10974000	-9.47342500
18.49999908	0.00000000	-12.64764000	-9.47342500
18.69999907	0.00000000	-14.18553000	-9.47342500
18.89999905	0.00000000	-15.34203000	-9.47342500
19.09999904	0.00000000	-15.71727000	-9.47342500
19.29999903	0.00000000	-15.25591000	-9.47342500
19.49999902	0.00000000	-13.29970000	-9.47342500
19.69999901	0.00000000	-9.81791200	-9.47342500
19.89999900	0.00000000	-5.94857300	-9.47342500
20.09999898	0.00000000	-2.09153500	-9.47342500
20.29999897	0.00000000	0.51673230	-9.43036400
20.49999896	0.00000000	0.51673230	-9.09817800
20.69999895	0.00000000	-2.22687000	-8.72908400
20.89999894	0.00000000	-7.29576700	-9.09817800
21.09999892	0.00000000	-14.32087000	-9.43036400
21.29999891	0.00000000	-21.99803000	-9.47342500
21.49999890	0.00000000	-28.50640000	-9.47342500
21.69999889	0.00000000	-31.53912000	-9.47342500
21.89999888	0.00000000	-29.95817000	-9.47342500
22.09999886	0.00000000	-23.67741000	-9.47342500
22.29999885	0.00000000	-13.20743000	-9.47342500
22.49999884	0.00000000	-0.46751960	-9.47342500
22.69999883	0.00000000	11.44808000	-9.47342500
22.89999882	0.00000000	19.49434000	-9.47342500
23.09999881	0.00000000	20.98917000	-9.43036400
23.29999879	0.00000000	15.12672000	-9.05511800
23.49999878	0.00000000	2.70669300	-8.31077700
23.69999877	0.00000000	-14.32087000	-7.93553100
23.89999876	0.00000000	-32.04970000	-7.89247000
24.09999875	0.00000000	-46.28445000	-7.89247000
24.29999873	0.00000000	-53.17421000	-7.93553100
24.49999872	0.00000000	-50.38755000	-8.35998900
24.69999871	0.00000000	-38.00443000	-9.51648500
24.89999870	0.00000000	-18.28248000	-11.04823000
25.09999869	0.00000000	4.09694900	-12.62918000
25.29999867	0.00000000	24.15108000	-14.11786000
25.49999866	0.00000000	36.85408000	-14.85605000
25.69999865	0.00000000	38.76107000	-14.07480000
25.89999864	0.00000000	29.49680000	-12.11860000
26.09999863	0.00000000	10.89444000	-9.00590400
26.29999862	0.00000000	-13.02288000	-5.15501900
26.49999860	0.00000000	-36.98326000	-1.66707700
26.69999859	0.00000000	-55.08735000	1.02116100
26.89999858	0.00000000	-63.22588000	2.09153500
27.09999857	0.00000000	-59.36269000	0.46751960
27.29999856	0.00000000	-44.70349000	-4.17691900
27.49999854	0.00000000	-22.69931000	-11.14050000
27.69999853	0.00000000	1.63016700	-18.85458000
27.89999852	0.00000000	22.52707000	-25.77510000
28.09999851	0.00000000	35.69143000	-29.95817000
28.29999850	0.00000000	38.38583000	-29.91511000
28.49999848	0.00000000	29.96432000	-25.22145000
28.69999847	0.00000000	12.98597000	-16.30167000
28.89999846	0.00000000	-8.23695900	-4.69365100
29.09999845	0.00000000	-29.11540000	7.25270600
29.29999844	0.00000000	-44.61737000	16.86762000
29.49999843	0.00000000	-52.10384000	21.41978000
29.69999841	0.00000000	-50.98425000	19.42667000
29.89999840	0.00000000	-42.05216000	10.50689000
30.09999839	0.00000000	-26.97465000	-3.75861200
30.29999838	0.00000000	-8.87672100	-19.97416000
30.49999837	0.00000000	7.40034400	-34.65182000
30.69999835	0.00000000	18.70694000	-44.64198000
30.89999834	0.00000000	23.77584000	-47.29330000
31.09999833	0.00000000	21.45054000	-41.52928000
31.29999832	0.00000000	12.65379000	-28.75861000
31.49999831	0.00000000	-0.13533460	-11.74951000
31.69999829	0.00000000	-14.05020000	6.40994000
31.89999828	0.00000000	-26.46407000	21.42593000
32.09999827	0.00000000	-34.61491000	29.92126000
32.29999826	0.00000000	-37.35851000	30.01353000
32.49999825	0.00000000	-34.32578000	22.21334000
32.69999824	0.00000000	-26.60556000	8.26771600
32.89999822	0.00000000	-16.55389000	-10.26083000
33.09999821	0.00000000	-5.67175200	-28.34030000
33.29999820	0.00000000	3.54330700	-41.99680000
33.49999819	0.00000000	8.98129900	-49.24335000
33.69999818	0.00000000	9.40575800	-48.08071000
33.89999816	0.00000000	5.21653500	-38.09670000
34.09999815	0.00000000	-2.09153500	-22.71161000
34.29999814	0.00000000	-10.59916000	-5.24729300
34.49999813	0.00000000	-18.37475000	10.92520000
34.69999812	0.00000000	-24.09572000	22.16412000
34.89999810	0.00000000	-26.04577000	26.02731000
35.09999809	0.00000000	-23.40059000	22.25640000
35.29999808	0.00000000	-18.08563000	11.81102000
35.49999807	0.00000000	-11.48499000	-2.46063000
35.69999806	0.00000000	-5.33956700	-17.92569000
35.89999805	0.00000000	-1.10728300	-30.94242000
36.09999803	0.00000000	0.04921259	-37.95522000
36.29999802	0.00000000	-2.17765700	-37.63533000
36.49999801	0.00000000	-6.41609200	-31.12082000
36.69999800	0.00000000	-11.44193000	-19.92495000
36.89999799	0.00000000	-16.41855000	-6.87130900
37.09999797	0.00000000	-19.48819000	4.65059000
37.29999796	0.00000000	-19.90650000	11.57726000
37.49999795	0.00000000	-17.99951000	12.03863000
37.69999794	0.00000000	-14.13632000	6.74212600
37.89999793	0.00000000	-9.52879000	-2.12844500
38.09999791	0.00000000	-5.29650500	-12.49385000
38.29999790	0.00000000	-2.60211600	-21.64739000
38.49999789	0.00000000	-2.17765700	-26.24877000
38.69999788	0.00000000	-3.67249000	-25.17839000
38.89999787	0.00000000	-6.41609200	-19.42052000
39.09999786	0.00000000	-9.90403500	-10.58686000
39.29999784	0.00000000	-13.76107000	-1.01501000
39.49999783	0.00000000	-16.83686000	6.18848400
39.69999782	0.00000000	-18.41781000	8.50147600
39.89999781	0.00000000	-18.46087000	5.02583600
40.09999780	0.00000000	-17.25517000	-2.97121000
40.29999778	0.00000000	-14.92372000	-13.32431000
40.49999777	0.00000000	-11.44193000	-22.53322000
40.69999776	0.00000000	-7.94783400	-28.29109000
40.89999775	0.00000000	-4.83513700	-29.03543000
41.09999774	0.00000000	-2.55290300	-24.06496000
41.29999772	0.00000000	-2.13459600	-15.23130000
41.49999771	0.00000000	-3.25418300	-4.82898600
41.69999770	0.00000000	-5.21038300	4.74286400
41.89999769	0.00000000	-7.94783400	10.50074000
42.09999768	0.00000000	-11.06668000	10.92520000
42.29999767	0.00000000	-14.13632000	6.32381900
42.49999765	0.00000000	-16.46161000	-2.12844500
42.69999764	0.00000000	-17.25517000	-12.07554000
42.89999763	0.00000000	-16.92298000	-20.57702000
43.09999762	0.00000000	-15.76649000	-25.59670000
43.29999761	0.00000000	-14.18553000	-26.42716000
43.49999759	0.00000000	-12.22933000	-22.99459000
43.69999758	0.00000000	-9.95324800	-16.90453000
43.89999757	0.00000000	-8.41535400	-9.93479300
44.09999756	0.00000000	-7.90477300	-3.75861200
44.29999755	0.00000000	-7.48646600	0.51673230
44.49999753	0.00000000	-6.74212600	2.09153500
44.69999752	0.00000000	-6.36687900	0.97810030
44.89999751	0.00000000	-6.32381900	-2.08538400
45.09999750	0.00000000	-6.41609200	-6.35457700
45.29999749	0.00000000	-7.20964500	-10.95595000
45.49999748	0.00000000	-9.15354300	-14.81299000
45.69999746	0.00000000	-11.48499000	-16.76919000
45.89999745	0.00000000	-14.27165000	-16.81225000
46.09999744	0.00000000	-17.34744000	-15.27436000
46.29999743	0.00000000	-20.04183000	-12.62918000
46.49999742	0.00000000	-21.53666000	-9.89173200
46.69999740	0.00000000	-21.06914000	-7.56643700
46.89999739	0.00000000	-17.95029000	-5.61638700
47.09999738	0.00000000	-12.55536000	-4.87204700
47.29999737	0.00000000	-6.32381900	-5.19808000
47.49999736	0.00000000	-0.13533460	-6.36072800
47.69999734	0.00000000	4.79207600	-7.93553100
47.89999733	0.00000000	6.28690900	-9.93479300
48.09999732	0.00000000	3.58636800	-12.58612000
48.29999731	0.00000000	-2.60211600	-14.85605000
48.49999730	0.00000000	-11.06668000	-15.60654000
48.69999729	0.00000000	-19.58046000	-14.85605000
48.89999727	0.00000000	-26.18725000	-12.53691000
49.09999726	0.00000000	-30.00123000	-9.47342500
49.29999725	0.00000000	-29.53371000	-6.36072800
49.49999724	0.00000000	-24.13878000	-3.66633800
49.69999723	0.00000000	-15.29897000	-2.12844500
49.89999721	0.00000000	-5.29650500	-2.12844500
50.09999720	0.00000000	3.21112200	-3.70939900
50.29999719	0.00000000	8.19389700	-6.82209600
50.49999718	0.00000000	8.60605200	-11.04823000
50.69999717	0.00000000	4.01082700	-15.23130000
50.89999715	0.00000000	-3.67249000	-17.88263000
51.09999714	0.00000000	-12.60458000	-17.92569000
51.29999713	0.00000000	-21.06914000	-15.69882000
51.49999712	0.00000000	-26.79626000	-12.58612000
51.69999711	0.00000000	-27.95275000	-9.05511800
51.89999710	0.00000000	-24.18799000	-5.19808000
52.09999708	0.00000000	-17.29823000	-2.17765700
52.29999707	0.00000000	-9.57800100	-1.01501000
52.49999706	0.00000000	-2.60211600	-2.17765700
52.69999705	0.00000000	1.96235200	-5.19808000
52.89999704	0.00000000	2.74975400	-9.05511800
53.09999702	0.00000000	-0.68897630	-12.53691000
53.29999701	0.00000000	-6.79133800	-15.23130000
53.49999700	0.00000000	-13.71801000	-16.39395000
53.69999699	0.00000000	-19.44513000	-15.60654000
53.89999698	0.00000000	-22.18258000	-13.32431000
54.09999696	0.00000000	-21.44439000	-9.89173200
54.29999695	0.00000000	-17.99951000	-6.86515700
54.49999694	0.00000000	-12.64764000	-5.29035400
54.69999693	0.00000000	-7.25270600	-5.29035400
54.89999692	0.00000000	-3.38951800	-6.77903500
55.09999691	0.00000000	-1.48253000	-9.05511800
55.29999689	0.00000000	-2.64517700	-10.96211000
55.49999688	0.00000000	-6.41609200	-12.11860000
55.69999687	0.00000000	-11.02362000	-12.07554000
55.89999686	0.00000000	-15.29897000	-10.53765000
56.09999685	0.00000000	-18.37475000	-7.89247000
56.29999683	0.00000000	-19.53125000	-5.24729300
56.49999682	0.00000000	-18.37475000	-3.75246000
56.69999681	0.00000000	-15.29897000	-4.12770700
56.89999680	0.00000000	-11.10974000	-6.44685000
57.09999679	0.00000000	-7.25270600	-9.93479300
57.29999677	0.00000000	-4.92125900	-14.16708000
57.49999676	0.00000000	-4.13385800	-17.93184000
57.69999675	0.00000000	-5.29650500	-19.42052000
57.89999674	0.00000000	-7.90477300	-17.88263000
58.09999673	0.00000000	-10.64838000	-13.65650000
58.29999672	0.00000000	-12.97982000	-7.89247000
58.49999670	0.00000000	-14.88066000	-2.08538400
58.69999669	0.00000000	-15.25591000	2.51599400
58.89999668	0.00000000	-14.18553000	4.74286400
59.09999667	0.00000000	-12.64764000	3.21112200
59.29999666	0.00000000	-11.06668000	-1.75319900
59.49999664	0.00000000	-9.52879000	-8.35383800
59.69999663	0.00000000	-8.41535400	-15.69882000
59.89999662	0.00000000	-8.41535400	-22.15797000
60.09999661	0.00000000	-9.52879000	-25.22145000
60.29999660	0.00000000	-11.02362000	-24.10802000
60.49999658	0.00000000	-12.18012000	-19.46358000
60.69999657	0.00000000	-12.55536000	-12.11860000
60.89999656	0.00000000	-12.18012000	-3.70939900
61.09999655	0.00000000	-11.02362000	3.21112200
61.29999654	0.00000000	-9.52879000	6.69291300
61.49999653	0.00000000	-8.37229300	6.36687900
61.69999651	0.00000000	-7.99704600	2.46678100
61.89999650	0.00000000	-8.37229300	-4.12770700
62.09999649	0.00000000	-9.52879000	-12.58612000
62.29999648	0.00000000	-11.10974000	-20.62008000
62.49999647	0.00000000	-13.02288000	-25.59670000
62.69999645	0.00000000	-14.92372000	-26.47638000
62.89999644	0.00000000	-15.67421000	-23.36983000
63.09999643	0.00000000	-15.29897000	-17.64272000
63.29999642	0.00000000	-13.76107000	-10.22392000
63.49999641	0.00000000	-11.44193000	-2.91584600
63.69999639	0.00000000	-9.11048200	3.25418300
63.89999638	0.00000000	-6.79133800	6.27460600
64.09999637	0.00000000	-5.29650500	5.20423200
64.29999636	0.00000000	-5.29650500	0.97810030
64.49999635	0.00000000	-6.83439900	-5.15501900
64.69999634	0.00000000	-9.52879000	-11.74951000
64.89999632	0.00000000	-12.60458000	-17.18750000
65.09999631	0.00000000	-15.29897000	-21.03838000
65.29999630	0.00000000	-16.83686000	-22.20103000
65.49999629	0.00000000	-16.83686000	-20.34941000
65.69999628	0.00000000	-15.29897000	-16.90453000
65.89999626	0.00000000	-12.64764000	-12.58612000
66.09999625	0.00000000	-9.95324800	-7.98474400
66.29999624	0.00000000	-7.99704600	-4.08464600
66.49999623	0.00000000	-6.83439900	-1.71013800
66.69999622	0.00000000	-6.87746000	-0.51058070
66.89999620	0.00000000	-8.37229300	-0.51058070
67.09999619	0.00000000	-10.69144000	-1.66707700
67.29999618	0.00000000	-12.93061000	-3.61712600
67.49999617	0.00000000	-14.46235000	-6.36072800
67.69999616	0.00000000	-14.09326000	-9.47342500
67.89999615	0.00000000	-12.60458000	-12.62918000
68.09999613	0.00000000	-10.59916000	-15.74188000
68.29999612	0.00000000	-7.94783400	-18.39321000
68.49999611	0.00000000	-5.71481200	-19.50664000
68.69999610	0.00000000	-5.33956700	-18.39321000
68.89999609	0.00000000	-6.87746000	-15.69882000
69.09999607	0.00000000	-9.95324800	-12.16166000
69.29999606	0.00000000	-13.81028000	-7.84940900
69.49999605	0.00000000	-17.25517000	-3.24803100
69.69999604	0.00000000	-19.58046000	0.60285430
69.89999603	0.00000000	-19.90650000	2.46678100
70.09999601	0.00000000	-17.95029000	1.72244100
70.29999600	0.00000000	-13.71801000	-1.75319900
70.49999599	0.00000000	-8.32308000	-6.72982200
70.69999598	0.00000000	-3.34030500	-12.16166000
70.89999597	0.00000000	0.14148620	-16.81225000
71.09999596	0.00000000	0.89197830	-19.92495000
71.29999594	0.00000000	-1.02116100	-21.04454000
71.49999593	0.00000000	-5.29650500	-19.50664000
71.69999592	0.00000000	-11.06668000	-15.69882000
71.89999591	0.00000000	-16.87992000	-11.04823000
72.09999590	0.00000000	-21.53666000	-6.40378900
72.29999588	0.00000000	-24.18799000	-2.59596400
72.49999587	0.00000000	-23.76353000	-1.01501000
72.69999586	0.00000000	-19.95571000	-1.71013800
72.89999585	0.00000000	-14.22859000	-3.66633800
73.09999584	0.00000000	-8.37229300	-6.68676100
73.29999582	0.00000000	-3.34030500	-9.74409400
73.49999581	0.00000000	0.14148620	-11.33120000
73.69999580	0.00000000	0.89197830	-12.16166000
73.89999579	0.00000000	-0.97194880	-12.11860000
74.09999578	0.00000000	-4.87819900	-11.04823000
74.29999577	0.00000000	-9.86097400	-9.93479300
74.49999575	0.00000000	-14.88066000	-9.51648500
74.69999574	0.00000000	-18.37475000	-9.56569900
74.89999573	0.00000000	-19.95571000	-10.35310000
75.09999572	0.00000000	-19.58046000	-12.21087000
75.29999571	0.00000000	-17.29823000	-13.69956000
75.49999569	0.00000000	-14.18553000	-14.07480000
75.69999568	0.00000000	-10.69144000	-13.28125000
75.89999567	0.00000000	-7.25270600	-10.91289000
76.09999566	0.00000000	-5.33956700	-7.47416300
76.29999565	0.00000000	-5.25344500	-3.66633800
76.49999563	0.00000000	-6.36687900	-1.01501000
76.69999562	0.00000000	-7.90477300	-0.59670270
76.89999561	0.00000000	-9.44266700	-2.17765700
77.09999560	0.00000000	-10.59916000	-5.66560000
77.29999559	0.00000000	-11.02362000	-10.67298000
77.49999558	0.00000000	-11.06668000	-15.69882000
77.69999556	0.00000000	-11.10974000	-19.92495000
77.89999555	0.00000000	-11.48499000	-22.20103000
78.09999554	0.00000000	-12.22933000	-21.41363000
78.29999553	0.00000000	-12.60458000	-17.92569000
78.49999552	0.00000000	-12.69070000	-12.16781000
78.69999550	0.00000000	-13.02288000	-5.66560000
78.89999549	0.00000000	-13.34276000	-0.59670270
79.09999548	0.00000000	-12.55536000	2.51599400
79.29999547	0.00000000	-11.06668000	3.25418300
79.49999546	0.00000000	-9.48572700	0.97810030
79.69999544	0.00000000	-7.90477300	-3.24803100
79.89999543	0.00000000	-6.41609200	-8.31077700
80.09999542	0.00000000	-5.67175200	-13.74262000
80.29999541	0.00000000	-6.45915300	-18.30093000
80.49999540	0.00000000	-8.37229300	-20.66929000
80.69999539	0.00000000	-11.06668000	-20.34941000
80.89999537	0.00000000	-13.76107000	-18.43627000
81.09999536	0.00000000	-15.71727000	-15.27436000
81.29999535	0.00000000	-16.83686000	-11.04823000
81.49999534	0.00000000	-16.41855000	-6.77903500
81.69999533	0.00000000	-14.18553000	-3.29109200
81.89999531	0.00000000	-11.48499000	-0.92888770
82.09999530	0.00000000	-9.11048200	-0.17839570
82.29999529	0.00000000	-6.83439900	-0.87967510
82.49999528	0.00000000	-5.71481200	-2.87278500
82.69999527	0.00000000	-6.41609200	-5.57332700
82.89999525	0.00000000	-7.90477300	-9.09817800
83.09999524	0.00000000	-9.48572700	-12.53691000
83.29999523	0.00000000	-11.06668000	-15.32357000
83.49999522	0.00000000	-12.60458000	-17.27362000
83.69999521	0.00000000	-13.71801000	-18.39321000
83.89999520	0.00000000	-13.76107000	-17.97490000
84.09999518	0.00000000	-13.06594000	-15.64960000
84.29999517	0.00000000	-12.64764000	-12.16166000
84.49999516	0.00000000	-12.22933000	-7.89247000
84.69999515	0.00000000	-11.48499000	-3.66633800
84.89999514	0.00000000	-11.10974000	-0.59670270
85.09999512	0.00000000	-11.06668000	0.60285430
85.29999511	0.00000000	-11.06668000	-0.17839570
85.49999510	0.00000000	-11.06668000	-2.50369100
85.69999509	0.00000000	-11.02362000	-6.44685000
85.89999508	0.00000000	-10.64838000	-11.42347000
86.09999506	0.00000000	-9.90403500	-16.39395000
86.29999505	0.00000000	-9.52879000	-19.46358000
86.49999504	0.00000000	-9.52879000	-19.93110000
86.69999503	0.00000000	-9.95324800	-18.39321000
86.89999502	0.00000000	-11.10974000	-15.27436000
87.09999501	0.00000000	-12.64764000	-11.00517000
87.29999499	0.00000000	-14.13632000	-6.35457700
87.49999498	0.00000000	-14.88066000	-2.17765700
87.69999497	0.00000000	-14.13632000	0.14148620
87.89999496	0.00000000	-12.64764000	-0.22145670
88.09999495	0.00000000	-11.06668000	-2.54675200
88.29999493	0.00000000	-9.52879000	-6.77903500
88.49999492	0.00000000	-8.37229300	-11.74336000
88.69999491	0.00000000	-7.94783400	-15.60654000
88.89999490	0.00000000	-7.99704600	-17.92569000
89.09999489	0.00000000	-8.79060000	-17.92569000
89.29999487	0.00000000	-10.69144000	-15.64960000
89.49999486	0.00000000	-12.55536000	-12.16166000
89.69999485	0.00000000	-13.76107000	-7.93553100
89.89999484	0.00000000	-14.18553000	-4.08464600
90.09999483	0.00000000	-14.18553000	-1.80241100
90.29999482	0.00000000	-13.76107000	-1.43331700
90.49999480	0.00000000	-12.60458000	-3.75246000
90.69999479	0.00000000	-11.10974000	-7.89247000
90.89999478	0.00000000	-9.95324800	-12.16166000
91.09999477	0.00000000	-9.52879000	-15.60654000
91.29999476	0.00000000	-9.48572700	-17.50738000
91.49999474	0.00000000	-9.48572700	-16.72613000
91.69999473	0.00000000	-9.52879000	-13.69956000
91.89999472	0.00000000	-9.90403500	-9.47342500
92.09999471	0.00000000	-10.64838000	-5.24729300
92.29999470	0.00000000	-11.02362000	-2.17765700
92.49999468	0.00000000	-11.06668000	-1.01501000
92.69999467	0.00000000	-11.10974000	-2.17765700
92.89999466	0.00000000	-11.48499000	-5.24729300
93.09999465	0.00000000	-12.27239000	-9.51648500
93.29999464	0.00000000	-13.02288000	-14.07480000
93.49999463	0.00000000	-13.76107000	-17.50738000
93.69999461	0.00000000	-13.76107000	-18.25787000
93.89999460	0.00000000	-13.02288000	-16.39395000
94.09999459	0.00000000	-12.22933000	-12.53691000
94.29999458	0.00000000	-11.02362000	-7.98474400
94.49999457	0.00000000	-9.48572700	-4.08464600
94.69999455	0.00000000	-7.94783400	-1.80241100
94.89999454	0.00000000	-6.79133800	-1.43331700
95.09999453	0.00000000	-6.45915300	-3.75246000
95.29999452	0.00000000	-7.25270600	-7.89247000
95.49999451	0.00000000	-9.57800100	-12.11860000
95.69999449	0.00000000	-12.60458000	-15.23130000
95.89999448	0.00000000	-15.34203000	-16.81225000
96.09999447	0.00000000	-17.29823000	-16.76919000
96.29999446	0.00000000	-18.41781000	-14.85605000
96.49999445	0.00000000	-17.99951000	-11.38041000
96.69999444	0.00000000	-15.71727000	-7.60949800
96.89999442	0.00000000	-12.60458000	-4.50295200
97.09999441	0.00000000	-9.06742000	-3.33415300
97.29999440	0.00000000	-5.25344500	-3.70939900
97.49999439	0.00000000	-2.60211600	-5.61638700
97.69999438	0.00000000	-2.17765700	-8.63681000
97.89999436	0.00000000	-3.71555100	-10.96211000
98.09999435	0.00000000	-6.79133800	-12.53691000
98.29999434	0.00000000	-10.64838000	-13.32431000
98.49999433	0.00000000	-14.13632000	-12.91215000
98.69999432	0.00000000	-16.87992000	-11.79257000
98.89999430	0.00000000	-18.41781000	-9.84867000
99.09999429	0.00000000	-18.41781000	-8.02780400
99.29999428	0.00000000	-16.87992000	-7.19734200
99.49999427	0.00000000	-14.13632000	-7.51722400
99.69999426	0.00000000	-10.69144000	-7.89247000
99.89999425	0.00000000	-7.20964500	-8.26771600
100.09999423	0.00000000	-4.87819900	-8.67987200
100.29999422	0.00000000	-3.67249000	-8.64296200
100.49999421	0.00000000	-3.71555100	-8.67987200
100.69999420	0.00000000	-5.25344500	-8.26771600
100.89999419	0.00000000	-7.94783400	-7.98474400
101.09999417	0.00000000	-11.06668000	-8.35998900
101.29999416	0.00000000	-14.18553000	-9.51648500
101.49999415	0.00000000	-16.83686000	-11.04823000
101.69999414	0.00000000	-17.99951000	-12.58612000
101.89999413	0.00000000	-17.29823000	-13.69956000
102.09999411	0.00000000	-15.76649000	-13.69956000
102.29999410	0.00000000	-13.81028000	-12.58612000
102.49999409	0.00000000	-11.48499000	-11.00517000
102.69999408	0.00000000	-9.48572700	-9.00590400
102.89999407	0.00000000	-7.57258800	-6.36072800
103.09999406	0.00000000	-6.09005900	-4.08464600
103.29999404	0.00000000	-6.45915300	-3.33415300
103.49999403	0.00000000	-7.90477300	-4.08464600
103.69999402	0.00000000	-9.48572700	-6.40378900
103.89999401	0.00000000	-11.06668000	-9.42421200
104.09999400	0.00000000	-12.60458000	-12.16781000
104.29999398	0.00000000	-13.76107000	-14.11786000
104.49999397	0.00000000	-14.18553000	-15.27436000
104.69999396	0.00000000	-14.18553000	-15.23130000
104.89999395	0.00000000	-13.76107000	-13.69956000
105.09999394	0.00000000	-12.60458000	-11.00517000
105.29999392	0.00000000	-11.10974000	-7.98474400
105.49999391	0.00000000	-9.90403500	-5.66560000
105.69999390	0.00000000	-9.15354300	-4.87204700
105.89999389	0.00000000	-8.79060000	-5.19808000
106.09999388	0.00000000	-9.57800100	-6.40378900
106.29999387	0.00000000	-11.02362000	-8.31077700
106.49999385	0.00000000	-12.18012000	-10.58686000
106.69999384	0.00000000	-12.60458000	-12.11860000
106.89999383	0.00000000	-12.60458000	-12.53691000
107.09999382	0.00000000	-12.22933000	-12.16166000
107.29999381	0.00000000	-11.44193000	-11.00517000
107.49999379	0.00000000	-10.69144000	-9.47342500
107.69999378	0.00000000	-9.90403500	-7.98474400
107.89999377	0.00000000	-9.52879000	-7.14812900
108.09999376	0.00000000	-9.52879000	-7.18503900
108.29999375	0.00000000	-9.99630800	-7.57258800
108.49999374	0.00000000	-11.48499000	-9.14124000
108.69999372	0.00000000	-13.34276000	-10.96211000
108.89999371	0.00000000	-14.13632000	-12.16166000
109.09999370	0.00000000	-14.18553000	-12.53691000
109.29999369	0.00000000	-13.76107000	-12.16166000
109.49999368	0.00000000	-12.60458000	-11.00517000
109.69999366	0.00000000	-11.06668000	-9.47342500
109.89999365	0.00000000	-9.52879000	-7.93553100
110.09999364	0.00000000	-8.37229300	-6.77903500
110.29999363	0.00000000	-7.99704600	-6.40378900
110.49999362	0.00000000	-8.37229300	-6.77903500
110.69999360	0.00000000	-9.52879000	-7.93553100
110.89999359	0.00000000	-11.06668000	-9.47342500
111.09999358	0.00000000	-12.60458000	-11.00517000
111.29999357	0.00000000	-13.76107000	-12.16166000
111.49999356	0.00000000	-14.13632000	-12.53691000
111.69999355	0.00000000	-13.76107000	-12.21087000
111.89999353	0.00000000	-12.64764000	-11.42347000
112.09999352	0.00000000	-11.48499000	-10.62992000
112.29999351	0.00000000	-10.69144000	-9.47342500
112.49999350	0.00000000	-9.90403500	-8.35998900
112.69999349	0.00000000	-9.52879000	-7.93553100
112.89999347	0.00000000	-9.52879000	-7.89247000
113.09999346	0.00000000	-9.90403500	-7.93553100
113.29999345	0.00000000	-10.69144000	-8.31077700
113.49999344	0.00000000	-11.44193000	-9.05511800
113.69999343	0.00000000	-12.22933000	-9.47342500
113.89999341	0.00000000	-12.60458000	-9.84867000
114.09999340	0.00000000	-12.64764000	-10.21161000
114.29999339	0.00000000	-12.60458000	-9.84867000
114.49999338	0.00000000	-12.22933000	-9.56569900
114.69999337	0.00000000	-11.44193000	-9.84867000
114.89999336	0.00000000	-10.69144000	-10.25467000
115.09999334	0.00000000	-9.90403500	-10.26698000
115.29999333	0.00000000	-9.52879000	-10.67298000
115.49999332	0.00000000	-9.52879000	-11.00517000
115.69999331	0.00000000	-9.90403500	-11.00517000
115.89999330	0.00000000	-10.69144000	-10.58686000
116.09999328	0.00000000	-11.44193000	-9.47342500
116.29999327	0.00000000	-12.22933000	-8.35998900
116.49999326	0.00000000	-12.60458000	-7.93553100
116.69999325	0.00000000	-12.64764000	-7.89247000
116.89999324	0.00000000	-12.64764000	-7.93553100
117.09999322	0.00000000	-12.60458000	-8.31077700
117.29999321	0.00000000	-12.18012000	-9.09817800
117.49999320	0.00000000	-11.06668000	-9.84867000
117.69999319	0.00000000	-9.90403500	-10.62992000
117.89999318	0.00000000	-9.15354300	-11.00517000
118.09999317	0.00000000	-8.74138700	-11.04823000
118.29999315	0.00000000	-9.15354300	-11.04823000
118.49999314	0.00000000	-9.86097400	-11.00517000
118.69999313	0.00000000	-10.73450000	-10.62992000
118.89999312	0.00000000	-11.86024000	-9.89173200
119.09999311	0.00000000	-13.39198000	-9.47342500
119.29999309	0.00000000	-14.13632000	-9.05511800
119.49999308	0.00000000	-14.18553000	-8.31077700
119.69999307	0.00000000	-13.81028000	-7.93553100
119.89999306	0.00000000	-13.02288000	-7.89247000
120.09999305	0.00000000	-12.22933000	-7.93553100
120.29999303	0.00000000	-11.02362000	-8.31077700
120.49999302	0.00000000	-9.52879000	-9.05511800
120.69999301	0.00000000	-8.37229300	-9.43036400
120.89999300	0.00000000	-7.99704600	-9.51648500
121.09999299	0.00000000	-8.37229300	-9.89173200
121.29999298	0.00000000	-9.52879000	-10.62992000
121.49999296	0.00000000	-11.02362000	-11.00517000
121.69999295	0.00000000	-12.22933000	-11.04823000
121.89999294	0.00000000	-13.02288000	-11.00517000
122.09999293	0.00000000	-13.81028000	-10.62992000
122.29999292	0.00000000	-14.13632000	-9.84867000
122.49999290	0.00000000	-13.81028000	-9.14124000
122.69999289	0.00000000	-13.02288000	-8.64296200
122.89999288	0.00000000	-12.22933000	-8.30462600
123.09999287	0.00000000	-11.06668000	-7.52337600
123.29999286	0.00000000	-9.95324800	-7.60949800
123.49999284	0.00000000	-9.52879000	-8.26771600
123.69999283	0.00000000	-9.48572700	-9.05511800
123.89999282	0.00000000	-9.52879000	-9.47342500
124.09999281	0.00000000	-9.90403500	-9.89173200
124.29999280	0.00000000	-10.69144000	-10.62992000
124.49999279	0.00000000	-11.44193000	-11.00517000
124.69999277	0.00000000	-12.22933000	-11.00517000
124.89999276	0.00000000	-12.60458000	-10.62992000
125.09999275	0.00000000	-12.64764000	-9.89173200
125.29999274	0.00000000	-12.64764000	-9.47342500
125.49999273	0.00000000	-12.64764000	-9.05511800
125.69999271	0.00000000	-12.60458000	-8.31077700
125.89999270	0.00000000	-12.22933000	-7.93553100
126.09999269	0.00000000	-11.44193000	-7.89247000
126.29999268	0.00000000	-10.69144000	-7.93553100
126.49999267	0.00000000	-9.90403500	-8.31077700
126.69999265	0.00000000	-9.52879000	-9.05511800
126.89999264	0.00000000	-9.52879000	-9.43036400
127.09999263	0.00000000	-9.90403500	-9.47342500
127.29999262	0.00000000	-10.69144000	-9.51648500
127.49999261	0.00000000	-11.44193000	-9.84867000
127.69999260	0.00000000	-12.27239000	-10.21161000
127.89999258	0.00000000	-12.97982000	-9.84867000
128.09999257	0.00000000	-13.39198000	-9.51648500
128.29999256	0.00000000	-12.97982000	-9.47342500
128.49999255	0.00000000	-12.22933000	-9.47342500
128.69999254	0.00000000	-11.06668000	-9.47342500
128.89999252	0.00000000	-9.95324800	-9.47342500
129.09999251	0.00000000	-9.52879000	-9.51648500
129.29999250	0.00000000	-9.48572700	-9.84867000
129.49999249	0.00000000	-9.52879000	-10.21161000
129.69999248	0.00000000	-9.95324800	-9.84867000
129.89999246	0.00000000	-11.06668000	-9.51648500
130.09999245	0.00000000	-12.22933000	-9.47342500
130.29999244	0.00000000	-12.97982000	-9.47342500
130.49999243	0.00000000	-13.39198000	-9.43036400
130.69999242	0.00000000	-12.97982000	-9.05511800
130.89999241	0.00000000	-12.27239000	-8.31077700
131.09999239	0.00000000	-11.44193000	-7.98474400
131.29999238	0.00000000	-10.69144000	-8.31077700
131.49999237	0.00000000	-9.90403500	-9.05511800
131.69999236	0.00000000	-9.52879000	-9.47342500
131.89999235	0.00000000	-9.52879000	-9.89173200
132.09999233	0.00000000	-9.95324800	-10.62992000
132.29999232	0.00000000	-11.06668000	-11.00517000
132.49999231	0.00000000	-12.18012000	-11.04823000
132.69999230	0.00000000	-12.60458000	-11.00517000
132.89999229	0.00000000	-12.64764000	-10.62992000
133.09999227	0.00000000	-12.60458000	-9.84867000
133.29999226	0.00000000	-12.22933000	-9.09817800
133.49999225	0.00000000	-11.48499000	-8.31077700
133.69999224	0.00000000	-11.10974000	-7.93553100
133.89999223	0.00000000	-11.06668000	-7.89247000
134.09999222	0.00000000	-11.06668000	-7.93553100
134.29999220	0.00000000	-11.06668000	-8.35998900
134.49999219	0.00000000	-11.10974000	-9.51648500
134.69999218	0.00000000	-11.44193000	-10.96211000
134.89999217	0.00000000	-11.81102000	-11.74336000
135.09999216	0.00000000	-11.44193000	-11.42347000
135.29999214	0.00000000	-11.10974000	-11.09129000
135.49999213	0.00000000	-11.06668000	-11.00517000
135.69999212	0.00000000	-11.06668000	-10.62992000
135.89999211	0.00000000	-11.06668000	-9.84867000
136.09999210	0.00000000	-11.06668000	-9.09817800
136.29999208	0.00000000	-11.10974000	-8.31077700
136.49999207	0.00000000	-11.48499000	-7.93553100
136.69999206	0.00000000	-12.22933000	-7.93553100
136.89999205	0.00000000	-12.60458000	-8.31077700
137.09999204	0.00000000	-12.60458000	-9.05511800
137.29999203	0.00000000	-12.22933000	-9.43036400
137.49999201	0.00000000	-11.44193000	-9.47342500
137.69999200	0.00000000	-10.69144000	-9.51648500
137.89999199	0.00000000	-9.90403500	-9.89173200
138.09999198	0.00000000	-9.52879000	-10.62992000
138.29999197	0.00000000	-9.52879000	-11.00517000
138.49999195	0.00000000	-9.90403500	-11.00517000
138.69999194	0.00000000	-10.69144000	-10.62992000
138.89999193	0.00000000	-11.44193000	-9.89173200
139.09999192	0.00000000	-12.22933000	-9.47342500
139.29999191	0.00000000	-12.60458000	-9.05511800
139.49999189	0.00000000	-12.60458000	-8.31077700
139.69999188	0.00000000	-12.22933000	-7.93553100
139.89999187	0.00000000	-11.48499000	-7.89247000
140.09999186	0.00000000	-11.06668000	-7.93553100
140.29999185	0.00000000	-10.64838000	-8.31077700
140.49999184	0.00000000	-9.90403500	-9.09817800
140.69999182	0.00000000	-9.57800100	-9.84867000
140.89999181	0.00000000	-9.90403500	-10.62992000
141.09999180	0.00000000	-10.64838000	-11.00517000
141.29999179	0.00000000	-11.06668000	-11.04823000
141.49999178	0.00000000	-11.48499000	-11.00517000
141.69999176	0.00000000	-12.22933000	-10.62992000
141.89999175	0.00000000	-12.60458000	-9.84867000
142.09999174	0.00000000	-12.60458000	-9.05511800
142.29999173	0.00000000	-12.22933000	-7.93553100
142.49999172	0.00000000	-11.48499000	-7.19734200
142.69999170	0.00000000	-11.10974000	-7.51722400
142.89999169	0.00000000	-11.06668000	-7.89247000
143.09999168	0.00000000	-11.06668000	-8.35998900
143.29999167	0.00000000	-11.10974000	-9.47342500
143.49999166	0.00000000	-11.48499000	-10.58686000
143.69999165	0.00000000	-12.18012000	-11.04823000
143.89999163	0.00000000	-12.18012000	-11.42347000
144.09999162	0.00000000	-11.48499000	-11.74336000
144.29999161	0.00000000	-11.10974000	-11.00517000
144.49999160	0.00000000	-11.02362000	-9.89173200
144.69999159	0.00000000	-10.69144000	-9.09817800
144.89999157	0.00000000	-10.32234000	-8.31077700
145.09999156	0.00000000	-10.69144000	-7.93553100
145.29999155	0.00000000	-11.02362000	-7.89247000
145.49999154	0.00000000	-11.06668000	-7.93553100
145.69999153	0.00000000	-11.10974000	-8.31077700
145.89999151	0.00000000	-11.48499000	-9.05511800
146.09999150	0.00000000	-12.22933000	-9.47342500
146.29999149	0.00000000	-12.60458000	-9.89173200
146.49999148	0.00000000	-12.60458000	-10.58686000
146.69999147	0.00000000	-12.22933000	-10.58686000
146.89999146	0.00000000	-11.48499000	-9.89173200
147.09999144	0.00000000	-11.10974000	-9.51648500
147.29999143	0.00000000	-11.06668000	-9.47342500
147.49999142	0.00000000	-11.06668000	-9.47342500
147.69999141	0.00000000	-11.06668000	-9.47342500
147.89999140	0.00000000	-11.06668000	-9.47342500
148.09999138	0.00000000	-11.10974000	-9.43036400
148.29999137	0.00000000	-11.48499000	-9.05511800
148.49999136	0.00000000	-12.22933000	-8.35998900
148.69999135	0.00000000	-12.55536000	-8.35998900
148.89999134	0.00000000	-12.22933000	-9.05511800
149.09999132	0.00000000	-11.48499000	-9.43036400
149.29999131	0.00000000	-11.06668000	-9.47342500
149.49999130	0.00000000	-10.69144000	-9.51648500
149.69999129	0.00000000	-10.32234000	-9.89173200
149.89999128	0.00000000	-10.69144000	-10.58686000
150.09999127	0.00000000	-11.02362000	-10.58686000
150.29999125	0.00000000	-11.06668000	-9.89173200
150.49999124	0.00000000	-11.06668000	-9.51648500
150.69999123	0.00000000	-11.10974000	-9.47342500
150.89999122	0.00000000	-11.48499000	-9.43036400
151.09999121	0.00000000	-12.22933000	-9.09817800
151.29999119	0.00000000	-12.60458000	-8.72908400
151.49999118	0.00000000	-12.64764000	-9.09817800
151.69999117	0.00000000	-12.60458000	-9.43036400
151.89999116	0.00000000	-12.22933000	-9.47342500
152.09999115	0.00000000	-11.48499000	-9.51648500
152.29999113	0.00000000	-11.10974000	-9.84867000
152.49999112	0.00000000	-11.06668000	-10.21161000
152.69999111	0.00000000	-11.06668000	-9.84867000
152.89999110	0.00000000	-11.06668000	-9.51648500
153.09999109	0.00000000	-11.06668000	-9.47342500
153.29999108	0.00000000	-11.06668000	-9.47342500
153.49999106	0.00000000	-11.06668000	-9.47342500
153.69999105	0.00000000	-11.10974000	-9.47342500
153.89999104	0.00000000	-11.48499000	-9.47342500
154.09999103	0.00000000	-12.22933000	-9.47342500
154.29999102	0.00000000	-12.60458000	-9.47342500
154.49999100	0.00000000	-12.64764000	-9.47342500
154.69999099	0.00000000	-12.60458000	-9.47342500
154.89999098	0.00000000	-12.22933000	-9.47342500
155.09999097	0.00000000	-11.48499000	-9.47342500
155.29999096	0.00000000	-11.10974000	-9.47342500
155.49999094	0.00000000	-11.06668000	-9.47342500
155.69999093	0.00000000	-11.06668000	-9.47342500
155.89999092	0.00000000	-11.06668000	-9.47342500
156.09999091	0.00000000	-11.06668000	-9.47342500
156.29999090	0.00000000	-11.06668000	-9.47342500
156.49999089	0.00000000	-11.10974000	-9.47342500
156.69999087	0.00000000	-11.48499000	-9.43036400
156.89999086	0.00000000	-12.22933000	-9.05511800
157.09999085	0.00000000	-12.60458000	-8.31077700
157.29999084	0.00000000	-12.64764000	-7.98474400
157.49999083	0.00000000	-12.60458000	-8.26771600
157.69999081	0.00000000	-12.27239000	-8.67987200
157.89999080	0.00000000	-11.86024000	-8.68602300
158.09999079	0.00000000	-11.85408000	-9.09817800
158.29999078	0.00000000	-11.44193000	-9.47342500
158.49999077	0.00000000	-11.10974000	-9.89173200
158.69999075	0.00000000	-11.06668000	-10.62992000
158.89999074	0.00000000	-11.06668000	-10.95595000
159.09999073	0.00000000	-11.06668000	-10.62992000
159.29999072	0.00000000	-11.06668000	-9.89173200
159.49999071	0.00000000	-11.06668000	-9.47342500
159.69999070	0.00000000	-11.10974000	-9.05511800
159.89999068	0.00000000	-11.48499000	-8.31077700
160.09999067	0.00000000	-12.22933000	-7.93553100
160.29999066	0.00000000	-12.60458000	-7.93553100
160.49999065	0.00000000	-12.64764000	-8.31077700
160.69999064	0.00000000	-12.64764000	-9.05511800
160.89999062	0.00000000	-12.64764000	-9.43036400
161.09999061	0.00000000	-12.60458000	-9.47342500
161.29999060	0.00000000	-12.22933000	-9.51648500
161.49999059	0.00000000	-11.48499000	-9.84867000
161.69999058	0.00000000	-11.10974000	-10.21161000
161.89999056	0.00000000	-11.06668000	-9.84867000
162.09999055	0.00000000	-11.06668000	-9.51648500
162.29999054	0.00000000	-11.06668000	-9.47342500
162.49999053	0.00000000	-11.06668000	-9.43036400
162.69999052	0.00000000	-11.06668000	-9.09817800
162.89999051	0.00000000	-11.06668000	-8.72908400
163.09999049	0.00000000	-11.10974000	-9.09817800
163.29999048	0.00000000	-11.48499000	-9.43036400
163.49999047	0.00000000	-12.22933000	-9.47342500
163.69999046	0.00000000	-12.60458000	-9.47342500
163.89999045	0.00000000	-12.64764000	-9.47342500
164.09999043	0.00000000	-12.64764000	-9.47342500
164.29999042	0.00000000	-12.60458000	-9.47342500
164.49999041	0.00000000	-12.22933000	-9.47342500
164.69999040	0.00000000	-11.48499000	-9.51648500
164.89999039	0.00000000	-11.10974000	-9.84867000
165.09999037	0.00000000	-11.06668000	-10.21161000
165.29999036	0.00000000	-11.06668000	-9.84867000
165.49999035	0.00000000	-11.06668000	-9.51648500
165.69999034	0.00000000	-11.06668000	-9.47342500
165.89999033	0.00000000	-11.06668000	-9.47342500
166.09999032	0.00000000	-11.06668000	-9.47342500
166.29999030	0.00000000	-11.10974000	-9.47342500
166.49999029	0.00000000	-11.48499000	-9.47342500
166.69999028	0.00000000	-12.22933000	-9.51648500
166.89999027	0.00000000	-12.60458000	-9.84867000
167.09999026	0.00000000	-12.60458000	-10.21161000
167.29999024	0.00000000	-12.22933000	-9.84867000
167.49999023	0.00000000	-11.48499000	-9.51648500
167.69999022	0.00000000	-11.10974000	-9.47342500
167.89999021	0.00000000	-11.06668000	-9.47342500
168.09999020	0.00000000	-11.06668000	-9.47342500
168.29999018	0.00000000	-11.06668000	-9.47342500
168.49999017	0.00000000	-11.06668000	-9.47342500
168.69999016	0.00000000	-11.06668000	-9.47342500
168.89999015	0.00000000	-11.06668000	-9.47342500
169.09999014	0.00000000	-11.06668000	-9.47342500
169.29999013	0.00000000	-11.10974000	-9.47342500
169.49999011	0.00000000	-11.44193000	-9.47342500
169.69999010	0.00000000	-11.85408000	-9.47342500
169.89999009	0.00000000	-11.86024000	-9.47342500
170.09999008	0.00000000	-12.27239000	-9.47342500
170.29999007	0.00000000	-12.55536000	-9.47342500
170.49999005	0.00000000	-12.22933000	-9.47342500
170.69999004	0.00000000	-11.48499000	-9.47342500
170.89999003	0.00000000	-11.10974000	-9.47342500
171.09999002	0.00000000	-11.06668000	-9.47342500
171.29999001	0.00000000	-11.06668000	-9.47342500
171.49998999	0.00000000	-11.06668000	-9.47342500
171.69998998	0.00000000	-11.06668000	-9.47342500
171.89998997	0.00000000	-11.06668000	-9.47342500
172.09998996	0.00000000	-11.06668000	-9.47342500
172.29998995	0.00000000	-11.10974000	-9.47342500
172.49998994	0.00000000	-11.48499000	-9.47342500
172.69998992	0.00000000	-12.22933000	-9.47342500
172.89998991	0.00000000	-12.55536000	-9.47342500
173.09998990	0.00000000	-12.22933000	-9.47342500
173.29998989	0.00000000	-11.48499000	-9.47342500
173.49998988	0.00000000	-11.10974000	-9.47342500
173.69998986	0.00000000	-11.06668000	-9.47342500
173.89998985	0.00000000	-11.06668000	-9.47342500
174.09998984	0.00000000	-11.06668000	-9.47342500
174.29998983	0.00000000	-11.06668000	-9.47342500
174.49998982	0.00000000	-11.06668000	-9.47342500
174.69998980	0.00000000	-11.06668000	-9.47342500
174.89998979	0.00000000	-11.10974000	-9.47342500
175.09998978	0.00000000	-11.44193000	-9.47342500
175.29998977	0.00000000	-11.85408000	-9.47342500
175.49998976	0.00000000	-11.86024000	-9.47342500
175.69998975	0.00000000	-12.22933000	-9.47342500
175.89998973	0.00000000	-12.18012000	-9.47342500
176.09998972	0.00000000	-11.48499000	-9.47342500
176.29998971	0.00000000	-11.10974000	-9.47342500
176.49998970	0.00000000	-11.06668000	-9.47342500
176.69998969	0.00000000	-11.06668000	-9.47342500
176.89998967	0.00000000	-11.06668000	-9.47342500
177.09998966	0.00000000	-11.06668000	-9.47342500
177.29998965	0.00000000	-11.06668000	-9.47342500
177.49998964	0.00000000	-11.06668000	-9.47342500
177.69998963	0.00000000	-11.10974000	-9.47342500
177.89998961	0.00000000	-11.48499000	-9.47342500
178.09998960	0.00000000	-12.22933000	-9.47342500
178.29998959	0.00000000	-12.60458000	-9.47342500
178.49998958	0.00000000	-12.60458000	-9.47342500
178.69998957	0.00000000	-12.22933000	-9.47342500
178.89998956	0.00000000	-11.48499000	-9.47342500
179.09998954	0.00000000	-11.10974000	-9.47342500
179.29998953	0.00000000	-11.06668000	-9.47342500
179.49998952	0.00000000	-11.06668000	-9.47342500
179.69998951	0.00000000	-11.06668000	-9.47342500
179.89998950	0.00000000	-11.06668000	-9.47342500
180.09998948	0.00000000	-11.06668000	-9.51648500
180.29998947	0.00000000	-11.06668000	-9.84867000
180.49998946	0.00000000	-11.06668000	-10.21161000
180.69998945	0.00000000	-11.10974000	-9.84867000
180.89998944	0.00000000	-11.44193000	-9.51648500
181.09998942	0.00000000	-11.85408000	-9.47342500
181.29998941	0.00000000	-11.81717000	-9.47342500
181.49998940	0.00000000	-11.85408000	-9.51648500
181.69998939	0.00000000	-11.44193000	-9.84867000
181.89998938	0.00000000	-11.10974000	-10.16855000
182.09998937	0.00000000	-11.06668000	-9.47342500
182.29998935	0.00000000	-11.06668000	-8.77829600
182.49998934	0.00000000	-11.06668000	-9.09817800
182.69998933	0.00000000	-11.06668000	-9.43036400
182.89998932	0.00000000	-11.06668000	-9.47342500
183.09998931	0.00000000	-11.06668000	-9.47342500
183.29998929	0.00000000	-11.06668000	-9.51648500
183.49998928	0.00000000	-11.06668000	-9.89173200
183.69998927	0.00000000	-11.10974000	-10.58686000
183.89998926	0.00000000	-11.44193000	-10.58686000
184.09998925	0.00000000	-11.85408000	-9.89173200
184.29998923	0.00000000	-11.86024000	-9.51648500
184.49998922	0.00000000	-12.27239000	-9.47342500
184.69998921	0.00000000	-12.55536000	-9.43036400
184.89998920	0.00000000	-12.22933000	-9.05511800
185.09998919	0.00000000	-11.48499000	-8.31077700
185.29998918	0.00000000	-11.10974000	-7.98474400
185.49998916	0.00000000	-11.06668000	-8.31077700
185.69998915	0.00000000	-11.06668000	-9.05511800
185.89998914	0.00000000	-11.06668000	-9.47342500
186.09998913	0.00000000	-11.06668000	-9.89173200
186.29998912	0.00000000	-11.06668000	-10.62992000
186.49998910	0.00000000	-11.06668000	-11.00517000
186.69998909	0.00000000	-11.06668000	-11.00517000
186.89998908	0.00000000	-11.10974000	-10.62992000
187.09998907	0.00000000	-11.48499000	-9.89173200
187.29998906	0.00000000	-12.22933000	-9.51648500
187.49998904	0.00000000	-12.60458000	-9.43036400
187.69998903	0.00000000	-12.64764000	-9.05511800
187.89998902	0.00000000	-12.60458000	-8.31077700
188.09998901	0.00000000	-12.27239000	-7.98474400
188.29998900	0.00000000	-11.86024000	-8.31077700
188.49998899	0.00000000	-11.85408000	-9.05511800
188.69998897	0.00000000	-11.44193000	-9.43036400
188.89998896	0.00000000	-11.10974000	-9.47342500
189.09998895	0.00000000	-11.06668000	-9.51648500
189.29998894	0.00000000	-11.06668000	-9.89173200
189.49998893	0.00000000	-11.06668000	-10.62992000
189.69998891	0.00000000	-11.06668000	-10.95595000
189.89998890	0.00000000	-11.10974000	-10.62992000
190.09998889	0.00000000	-11.48499000	-9.89173200
190.29998888	0.00000000	-12.22933000	-9.51648500
190.49998887	0.00000000	-12.60458000	-9.47342500
190.69998885	0.00000000	-12.64764000	-9.47342500
190.89998884	0.00000000	-12.64764000	-9.47342500
191.09998883	0.00000000	-12.64764000	-9.47342500
191.29998882	0.00000000	-12.60458000	-9.47342500
191.49998881	0.00000000	-12.22933000	-9.47342500
191.69998880	0.00000000	-11.48499000	-9.47342500
191.89998878	0.00000000	-11.10974000	-9.47342500
192.09998877	0.00000000	-11.06668000	-9.47342500
192.29998876	0.00000000	-11.06668000	-9.47342500
192.49998875	0.00000000	-11.10974000	-9.51648500
192.69998874	0.00000000	-11.44193000	-9.84867000
192.89998872	0.00000000	-11.85408000	-10.21161000
193.09998871	0.00000000	-11.86024000	-9.84867000
193.29998870	0.00000000	-12.27239000	-9.51648500
193.49998869	0.00000000	-12.60458000	-9.47342500
193.69998868	0.00000000	-12.64764000	-9.47342500
193.89998866	0.00000000	-12.60458000	-9.47342500
194.09998865	0.00000000	-12.22933000	-9.47342500
194.29998864	0.00000000	-11.48499000	-9.47342500
194.49998863	0.00000000	-11.10974000	-9.47342500
194.69998862	0.00000000	-11.10974000	-9.47342500
194.89998861	0.00000000	-11.44193000	-9.51648500
195.09998859	0.00000000	-11.81102000	-9.84867000
195.29998858	0.00000000	-11.48499000	-10.21161000
195.49998857	0.00000000	-11.48499000	-9.84867000
195.69998856	0.00000000	-11.85408000	-9.56569900
195.89998855	0.00000000	-11.86024000	-9.84867000
196.09998853	0.00000000	-12.27239000	-10.21161000
