Time	Channel A	Channel B	Channel C
(us)	(V)	(mV)	(mV)

-4.59999956	0.00000000	36.74335000	4.73671200
-4.39999957	0.00000000	36.41117000	4.73671200
-4.19999958	0.00000000	36.36811000	4.73671200
-3.99999959	0.00000000	36.36811000	4.73671200
-3.79999960	0.00000000	36.36811000	4.73671200
-3.59999962	0.00000000	36.36811000	4.73671200
-3.39999963	0.00000000	36.36811000	4.73671200
-3.19999964	0.00000000	36.41117000	4.73671200
-2.99999965	0.00000000	36.70029000	4.73671200
-2.79999966	0.00000000	36.73720000	4.73671200
-2.59999968	0.00000000	35.99901000	4.73671200
-2.39999969	0.00000000	36.03592000	4.73671200
-2.19999970	0.00000000	36.32505000	4.73671200
-1.99999971	0.00000000	36.36811000	4.73671200
-1.79999972	0.00000000	36.36811000	4.73671200
-1.59999973	0.00000000	36.36811000	4.73671200
-1.39999975	0.00000000	36.36811000	4.73671200
-1.19999976	0.00000000	36.36811000	4.73671200
-0.99999977	0.00000000	36.36811000	4.73671200
-0.79999978	0.00000000	36.36811000	4.73671200
-0.59999979	0.00000000	36.36811000	4.73671200
-0.39999981	0.15871060	36.36811000	4.73671200
-0.19999982	0.47736220	36.36811000	4.73671200
0.00000017	0.79601380	36.36811000	4.73671200
0.20000016	0.95533960	36.36811000	4.73671200
0.40000015	0.95533960	36.36811000	4.73671200
0.60000013	0.63668800	36.36811000	4.73671200
0.80000012	-0.15871060	36.36811000	4.73671200
1.00000011	-1.11466500	36.36811000	4.73671200
1.20000010	-2.07062000	36.36811000	4.73671200
1.40000009	-2.70792300	36.36811000	4.77977300
1.60000008	-2.70792300	36.36811000	5.11195900
1.80000006	-1.91129400	36.36811000	5.47490100
2.00000005	-0.31803640	36.36811000	5.15501900
2.20000004	1.75196900	36.36811000	5.15501900
2.40000003	3.82258900	36.36811000	5.47490100
2.60000002	5.09719500	36.36811000	5.11195900
2.80000000	5.25652100	36.36811000	4.77977300
2.99999999	3.98191400	36.36811000	4.73671200
3.19999998	1.43331700	36.36811000	4.73671200
3.39999997	-2.07062000	36.36811000	4.73671200
3.59999996	-5.25652100	36.36811000	4.73671200
3.79999994	-7.48646600	36.36811000	4.73671200
3.99999993	-7.96444400	36.36811000	4.77977300
4.19999992	-6.37180100	36.36811000	5.15501900
4.39999991	-2.86724900	36.36811000	5.85014700
4.59999990	1.43331700	36.36811000	5.85014700
4.79999989	5.73449800	36.36811000	5.15501900
4.99999987	8.60174700	36.32505000	4.77977300
5.19999986	9.55770200	35.99286000	4.69365100
5.39999985	7.96444400	35.58071000	4.36146600
5.59999984	4.30056600	35.61762000	3.99237200
5.79999983	-0.31803640	35.58071000	4.36146600
5.99999981	-4.93786900	35.99286000	4.69365100
6.19999980	-8.28309500	36.32505000	4.73671200
6.39999979	-9.55770200	36.36811000	4.77977300
6.59999978	-8.28309500	36.36811000	5.15501900
6.79999977	-5.09719500	36.36811000	5.89320800
6.99999975	-0.95533960	36.36811000	6.21924200
7.19999974	3.34522600	36.36811000	5.89320800
7.39999973	6.37180100	36.36811000	5.15501900
7.59999972	7.64579200	36.36811000	4.77977300
7.79999971	7.00848900	36.36811000	4.73671200
7.99999970	4.77854300	36.36811000	4.73671200
8.19999968	1.59264300	36.36811000	4.73671200
8.39999967	-1.59264300	36.36811000	4.73671200
8.59999966	-3.98191400	36.36811000	4.73671200
8.79999965	-5.09719500	36.36811000	4.73671200
8.99999964	-4.93786900	36.36811000	4.73671200
9.19999962	-3.50393700	36.36811000	4.73671200
9.39999961	-1.59264300	36.36811000	4.73671200
9.59999960	0.31803640	36.36811000	4.73671200
9.79999959	1.75196900	36.36811000	4.73671200
9.99999958	2.54859700	36.36811000	4.73671200
10.19999956	2.38927200	36.36811000	4.73671200
10.39999955	1.75196900	36.32505000	4.73671200
10.59999954	0.95533960	35.99286000	4.73671200
10.79999953	0.15871060	35.62377000	4.73671200
10.99999952	-0.63668800	35.99286000	4.73671200
11.19999951	-0.95533960	36.32505000	4.73671200
11.39999949	-0.95533960	36.32505000	4.73671200
11.59999948	-0.79601380	35.99286000	4.77977300
11.79999947	-0.47736220	35.62377000	5.11195900
11.99999946	-0.31803640	35.99286000	5.51796200
12.19999945	-0.15871060	36.32505000	5.48105300
12.39999943	-0.15871060	36.36811000	5.51796200
12.59999942	0.00000000	36.36811000	5.15501900
12.79999941	0.00000000	36.36811000	5.15501900
12.99999940	0.00000000	36.36811000	5.47490100
13.19999939	0.15871060	36.36811000	5.11195900
13.39999937	0.00000000	36.36811000	4.77977300
13.59999936	0.00000000	36.36811000	4.73671200
13.79999935	0.00000000	36.36811000	4.73671200
13.99999934	-0.15871060	36.32505000	4.73671200
14.19999933	-0.15871060	35.99286000	4.73671200
14.39999932	0.00000000	35.62377000	4.73671200
14.59999930	0.00000000	35.99286000	4.73671200
14.79999929	0.00000000	36.32505000	4.73671200
14.99999928	0.00000000	36.36811000	4.73671200
15.19999927	0.00000000	36.36811000	4.73671200
15.39999926	0.00000000	36.32505000	4.73671200
15.59999924	0.00000000	35.94980000	4.73671200
15.79999923	0.00000000	35.20546000	4.73671200
15.99999922	0.00000000	34.83022000	4.73671200
16.19999921	0.00000000	34.83022000	4.73671200
16.39999920	0.00000000	35.20546000	4.73671200
16.59999919	-0.15871060	35.99286000	4.73671200
16.79999917	0.00000000	36.70029000	4.73671200
16.99999916	0.00000000	37.15551000	4.73671200
17.19999915	0.00000000	37.16166000	4.73671200
17.39999914	0.00000000	37.57381000	4.73671200
17.59999913	0.00000000	37.85679000	4.73671200
17.79999911	0.00000000	37.53075000	4.73671200
17.99999910	0.00000000	36.70029000	4.73671200
18.19999909	0.00000000	35.52534000	4.73671200
18.39999908	0.00000000	33.57529000	4.73671200
18.59999907	0.00000000	31.71137000	4.73671200
18.79999905	0.00000000	30.50566000	4.73671200
18.99999904	0.00000000	30.17347000	4.73671200
19.19999903	0.00000000	30.96703000	4.73671200
19.39999902	0.00000000	33.33538000	4.73671200
19.59999901	0.00000000	36.78642000	4.73671200
19.79999900	0.00000000	40.73573000	4.73671200
19.99999898	0.00000000	44.51279000	4.73671200
20.19999897	0.00000000	47.20103000	4.73671200
20.39999896	0.00000000	47.12106000	4.73671200
20.59999895	0.00000000	44.41437000	4.73671200
20.79999894	0.00000000	38.92716000	4.73671200
20.99999892	0.00000000	31.57603000	4.73671200
21.19999891	0.00000000	23.84965000	4.73671200
21.39999890	0.00000000	17.34129000	4.73671200
21.59999889	0.00000000	14.30856000	4.73671200
21.79999888	0.00000000	15.88952000	4.73671200
21.99999886	0.00000000	22.17027000	4.73671200
22.19999885	0.00000000	32.64025000	4.73671200
22.39999884	0.00000000	45.38631000	4.73671200
22.59999883	0.00000000	57.30192000	4.73671200
22.79999882	0.00000000	65.39738000	4.73671200
22.99999881	0.00000000	67.21825000	4.77977300
23.19999879	0.00000000	61.76796000	5.15501900
23.39999878	0.00000000	49.30487000	5.89320800
23.59999877	0.00000000	32.32037000	6.26845500
23.79999876	0.00000000	14.17938000	6.35457700
23.99999875	0.00000000	-0.38754920	6.68676100
24.19999873	0.00000000	-7.32037400	7.00664300
24.39999872	0.00000000	-4.57677100	6.22539300
24.59999871	0.00000000	7.46801100	4.73671200
24.79999870	0.00000000	26.82701000	3.15575800
24.99999869	0.00000000	49.57554000	1.57480300
25.19999867	0.00000000	70.00491000	0.09227362
25.39999866	0.00000000	83.12623000	-0.65206690
25.59999865	0.00000000	85.77755000	0.17839570
25.79999864	0.00000000	76.89468000	2.46063000
25.99999863	0.00000000	58.28617000	5.93626900
26.19999862	0.00000000	33.99360000	9.47342500
26.39999860	0.00000000	9.29502900	12.96137000
26.59999859	0.00000000	-9.18430000	15.97564000
26.79999858	0.00000000	-17.36589000	16.63386000
26.99999857	0.00000000	-13.50886000	14.35162000
27.19999856	0.00000000	1.14419300	9.24581600
27.39999854	0.00000000	23.19759000	2.31914400
27.59999853	0.00000000	47.90846000	-5.43184000
27.79999852	0.00000000	69.49433000	-11.89715000
27.99999851	0.00000000	82.66486000	-15.37278000
28.19999850	0.00000000	84.66412000	-14.54232000
28.39999848	0.00000000	75.86736000	-9.47957600
28.59999847	0.00000000	58.83981000	-0.51673230
28.79999846	0.00000000	37.61687000	11.00517000
28.99999845	0.00000000	16.73228000	22.20103000
29.19999844	0.00000000	1.23646700	30.29035000
29.39999843	0.00000000	-6.20078700	33.72293000
29.59999841	0.00000000	-4.66904500	30.94242000
29.79999840	0.00000000	5.33341500	22.06570000
29.99999839	0.00000000	21.15526000	8.87672100
30.19999838	0.00000000	38.92716000	-6.17618100
30.39999837	0.00000000	54.84129000	-20.06643000
30.59999835	0.00000000	65.68652000	-29.26919000
30.79999834	0.00000000	69.63582000	-31.54527000
30.99999833	0.00000000	66.19094000	-25.74434000
31.19999832	0.00000000	56.97588000	-13.01058000
31.39999831	0.00000000	44.18061000	3.57406500
31.59999829	0.00000000	30.64099000	20.62008000
31.79999828	0.00000000	19.00837000	34.51648000
31.99999827	0.00000000	11.61417000	42.64886000
32.19999826	0.00000000	9.65797200	42.97490000
32.39999825	0.00000000	13.10285000	35.26082000
32.59999824	0.00000000	21.19833000	20.95226000
32.79999822	0.00000000	31.57603000	3.24803100
32.99999821	0.00000000	41.71383000	-13.79798000
33.19999820	0.00000000	49.81545000	-26.58095000
33.39999819	0.00000000	54.45989000	-33.16929000
33.59999818	0.00000000	54.14001000	-31.96973000
33.79999816	0.00000000	49.95078000	-23.09301000
33.99999815	0.00000000	43.34399000	-8.45841400
34.19999814	0.00000000	35.24852000	8.54453700
34.39999813	0.00000000	27.94045000	24.02190000
34.59999812	0.00000000	23.24065000	35.21776000
34.79999810	0.00000000	21.70891000	39.44390000
34.99999809	0.00000000	23.61589000	35.67913000
35.19999808	0.00000000	28.59252000	25.63976000
35.39999807	0.00000000	34.73794000	11.74951000
35.59999806	0.00000000	40.51427000	-3.29724400
35.79999805	0.00000000	44.37131000	-15.61885000
35.99999803	0.00000000	45.16486000	-22.63164000
36.19999802	0.00000000	43.30093000	-23.00074000
36.39999801	0.00000000	39.39468000	-16.86762000
36.59999800	0.00000000	34.41191000	-5.75787400
36.79999799	0.00000000	29.47835000	6.96358300
36.99999797	0.00000000	26.77780000	18.12254000
37.19999796	0.00000000	27.05462000	25.41215000
37.39999795	0.00000000	28.96776000	26.20571000
37.59999794	0.00000000	32.12967000	20.90305000
37.79999793	0.00000000	36.36811000	11.70029000
37.99999791	0.00000000	40.60039000	0.97194880
38.19999790	0.00000000	43.62696000	-7.81250000
38.39999789	0.00000000	44.45743000	-12.08169000
38.59999788	0.00000000	42.93184000	-10.96826000
38.79999787	0.00000000	40.22515000	-5.20423200
38.99999786	0.00000000	36.27584000	3.62327700
39.19999784	0.00000000	31.71137000	13.14591000
39.39999783	0.00000000	27.84818000	20.02337000
39.59999782	0.00000000	25.89198000	21.97957000
39.79999781	0.00000000	25.84892000	18.90994000
39.99999780	0.00000000	27.42987000	11.61417000
40.19999778	0.00000000	30.54872000	2.04232300
40.39999777	0.00000000	34.78716000	-6.78518600
40.59999776	0.00000000	39.06250000	-12.54921000
40.79999775	0.00000000	42.55659000	-13.66265000
40.99999774	0.00000000	44.88189000	-9.47957600
41.19999772	0.00000000	45.25713000	-1.43946800
41.39999771	0.00000000	43.71924000	7.80634800
41.59999770	0.00000000	40.64345000	16.30167000
41.79999769	0.00000000	36.74335000	22.02264000
41.99999768	0.00000000	32.87401000	23.18528000
42.19999767	0.00000000	29.34301000	19.37131000
42.39999765	0.00000000	27.05462000	12.11860000
42.59999764	0.00000000	26.26722000	3.66633800
42.79999763	0.00000000	27.42987000	-3.67249000
42.99999762	0.00000000	30.08120000	-8.31692900
43.19999761	0.00000000	33.15699000	-9.52263600
43.39999759	0.00000000	35.90059000	-7.24655500
43.59999758	0.00000000	37.85679000	-2.64517700
43.79999757	0.00000000	39.06250000	3.15575800
43.99999756	0.00000000	39.43774000	8.91978400
44.19999755	0.00000000	39.11171000	13.14591000
44.39999753	0.00000000	38.36737000	14.72687000
44.59999752	0.00000000	37.99213000	13.60728000
44.79999751	0.00000000	37.90600000	10.58686000
44.99999750	0.00000000	37.53075000	6.72982200
45.19999749	0.00000000	36.74335000	3.24803100
45.39999748	0.00000000	35.90059000	0.51058070
45.59999746	0.00000000	34.31963000	-1.02116100
45.79999745	0.00000000	31.99434000	-1.06422200
45.99999744	0.00000000	29.66289000	0.09227362
46.19999743	0.00000000	27.34375000	1.99311000
46.39999742	0.00000000	25.89198000	4.31840500
46.59999740	0.00000000	26.31643000	6.26845500
46.79999739	0.00000000	29.05389000	7.84940900
46.99999738	0.00000000	33.71063000	8.91978400
47.19999737	0.00000000	39.53002000	8.54453700
47.39999736	0.00000000	45.30019000	6.68676100
47.59999734	0.00000000	49.48942000	4.77977300
47.79999733	0.00000000	50.60285000	3.15575800
47.99999732	0.00000000	47.85925000	1.62401600
48.19999731	0.00000000	41.67076000	0.46136810
48.39999730	0.00000000	33.20005000	0.13533460
48.59999729	0.00000000	24.73548000	0.92888770
48.79999727	0.00000000	18.54700000	3.24803100
48.99999726	0.00000000	15.84646000	6.26845500
49.19999725	0.00000000	17.47047000	9.00590400
49.39999724	0.00000000	23.61589000	10.91289000
49.59999723	0.00000000	32.87401000	11.65723000
49.79999721	0.00000000	42.46432000	10.49459000
49.99999720	0.00000000	50.22760000	7.84940900
50.19999719	0.00000000	54.04773000	4.73671200
50.39999718	0.00000000	53.30339000	1.58095500
50.59999717	0.00000000	47.90846000	-1.48868100
50.79999715	0.00000000	39.43774000	-3.71555100
50.99999714	0.00000000	30.21653000	-3.71555100
51.19999713	0.00000000	22.50246000	-1.44562000
51.39999712	0.00000000	18.63312000	2.04232300
51.59999711	0.00000000	19.00837000	6.26845500
51.79999710	0.00000000	23.66511000	10.11934000
51.99999708	0.00000000	31.66830000	12.45079000
52.19999707	0.00000000	40.08981000	13.23819000
52.39999706	0.00000000	46.32751000	12.03248000
52.59999705	0.00000000	49.39714000	9.00590400
52.79999704	0.00000000	48.60359000	5.15501900
52.99999702	0.00000000	43.67618000	1.66707700
53.19999701	0.00000000	36.78642000	-1.07037400
53.39999700	0.00000000	30.17347000	-2.55905500
53.59999699	0.00000000	24.77854000	-2.18380900
53.79999698	0.00000000	22.17027000	0.09227362
53.99999696	0.00000000	23.66511000	3.11269700
54.19999695	0.00000000	28.59252000	5.85014700
54.39999694	0.00000000	34.73794000	7.75713500
54.59999693	0.00000000	40.55733000	8.54453700
54.79999692	0.00000000	44.74655000	7.80019600
54.99999691	0.00000000	45.90305000	6.31151500
55.19999689	0.00000000	43.62696000	4.73671200
55.39999688	0.00000000	39.01944000	3.24803100
55.59999687	0.00000000	33.29232000	2.50369100
55.79999686	0.00000000	28.27264000	3.24803100
55.99999685	0.00000000	25.56594000	4.73671200
56.19999683	0.00000000	25.15379000	6.26845500
56.39999682	0.00000000	27.47293000	7.38188900
56.59999681	0.00000000	31.66830000	7.38188900
56.79999680	0.00000000	36.27584000	6.17618100
56.99999679	0.00000000	40.18209000	3.85088600
57.19999677	0.00000000	42.46432000	0.46751960
57.39999676	0.00000000	42.87647000	-2.14074800
57.59999675	0.00000000	40.97564000	-2.55905500
57.79999674	0.00000000	37.94907000	-1.07037400
57.99999673	0.00000000	34.78716000	1.71013800
58.19999672	0.00000000	31.71137000	5.61638700
58.39999670	0.00000000	29.42913000	10.53765000
58.59999669	0.00000000	29.01082000	14.34547000
58.79999668	0.00000000	30.13041000	15.51427000
58.99999667	0.00000000	32.03740000	14.34547000
59.19999666	0.00000000	34.36884000	10.45152000
59.39999664	0.00000000	36.27584000	4.69365100
59.59999663	0.00000000	37.53075000	-1.43946800
59.79999662	0.00000000	38.23203000	-6.45300100
59.99999661	0.00000000	38.22588000	-8.74138700
60.19999660	0.00000000	36.74335000	-7.94783400
60.39999658	0.00000000	35.25467000	-3.72170300
60.59999657	0.00000000	34.41191000	2.82972400
60.79999656	0.00000000	33.61835000	9.75639700
60.99999655	0.00000000	33.33538000	15.93258000
61.19999654	0.00000000	34.04282000	19.32825000
61.39999653	0.00000000	35.52534000	19.00221000
61.59999651	0.00000000	36.27584000	15.14518000
61.79999650	0.00000000	36.32505000	8.91978400
61.99999649	0.00000000	35.94980000	1.24877000
62.19999648	0.00000000	35.16240000	-6.03469500
62.39999647	0.00000000	34.41191000	-10.27313000
62.59999645	0.00000000	33.57529000	-11.10359000
62.79999644	0.00000000	32.86786000	-8.36614100
62.99999643	0.00000000	32.50492000	-2.60211600
63.19999642	0.00000000	33.29232000	4.73671200
63.39999641	0.00000000	34.78716000	12.03248000
63.59999639	0.00000000	36.32505000	17.42126000
63.79999638	0.00000000	37.48154000	19.37131000
63.99999637	0.00000000	37.85679000	17.88263000
64.19999636	0.00000000	37.48154000	13.61343000
64.39999635	0.00000000	36.32505000	7.47416300
64.59999634	0.00000000	34.78716000	0.92888770
64.79999632	0.00000000	33.24926000	-4.14000900
64.99999631	0.00000000	32.08661000	-7.25270600
65.19999630	0.00000000	31.71137000	-8.03395600
65.39999629	0.00000000	32.08661000	-6.13312000
65.59999628	0.00000000	33.24926000	-2.64517700
65.79999626	0.00000000	34.78716000	1.99311000
65.99999625	0.00000000	36.27584000	7.00664300
66.19999624	0.00000000	37.02018000	10.86983000
66.39999623	0.00000000	36.27584000	13.28125000
66.59999622	0.00000000	34.83022000	14.03174000
66.79999620	0.00000000	33.61835000	13.28125000
66.99999619	0.00000000	32.82480000	11.00517000
67.19999618	0.00000000	32.08661000	8.26771600
67.39999617	0.00000000	32.17273000	5.51796200
67.59999616	0.00000000	33.66756000	2.36835600
67.79999615	0.00000000	35.94980000	-0.33218500
67.99999613	0.00000000	37.90600000	-2.69439000
68.19999612	0.00000000	39.43774000	-4.18307100
68.39999611	0.00000000	40.13902000	-4.22613100
68.59999610	0.00000000	38.97638000	-3.02042300
68.79999609	0.00000000	36.27584000	-0.64591530
68.99999607	0.00000000	32.82480000	3.24803100
69.19999606	0.00000000	29.34301000	7.84940900
69.39999605	0.00000000	27.01156000	12.07554000
69.59999604	0.00000000	25.84892000	14.81299000
69.79999603	0.00000000	26.31643000	15.56348000
69.99999601	0.00000000	29.05389000	14.39468000
70.19999600	0.00000000	33.66756000	10.91289000
70.39999599	0.00000000	39.06250000	6.31151500
70.59999598	0.00000000	43.62696000	1.62401600
70.79999597	0.00000000	45.99532000	-2.64517700
70.99999596	0.00000000	45.62623000	-5.67175200
71.19999594	0.00000000	43.25172000	-6.45300100
71.39999593	0.00000000	38.60113000	-4.55831700
71.59999592	0.00000000	32.46186000	-1.11343500
71.79999591	0.00000000	27.05462000	3.20497000
71.99999590	0.00000000	23.15453000	7.80019600
72.19999588	0.00000000	21.65969000	11.61417000
72.39999587	0.00000000	23.15453000	13.18898000
72.59999586	0.00000000	27.01156000	12.49385000
72.79999585	0.00000000	32.03740000	10.58686000
72.99999584	0.00000000	37.53075000	7.84940900
73.19999582	0.00000000	42.46432000	4.77977300
73.39999581	0.00000000	45.57701000	2.08538400
73.59999580	0.00000000	45.58317000	0.55364170
73.79999579	0.00000000	43.34399000	0.51058070
73.99999578	0.00000000	39.43774000	1.62401600
74.19999577	0.00000000	34.83022000	3.11269700
74.39999575	0.00000000	30.54872000	4.31840500
74.59999574	0.00000000	27.47293000	5.01968500
74.79999573	0.00000000	26.26722000	5.01353300
74.99999572	0.00000000	27.05462000	3.53100400
75.19999571	0.00000000	29.34301000	2.08538400
75.39999569	0.00000000	32.78174000	1.66707700
75.59999568	0.00000000	35.85752000	2.08538400
75.79999567	0.00000000	37.85679000	3.66633800
75.99999566	0.00000000	39.01944000	6.31151500
76.19999565	0.00000000	39.01944000	9.00590400
76.39999563	0.00000000	37.90600000	10.91289000
76.59999562	0.00000000	36.36811000	11.60802000
76.79999561	0.00000000	34.83022000	10.03322000
76.99999560	0.00000000	33.71063000	6.26845500
77.19999559	0.00000000	33.66756000	1.99311000
77.39999558	0.00000000	34.36884000	-1.90698800
77.59999556	0.00000000	34.74409000	-5.33956700
77.79999555	0.00000000	34.74409000	-6.78518600
77.99999554	0.00000000	34.31963000	-5.29650500
78.19999553	0.00000000	33.20005000	-1.43946800
78.39999552	0.00000000	32.08661000	3.57406500
78.59999550	0.00000000	31.66215000	8.96284400
78.79999549	0.00000000	31.71137000	13.18898000
78.99999548	0.00000000	32.50492000	15.18824000
79.19999547	0.00000000	34.41191000	15.18824000
79.39999546	0.00000000	36.32505000	13.18898000
79.59999544	0.00000000	37.90600000	8.96284400
79.79999543	0.00000000	39.06250000	3.62327700
79.99999542	0.00000000	39.39468000	-1.02116100
80.19999541	0.00000000	38.60113000	-4.18307100
80.39999540	0.00000000	36.27584000	-5.71481200
80.59999539	0.00000000	33.24926000	-5.33956700
80.79999537	0.00000000	30.54872000	-3.02042300
80.99999536	0.00000000	28.96776000	0.41830710
81.19999535	0.00000000	28.59252000	4.31840500
81.39999534	0.00000000	29.38607000	7.80019600
81.59999533	0.00000000	31.71137000	10.53765000
81.79999531	0.00000000	34.73794000	12.07554000
81.99999530	0.00000000	37.43848000	12.11860000
82.19999529	0.00000000	39.01944000	10.96211000
82.39999528	0.00000000	39.39468000	9.00590400
82.59999527	0.00000000	38.64419000	6.26845500
82.79999525	0.00000000	36.74335000	3.19881900
82.99999524	0.00000000	34.83022000	0.46751960
83.19999523	0.00000000	33.24926000	-1.48868100
83.39999522	0.00000000	32.08661000	-2.68823800
83.59999521	0.00000000	31.66215000	-3.02042300
83.79999520	0.00000000	31.66215000	-2.22687000
83.99999518	0.00000000	32.03740000	0.09227362
84.19999517	0.00000000	32.82480000	3.19881900
84.39999516	0.00000000	33.57529000	6.68676100
84.59999515	0.00000000	34.36884000	10.16855000
84.79999514	0.00000000	34.74409000	12.45079000
84.99999512	0.00000000	34.78716000	13.23819000
85.19999511	0.00000000	34.78716000	12.03248000
85.39999510	0.00000000	34.83022000	8.96284400
85.59999509	0.00000000	35.20546000	4.73671200
85.79999508	0.00000000	35.94980000	0.46751960
85.99999506	0.00000000	36.27584000	-3.02042300
86.19999505	0.00000000	35.90059000	-5.29650500
86.39999504	0.00000000	34.78716000	-5.29650500
86.59999503	0.00000000	33.61835000	-2.97736200
86.79999502	0.00000000	32.78174000	0.87967510
86.99999501	0.00000000	31.66215000	5.89320800
87.19999499	0.00000000	30.92396000	10.49459000
87.39999498	0.00000000	31.28691000	13.60728000
87.59999497	0.00000000	32.03740000	14.72687000
87.79999496	0.00000000	33.24926000	13.18898000
87.99999495	0.00000000	34.78716000	9.33809000
88.19999493	0.00000000	36.32505000	4.36146600
88.39999492	0.00000000	37.43848000	-0.64591530
88.59999491	0.00000000	37.43848000	-4.09079700
88.79999490	0.00000000	36.32505000	-5.29650500
88.99999489	0.00000000	34.78716000	-4.09079700
89.19999487	0.00000000	33.24926000	-0.64591530
89.39999486	0.00000000	32.08661000	4.36146600
89.59999485	0.00000000	31.66215000	9.33809000
89.79999484	0.00000000	31.66215000	13.18898000
89.99999483	0.00000000	32.03740000	14.67766000
90.19999482	0.00000000	32.82480000	13.18898000
90.39999480	0.00000000	33.57529000	9.38115100
90.59999479	0.00000000	34.41191000	4.73671200
90.79999478	0.00000000	35.11934000	0.09227362
90.99999477	0.00000000	35.53149000	-3.71555100
91.19999476	0.00000000	35.16240000	-5.20423200
91.39999474	0.00000000	34.83022000	-3.76476400
91.59999473	0.00000000	34.78716000	-0.28297240
91.79999472	0.00000000	34.78716000	3.99237200
91.99999471	0.00000000	34.78716000	9.00590400
92.19999470	0.00000000	34.78716000	13.14591000
92.39999468	0.00000000	34.78716000	14.67766000
92.59999467	0.00000000	34.74409000	13.18898000
92.79999466	0.00000000	34.31963000	9.33809000
92.99999465	0.00000000	33.15699000	4.36146600
93.19999464	0.00000000	31.71137000	-0.60285430
93.39999463	0.00000000	30.87475000	-3.67249000
93.59999461	0.00000000	30.86860000	-4.14000900
93.79999460	0.00000000	30.92396000	-2.55905500
93.99999459	0.00000000	32.12967000	0.87967510
94.19999458	0.00000000	34.36884000	5.47490100
94.39999457	0.00000000	36.32505000	9.29502900
94.59999455	0.00000000	37.90600000	11.65723000
94.79999454	0.00000000	39.06250000	11.98327000
94.99999453	0.00000000	39.39468000	10.07628000
95.19999452	0.00000000	38.60113000	6.26845500
95.39999451	0.00000000	36.23277000	2.08538400
95.59999449	0.00000000	32.82480000	-1.02116100
95.79999448	0.00000000	29.34301000	-2.55905500
95.99999447	0.00000000	27.05462000	-2.18380900
96.19999446	0.00000000	26.26722000	0.09227362
96.39999445	0.00000000	27.42987000	3.11269700
96.59999444	0.00000000	30.13041000	5.85014700
96.79999442	0.00000000	33.61835000	7.80019600
96.99999441	0.00000000	37.48154000	8.96284400
97.19999440	0.00000000	40.55733000	8.91978400
97.39999439	0.00000000	42.13828000	7.43110200
97.59999438	0.00000000	42.18134000	5.15501900
97.79999436	0.00000000	40.97564000	3.19881900
97.99999435	0.00000000	38.60113000	1.62401600
98.19999434	0.00000000	34.73794000	0.51058070
98.39999433	0.00000000	30.54872000	0.51058070
98.59999432	0.00000000	27.42987000	1.62401600
98.79999430	0.00000000	25.84892000	3.11269700
98.99999429	0.00000000	25.84892000	4.26919300
99.19999428	0.00000000	27.42987000	4.69365100
99.39999427	0.00000000	30.54872000	4.77977300
99.59999426	0.00000000	34.73794000	5.15501900
99.79999425	0.00000000	38.60113000	5.89320800
99.99999423	0.00000000	40.93258000	6.26845500
100.19999422	0.00000000	41.76304000	6.35457700
100.39999421	0.00000000	40.97564000	6.68676100
100.59999420	0.00000000	39.06250000	7.00664300
100.79999419	0.00000000	36.31890000	6.22539300
100.99999417	0.00000000	33.24926000	4.73671200
101.19999416	0.00000000	30.50566000	3.15575800
101.39999415	0.00000000	28.59252000	1.57480300
101.59999414	0.00000000	27.76206000	0.09227362
101.79999413	0.00000000	28.17421000	-0.65206690
101.99999411	0.00000000	29.34301000	0.13533460
102.19999410	0.00000000	31.66830000	2.04232300
102.39999409	0.00000000	34.31963000	4.73671200
102.59999408	0.00000000	36.32505000	7.43110200
102.79999407	0.00000000	37.90600000	9.38115100
102.99999406	0.00000000	39.01944000	10.53765000
103.19999404	0.00000000	38.97638000	10.49459000
103.39999403	0.00000000	37.43848000	8.96284400
103.59999402	0.00000000	34.83022000	6.26845500
103.79999401	0.00000000	32.50492000	3.15575800
103.99999400	0.00000000	31.24384000	0.09227362
104.19999398	0.00000000	30.08120000	-2.18380900
104.39999397	0.00000000	29.38607000	-2.55905500
104.59999396	0.00000000	30.13041000	-1.07037400
104.79999395	0.00000000	31.61909000	1.62401600
104.99999394	0.00000000	33.20005000	4.68750000
105.19999392	0.00000000	34.73794000	7.38188900
105.39999391	0.00000000	35.90059000	8.96284400
105.59999390	0.00000000	36.32505000	9.33809000
105.79999389	0.00000000	36.32505000	8.54453700
105.99999388	0.00000000	35.90059000	6.26845500
106.19999387	0.00000000	34.73794000	3.61712600
106.39999385	0.00000000	33.24926000	1.66707700
106.59999384	0.00000000	32.08661000	0.51058070
106.79999383	0.00000000	31.71137000	0.51058070
106.99999382	0.00000000	32.08661000	1.62401600
107.19999381	0.00000000	33.20005000	3.15575800
107.39999379	0.00000000	34.36884000	4.73671200
107.59999378	0.00000000	35.16240000	6.26845500
107.79999377	0.00000000	35.90059000	7.33882900
107.99999376	0.00000000	35.90059000	7.01279500
108.19999375	0.00000000	35.16240000	5.48720400
108.39999374	0.00000000	34.36884000	3.94315900
108.59999372	0.00000000	33.20005000	1.99311000
108.79999371	0.00000000	32.08661000	0.51058070
108.99999370	0.00000000	31.66215000	0.13533460
109.19999369	0.00000000	31.66215000	0.87967510
109.39999368	0.00000000	32.03740000	2.78051200
109.59999366	0.00000000	32.86786000	4.68750000
109.79999365	0.00000000	33.99360000	6.26845500
109.99999364	0.00000000	35.52534000	7.42495000
110.19999363	0.00000000	36.23277000	7.80019600
110.39999362	0.00000000	35.94980000	7.42495000
110.59999360	0.00000000	35.16240000	6.26845500
110.79999359	0.00000000	34.36884000	4.73671200
110.99999358	0.00000000	33.20005000	3.15575800
111.19999357	0.00000000	32.08661000	1.62401600
111.39999356	0.00000000	31.66215000	0.51058070
111.59999355	0.00000000	31.66215000	0.51058070
111.79999353	0.00000000	32.03740000	1.62401600
111.99999352	0.00000000	32.82480000	3.11269700
112.19999351	0.00000000	33.57529000	4.31840500
112.39999350	0.00000000	34.36884000	5.11195900
112.59999349	0.00000000	34.74409000	5.89320800
112.79999347	0.00000000	34.78716000	6.21924200
112.99999346	0.00000000	34.78716000	5.89320800
113.19999345	0.00000000	34.74409000	5.15501900
113.39999344	0.00000000	34.36884000	4.77977300
113.59999343	0.00000000	33.61835000	4.69365100
113.79999341	0.00000000	33.24311000	4.31840500
113.99999340	0.00000000	33.20005000	3.57406500
114.19999339	0.00000000	33.20005000	3.19881900
114.39999338	0.00000000	33.20005000	3.15575800
114.59999337	0.00000000	33.20005000	3.15575800
114.79999336	0.00000000	33.20005000	3.15575800
114.99999334	0.00000000	33.20005000	3.11269700
115.19999333	0.00000000	33.20005000	2.78051200
115.39999332	0.00000000	33.20005000	2.41141700
115.59999331	0.00000000	33.20005000	2.82357300
115.79999330	0.00000000	33.20005000	3.53100400
115.99999328	0.00000000	33.20005000	4.31840500
116.19999327	0.00000000	33.20005000	4.73671200
116.39999326	0.00000000	33.20005000	5.15501900
116.59999325	0.00000000	33.20005000	5.89320800
116.79999324	0.00000000	33.20005000	6.21924200
116.99999322	0.00000000	33.20005000	5.85014700
117.19999321	0.00000000	33.20005000	4.73671200
117.39999320	0.00000000	33.24311000	3.57406500
117.59999319	0.00000000	33.61835000	2.78051200
117.79999318	0.00000000	34.36884000	1.99311000
117.99999317	0.00000000	34.74409000	1.61786400
118.19999315	0.00000000	34.78716000	1.61786400
118.39999314	0.00000000	34.74409000	2.04232300
118.59999313	0.00000000	34.31963000	3.15575800
118.79999312	0.00000000	33.20005000	4.31840500
118.99999311	0.00000000	32.03740000	5.11195900
119.19999309	0.00000000	31.28691000	5.89320800
119.39999308	0.00000000	30.87475000	6.26845500
119.59999307	0.00000000	31.24384000	6.26845500
119.79999306	0.00000000	31.66215000	5.89320800
119.99999305	0.00000000	32.46186000	5.11195900
120.19999303	0.00000000	33.99360000	4.36146600
120.39999302	0.00000000	35.11934000	3.57406500
120.59999301	0.00000000	35.94980000	3.19881900
120.79999300	0.00000000	36.32505000	3.15575800
120.99999299	0.00000000	36.32505000	3.15575800
121.19999298	0.00000000	35.90059000	3.15575800
121.39999296	0.00000000	34.73794000	3.15575800
121.59999295	0.00000000	33.20005000	3.15575800
121.79999294	0.00000000	31.66215000	3.19881900
121.99999293	0.00000000	30.50566000	3.57406500
122.19999292	0.00000000	30.13041000	4.31840500
122.39999290	0.00000000	30.45644000	4.69365100
122.59999289	0.00000000	31.24384000	4.73671200
122.79999288	0.00000000	32.03740000	4.73671200
122.99999287	0.00000000	33.24926000	4.73671200
123.19999286	0.00000000	34.73794000	4.73671200
123.39999284	0.00000000	35.90059000	4.69365100
123.59999283	0.00000000	36.27584000	4.31840500
123.79999282	0.00000000	35.94980000	3.57406500
123.99999281	0.00000000	35.16240000	3.19881900
124.19999280	0.00000000	34.41191000	3.15575800
124.39999279	0.00000000	33.57529000	3.15575800
124.59999277	0.00000000	32.82480000	3.15575800
124.79999276	0.00000000	31.99434000	3.19881900
124.99999275	0.00000000	31.24384000	3.53100400
125.19999274	0.00000000	30.50566000	3.94315900
125.39999273	0.00000000	30.50566000	3.99237200
125.59999271	0.00000000	31.24384000	4.73671200
125.79999270	0.00000000	32.03740000	5.43184000
125.99999269	0.00000000	33.24926000	5.11195900
126.19999268	0.00000000	34.73794000	4.77977300
126.39999267	0.00000000	35.90059000	4.73671200
126.59999265	0.00000000	36.32505000	4.69365100
126.79999264	0.00000000	36.27584000	4.31840500
126.99999263	0.00000000	35.52534000	3.57406500
127.19999262	0.00000000	33.99360000	3.19881900
127.39999261	0.00000000	32.82480000	3.15575800
127.59999260	0.00000000	31.61909000	3.15575800
127.79999258	0.00000000	30.54872000	3.15575800
127.99999257	0.00000000	30.50566000	3.19881900
128.19999256	0.00000000	31.24384000	3.57406500
128.39999255	0.00000000	32.03740000	4.31840500
128.59999254	0.00000000	33.20005000	4.69365100
128.79999252	0.00000000	34.36884000	4.73671200
128.99999251	0.00000000	35.11934000	4.69365100
129.19999250	0.00000000	35.53149000	4.31840500
129.39999249	0.00000000	35.11934000	3.57406500
129.59999248	0.00000000	34.36884000	3.19881900
129.79999246	0.00000000	33.20005000	3.15575800
129.99999245	0.00000000	32.08661000	3.15575800
130.19999244	0.00000000	31.66215000	3.15575800
130.39999243	0.00000000	31.61909000	3.19881900
130.59999242	0.00000000	31.66215000	3.57406500
130.79999241	0.00000000	32.08661000	4.31840500
130.99999239	0.00000000	33.20005000	4.69365100
131.19999238	0.00000000	34.31963000	4.73671200
131.39999237	0.00000000	34.74409000	4.69365100
131.59999236	0.00000000	34.78716000	4.31840500
131.79999235	0.00000000	34.74409000	3.57406500
131.99999233	0.00000000	34.36884000	3.15575800
132.19999232	0.00000000	33.61835000	2.78051200
132.39999231	0.00000000	33.24311000	2.41141700
132.59999230	0.00000000	33.15699000	2.82357300
132.79999229	0.00000000	32.82480000	3.53100400
132.99999227	0.00000000	32.45571000	4.31840500
133.19999226	0.00000000	32.82480000	4.73671200
133.39999225	0.00000000	33.15699000	5.15501900
133.59999224	0.00000000	33.20005000	5.85014700
133.79999223	0.00000000	33.15699000	5.85014700
133.99999222	0.00000000	32.82480000	5.15501900
134.19999220	0.00000000	32.45571000	4.73671200
134.39999219	0.00000000	32.82480000	4.26919300
134.59999218	0.00000000	33.15699000	3.15575800
134.79999217	0.00000000	33.20005000	2.04232300
134.99999216	0.00000000	33.20005000	1.61786400
135.19999214	0.00000000	33.20005000	1.61786400
135.39999213	0.00000000	33.20005000	1.99311000
135.59999212	0.00000000	33.20005000	2.78051200
135.79999211	0.00000000	33.20005000	3.57406500
135.99999210	0.00000000	33.15699000	4.68750000
136.19999208	0.00000000	32.78174000	5.47490100
136.39999207	0.00000000	32.03740000	5.48105300
136.59999206	0.00000000	31.66215000	5.51796200
136.79999205	0.00000000	31.66215000	5.06274600
136.99999204	0.00000000	32.03740000	4.36146600
137.19999203	0.00000000	32.82480000	3.57406500
137.39999201	0.00000000	33.57529000	3.19881900
137.59999200	0.00000000	34.36884000	3.15575800
137.79999199	0.00000000	34.74409000	3.11269700
137.99999198	0.00000000	34.74409000	2.78051200
138.19999197	0.00000000	34.36884000	2.41141700
138.39999195	0.00000000	33.57529000	2.78051200
138.59999194	0.00000000	32.82480000	3.15575800
138.79999193	0.00000000	32.03740000	3.57406500
138.99999192	0.00000000	31.66215000	4.31840500
139.19999191	0.00000000	31.61909000	4.69365100
139.39999189	0.00000000	31.66215000	4.73671200
139.59999188	0.00000000	32.03740000	4.73671200
139.79999187	0.00000000	32.78174000	4.73671200
139.99999186	0.00000000	33.15699000	4.69365100
140.19999185	0.00000000	33.20005000	4.31840500
140.39999184	0.00000000	33.20005000	3.57406500
140.59999182	0.00000000	33.20005000	3.19881900
140.79999181	0.00000000	33.20005000	3.11269700
140.99999180	0.00000000	33.15699000	2.73745100
141.19999179	0.00000000	32.78174000	2.04232300
141.39999178	0.00000000	32.03740000	2.08538400
141.59999176	0.00000000	31.71137000	3.15575800
141.79999175	0.00000000	32.03740000	4.31840500
141.99999174	0.00000000	32.78174000	5.11195900
142.19999173	0.00000000	33.15699000	5.89320800
142.39999172	0.00000000	33.20005000	6.21924200
142.59999170	0.00000000	33.20005000	5.89320800
142.79999169	0.00000000	33.20005000	5.11195900
142.99999168	0.00000000	33.20005000	4.36146600
143.19999167	0.00000000	33.20005000	3.53100400
143.39999166	0.00000000	33.15699000	2.78051200
143.59999165	0.00000000	32.78174000	1.99311000
143.79999163	0.00000000	32.08661000	1.66707700
143.99999162	0.00000000	32.08661000	1.99311000
144.19999161	0.00000000	32.78174000	2.78051200
144.39999160	0.00000000	33.15699000	3.53100400
144.59999159	0.00000000	33.20005000	4.31840500
144.79999157	0.00000000	33.20005000	4.69365100
144.99999156	0.00000000	33.20005000	4.73671200
145.19999155	0.00000000	33.20005000	4.73671200
145.39999154	0.00000000	33.20005000	4.69365100
145.59999153	0.00000000	33.15699000	4.31840500
145.79999151	0.00000000	32.78174000	3.57406500
145.99999150	0.00000000	32.03740000	3.19881900
146.19999149	0.00000000	31.71137000	3.15575800
146.39999148	0.00000000	32.03740000	3.15575800
146.59999147	0.00000000	32.78174000	3.15575800
146.79999146	0.00000000	33.15699000	3.15575800
146.99999144	0.00000000	33.20005000	3.19881900
147.19999143	0.00000000	33.20005000	3.57406500
147.39999142	0.00000000	33.20005000	4.31840500
147.59999141	0.00000000	33.20005000	4.69365100
147.79999140	0.00000000	33.15699000	4.73671200
147.99999138	0.00000000	32.78174000	4.73671200
148.19999137	0.00000000	32.03740000	4.69365100
148.39999136	0.00000000	31.66215000	4.31840500
148.59999135	0.00000000	31.66215000	3.57406500
148.79999134	0.00000000	31.99434000	3.19881900
148.99999132	0.00000000	32.40649000	3.15575800
149.19999131	0.00000000	32.41265000	3.15575800
149.39999130	0.00000000	32.82480000	3.15575800
149.59999129	0.00000000	33.15699000	3.15575800
149.79999128	0.00000000	33.20005000	3.15575800
149.99999127	0.00000000	33.20005000	3.19881900
150.19999125	0.00000000	33.20005000	3.57406500
150.39999124	0.00000000	33.20005000	4.31840500
150.59999123	0.00000000	33.20005000	4.69365100
150.79999122	0.00000000	33.15699000	4.73671200
150.99999121	0.00000000	32.78174000	4.73671200
151.19999119	0.00000000	32.03740000	4.69365100
151.39999118	0.00000000	31.66215000	4.31840500
151.59999117	0.00000000	31.66215000	3.57406500
151.79999116	0.00000000	32.03740000	3.19881900
151.99999115	0.00000000	32.78174000	3.15575800
152.19999113	0.00000000	33.15699000	3.15575800
152.39999112	0.00000000	33.20005000	3.15575800
152.59999111	0.00000000	33.20005000	3.15575800
152.79999110	0.00000000	33.20005000	3.15575800
152.99999109	0.00000000	33.20005000	3.19881900
153.19999108	0.00000000	33.20005000	3.57406500
153.39999106	0.00000000	33.15699000	4.31840500
153.59999105	0.00000000	32.78174000	4.69365100
153.79999104	0.00000000	32.03740000	4.73671200
153.99999103	0.00000000	31.66215000	4.73671200
154.19999102	0.00000000	31.61909000	4.69365100
154.39999100	0.00000000	31.66215000	4.36146600
154.59999099	0.00000000	31.99434000	3.94931100
154.79999098	0.00000000	32.40649000	3.94315900
154.99999097	0.00000000	32.41265000	3.53100400
155.19999096	0.00000000	32.82480000	3.19881900
155.39999094	0.00000000	33.15699000	3.15575800
155.59999093	0.00000000	33.20005000	3.15575800
155.79999092	0.00000000	33.20005000	3.15575800
155.99999091	0.00000000	33.20005000	3.19881900
156.19999090	0.00000000	33.20005000	3.57406500
156.39999089	0.00000000	33.15699000	4.31840500
156.59999087	0.00000000	32.78174000	4.73671200
156.79999086	0.00000000	32.03740000	5.15501900
156.99999085	0.00000000	31.71137000	5.85014700
157.19999084	0.00000000	31.99434000	5.85014700
157.39999083	0.00000000	32.40649000	5.15501900
157.59999081	0.00000000	32.41265000	4.73671200
157.79999080	0.00000000	32.78174000	4.31840500
157.99999079	0.00000000	32.78174000	3.57406500
158.19999078	0.00000000	32.45571000	3.19881900
158.39999077	0.00000000	32.82480000	3.15575800
158.59999075	0.00000000	33.15699000	3.15575800
158.79999074	0.00000000	33.20005000	3.15575800
158.99999073	0.00000000	33.20005000	3.15575800
159.19999072	0.00000000	33.15699000	3.19881900
159.39999071	0.00000000	32.78174000	3.57406500
159.59999070	0.00000000	32.03740000	4.31840500
159.79999068	0.00000000	31.66215000	4.69365100
159.99999067	0.00000000	31.61909000	4.73671200
160.19999066	0.00000000	31.61909000	4.73671200
160.39999065	0.00000000	31.61909000	4.69365100
160.59999064	0.00000000	31.61909000	4.31840500
160.79999062	0.00000000	31.61909000	3.57406500
160.99999061	0.00000000	31.66215000	3.19881900
161.19999060	0.00000000	31.99434000	3.15575800
161.39999059	0.00000000	32.40649000	3.15575800
161.59999058	0.00000000	32.41265000	3.15575800
161.79999056	0.00000000	32.82480000	3.15575800
161.99999055	0.00000000	33.15699000	3.15575800
162.19999054	0.00000000	33.20005000	3.19881900
162.39999053	0.00000000	33.20005000	3.57406500
162.59999052	0.00000000	33.15699000	4.31840500
162.79999051	0.00000000	32.78174000	4.69365100
162.99999049	0.00000000	32.03740000	4.69365100
163.19999048	0.00000000	31.66215000	4.31840500
163.39999047	0.00000000	31.61909000	3.57406500
163.59999046	0.00000000	31.61909000	3.19881900
163.79999045	0.00000000	31.61909000	3.15575800
163.99999043	0.00000000	31.66215000	3.15575800
164.19999042	0.00000000	31.99434000	3.15575800
164.39999041	0.00000000	32.40649000	3.15575800
164.59999040	0.00000000	32.41265000	3.15575800
164.79999039	0.00000000	32.82480000	3.15575800
164.99999037	0.00000000	33.15699000	3.15575800
165.19999036	0.00000000	33.20005000	3.15575800
165.39999035	0.00000000	33.20005000	3.15575800
165.59999034	0.00000000	33.15699000	3.15575800
165.79999033	0.00000000	32.78174000	3.15575800
165.99999032	0.00000000	32.03740000	3.19881900
166.19999030	0.00000000	31.66215000	3.53100400
166.39999029	0.00000000	31.61909000	3.90009800
166.59999028	0.00000000	31.61909000	3.53100400
166.79999027	0.00000000	31.61909000	3.19881900
166.99999026	0.00000000	31.61909000	3.15575800
167.19999024	0.00000000	31.66215000	3.15575800
167.39999023	0.00000000	32.03740000	3.15575800
167.59999022	0.00000000	32.78174000	3.15575800
167.79999021	0.00000000	33.15699000	3.15575800
167.99999020	0.00000000	33.20005000	3.15575800
168.19999018	0.00000000	33.20005000	3.19881900
168.39999017	0.00000000	33.15699000	3.53100400
168.59999016	0.00000000	32.78174000	3.90009800
168.79999015	0.00000000	32.03740000	3.53100400
168.99999014	0.00000000	31.66215000	3.19881900
169.19999013	0.00000000	31.61909000	3.15575800
169.39999011	0.00000000	31.61909000	3.15575800
169.59999010	0.00000000	31.61909000	3.15575800
169.79999009	0.00000000	31.61909000	3.15575800
169.99999008	0.00000000	31.61909000	3.15575800
170.19999007	0.00000000	31.61909000	3.15575800
170.39999005	0.00000000	31.61909000	3.15575800
170.59999004	0.00000000	31.66215000	3.15575800
170.79999003	0.00000000	32.03740000	3.15575800
170.99999002	0.00000000	32.78174000	3.15575800
171.19999001	0.00000000	33.15699000	3.15575800
171.39998999	0.00000000	33.20005000	3.15575800
171.59998998	0.00000000	33.15699000	3.15575800
171.79998997	0.00000000	32.82480000	3.15575800
171.99998996	0.00000000	32.41265000	3.15575800
172.19998995	0.00000000	32.40649000	3.15575800
172.39998994	0.00000000	31.99434000	3.15575800
172.59998992	0.00000000	31.66215000	3.15575800
172.79998991	0.00000000	31.61909000	3.15575800
172.99998990	0.00000000	31.61909000	3.15575800
173.19998989	0.00000000	31.61909000	3.15575800
173.39998988	0.00000000	31.61909000	3.15575800
173.59998986	0.00000000	31.61909000	3.15575800
173.79998985	0.00000000	31.61909000	3.15575800
173.99998984	0.00000000	31.66215000	3.15575800
174.19998983	0.00000000	31.99434000	3.15575800
174.39998982	0.00000000	32.36343000	3.15575800
174.59998980	0.00000000	31.99434000	3.15575800
174.79998979	0.00000000	31.66215000	3.15575800
174.99998978	0.00000000	31.61909000	3.15575800
175.19998977	0.00000000	31.61909000	3.15575800
175.39998976	0.00000000	31.61909000	3.15575800
175.59998975	0.00000000	31.61909000	3.15575800
175.79998973	0.00000000	31.61909000	3.19881900
175.99998972	0.00000000	31.61909000	3.53100400
176.19998971	0.00000000	31.61909000	3.90009800
176.39998970	0.00000000	31.61909000	3.53100400
176.59998969	0.00000000	31.61909000	3.19881900
176.79998967	0.00000000	31.61909000	3.15575800
176.99998966	0.00000000	31.61909000	3.15575800
177.19998965	0.00000000	31.61909000	3.15575800
177.39998964	0.00000000	31.61909000	3.15575800
177.59998963	0.00000000	31.61909000	3.15575800
177.79998961	0.00000000	31.61909000	3.15575800
177.99998960	0.00000000	31.61909000	3.15575800
178.19998959	0.00000000	31.61909000	3.15575800
178.39998958	0.00000000	31.61909000	3.15575800
178.59998957	0.00000000	31.66215000	3.15575800
178.79998956	0.00000000	31.99434000	3.15575800
178.99998954	0.00000000	32.40649000	3.15575800
179.19998953	0.00000000	32.36959000	3.15575800
179.39998952	0.00000000	32.40649000	3.15575800
179.59998951	0.00000000	32.03740000	3.15575800
179.79998950	0.00000000	32.03740000	3.15575800
179.99998948	0.00000000	32.40649000	3.15575800
180.19998947	0.00000000	32.36959000	3.15575800
180.39998946	0.00000000	32.40649000	3.15575800
180.59998945	0.00000000	31.99434000	3.15575800
180.79998944	0.00000000	31.66215000	3.15575800
180.99998942	0.00000000	31.61909000	3.15575800
181.19998941	0.00000000	31.61909000	3.19881900
181.39998940	0.00000000	31.61909000	3.53100400
181.59998939	0.00000000	31.61909000	3.90009800
181.79998938	0.00000000	31.66215000	3.57406500
181.99998937	0.00000000	31.99434000	3.57406500
182.19998935	0.00000000	32.36343000	3.90009800
182.39998934	0.00000000	32.03740000	3.53100400
182.59998933	0.00000000	32.03740000	3.19881900
182.79998932	0.00000000	32.36343000	3.15575800
182.99998931	0.00000000	31.99434000	3.15575800
183.19998929	0.00000000	31.66215000	3.15575800
183.39998928	0.00000000	31.61909000	3.15575800
183.59998927	0.00000000	31.61909000	3.15575800
183.79998926	0.00000000	31.61909000	3.15575800
183.99998925	0.00000000	31.61909000	3.15575800
184.19998923	0.00000000	31.61909000	3.19881900
184.39998922	0.00000000	31.61909000	3.57406500
184.59998921	0.00000000	31.61909000	4.31840500
184.79998920	0.00000000	31.61909000	4.69365100
184.99998919	0.00000000	31.61909000	4.73671200
185.19998918	0.00000000	31.61909000	4.69365100
185.39998916	0.00000000	31.61909000	4.31840500
185.59998915	0.00000000	31.66215000	3.57406500
185.79998914	0.00000000	32.03740000	3.19881900
185.99998913	0.00000000	32.78174000	3.15575800
186.19998912	0.00000000	33.10777000	3.15575800
186.39998910	0.00000000	32.78174000	3.15575800
186.59998909	0.00000000	32.03740000	3.15575800
186.79998908	0.00000000	31.66215000	3.15575800
186.99998907	0.00000000	31.61909000	3.15575800
187.19998906	0.00000000	31.61909000	3.19881900
187.39998904	0.00000000	31.61909000	3.57406500
187.59998903	0.00000000	31.61909000	4.31840500
187.79998902	0.00000000	31.61909000	4.64443900
187.99998901	0.00000000	31.61909000	4.31840500
188.19998900	0.00000000	31.61909000	3.57406500
188.39998899	0.00000000	31.61909000	3.19881900
188.59998897	0.00000000	31.61909000	3.15575800
188.79998896	0.00000000	31.61909000	3.11269700
188.99998895	0.00000000	31.61909000	2.73745100
189.19998894	0.00000000	31.66215000	2.04232300
189.39998893	0.00000000	31.99434000	2.04232300
189.59998891	0.00000000	32.36343000	2.73745100
189.79998890	0.00000000	31.99434000	3.11269700
189.99998889	0.00000000	31.66215000	3.15575800
190.19998888	0.00000000	31.61909000	3.19881900
190.39998887	0.00000000	31.61909000	3.53100400
190.59998885	0.00000000	31.61909000	3.90009800
190.79998884	0.00000000	31.61909000	3.53100400
190.99998883	0.00000000	31.61909000	3.19881900
191.19998882	0.00000000	31.61909000	3.15575800
191.39998881	0.00000000	31.61909000	3.15575800
191.59998880	0.00000000	31.61909000	3.15575800
191.79998878	0.00000000	31.61909000	3.15575800
191.99998877	0.00000000	31.61909000	3.15575800
192.19998876	0.00000000	31.61909000	3.15575800
192.39998875	0.00000000	31.61909000	3.15575800
192.59998874	0.00000000	31.61909000	3.15575800
192.79998872	0.00000000	31.61909000	3.15575800
192.99998871	0.00000000	31.61909000	3.15575800
193.19998870	0.00000000	31.61909000	3.15575800
193.39998869	0.00000000	31.61909000	3.15575800
193.59998868	0.00000000	31.61909000	3.15575800
193.79998866	0.00000000	31.61909000	3.15575800
193.99998865	0.00000000	31.61909000	3.15575800
194.19998864	0.00000000	31.61909000	3.15575800
194.39998863	0.00000000	31.61909000	3.15575800
194.59998862	0.00000000	31.61909000	3.15575800
194.79998861	0.00000000	31.61909000	3.15575800
194.99998859	0.00000000	31.61909000	3.15575800
195.19998858	0.00000000	31.61909000	3.15575800
195.39998857	0.00000000	31.61909000	3.15575800
195.59998856	0.00000000	31.61909000	3.15575800
195.79998855	0.00000000	31.61909000	3.15575800
195.99998853	0.00000000	31.61909000	3.15575800
