Time	Channel A	Channel B	Channel C
(us)	(V)	(mV)	(mV)

-4.49999956	0.00000000	-52.17765000	-27.30684000
-4.29999957	0.00000000	-52.22071000	-27.95275000
-4.09999958	0.00000000	-52.55290000	-27.95275000
-3.89999959	0.00000000	-52.96506000	-27.30684000
-3.69999960	0.00000000	-52.97121000	-27.30684000
-3.49999962	0.00000000	-53.38336000	-27.95275000
-3.29999963	0.00000000	-53.66634000	-28.00197000
-3.09999964	0.00000000	-53.34030000	-27.63287000
-2.89999965	0.00000000	-52.59596000	-27.66978000
-2.69999966	0.00000000	-52.26993000	-27.63287000
-2.49999968	0.00000000	-52.59596000	-28.00197000
-2.29999969	0.00000000	-53.34030000	-27.95275000
-2.09999970	0.00000000	-53.71555000	-27.25763000
-1.89999971	0.00000000	-53.75861000	-26.88238000
-1.69999972	0.00000000	-53.71555000	-26.83932000
-1.49999973	0.00000000	-53.38336000	-26.83932000
-1.29999975	0.00000000	-52.97121000	-26.83932000
-1.09999976	0.00000000	-53.00812000	-26.83932000
-0.89999977	0.00000000	-52.92815000	-26.83932000
-0.69999978	0.00000000	-52.96506000	-26.83932000
-0.49999979	0.00000000	-52.55290000	-26.83932000
-0.29999981	0.31803640	-52.22071000	-26.83932000
-0.09999982	0.63668800	-52.17765000	-26.83932000
0.10000017	0.95533960	-52.17765000	-26.83932000
0.30000016	0.95533960	-52.17765000	-26.83932000
0.50000015	0.79601380	-52.17765000	-26.83932000
0.70000013	0.31803640	-52.17765000	-26.83932000
0.90000012	-0.63668800	-52.17765000	-26.83932000
1.10000011	-1.59264300	-52.22071000	-26.83932000
1.30000010	-2.38927200	-52.55290000	-26.83932000
1.50000009	-2.86724900	-52.92200000	-26.79626000
1.70000008	-2.38927200	-52.55290000	-26.46407000
1.90000006	-1.27399100	-52.22071000	-26.05807000
2.10000005	0.63668800	-52.17765000	-26.09498000
2.30000004	2.86724900	-52.17765000	-26.05807000
2.50000003	4.61921700	-52.17765000	-26.46407000
2.70000002	5.41584600	-52.17765000	-26.79626000
2.90000000	4.77854300	-52.22071000	-26.83932000
3.09999999	2.70792300	-52.59596000	-26.83932000
3.29999998	-0.31803640	-53.29109000	-26.83932000
3.49999997	-3.82258900	-53.29109000	-26.83932000
3.69999996	-6.53112700	-52.59596000	-26.79626000
3.89999994	-7.96444400	-52.22071000	-26.42101000
4.09999993	-7.32714100	-52.17765000	-25.68282000
4.29999992	-4.77854300	-52.17765000	-25.35679000
4.49999991	-0.79601380	-52.17765000	-25.63976000
4.69999990	3.66326300	-52.17765000	-26.04577000
4.89999989	7.32714100	-52.22071000	-26.05807000
5.09999987	9.39837600	-52.55290000	-26.46407000
5.29999986	8.92039900	-52.92200000	-26.83932000
5.49999985	6.37180100	-52.59596000	-27.21457000
5.69999984	2.07062000	-52.64517000	-27.58366000
5.89999983	-2.70792300	-53.29109000	-27.21457000
6.09999981	-6.84916400	-53.29109000	-26.88238000
6.29999980	-9.07972400	-52.59596000	-26.83932000
6.49999979	-9.23905000	-52.22071000	-26.83932000
6.69999978	-7.00848900	-52.17765000	-26.79626000
6.89999977	-3.18590100	-52.17765000	-26.46407000
7.09999975	1.27399100	-52.22071000	-26.10113000
7.29999974	5.09719500	-52.59596000	-26.51329000
7.49999973	7.32714100	-53.34030000	-27.17150000
7.69999972	7.64579200	-53.71555000	-27.62672000
7.89999971	6.05315000	-53.75861000	-27.63287000
8.09999970	3.18590100	-53.75861000	-28.00197000
8.29999968	-0.15871060	-53.75861000	-28.00197000
8.49999967	-3.02657500	-53.75861000	-27.67593000
8.69999966	-4.77854300	-53.75861000	-28.00197000
8.89999965	-5.25652100	-53.75861000	-27.95275000
9.09999964	-4.30056600	-53.75861000	-27.25763000
9.29999962	-2.54859700	-53.75861000	-26.88238000
9.49999961	-0.47736220	-53.75861000	-26.88238000
9.69999960	1.11466500	-53.71555000	-27.25763000
9.89999959	2.22994600	-53.38336000	-28.00197000
10.09999958	2.54859700	-53.01427000	-28.37721000
10.29999956	2.07062000	-53.38336000	-28.42027000
10.49999955	1.43331700	-53.71555000	-28.42027000
10.69999954	0.47736220	-53.75861000	-28.42027000
10.89999953	-0.31803640	-53.71555000	-28.37721000
11.09999952	-0.79601380	-53.38336000	-28.04503000
11.29999951	-0.95533960	-53.01427000	-27.67593000
11.49999949	-0.95533960	-53.38336000	-28.00197000
11.69999948	-0.79601380	-53.71555000	-28.00197000
11.89999947	-0.47736220	-53.75861000	-27.67593000
12.09999946	-0.15871060	-53.75861000	-28.00197000
12.29999945	-0.15871060	-53.75861000	-28.00197000
12.49999943	-0.15871060	-53.75861000	-27.67593000
12.69999942	0.00000000	-53.75861000	-28.00197000
12.89999941	0.00000000	-53.75861000	-27.95275000
13.09999940	0.00000000	-53.75861000	-27.30684000
13.29999939	0.00000000	-53.75861000	-27.30684000
13.49999937	0.00000000	-53.75861000	-27.95275000
13.69999936	0.00000000	-53.75861000	-27.95275000
13.89999935	-0.15871060	-53.75861000	-27.25763000
14.09999934	-0.15871060	-53.75861000	-26.88238000
14.29999933	-0.15871060	-53.75861000	-26.83932000
14.49999932	-0.15871060	-53.75861000	-26.83932000
14.69999930	0.00000000	-53.75861000	-26.83932000
14.89999929	0.00000000	-53.75861000	-26.83932000
15.09999928	0.00000000	-53.75861000	-26.83932000
15.29999927	0.00000000	-53.75861000	-26.83932000
15.49999926	0.00000000	-53.80167000	-26.83932000
15.69999924	0.00000000	-54.13385000	-26.83932000
15.89999923	0.00000000	-54.50295000	-26.83932000
16.09999922	0.00000000	-54.13385000	-26.83932000
16.29999921	0.00000000	-53.80167000	-26.83932000
16.49999920	-0.15871060	-53.71555000	-26.83932000
16.69999919	-0.15871060	-53.34030000	-26.83932000
16.89999917	-0.15871060	-52.59596000	-26.83932000
17.09999916	0.00000000	-52.17765000	-26.83932000
17.29999915	0.00000000	-51.75935000	-26.83932000
17.49999914	0.00000000	-51.06422000	-26.83932000
17.69999913	0.00000000	-51.06422000	-26.83932000
17.89999911	0.00000000	-51.84547000	-26.83932000
18.09999910	0.00000000	-53.01427000	-26.83932000
18.29999909	0.00000000	-54.96432000	-26.83932000
18.49999908	0.00000000	-56.82825000	-26.83932000
18.69999907	0.00000000	-58.03395000	-26.83932000
18.89999905	0.00000000	-58.45841000	-26.83932000
19.09999904	0.00000000	-58.40920000	-26.83932000
19.29999903	0.00000000	-57.52953000	-26.83932000
19.49999902	0.00000000	-54.82898000	-26.83932000
19.69999901	0.00000000	-50.97194000	-26.83932000
19.89999900	0.00000000	-47.05954000	-26.83932000
20.09999898	0.00000000	-43.28863000	-26.83932000
20.29999897	0.00000000	-41.43085000	-26.83932000
20.49999896	0.00000000	-42.96260000	-26.83932000
20.69999895	0.00000000	-46.82579000	-26.83932000
20.89999894	0.00000000	-52.73130000	-26.83932000
21.09999892	0.00000000	-60.08243000	-26.83932000
21.29999891	0.00000000	-67.39050000	-26.83932000
21.49999890	0.00000000	-72.74237000	-26.83932000
21.69999889	0.00000000	-74.23720000	-26.88238000
21.89999888	0.00000000	-71.06914000	-27.25763000
22.09999886	0.00000000	-63.25048000	-28.00197000
22.29999885	0.00000000	-51.66707000	-28.37721000
22.49999884	0.00000000	-38.92101000	-28.42027000
22.69999883	0.00000000	-28.16806000	-28.37721000
22.89999882	0.00000000	-22.02879000	-28.00197000
23.09999881	0.00000000	-22.90846000	-27.25763000
23.29999879	0.00000000	-31.09621000	-26.83932000
23.49999878	0.00000000	-45.79847000	-26.42101000
23.69999877	0.00000000	-63.93946000	-25.68282000
23.89999876	0.00000000	-80.88705000	-25.35679000
24.09999875	0.00000000	-92.83956000	-25.68282000
24.29999873	0.00000000	-96.24138000	-26.46407000
24.49999872	0.00000000	-90.05289000	-27.25763000
24.69999871	0.00000000	-75.25836000	-28.46333000
24.89999870	0.00000000	-54.36761000	-30.00123000
25.09999869	0.00000000	-31.65600000	-31.53297000
25.29999867	0.00000000	-13.18898000	-32.68946000
25.49999866	0.00000000	-3.88164400	-33.02165000
25.69999865	0.00000000	-5.46259800	-32.18504000
25.89999864	0.00000000	-17.93184000	-29.49065000
26.09999863	0.00000000	-39.56693000	-25.63976000
26.29999862	0.00000000	-65.34202000	-21.77658000
26.49999860	0.00000000	-88.51500000	-18.29478000
26.69999859	0.00000000	-103.64170000	-16.43085000
26.89999858	0.00000000	-107.87400000	-16.84916000
27.09999857	0.00000000	-100.10460000	-20.01107000
27.29999856	0.00000000	-81.58218000	-25.81816000
27.49999854	0.00000000	-56.92052000	-33.15699000
27.69999853	0.00000000	-32.16658000	-40.50196000
27.89999852	0.00000000	-12.81373000	-46.25984000
28.09999851	0.00000000	-2.76820900	-48.86811000
28.29999850	0.00000000	-4.29995100	-46.86885000
28.49999848	0.00000000	-17.00295000	-39.89911000
28.69999847	0.00000000	-37.43233000	-29.44759000
28.89999846	0.00000000	-60.59916000	-17.45817000
29.09999845	0.00000000	-81.12081000	-6.31151500
29.29999844	0.00000000	-94.70349000	0.98425190
29.49999843	0.00000000	-99.02805000	2.47908400
29.69999841	0.00000000	-93.63312000	-2.63287400
29.89999840	0.00000000	-80.13657000	-14.24705000
30.09999839	0.00000000	-61.62032000	-30.00123000
30.29999838	0.00000000	-42.68578000	-45.84153000
30.49999837	0.00000000	-27.55905000	-58.20620000
30.69999835	0.00000000	-18.95915000	-64.75147000
30.89999834	0.00000000	-18.16560000	-63.50270000
31.09999833	0.00000000	-24.68011000	-54.25689000
31.29999832	0.00000000	-37.05708000	-38.78568000
31.49999831	0.00000000	-52.13459000	-20.66314000
31.69999829	0.00000000	-66.83685000	-3.61712600
31.89999828	0.00000000	-78.04503000	8.69832600
32.09999827	0.00000000	-83.12007000	13.71186000
32.29999826	0.00000000	-81.63139000	9.86097400
32.49999825	0.00000000	-74.32332000	-1.70398600
32.69999824	0.00000000	-63.15822000	-18.33784000
32.89999822	0.00000000	-51.15034000	-36.87869000
33.09999821	0.00000000	-40.72957000	-53.13730000
33.29999820	0.00000000	-34.12278000	-63.97022000
33.49999819	0.00000000	-32.91092000	-67.40280000
33.69999818	0.00000000	-36.31274000	-62.01402000
33.89999816	0.00000000	-43.28863000	-49.32948000
34.09999815	0.00000000	-52.13459000	-32.69562000
34.29999814	0.00000000	-60.64837000	-15.31742000
34.49999813	0.00000000	-66.79379000	-1.01501000
34.69999812	0.00000000	-69.16215000	7.12352300
34.89999810	0.00000000	-67.25517000	7.90477300
35.09999809	0.00000000	-62.27239000	0.98425190
35.29999808	0.00000000	-55.33957000	-11.69414000
35.49999807	0.00000000	-48.49901000	-26.79626000
35.69999806	0.00000000	-44.22367000	-41.43085000
35.89999805	0.00000000	-43.38090000	-52.20841000
36.09999803	0.00000000	-45.29404000	-56.11466000
36.29999802	0.00000000	-49.56939000	-53.09424000
36.49999801	0.00000000	-55.29650000	-44.26673000
36.69999800	0.00000000	-60.64222000	-31.95128000
36.89999799	0.00000000	-63.71801000	-19.63582000
37.09999797	0.00000000	-63.80413000	-10.02092000
37.29999796	0.00000000	-61.48499000	-5.78863100
37.49999795	0.00000000	-57.61565000	-8.02165300
37.69999794	0.00000000	-52.59596000	-15.27436000
37.89999793	0.00000000	-48.03149000	-25.26452000
38.09999791	0.00000000	-45.29404000	-35.20546000
38.29999790	0.00000000	-44.86958000	-42.13213000
38.49999789	0.00000000	-46.40748000	-44.03912000
38.69999788	0.00000000	-49.52633000	-40.64345000
38.89999787	0.00000000	-53.75861000	-32.97859000
39.09999786	0.00000000	-57.99089000	-23.81890000
39.29999784	0.00000000	-61.10974000	-15.77879000
39.49999783	0.00000000	-62.69069000	-11.59572000
39.69999782	0.00000000	-62.69069000	-12.70915000
39.89999781	0.00000000	-61.15280000	-18.47318000
40.09999780	0.00000000	-58.45841000	-27.30684000
40.29999778	0.00000000	-55.33957000	-36.87869000
40.49999777	0.00000000	-52.22071000	-44.17446000
40.69999776	0.00000000	-49.48326000	-47.24409000
40.89999775	0.00000000	-47.57013000	-45.28789000
41.09999774	0.00000000	-46.78272000	-38.36737000
41.29999772	0.00000000	-47.57013000	-28.42027000
41.49999771	0.00000000	-49.48326000	-18.43012000
41.69999770	0.00000000	-52.22071000	-11.13435000
41.89999769	0.00000000	-55.29650000	-8.39689900
42.09999768	0.00000000	-58.03395000	-10.71604000
42.29999767	0.00000000	-59.99015000	-17.22441000
42.49999765	0.00000000	-61.19586000	-26.46407000
42.69999764	0.00000000	-61.57111000	-35.67298000
42.89999763	0.00000000	-61.19586000	-42.63656000
43.09999762	0.00000000	-59.99015000	-45.70620000
43.29999761	0.00000000	-58.03395000	-44.21752000
43.49999759	0.00000000	-55.38263000	-38.87795000
43.69999758	0.00000000	-53.06348000	-31.62524000
43.89999757	0.00000000	-51.84547000	-24.65551000
44.09999756	0.00000000	-51.01501000	-19.58661000
44.29999755	0.00000000	-50.63976000	-16.84916000
44.49999753	0.00000000	-50.59670000	-16.84916000
44.69999752	0.00000000	-50.63976000	-19.50049000
44.89999751	0.00000000	-51.01501000	-23.72662000
45.09999750	0.00000000	-51.80241000	-28.32800000
45.29999749	0.00000000	-52.64517000	-32.18504000
45.49999748	0.00000000	-54.26919000	-34.18430000
45.69999746	0.00000000	-56.96358000	-34.60261000
45.89999745	0.00000000	-60.08243000	-33.80905000
46.09999744	0.00000000	-63.15207000	-31.48991000
46.29999743	0.00000000	-65.38509000	-28.46333000
46.49999742	0.00000000	-65.38509000	-25.72589000
46.69999740	0.00000000	-63.01673000	-23.77584000
46.89999739	0.00000000	-58.73523000	-22.61319000
47.09999738	0.00000000	-52.50984000	-22.61319000
47.29999737	0.00000000	-45.98917000	-23.72662000
47.49999736	0.00000000	-40.59424000	-25.30758000
47.69999734	0.00000000	-37.94291000	-27.30684000
47.89999733	0.00000000	-39.10556000	-29.95201000
48.09999732	0.00000000	-43.75615000	-32.22810000
48.29999731	0.00000000	-51.15034000	-33.02165000
48.49999730	0.00000000	-59.99631000	-32.64640000
48.69999729	0.00000000	-68.09177000	-31.06545000
48.89999727	0.00000000	-73.11761000	-28.37721000
49.09999726	0.00000000	-74.28026000	-25.30758000
49.29999725	0.00000000	-71.11835000	-22.57013000
49.49999724	0.00000000	-63.76107000	-20.66314000
49.69999723	0.00000000	-53.75861000	-19.91880000
49.89999721	0.00000000	-43.75615000	-21.12451000
50.09999720	0.00000000	-36.44808000	-24.15108000
50.29999719	0.00000000	-33.75369000	-28.04503000
50.49999718	0.00000000	-36.44808000	-31.85900000
50.69999717	0.00000000	-43.75615000	-34.96555000
50.89999715	0.00000000	-53.71555000	-36.09129000
51.09999714	0.00000000	-63.34276000	-35.34079000
51.29999713	0.00000000	-69.95570000	-32.60334000
51.49999712	0.00000000	-72.65625000	-28.37721000
51.69999711	0.00000000	-70.74310000	-23.77584000
51.89999710	0.00000000	-64.55462000	-19.91880000
52.09999708	0.00000000	-56.17002000	-18.01181000
52.29999707	0.00000000	-47.66855000	-18.38706000
52.49999706	0.00000000	-41.93528000	-21.08145000
52.69999705	0.00000000	-39.94217000	-25.26452000
52.89999704	0.00000000	-42.26747000	-29.49065000
53.09999702	0.00000000	-47.98843000	-32.60334000
53.29999701	0.00000000	-55.29650000	-34.18430000
53.49999700	0.00000000	-62.18011000	-34.18430000
53.69999699	0.00000000	-66.41855000	-32.64640000
53.89999698	0.00000000	-66.83685000	-30.00123000
54.09999696	0.00000000	-63.81028000	-27.30684000
54.29999695	0.00000000	-58.40920000	-25.35064000
54.49999694	0.00000000	-52.26993000	-24.23720000
54.69999693	0.00000000	-46.91806000	-24.61245000
54.89999692	0.00000000	-44.22367000	-26.51329000
55.09999691	0.00000000	-44.96186000	-28.74631000
55.29999689	0.00000000	-48.40674000	-30.64714000
55.49999688	0.00000000	-53.80167000	-31.02239000
55.69999687	0.00000000	-59.52879000	-29.90895000
55.89999686	0.00000000	-63.76107000	-28.00197000
56.09999685	0.00000000	-65.34202000	-25.72589000
56.29999683	0.00000000	-64.17938000	-24.19414000
56.49999682	0.00000000	-60.73450000	-23.81890000
56.69999681	0.00000000	-55.71481000	-24.65551000
56.89999680	0.00000000	-50.77510000	-27.39296000
57.09999679	0.00000000	-47.25024000	-31.53297000
57.29999677	0.00000000	-46.12450000	-35.34079000
57.49999676	0.00000000	-47.25024000	-37.24778000
57.69999675	0.00000000	-50.73204000	-36.87869000
57.89999674	0.00000000	-55.29650000	-34.18430000
58.09999673	0.00000000	-59.52879000	-29.90895000
58.29999672	0.00000000	-62.27239000	-24.88927000
58.49999670	0.00000000	-63.06594000	-19.91880000
58.69999669	0.00000000	-62.27239000	-16.89222000
58.89999668	0.00000000	-59.57185000	-16.89222000
59.09999667	0.00000000	-55.80708000	-19.96186000
59.29999666	0.00000000	-52.68823000	-25.39985000
59.49999664	0.00000000	-50.73204000	-31.95128000
59.69999663	0.00000000	-49.98769000	-38.45349000
59.89999662	0.00000000	-51.10728000	-42.63656000
60.09999661	0.00000000	-53.38336000	-43.01181000
60.29999660	0.00000000	-55.71481000	-39.57308000
60.49999658	0.00000000	-58.03395000	-33.02165000
60.69999657	0.00000000	-59.52879000	-25.35064000
60.89999656	0.00000000	-59.57185000	-18.38706000
61.09999655	0.00000000	-58.40920000	-13.77953000
61.29999654	0.00000000	-56.50221000	-12.62303000
61.49999653	0.00000000	-54.22613000	-15.31742000
61.69999651	0.00000000	-52.68823000	-21.08145000
61.89999650	0.00000000	-52.26993000	-28.42027000
62.09999649	0.00000000	-52.68823000	-35.75910000
62.29999648	0.00000000	-54.22613000	-41.52312000
62.49999647	0.00000000	-56.50221000	-44.17446000
62.69999645	0.00000000	-58.40920000	-42.63656000
62.89999644	0.00000000	-59.57185000	-37.29700000
63.09999643	0.00000000	-59.52879000	-30.00123000
63.29999642	0.00000000	-58.03395000	-22.65625000
63.49999641	0.00000000	-55.71481000	-16.80610000
63.69999639	0.00000000	-53.42642000	-13.36122000
63.89999638	0.00000000	-51.48252000	-12.99213000
64.09999637	0.00000000	-50.73204000	-16.43085000
64.29999636	0.00000000	-51.10728000	-22.14567000
64.49999635	0.00000000	-52.64517000	-28.32800000
64.69999634	0.00000000	-54.92125000	-33.80905000
64.89999632	0.00000000	-56.87746000	-37.67224000
65.09999631	0.00000000	-58.40920000	-39.61614000
65.29999630	0.00000000	-59.15354000	-38.82874000
65.49999629	0.00000000	-58.40920000	-35.85138000
65.69999628	0.00000000	-56.92052000	-31.99434000
65.89999626	0.00000000	-55.33957000	-28.46333000
66.09999625	0.00000000	-53.85088000	-25.35064000
66.29999624	0.00000000	-53.06348000	-22.93922000
66.49999623	0.00000000	-53.42642000	-21.35212000
66.69999622	0.00000000	-54.22613000	-19.82652000
66.89999620	0.00000000	-55.75787000	-19.54355000
67.09999619	0.00000000	-57.61565000	-21.03838000
67.29999618	0.00000000	-58.36614000	-23.72662000
67.49999617	0.00000000	-57.99089000	-26.83932000
67.69999616	0.00000000	-56.45300000	-30.00123000
67.89999615	0.00000000	-54.13385000	-33.11393000
68.09999613	0.00000000	-51.84547000	-35.80217000
68.29999612	0.00000000	-49.94463000	-37.38312000
68.49999611	0.00000000	-49.61245000	-37.71530000
68.69999610	0.00000000	-51.15034000	-36.50344000
68.89999609	0.00000000	-54.26919000	-32.97859000
69.09999607	0.00000000	-58.45841000	-28.00197000
69.29999606	0.00000000	-62.31545000	-22.57013000
69.49999605	0.00000000	-64.64690000	-17.96260000
69.69999604	0.00000000	-65.38509000	-15.27436000
69.89999603	0.00000000	-63.76107000	-15.27436000
70.09999601	0.00000000	-59.52879000	-17.96260000
70.29999600	0.00000000	-53.75861000	-22.61319000
70.49999599	0.00000000	-47.98843000	-28.42027000
70.69999598	0.00000000	-43.79921000	-34.22736000
70.89999597	0.00000000	-42.59350000	-38.82874000
71.09999596	0.00000000	-44.50049000	-41.10482000
71.29999594	0.00000000	-48.40674000	-39.99138000
71.49999593	0.00000000	-54.26919000	-36.17741000
71.69999592	0.00000000	-61.15280000	-31.15772000
71.89999591	0.00000000	-66.92913000	-25.77510000
72.09999590	0.00000000	-70.04798000	-21.54281000
72.29999588	0.00000000	-70.04798000	-19.54355000
72.49999587	0.00000000	-66.97219000	-19.54355000
72.69999586	0.00000000	-61.52805000	-21.45669000
72.89999585	0.00000000	-54.96432000	-24.88927000
73.09999584	0.00000000	-48.45595000	-28.32800000
73.29999582	0.00000000	-44.22367000	-31.06545000
73.49999581	0.00000000	-43.33784000	-32.60334000
73.69999580	0.00000000	-44.91880000	-32.64640000
73.89999579	0.00000000	-48.78198000	-31.53297000
74.09999578	0.00000000	-54.54601000	-30.04429000
74.29999577	0.00000000	-59.94709000	-28.88779000
74.49999575	0.00000000	-64.22859000	-28.51255000
74.69999574	0.00000000	-66.55389000	-28.88779000
74.89999573	0.00000000	-66.18479000	-30.04429000
75.09999572	0.00000000	-63.89641000	-31.53297000
75.29999571	0.00000000	-60.03937000	-32.60334000
75.49999569	0.00000000	-55.85014000	-32.18504000
75.69999568	0.00000000	-52.68823000	-29.90895000
75.89999567	0.00000000	-50.73204000	-26.83932000
76.09999566	0.00000000	-49.98769000	-23.72662000
76.29999565	0.00000000	-51.10728000	-21.08145000
76.49999563	0.00000000	-53.38336000	-19.96801000
76.69999562	0.00000000	-55.67175000	-21.12451000
76.89999561	0.00000000	-57.61565000	-24.23720000
77.09999560	0.00000000	-58.40920000	-28.88779000
77.29999559	0.00000000	-58.45841000	-34.22736000
77.49999558	0.00000000	-58.03395000	-38.45964000
77.69999556	0.00000000	-56.96358000	-40.36663000
77.89999555	0.00000000	-56.22539000	-39.61614000
78.09999554	0.00000000	-56.58833000	-36.13435000
78.29999553	0.00000000	-57.29576000	-31.11466000
78.49999552	0.00000000	-58.08316000	-25.30758000
78.69999550	0.00000000	-58.40920000	-19.96186000
78.89999549	0.00000000	-58.03395000	-16.84916000
79.09999548	0.00000000	-56.87746000	-16.38164000
79.29999547	0.00000000	-55.29650000	-17.96260000
79.49999546	0.00000000	-53.38336000	-21.49975000
79.69999544	0.00000000	-51.48252000	-26.83932000
79.89999543	0.00000000	-50.73204000	-32.18504000
80.09999542	0.00000000	-51.10728000	-35.71604000
80.29999541	0.00000000	-52.68823000	-37.34006000
80.49999540	0.00000000	-55.33957000	-37.34006000
80.69999539	0.00000000	-58.03395000	-35.75910000
80.89999537	0.00000000	-59.99015000	-32.68946000
81.09999536	0.00000000	-61.15280000	-28.83858000
81.29999535	0.00000000	-61.10974000	-25.35064000
81.49999534	0.00000000	-59.57185000	-22.61319000
81.69999533	0.00000000	-56.92052000	-21.03838000
81.89999531	0.00000000	-54.22613000	-20.62008000
82.09999530	0.00000000	-52.22071000	-21.03838000
82.29999529	0.00000000	-50.73204000	-22.57013000
82.49999528	0.00000000	-50.36294000	-24.88927000
82.69999527	0.00000000	-51.89468000	-27.21457000
82.89999525	0.00000000	-54.13385000	-29.62598000
83.09999524	0.00000000	-56.50221000	-31.95128000
83.29999523	0.00000000	-58.40920000	-34.27042000
83.49999522	0.00000000	-59.57185000	-35.75910000
83.69999521	0.00000000	-59.57185000	-35.75910000
83.89999520	0.00000000	-58.45841000	-34.22736000
84.09999518	0.00000000	-56.96358000	-31.53297000
84.29999517	0.00000000	-55.80708000	-28.37721000
84.49999516	0.00000000	-55.38263000	-24.88927000
84.69999515	0.00000000	-55.33957000	-21.45669000
84.89999514	0.00000000	-55.33957000	-19.54355000
85.09999512	0.00000000	-55.33957000	-19.54355000
85.29999511	0.00000000	-55.33957000	-21.49975000
85.49999510	0.00000000	-55.33957000	-25.35679000
85.69999509	0.00000000	-55.33957000	-29.95817000
85.89999508	0.00000000	-55.33957000	-34.22736000
86.09999506	0.00000000	-55.33957000	-37.34006000
86.29999505	0.00000000	-55.38263000	-38.82874000
86.49999504	0.00000000	-55.80708000	-38.08440000
86.69999503	0.00000000	-56.96358000	-35.02091000
86.89999502	0.00000000	-58.45841000	-31.15772000
87.09999501	0.00000000	-59.61491000	-26.83932000
87.29999499	0.00000000	-59.99015000	-22.69931000
87.49999498	0.00000000	-59.61491000	-20.38632000
87.69999497	0.00000000	-58.45841000	-20.74926000
87.89999496	0.00000000	-56.92052000	-23.03149000
88.09999495	0.00000000	-55.33957000	-26.88238000
88.29999493	0.00000000	-53.85088000	-31.11466000
88.49999492	0.00000000	-53.06348000	-34.60261000
88.69999491	0.00000000	-53.42642000	-36.87869000
88.89999490	0.00000000	-54.22613000	-36.87869000
89.09999489	0.00000000	-55.75787000	-34.55955000
89.29999487	0.00000000	-57.66486000	-30.73942000
89.49999486	0.00000000	-58.83366000	-26.14419000
89.69999485	0.00000000	-59.66412000	-22.70546000
89.89999484	0.00000000	-59.99015000	-21.12451000
90.09999483	0.00000000	-59.61491000	-21.54281000
90.29999482	0.00000000	-58.45841000	-24.23720000
90.49999480	0.00000000	-56.96358000	-28.42027000
90.69999479	0.00000000	-55.80708000	-32.64640000
90.89999478	0.00000000	-55.38263000	-35.71604000
91.09999477	0.00000000	-55.33957000	-36.87254000
91.29999476	0.00000000	-55.38263000	-35.71604000
91.49999474	0.00000000	-55.75787000	-32.64640000
91.69999473	0.00000000	-56.50221000	-28.42027000
91.89999472	0.00000000	-56.87746000	-24.19414000
92.09999471	0.00000000	-56.92052000	-21.12451000
92.29999470	0.00000000	-56.92052000	-19.96801000
92.49999468	0.00000000	-56.92052000	-21.12451000
92.69999467	0.00000000	-56.92052000	-24.23720000
92.89999466	0.00000000	-56.96358000	-28.83858000
93.09999465	0.00000000	-57.38804000	-33.76599000
93.29999464	0.00000000	-58.50147000	-36.82948000
93.49999463	0.00000000	-59.57185000	-37.24778000
93.69999461	0.00000000	-59.57185000	-35.34079000
93.89999460	0.00000000	-58.45841000	-31.48376000
94.09999459	0.00000000	-56.92052000	-26.88238000
94.29999458	0.00000000	-55.29650000	-22.65625000
94.49999457	0.00000000	-53.38336000	-19.96186000
94.69999455	0.00000000	-51.48252000	-19.59276000
94.89999454	0.00000000	-50.77510000	-21.49975000
95.09999453	0.00000000	-51.52559000	-25.35679000
95.29999452	0.00000000	-53.85088000	-29.90895000
95.49999451	0.00000000	-56.92052000	-33.76599000
95.69999449	0.00000000	-59.99015000	-35.71604000
95.89999448	0.00000000	-62.35851000	-35.71604000
96.09999447	0.00000000	-63.52731000	-33.80905000
96.29999446	0.00000000	-63.85334000	-30.37647000
96.49999445	0.00000000	-62.27239000	-26.93159000
96.69999444	0.00000000	-58.83366000	-24.19414000
96.89999442	0.00000000	-54.96432000	-22.65625000
97.09999441	0.00000000	-51.10728000	-22.65625000
97.29999440	0.00000000	-48.40674000	-24.19414000
97.49999439	0.00000000	-47.61319000	-26.83932000
97.69999438	0.00000000	-48.40674000	-29.53371000
97.89999436	0.00000000	-51.15034000	-31.44069000
98.09999435	0.00000000	-55.33957000	-32.27116000
98.29999434	0.00000000	-59.61491000	-31.90822000
98.49999433	0.00000000	-63.10900000	-31.15772000
98.69999432	0.00000000	-65.43430000	-29.95201000
98.89999430	0.00000000	-65.80955000	-28.46333000
99.09999429	0.00000000	-64.27164000	-27.30684000
99.29999428	0.00000000	-61.19586000	-26.93159000
99.49999427	0.00000000	-57.33883000	-27.25763000
99.69999426	0.00000000	-53.85088000	-27.95275000
99.89999425	0.00000000	-51.10728000	-27.95275000
100.09999423	0.00000000	-49.56939000	-27.25763000
100.29999422	0.00000000	-49.56939000	-26.88238000
100.49999421	0.00000000	-51.10728000	-26.83932000
100.69999420	0.00000000	-53.80167000	-26.88238000
100.89999419	0.00000000	-56.87746000	-27.30684000
101.09999417	0.00000000	-59.61491000	-28.46333000
101.29999416	0.00000000	-61.57111000	-30.00123000
101.49999415	0.00000000	-62.77681000	-31.53297000
101.69999414	0.00000000	-63.10900000	-32.68946000
101.89999413	0.00000000	-62.35851000	-33.02165000
102.09999411	0.00000000	-60.41461000	-32.27731000
102.29999410	0.00000000	-58.12622000	-30.32726000
102.49999409	0.00000000	-55.75787000	-28.04503000
102.69999408	0.00000000	-53.85088000	-25.68282000
102.89999407	0.00000000	-52.64517000	-23.81890000
103.09999406	0.00000000	-52.31299000	-23.07455000
103.29999404	0.00000000	-53.06348000	-24.23720000
103.49999403	0.00000000	-54.96432000	-26.88853000
103.69999402	0.00000000	-56.87746000	-29.95201000
103.89999401	0.00000000	-58.50147000	-32.69562000
104.09999400	0.00000000	-60.03937000	-34.60261000
104.29999398	0.00000000	-61.19586000	-35.38385000
104.49999397	0.00000000	-61.57111000	-34.60261000
104.69999396	0.00000000	-61.19586000	-32.69562000
104.89999395	0.00000000	-59.99015000	-29.95201000
105.09999394	0.00000000	-58.12622000	-26.93159000
105.29999392	0.00000000	-56.17618000	-24.61245000
105.49999391	0.00000000	-55.05659000	-23.86196000
105.69999390	0.00000000	-54.64444000	-24.56324000
105.89999389	0.00000000	-55.38263000	-26.46407000
106.09999388	0.00000000	-56.50221000	-28.37721000
106.29999387	0.00000000	-57.29576000	-30.00123000
106.49999385	0.00000000	-58.08316000	-31.48991000
106.69999384	0.00000000	-58.45841000	-32.22810000
106.89999383	0.00000000	-58.45841000	-31.48991000
107.09999382	0.00000000	-58.03395000	-30.00123000
107.29999381	0.00000000	-56.96358000	-28.42027000
107.49999379	0.00000000	-56.17618000	-26.88853000
107.69999378	0.00000000	-56.17002000	-25.77510000
107.89999377	0.00000000	-56.17618000	-25.77510000
108.09999376	0.00000000	-56.96358000	-26.88853000
108.29999375	0.00000000	-58.03395000	-28.42027000
108.49999374	0.00000000	-58.50147000	-29.95201000
108.69999372	0.00000000	-58.91978000	-31.11466000
108.89999371	0.00000000	-59.61491000	-31.48376000
109.09999370	0.00000000	-59.57185000	-31.11466000
109.29999369	0.00000000	-58.45841000	-29.95201000
109.49999368	0.00000000	-56.96358000	-28.42027000
109.69999366	0.00000000	-55.80708000	-26.88853000
109.89999365	0.00000000	-55.38263000	-25.72589000
110.09999364	0.00000000	-55.33957000	-25.35679000
110.29999363	0.00000000	-55.38263000	-25.72589000
110.49999362	0.00000000	-55.80708000	-26.88853000
110.69999360	0.00000000	-56.92052000	-28.42027000
110.89999359	0.00000000	-58.08316000	-29.95201000
111.09999358	0.00000000	-58.83366000	-31.11466000
111.29999357	0.00000000	-59.24582000	-31.48376000
111.49999356	0.00000000	-58.83366000	-31.15772000
111.69999355	0.00000000	-58.12622000	-30.37647000
111.89999353	0.00000000	-57.29576000	-29.62598000
112.09999352	0.00000000	-56.54527000	-28.79552000
112.29999351	0.00000000	-55.75787000	-28.04503000
112.49999350	0.00000000	-55.43184000	-27.25763000
112.69999349	0.00000000	-55.75787000	-26.88238000
112.89999347	0.00000000	-56.54527000	-26.88238000
113.09999346	0.00000000	-57.29576000	-27.25763000
113.29999345	0.00000000	-58.08316000	-28.00197000
113.49999344	0.00000000	-58.45841000	-28.42027000
113.69999343	0.00000000	-58.50147000	-28.83858000
113.89999341	0.00000000	-58.50147000	-29.58292000
114.09999340	0.00000000	-58.45841000	-29.95817000
114.29999339	0.00000000	-58.08316000	-30.00123000
114.49999338	0.00000000	-57.33883000	-30.00123000
114.69999337	0.00000000	-56.96358000	-30.00123000
114.89999336	0.00000000	-56.92052000	-30.00123000
115.09999334	0.00000000	-56.92052000	-30.00123000
115.29999333	0.00000000	-56.92052000	-30.00123000
115.49999332	0.00000000	-56.92052000	-29.95817000
115.69999331	0.00000000	-56.96358000	-29.58292000
115.89999330	0.00000000	-57.33883000	-28.79552000
116.09999328	0.00000000	-58.12622000	-28.04503000
116.29999327	0.00000000	-58.83366000	-27.25763000
116.49999326	0.00000000	-59.28888000	-26.93159000
116.69999325	0.00000000	-59.25196000	-27.25763000
116.89999324	0.00000000	-59.28888000	-28.04503000
117.09999322	0.00000000	-58.83366000	-28.79552000
117.29999321	0.00000000	-58.12622000	-29.62598000
117.49999320	0.00000000	-57.29576000	-30.37647000
117.69999319	0.00000000	-56.54527000	-31.15772000
117.89999318	0.00000000	-55.80708000	-31.53297000
118.09999317	0.00000000	-55.80708000	-31.53297000
118.29999315	0.00000000	-56.54527000	-31.11466000
118.49999314	0.00000000	-57.33883000	-30.00123000
118.69999313	0.00000000	-58.50147000	-28.88779000
118.89999312	0.00000000	-59.61491000	-28.42027000
119.09999311	0.00000000	-60.03937000	-28.00197000
119.29999309	0.00000000	-60.08243000	-27.30684000
119.49999308	0.00000000	-60.03937000	-27.30684000
119.69999307	0.00000000	-59.61491000	-28.00197000
119.89999306	0.00000000	-58.50147000	-28.42027000
120.09999305	0.00000000	-57.33883000	-28.83858000
120.29999303	0.00000000	-56.54527000	-29.58292000
120.49999302	0.00000000	-55.75787000	-29.95817000
120.69999301	0.00000000	-55.38263000	-30.00123000
120.89999300	0.00000000	-55.38263000	-30.00123000
121.09999299	0.00000000	-55.80708000	-30.00123000
121.29999298	0.00000000	-56.92052000	-30.00123000
121.49999296	0.00000000	-58.08316000	-30.00123000
121.69999295	0.00000000	-58.91978000	-30.00123000
121.89999294	0.00000000	-60.03937000	-29.95817000
122.09999293	0.00000000	-60.77756000	-29.58292000
122.29999292	0.00000000	-60.41461000	-28.83858000
122.49999290	0.00000000	-59.70718000	-28.46333000
122.69999289	0.00000000	-58.87672000	-28.42027000
122.89999288	0.00000000	-58.12622000	-28.42027000
123.09999287	0.00000000	-57.33883000	-28.42027000
123.29999286	0.00000000	-56.92052000	-28.42027000
123.49999284	0.00000000	-56.50221000	-28.46333000
123.69999283	0.00000000	-55.80708000	-28.79552000
123.89999282	0.00000000	-55.80708000	-29.20767000
124.09999281	0.00000000	-56.54527000	-29.21383000
124.29999280	0.00000000	-57.29576000	-29.62598000
124.49999279	0.00000000	-58.12622000	-29.95817000
124.69999277	0.00000000	-58.87672000	-30.00123000
124.89999276	0.00000000	-59.66412000	-29.95817000
125.09999275	0.00000000	-60.03937000	-29.58292000
125.29999274	0.00000000	-60.03937000	-28.83858000
125.49999273	0.00000000	-59.66412000	-28.46333000
125.69999271	0.00000000	-58.87672000	-28.37721000
125.89999270	0.00000000	-58.08316000	-28.04503000
126.09999269	0.00000000	-56.92052000	-27.67593000
126.29999268	0.00000000	-55.80708000	-28.04503000
126.49999267	0.00000000	-55.43184000	-28.37721000
126.69999265	0.00000000	-55.75787000	-28.42027000
126.89999264	0.00000000	-56.50221000	-28.42027000
127.09999263	0.00000000	-56.92052000	-28.42027000
127.29999262	0.00000000	-57.38804000	-28.46333000
127.49999261	0.00000000	-58.50147000	-28.79552000
127.69999260	0.00000000	-59.61491000	-29.20767000
127.89999258	0.00000000	-60.03937000	-29.17077000
128.09999257	0.00000000	-60.03937000	-29.20767000
128.29999256	0.00000000	-59.61491000	-28.79552000
128.49999255	0.00000000	-58.45841000	-28.46333000
128.69999254	0.00000000	-56.96358000	-28.42027000
128.89999252	0.00000000	-55.80708000	-28.42027000
129.09999251	0.00000000	-55.43184000	-28.42027000
129.29999250	0.00000000	-55.80708000	-28.46333000
129.49999249	0.00000000	-56.92052000	-28.83858000
129.69999248	0.00000000	-58.08316000	-29.58292000
129.89999246	0.00000000	-58.87672000	-29.95817000
130.09999245	0.00000000	-59.66412000	-30.00123000
130.29999244	0.00000000	-60.03937000	-29.95817000
130.49999243	0.00000000	-60.03937000	-29.58292000
130.69999242	0.00000000	-59.61491000	-28.83858000
130.89999241	0.00000000	-58.50147000	-28.46333000
131.09999239	0.00000000	-57.38804000	-28.42027000
131.29999238	0.00000000	-56.96358000	-28.46333000
131.49999237	0.00000000	-56.92052000	-28.83858000
131.69999236	0.00000000	-56.96358000	-29.58292000
131.89999235	0.00000000	-57.33883000	-29.95817000
132.09999233	0.00000000	-58.12622000	-30.00123000
132.29999232	0.00000000	-58.87672000	-30.00123000
132.49999231	0.00000000	-59.66412000	-30.00123000
132.69999230	0.00000000	-60.03937000	-30.00123000
132.89999229	0.00000000	-60.03937000	-29.95817000
133.09999227	0.00000000	-59.66412000	-29.58292000
133.29999226	0.00000000	-58.91978000	-28.83858000
133.49999225	0.00000000	-58.54454000	-28.46333000
133.69999224	0.00000000	-58.50147000	-28.42027000
133.89999223	0.00000000	-58.50147000	-28.46333000
134.09999222	0.00000000	-58.50147000	-28.83858000
134.29999220	0.00000000	-58.50147000	-29.62598000
134.49999219	0.00000000	-58.50147000	-30.37647000
134.69999218	0.00000000	-58.50147000	-31.15772000
134.89999217	0.00000000	-58.50147000	-31.53297000
135.09999216	0.00000000	-58.50147000	-31.53297000
135.29999214	0.00000000	-58.50147000	-31.15772000
135.49999213	0.00000000	-58.50147000	-30.41954000
135.69999212	0.00000000	-58.50147000	-30.00123000
135.89999211	0.00000000	-58.54454000	-29.58292000
136.09999210	0.00000000	-58.91978000	-28.83858000
136.29999208	0.00000000	-59.66412000	-28.46333000
136.49999207	0.00000000	-60.03937000	-28.42027000
136.69999206	0.00000000	-60.08243000	-28.46333000
136.89999205	0.00000000	-60.03937000	-28.83858000
137.09999204	0.00000000	-59.66412000	-29.58292000
137.29999203	0.00000000	-58.87672000	-29.95817000
137.49999201	0.00000000	-58.12622000	-30.00123000
137.69999200	0.00000000	-57.33883000	-30.00123000
137.89999199	0.00000000	-57.01279000	-30.00123000
138.09999198	0.00000000	-57.33883000	-30.00123000
138.29999197	0.00000000	-58.08316000	-29.95817000
138.49999195	0.00000000	-58.50147000	-29.62598000
138.69999194	0.00000000	-58.91978000	-29.25689000
138.89999193	0.00000000	-59.66412000	-29.58292000
139.09999192	0.00000000	-60.03937000	-29.58292000
139.29999191	0.00000000	-60.03937000	-29.21383000
139.49999189	0.00000000	-59.66412000	-29.16461000
139.69999188	0.00000000	-58.91978000	-28.42027000
139.89999187	0.00000000	-58.50147000	-27.72515000
140.09999186	0.00000000	-58.08316000	-28.08809000
140.29999185	0.00000000	-57.33883000	-28.79552000
140.49999184	0.00000000	-57.01279000	-29.58292000
140.69999182	0.00000000	-57.33883000	-30.00123000
140.89999181	-0.15871060	-58.12622000	-30.41954000
141.09999180	0.00000000	-58.87672000	-31.11466000
141.29999179	0.00000000	-59.61491000	-31.11466000
141.49999178	0.00000000	-59.61491000	-30.37647000
141.69999176	0.00000000	-58.91978000	-29.58292000
141.89999175	0.00000000	-58.54454000	-28.42027000
142.09999174	0.00000000	-58.45841000	-27.30684000
142.29999173	0.00000000	-58.08316000	-26.88238000
142.49999172	0.00000000	-57.38804000	-26.88238000
142.69999170	0.00000000	-57.38804000	-27.25763000
142.89999169	0.00000000	-58.08316000	-28.04503000
143.09999168	0.00000000	-58.45841000	-28.79552000
143.29999167	0.00000000	-58.54454000	-29.62598000
143.49999166	0.00000000	-58.87672000	-30.32726000
143.69999165	0.00000000	-59.24582000	-30.73942000
143.89999163	0.00000000	-58.87672000	-30.37647000
144.09999162	0.00000000	-58.54454000	-30.00123000
144.29999161	0.00000000	-58.45841000	-29.58292000
144.49999160	0.00000000	-58.12622000	-28.79552000
144.69999159	0.00000000	-57.75713000	-28.08809000
144.89999157	0.00000000	-58.12622000	-27.67593000
145.09999156	0.00000000	-58.45841000	-28.04503000
145.29999155	0.00000000	-58.50147000	-28.42027000
145.49999154	0.00000000	-58.54454000	-28.83858000
145.69999153	0.00000000	-58.91978000	-29.58292000
145.89999151	0.00000000	-59.61491000	-29.95817000
146.09999150	0.00000000	-59.66412000	-30.04429000
146.29999149	0.00000000	-59.29502000	-30.41954000
146.49999148	0.00000000	-59.28888000	-31.11466000
146.69999147	0.00000000	-58.87672000	-31.11466000
146.89999146	0.00000000	-58.54454000	-30.41954000
147.09999144	0.00000000	-58.50147000	-30.00123000
147.29999143	0.00000000	-58.50147000	-29.58292000
147.49999142	0.00000000	-58.50147000	-28.83858000
147.69999141	0.00000000	-58.54454000	-28.46333000
147.89999140	0.00000000	-58.91978000	-28.42027000
148.09999138	0.00000000	-59.66412000	-28.46333000
148.29999137	0.00000000	-60.03937000	-28.83858000
148.49999136	0.00000000	-60.03937000	-29.58292000
148.69999135	0.00000000	-59.66412000	-29.95817000
148.89999134	0.00000000	-58.96899000	-30.00123000
149.09999132	0.00000000	-58.91978000	-30.04429000
149.29999131	0.00000000	-59.24582000	-30.37647000
149.49999130	0.00000000	-58.87672000	-30.73942000
149.69999129	0.00000000	-58.54454000	-30.37647000
149.89999128	0.00000000	-58.50147000	-30.04429000
150.09999127	0.00000000	-58.50147000	-30.00123000
150.29999125	0.00000000	-58.50147000	-30.00123000
150.49999124	0.00000000	-58.54454000	-30.00123000
150.69999123	0.00000000	-58.91978000	-30.00123000
150.89999122	0.00000000	-59.66412000	-30.00123000
151.09999121	0.00000000	-60.03937000	-30.00123000
151.29999119	0.00000000	-60.08243000	-30.00123000
151.49999118	0.00000000	-60.08243000	-30.00123000
151.69999117	0.00000000	-60.03937000	-30.00123000
151.89999116	0.00000000	-59.66412000	-30.00123000
152.09999115	0.00000000	-58.91978000	-30.00123000
152.29999113	0.00000000	-58.54454000	-30.00123000
152.49999112	0.00000000	-58.50147000	-30.00123000
152.69999111	0.00000000	-58.50147000	-30.00123000
152.89999110	0.00000000	-58.50147000	-29.95817000
153.09999109	0.00000000	-58.50147000	-29.62598000
153.29999108	0.00000000	-58.54454000	-29.21383000
153.49999106	0.00000000	-58.91978000	-29.20767000
153.69999105	0.00000000	-59.66412000	-28.79552000
153.89999104	0.00000000	-60.03937000	-28.46333000
154.09999103	0.00000000	-60.08243000	-28.42027000
154.29999102	0.00000000	-60.08243000	-28.42027000
154.49999100	0.00000000	-60.08243000	-28.46333000
154.69999099	0.00000000	-60.03937000	-28.79552000
154.89999098	0.00000000	-59.66412000	-29.16461000
155.09999097	0.00000000	-58.91978000	-28.83858000
155.29999096	0.00000000	-58.54454000	-28.88779000
155.49999094	0.00000000	-58.50147000	-29.58292000
155.69999093	0.00000000	-58.50147000	-29.90895000
155.89999092	0.00000000	-58.50147000	-29.58292000
156.09999091	0.00000000	-58.50147000	-28.83858000
156.29999090	0.00000000	-58.50147000	-28.46333000
156.49999089	0.00000000	-58.54454000	-28.42027000
156.69999087	0.00000000	-58.91978000	-28.42027000
156.89999086	0.00000000	-59.66412000	-28.42027000
157.09999085	0.00000000	-60.03937000	-28.42027000
157.29999084	0.00000000	-60.08243000	-28.42027000
157.49999083	0.00000000	-60.03937000	-28.42027000
157.69999081	0.00000000	-59.66412000	-28.46333000
157.89999080	0.00000000	-58.91978000	-28.83858000
158.09999079	0.00000000	-58.54454000	-29.58292000
158.29999078	0.00000000	-58.50147000	-29.95817000
158.49999077	0.00000000	-58.50147000	-30.00123000
158.69999075	0.00000000	-58.50147000	-30.00123000
158.89999074	0.00000000	-58.50147000	-29.95817000
159.09999073	0.00000000	-58.50147000	-29.58292000
159.29999072	0.00000000	-58.54454000	-28.83858000
159.49999071	0.00000000	-58.91978000	-28.46333000
159.69999070	0.00000000	-59.66412000	-28.42027000
159.89999068	0.00000000	-60.03937000	-28.42027000
160.09999067	0.00000000	-60.08243000	-28.46333000
160.29999066	0.00000000	-60.08243000	-28.83858000
160.49999065	0.00000000	-60.08243000	-29.58292000
160.69999064	0.00000000	-60.08243000	-29.95817000
160.89999062	0.00000000	-60.03937000	-30.00123000
161.09999061	0.00000000	-59.70718000	-30.00123000
161.29999060	0.00000000	-59.33809000	-30.00123000
161.49999059	0.00000000	-59.66412000	-30.00123000
161.69999058	0.00000000	-59.66412000	-30.00123000
161.89999056	0.00000000	-59.29502000	-30.00123000
162.09999055	0.00000000	-59.28888000	-30.00123000
162.29999054	0.00000000	-58.91978000	-30.00123000
162.49999053	0.00000000	-58.96899000	-30.00123000
162.69999052	0.00000000	-59.66412000	-30.00123000
162.89999051	0.00000000	-60.03937000	-30.00123000
163.09999049	0.00000000	-60.08243000	-30.00123000
163.29999048	0.00000000	-60.12549000	-30.00123000
163.49999047	0.00000000	-60.45767000	-30.00123000
163.69999046	0.00000000	-60.82677000	-30.00123000
163.89999045	0.00000000	-60.45767000	-30.00123000
164.09999043	0.00000000	-60.12549000	-30.00123000
164.29999042	0.00000000	-60.03937000	-30.00123000
164.49999041	0.00000000	-59.66412000	-30.00123000
164.69999040	0.00000000	-58.91978000	-30.00123000
164.89999039	0.00000000	-58.54454000	-30.00123000
165.09999037	0.00000000	-58.50147000	-30.00123000
165.29999036	0.00000000	-58.54454000	-30.00123000
165.49999035	0.00000000	-58.91978000	-30.00123000
165.69999034	0.00000000	-59.66412000	-30.00123000
165.89999033	0.00000000	-60.03937000	-30.00123000
166.09999032	0.00000000	-60.08243000	-30.00123000
166.29999030	0.00000000	-60.08243000	-30.00123000
166.49999029	0.00000000	-60.08243000	-30.00123000
166.69999028	0.00000000	-60.08243000	-30.00123000
166.89999027	0.00000000	-60.08243000	-30.00123000
167.09999026	0.00000000	-60.08243000	-30.00123000
167.29999024	0.00000000	-60.08243000	-30.00123000
167.49999023	0.00000000	-60.08243000	-30.00123000
167.69999022	0.00000000	-60.08243000	-30.00123000
167.89999021	0.00000000	-60.08243000	-30.00123000
168.09999020	0.00000000	-60.08243000	-30.00123000
168.29999018	0.00000000	-60.08243000	-30.00123000
168.49999017	0.00000000	-60.08243000	-30.00123000
168.69999016	0.00000000	-60.08243000	-30.00123000
168.89999015	0.00000000	-60.08243000	-30.00123000
169.09999014	0.00000000	-60.08243000	-30.00123000
169.29999013	0.00000000	-60.08243000	-30.00123000
169.49999011	0.00000000	-60.08243000	-30.00123000
169.69999010	0.00000000	-60.08243000	-30.00123000
169.89999009	0.00000000	-60.08243000	-30.00123000
170.09999008	0.00000000	-60.08243000	-30.00123000
170.29999007	0.00000000	-60.08243000	-30.00123000
170.49999005	0.00000000	-60.08243000	-30.00123000
170.69999004	0.00000000	-60.08243000	-30.00123000
170.89999003	0.00000000	-60.03937000	-30.00123000
171.09999002	0.00000000	-59.70718000	-30.00123000
171.29999001	0.00000000	-59.33809000	-29.95817000
171.49998999	0.00000000	-59.70718000	-29.62598000
171.69998998	0.00000000	-60.03937000	-29.25689000
171.89998997	0.00000000	-60.03937000	-29.58292000
172.09998996	0.00000000	-59.70718000	-29.58292000
172.29998995	0.00000000	-59.33809000	-29.25689000
172.49998994	0.00000000	-59.70718000	-29.62598000
172.69998992	0.00000000	-60.03937000	-29.95817000
172.89998991	0.00000000	-60.08243000	-30.00123000
173.09998990	0.00000000	-60.08243000	-30.00123000
173.29998989	0.00000000	-60.08243000	-30.00123000
173.49998988	0.00000000	-60.03937000	-29.95817000
173.69998986	0.00000000	-59.70718000	-29.62598000
173.89998985	0.00000000	-59.29502000	-29.25689000
174.09998984	0.00000000	-59.33194000	-29.62598000
174.29998983	0.00000000	-59.29502000	-29.95817000
174.49998982	0.00000000	-59.70718000	-30.00123000
174.69998980	0.00000000	-60.03937000	-30.00123000
174.89998979	0.00000000	-60.08243000	-30.00123000
175.09998978	0.00000000	-60.08243000	-30.00123000
175.29998977	0.00000000	-60.08243000	-30.00123000
175.49998976	0.00000000	-60.08243000	-30.00123000
175.69998975	0.00000000	-60.08243000	-30.00123000
175.89998973	0.00000000	-60.08243000	-30.00123000
176.09998972	0.00000000	-60.08243000	-30.00123000
176.29998971	0.00000000	-60.08243000	-30.00123000
176.49998970	0.00000000	-60.08243000	-30.00123000
176.69998969	0.00000000	-60.08243000	-30.00123000
176.89998967	0.00000000	-60.08243000	-30.00123000
177.09998966	0.00000000	-60.08243000	-30.00123000
177.29998965	0.00000000	-60.08243000	-30.00123000
177.49998964	0.00000000	-60.12549000	-30.00123000
177.69998963	0.00000000	-60.45767000	-30.00123000
177.89998961	0.00000000	-60.82677000	-30.00123000
178.09998960	0.00000000	-60.45767000	-30.00123000
178.29998959	0.00000000	-60.12549000	-30.00123000
178.49998958	0.00000000	-60.08243000	-30.00123000
178.69998957	0.00000000	-60.08243000	-30.00123000
178.89998956	0.00000000	-60.08243000	-30.00123000
179.09998954	0.00000000	-60.08243000	-30.00123000
179.29998953	0.00000000	-60.08243000	-30.00123000
179.49998952	0.00000000	-60.08243000	-30.00123000
179.69998951	0.00000000	-60.08243000	-30.00123000
179.89998950	0.00000000	-60.08243000	-30.00123000
180.09998948	0.00000000	-60.08243000	-30.04429000
180.29998947	0.00000000	-60.08243000	-30.37647000
180.49998946	0.00000000	-60.12549000	-30.73942000
180.69998945	0.00000000	-60.45767000	-30.37647000
180.89998944	0.00000000	-60.82677000	-30.04429000
181.09998942	0.00000000	-60.50073000	-30.00123000
181.29998941	0.00000000	-60.50073000	-30.00123000
181.49998940	0.00000000	-60.82677000	-30.00123000
181.69998939	0.00000000	-60.45767000	-30.00123000
181.89998938	0.00000000	-60.12549000	-30.00123000
182.09998937	0.00000000	-60.08243000	-30.00123000
182.29998935	0.00000000	-60.08243000	-30.00123000
182.49998934	0.00000000	-60.08243000	-30.04429000
182.69998933	0.00000000	-60.08243000	-30.41954000
182.89998932	0.00000000	-60.08243000	-31.11466000
183.09998931	0.00000000	-60.08243000	-31.11466000
183.29998929	0.00000000	-60.12549000	-30.46260000
183.49998928	0.00000000	-60.45767000	-30.41954000
183.69998927	0.00000000	-60.82677000	-30.73942000
183.89998926	0.00000000	-60.45767000	-30.37647000
184.09998925	0.00000000	-60.12549000	-30.04429000
184.29998923	0.00000000	-60.08243000	-30.00123000
184.49998922	0.00000000	-60.08243000	-29.95817000
184.69998921	0.00000000	-60.08243000	-29.58292000
184.89998920	0.00000000	-60.08243000	-28.88779000
185.09998919	0.00000000	-60.08243000	-28.88779000
185.29998918	0.00000000	-60.08243000	-29.58292000
185.49998916	0.00000000	-60.08243000	-29.95817000
185.69998915	0.00000000	-60.08243000	-30.04429000
185.89998914	0.00000000	-60.08243000	-30.37647000
186.09998913	0.00000000	-60.08243000	-30.73942000
186.29998912	0.00000000	-60.08243000	-30.37647000
186.49998910	0.00000000	-60.08243000	-30.04429000
186.69998909	0.00000000	-60.08243000	-30.00123000
186.89998908	0.00000000	-60.08243000	-30.00123000
187.09998907	0.00000000	-60.12549000	-29.95817000
187.29998906	0.00000000	-60.45767000	-29.58292000
187.49998904	0.00000000	-60.82677000	-28.83858000
187.69998903	0.00000000	-60.45767000	-28.46333000
187.89998902	0.00000000	-60.12549000	-28.46333000
188.09998901	0.00000000	-60.08243000	-28.83858000
188.29998900	0.00000000	-60.08243000	-29.58292000
188.49998899	0.00000000	-60.08243000	-29.95817000
188.69998897	0.00000000	-60.08243000	-30.00123000
188.89998896	0.00000000	-60.08243000	-30.00123000
189.09998895	0.00000000	-60.08243000	-30.00123000
189.29998894	0.00000000	-60.08243000	-30.00123000
189.49998893	0.00000000	-60.08243000	-30.00123000
189.69998891	0.00000000	-60.08243000	-30.00123000
189.89998890	0.00000000	-60.08243000	-30.00123000
190.09998889	0.00000000	-60.08243000	-30.00123000
190.29998888	0.00000000	-60.12549000	-30.00123000
190.49998887	0.00000000	-60.45767000	-29.95817000
190.69998885	0.00000000	-60.82677000	-29.62598000
190.89998884	0.00000000	-60.45767000	-29.25689000
191.09998883	0.00000000	-60.12549000	-29.62598000
191.29998882	0.00000000	-60.08243000	-29.95817000
191.49998881	0.00000000	-60.08243000	-30.00123000
191.69998880	0.00000000	-60.08243000	-30.00123000
191.89998878	0.00000000	-60.08243000	-30.00123000
192.09998877	0.00000000	-60.08243000	-30.04429000
192.29998876	0.00000000	-60.08243000	-30.41954000
192.49998875	0.00000000	-60.08243000	-31.15772000
192.69998874	0.00000000	-60.12549000	-31.53297000
192.89998872	0.00000000	-60.50073000	-31.53297000
193.09998871	0.00000000	-61.24508000	-31.15772000
193.29998870	0.00000000	-61.62032000	-30.41954000
193.49998869	0.00000000	-61.62032000	-30.04429000
193.69998868	0.00000000	-61.28814000	-30.00123000
193.89998866	0.00000000	-60.91904000	-30.00123000
194.09998865	0.00000000	-61.24508000	-30.00123000
194.29998864	0.00000000	-61.19586000	-30.00123000
194.49998863	0.00000000	-60.50073000	-30.00123000
194.69998862	0.00000000	-60.12549000	-30.00123000
194.89998861	0.00000000	-60.08243000	-30.04429000
195.09998859	0.00000000	-60.12549000	-30.41954000
195.29998858	0.00000000	-60.50073000	-31.15772000
195.49998857	0.00000000	-61.24508000	-31.53297000
195.69998856	0.00000000	-61.62032000	-31.57603000
195.89998855	0.00000000	-61.66338000	-31.57603000
196.09998853	0.00000000	-61.66338000	-31.57603000
