Time	Channel A	Channel B	Channel C
(us)	(V)	(mV)	(mV)

-4.59999956	0.00000000	62.86909000	30.00123000
-4.39999957	0.00000000	63.20127000	30.00123000
-4.19999958	0.00000000	63.24434000	30.00123000
-3.99999959	0.00000000	63.24434000	30.00123000
-3.79999960	0.00000000	63.24434000	30.00123000
-3.59999962	0.00000000	63.24434000	30.00123000
-3.39999963	0.00000000	63.24434000	30.00123000
-3.19999964	0.00000000	63.24434000	30.00123000
-2.99999965	0.00000000	63.20127000	30.00123000
-2.79999966	0.00000000	62.86909000	30.00123000
-2.59999968	0.00000000	62.50000000	30.00123000
-2.39999969	0.00000000	62.86909000	30.00123000
-2.19999970	0.00000000	63.20127000	30.00123000
-1.99999971	0.00000000	63.24434000	30.00123000
-1.79999972	0.00000000	63.24434000	30.00123000
-1.59999973	0.00000000	63.24434000	30.00123000
-1.39999975	0.00000000	63.24434000	30.00123000
-1.19999976	0.00000000	63.28740000	30.00123000
-0.99999977	0.00000000	63.57652000	30.00123000
-0.79999978	0.00000000	63.61343000	30.04429000
-0.59999979	0.00000000	62.87524000	30.41954000
-0.39999981	0.15871060	62.91216000	31.15772000
-0.19999982	0.47736220	63.20127000	31.53297000
0.00000017	0.79601380	63.24434000	31.53297000
0.20000016	0.95533960	63.24434000	31.15772000
0.40000015	0.95533960	63.24434000	30.46260000
0.60000013	0.63668800	63.24434000	30.41954000
0.80000012	-0.15871060	63.24434000	30.78248000
1.00000011	-1.11466500	63.24434000	30.79478000
1.20000010	-2.07062000	63.24434000	31.20078000
1.40000009	-2.70792300	63.24434000	31.53297000
1.60000008	-2.70792300	63.24434000	31.57603000
1.80000006	-1.91129400	63.24434000	31.57603000
2.00000005	-0.31803640	63.24434000	31.57603000
2.20000004	1.75196900	63.24434000	31.57603000
2.40000003	3.82258900	63.24434000	31.57603000
2.60000002	5.09719500	63.24434000	31.57603000
2.80000000	5.25652100	63.24434000	31.57603000
2.99999999	3.82258900	63.24434000	31.53297000
3.19999998	1.27399100	63.24434000	31.20078000
3.39999997	-2.22994600	63.24434000	30.83784000
3.59999996	-5.41584600	63.24434000	31.20078000
3.79999994	-7.48646600	63.28740000	31.57603000
3.99999993	-7.96444400	63.61958000	31.95128000
4.19999992	-6.21247500	63.98867000	32.32037000
4.39999991	-2.86724900	63.61958000	31.99434000
4.59999990	1.59264300	63.28740000	31.99434000
4.79999989	5.73449800	63.24434000	32.32037000
4.99999987	8.60174700	63.24434000	31.95128000
5.19999986	9.39837600	63.24434000	31.57603000
5.39999985	7.80511800	63.24434000	31.15772000
5.59999984	4.30056600	63.24434000	30.41954000
5.79999983	-0.47736220	63.24434000	30.09350000
5.99999981	-4.93786900	63.24434000	30.41954000
6.19999980	-8.28309500	63.24434000	31.15772000
6.39999979	-9.55770200	63.24434000	31.53297000
6.59999978	-8.28309500	63.24434000	31.57603000
6.79999977	-5.09719500	63.24434000	31.57603000
6.99999975	-0.79601380	63.24434000	31.57603000
7.19999974	3.34522600	63.24434000	31.57603000
7.39999973	6.53112700	63.24434000	31.57603000
7.59999972	7.80511800	63.24434000	31.57603000
7.79999971	7.00848900	63.24434000	31.57603000
7.99999970	4.77854300	63.24434000	31.57603000
8.19999968	1.43331700	63.24434000	31.57603000
8.39999967	-1.75196900	63.24434000	31.57603000
8.59999966	-4.14124000	63.24434000	31.57603000
8.79999965	-5.09719500	63.24434000	31.57603000
8.99999964	-4.93786900	63.20127000	31.53297000
9.19999962	-3.50393700	62.86909000	31.15772000
9.39999961	-1.43331700	62.50000000	30.41954000
9.59999960	0.47736220	62.86909000	30.04429000
9.79999959	1.75196900	63.20127000	30.00123000
9.99999958	2.54859700	63.24434000	30.00123000
10.19999956	2.38927200	63.24434000	30.00123000
10.39999955	1.75196900	63.24434000	30.00123000
10.59999954	0.95533960	63.24434000	30.00123000
10.79999953	0.00000000	63.24434000	30.00123000
10.99999952	-0.63668800	63.24434000	30.00123000
11.19999951	-0.95533960	63.24434000	30.00123000
11.39999949	-0.95533960	63.24434000	30.00123000
11.59999948	-0.79601380	63.24434000	30.00123000
11.79999947	-0.47736220	63.24434000	30.00123000
11.99999946	-0.15871060	63.24434000	30.04429000
12.19999945	-0.15871060	63.24434000	30.41954000
12.39999943	-0.15871060	63.24434000	31.11466000
12.59999942	0.00000000	63.24434000	31.11466000
12.79999941	0.00000000	63.24434000	30.41954000
12.99999940	0.00000000	63.24434000	30.04429000
13.19999939	0.15871060	63.24434000	30.00123000
13.39999937	0.00000000	63.24434000	30.04429000
13.59999936	0.00000000	63.24434000	30.41954000
13.79999935	0.00000000	63.24434000	31.15772000
13.99999934	-0.15871060	63.28740000	31.53297000
14.19999933	-0.15871060	63.61958000	31.53297000
14.39999932	-0.15871060	63.98867000	31.20078000
14.59999930	-0.15871060	63.61958000	30.83784000
14.79999929	0.00000000	63.28740000	31.20078000
14.99999928	0.00000000	63.24434000	31.53297000
15.19999927	0.00000000	63.24434000	31.57603000
15.39999926	0.00000000	63.24434000	31.57603000
15.59999924	0.00000000	63.24434000	31.57603000
15.79999923	0.00000000	63.24434000	31.57603000
15.99999922	0.00000000	63.24434000	31.57603000
16.19999921	0.00000000	63.24434000	31.57603000
16.39999920	-0.15871060	63.28740000	31.57603000
16.59999919	0.00000000	63.66264000	31.57603000
16.79999917	0.00000000	64.40699000	31.57603000
16.99999916	0.00000000	64.78223000	31.57603000
17.19999915	0.00000000	64.82529000	31.57603000
17.39999914	0.00000000	64.86835000	31.57603000
17.59999913	0.00000000	65.20053000	31.57603000
17.79999911	0.00000000	65.52042000	31.57603000
17.99999910	0.00000000	64.73302000	31.57603000
18.19999909	0.00000000	63.24434000	31.57603000
18.39999908	0.00000000	61.66338000	31.57603000
18.59999907	0.00000000	60.12549000	31.57603000
18.79999905	0.00000000	58.96899000	31.57603000
18.99999904	0.00000000	58.63681000	31.57603000
19.19999903	0.00000000	59.43036000	31.57603000
19.39999902	0.00000000	61.75566000	31.57603000
19.59999901	0.00000000	64.87450000	31.57603000
19.79999900	0.00000000	68.41166000	31.57603000
19.99999898	0.00000000	72.22563000	31.57603000
20.19999897	0.00000000	74.87697000	31.57603000
20.39999896	0.00000000	75.25220000	31.57603000
20.59999895	0.00000000	73.20988000	31.57603000
20.79999894	0.00000000	68.13484000	31.57603000
20.99999892	0.00000000	60.45767000	31.57603000
21.19999891	0.00000000	52.73130000	31.57603000
21.39999890	0.00000000	46.54281000	31.53297000
21.59999889	0.00000000	43.14714000	31.15772000
21.79999888	0.00000000	44.40207000	30.41954000
21.99999886	0.00000000	50.63361000	30.09350000
22.19999885	0.00000000	61.10359000	30.41954000
22.39999884	0.00000000	73.84965000	31.15772000
22.59999883	0.00000000	85.76525000	31.53297000
22.79999882	0.00000000	93.85457000	31.57603000
22.99999881	0.00000000	95.67544000	31.57603000
23.19999879	0.00000000	90.23129000	31.61909000
23.39999878	0.00000000	77.81741000	31.99434000
23.59999877	0.00000000	61.15280000	32.73868000
23.79999876	0.00000000	43.38090000	33.11393000
23.99999875	0.00000000	28.44488000	33.11393000
24.19999873	0.00000000	21.17987000	32.68946000
24.39999872	0.00000000	23.88041000	31.53297000
24.59999871	0.00000000	35.88213000	30.00123000
24.79999870	0.00000000	54.91510000	28.46333000
24.99999869	0.00000000	77.30068000	27.25763000
25.19999867	0.00000000	98.09300000	26.46407000
25.39999866	0.00000000	111.54650000	25.77510000
25.59999865	0.00000000	114.24090000	26.23647000
25.79999864	0.00000000	105.35800000	28.55561000
25.99999863	0.00000000	86.79256000	31.99434000
26.19999862	0.00000000	62.82603000	35.89444000
26.39999860	0.00000000	38.49655000	39.38238000
26.59999859	0.00000000	19.60507000	42.03371000
26.79999858	0.00000000	10.71604000	42.72884000
26.99999857	0.00000000	13.83489000	40.36663000
27.19999856	0.00000000	28.48794000	35.34079000
27.39999854	0.00000000	51.24261000	28.32800000
27.59999853	0.00000000	76.32258000	20.66314000
27.79999852	0.00000000	98.00688000	14.11171000
27.99999851	0.00000000	111.54650000	10.67298000
28.19999850	0.00000000	114.29010000	11.09129000
28.39999848	0.00000000	105.81940000	15.82800000
28.59999847	0.00000000	88.46579000	24.74778000
28.79999846	0.00000000	66.45546000	36.31274000
28.99999845	0.00000000	44.77116000	47.88385000
29.19999844	0.00000000	28.16191000	56.76057000
29.39999843	0.00000000	19.97416000	60.90059000
29.59999841	0.00000000	21.83194000	58.52608000
29.79999840	0.00000000	32.21579000	49.24335000
29.99999839	0.00000000	48.45595000	35.38385000
30.19999838	0.00000000	67.01525000	19.87574000
30.39999837	0.00000000	83.67372000	6.02239100
30.59999835	0.00000000	95.30634000	-3.21727300
30.79999834	0.00000000	99.63090000	-5.07504900
30.99999833	0.00000000	96.19217000	1.05807100
31.19999832	0.00000000	86.55265000	13.82874000
31.39999831	0.00000000	72.64394000	30.46260000
31.59999829	0.00000000	57.98474000	47.84079000
31.79999828	0.00000000	45.93381000	62.10630000
31.99999827	0.00000000	38.53961000	69.86343000
32.19999826	0.00000000	36.95866000	69.86343000
32.39999825	0.00000000	41.19094000	62.10630000
32.59999824	0.00000000	50.03691000	47.79773000
32.79999822	0.00000000	61.24508000	30.04429000
32.99999821	0.00000000	72.09030000	12.66609000
33.19999820	0.00000000	80.64714000	-0.47982280
33.39999819	0.00000000	85.25467000	-6.65600300
33.59999818	0.00000000	84.87943000	-4.74901600
33.79999816	0.00000000	79.53371000	4.86589500
33.99999815	0.00000000	71.10605000	19.54355000
34.19999814	0.00000000	62.21702000	36.17741000
34.39999813	0.00000000	54.86589000	51.64862000
34.59999812	0.00000000	50.59055000	62.43233000
34.79999810	0.00000000	50.17224000	66.33243000
34.99999809	0.00000000	53.24187000	62.52460000
35.19999808	0.00000000	58.96899000	52.48523000
35.39999807	0.00000000	65.52657000	38.58883000
35.59999806	0.00000000	70.92765000	23.54207000
35.79999805	0.00000000	74.41560000	11.22047000
35.99999803	0.00000000	74.79084000	4.25688900
36.19999802	0.00000000	72.13951000	4.20767700
36.39999801	0.00000000	67.52583000	10.71604000
36.59999800	0.00000000	62.13090000	21.49975000
36.79999799	0.00000000	57.56643000	34.18430000
36.99999797	0.00000000	55.19808000	45.33095000
37.19999796	0.00000000	55.56717000	51.88853000
37.39999795	0.00000000	57.89247000	52.71899000
37.59999794	0.00000000	62.17396000	47.70546000
37.79999793	0.00000000	67.48277000	38.54576000
37.99999791	0.00000000	71.71505000	27.81127000
38.19999790	0.00000000	73.72047000	19.02682000
38.39999789	0.00000000	73.72047000	14.75763000
38.59999788	0.00000000	71.76427000	15.91412000
38.79999787	0.00000000	67.90108000	22.01033000
38.99999786	0.00000000	63.29355000	31.15772000
39.19999784	0.00000000	59.01205000	39.99138000
39.39999783	0.00000000	55.93627000	46.12450000
39.59999782	0.00000000	54.73056000	48.02534000
39.79999781	0.00000000	55.47490000	44.54970000
39.99999780	0.00000000	57.43110000	36.92175000
40.19999778	0.00000000	60.59301000	27.30684000
40.39999777	0.00000000	64.82529000	18.51624000
40.59999776	0.00000000	69.06373000	13.12746000
40.79999775	0.00000000	72.18258000	12.75221000
40.99999774	0.00000000	73.76353000	17.35974000
41.19999772	0.00000000	73.76353000	25.81816000
41.39999771	0.00000000	72.18258000	35.75910000
41.59999770	0.00000000	69.10678000	44.26673000
41.79999769	0.00000000	65.24360000	49.24335000
41.99999768	0.00000000	61.70644000	49.64936000
42.19999767	0.00000000	58.63681000	45.05413000
42.39999765	0.00000000	56.68676000	37.38312000
42.59999764	0.00000000	56.68061000	28.51255000
42.79999763	0.00000000	57.75713000	20.47244000
42.99999762	0.00000000	59.75024000	15.82800000
43.19999761	0.00000000	62.08169000	15.36048000
43.39999759	0.00000000	64.78223000	18.43012000
43.59999758	0.00000000	67.10752000	24.19414000
43.79999757	0.00000000	68.27633000	31.06545000
43.99999756	0.00000000	68.73769000	36.87869000
44.19999755	0.00000000	68.32554000	40.40969000
44.39999753	0.00000000	67.66117000	41.61540000
44.59999752	0.00000000	67.20596000	40.45275000
44.79999751	0.00000000	67.19365000	37.38312000
44.99999750	0.00000000	66.78149000	33.15699000
45.19999749	0.00000000	66.40624000	28.93085000
45.39999748	0.00000000	65.89567000	25.81816000
45.59999746	0.00000000	64.31471000	24.23720000
45.79999745	0.00000000	61.62032000	24.23720000
45.99999744	0.00000000	58.54454000	25.77510000
46.19999743	0.00000000	55.89320000	28.46333000
46.39999742	0.00000000	54.77977000	31.53297000
46.59999740	0.00000000	55.93627000	34.22736000
46.79999739	0.00000000	59.05511000	35.80217000
46.99999738	0.00000000	63.75492000	36.22047000
47.19999737	0.00000000	69.57431000	35.85138000
47.39999736	0.00000000	75.34448000	34.64567000
47.59999734	0.00000000	79.53371000	32.69562000
47.79999733	0.00000000	80.64714000	30.00123000
47.99999732	0.00000000	77.90354000	27.34990000
48.19999731	0.00000000	71.71505000	25.86122000
48.39999730	0.00000000	63.24434000	26.19340000
48.59999729	0.00000000	54.77977000	28.09424000
48.79999727	0.00000000	48.59129000	30.41954000
48.99999726	0.00000000	45.89075000	33.20005000
49.19999725	0.00000000	47.47170000	36.22662000
49.39999724	0.00000000	53.28493000	38.54576000
49.59999723	0.00000000	62.13090000	39.29626000
49.79999721	0.00000000	71.75812000	38.50270000
49.99999720	0.00000000	79.48450000	35.80217000
50.19999719	0.00000000	83.76598000	31.99434000
50.39999718	0.00000000	83.67372000	28.46333000
50.59999717	0.00000000	78.69094000	25.35064000
50.79999715	0.00000000	69.85728000	23.12377000
50.99999714	0.00000000	60.26082000	23.16683000
51.19999713	0.00000000	52.17150000	25.81816000
51.39999712	0.00000000	47.93922000	30.00123000
51.59999711	0.00000000	48.63435000	34.27042000
51.79999710	0.00000000	53.24187000	37.75836000
51.99999708	0.00000000	60.59301000	40.08366000
52.19999707	0.00000000	69.02066000	40.45890000
52.39999706	0.00000000	75.94734000	38.92101000
52.59999705	0.00000000	79.39838000	35.80217000
52.79999704	0.00000000	78.64788000	31.61909000
52.99999702	0.00000000	73.67126000	27.76821000
53.19999701	0.00000000	66.45546000	25.44291000
53.39999700	0.00000000	59.47342000	24.65551000
53.59999699	0.00000000	54.44759000	25.81816000
53.79999698	0.00000000	52.17150000	28.42027000
53.99999696	0.00000000	53.70940000	31.15772000
54.19999695	0.00000000	58.63681000	33.48302000
54.39999694	0.00000000	64.78223000	35.38385000
54.59999693	0.00000000	70.60162000	35.71604000
54.79999692	0.00000000	74.79084000	34.27042000
54.99999691	0.00000000	75.94734000	31.99434000
55.19999689	0.00000000	73.67126000	30.08735000
55.39999688	0.00000000	69.10678000	28.93085000
55.59999687	0.00000000	63.71186000	28.97392000
55.79999686	0.00000000	59.05511000	30.46260000
55.99999685	0.00000000	55.98548000	32.73868000
56.19999683	0.00000000	55.24114000	34.64567000
56.39999682	0.00000000	57.51722000	35.75910000
56.59999681	0.00000000	61.70644000	35.34079000
56.79999680	0.00000000	66.32012000	33.02165000
56.99999679	0.00000000	70.22637000	29.58292000
57.19999677	0.00000000	72.50861000	25.72589000
57.39999676	0.00000000	72.92077000	22.70546000
57.59999675	0.00000000	71.01993000	21.58587000
57.79999674	0.00000000	67.94415000	23.12377000
57.99999673	0.00000000	64.45004000	26.97465000
58.19999672	0.00000000	61.01131000	31.99434000
58.39999670	0.00000000	59.09818000	37.38312000
58.59999669	0.00000000	59.01205000	41.56618000
58.79999668	0.00000000	60.17470000	43.10408000
58.99999667	0.00000000	62.08169000	41.56618000
59.19999666	0.00000000	64.35777000	37.24778000
59.39999664	0.00000000	65.93873000	30.73942000
59.59999663	0.00000000	66.78149000	23.49286000
59.79999662	0.00000000	67.52583000	18.47318000
59.99999661	0.00000000	67.48277000	16.51698000
60.19999660	0.00000000	66.40624000	17.72884000
60.39999658	0.00000000	65.24360000	22.74852000
60.59999657	0.00000000	64.45004000	30.04429000
60.79999656	0.00000000	63.71186000	37.75836000
60.99999655	0.00000000	63.75492000	44.30979000
61.19999654	0.00000000	64.82529000	47.74852000
61.39999653	0.00000000	65.93873000	47.37327000
61.59999651	0.00000000	66.36318000	43.10408000
61.79999650	0.00000000	66.36318000	35.80217000
61.99999649	0.00000000	65.93873000	27.34990000
62.19999648	0.00000000	64.82529000	20.05413000
62.39999647	0.00000000	63.66264000	15.82800000
62.59999645	0.00000000	62.91216000	15.78494000
62.79999644	0.00000000	62.50000000	19.59276000
62.99999643	0.00000000	62.91216000	25.81816000
63.19999642	0.00000000	63.71186000	33.53223000
63.39999641	0.00000000	65.24360000	41.19094000
63.59999639	0.00000000	67.15059000	46.21678000
63.79999638	0.00000000	68.27633000	47.84079000
63.99999637	0.00000000	68.73769000	46.25984000
64.19999636	0.00000000	68.27633000	41.65846000
64.39999635	0.00000000	67.15059000	35.11319000
64.59999634	0.00000000	65.20053000	28.55561000
64.79999632	0.00000000	63.33661000	23.12377000
64.99999631	0.00000000	62.17396000	20.01107000
65.19999630	0.00000000	62.13090000	19.59276000
65.39999629	0.00000000	62.86909000	21.49975000
65.59999628	0.00000000	63.71186000	25.35679000
65.79999626	0.00000000	65.24360000	30.00123000
65.99999625	0.00000000	67.10752000	34.64567000
66.19999624	0.00000000	67.85802000	38.54576000
66.39999623	0.00000000	67.52583000	40.87721000
66.59999622	0.00000000	66.36318000	41.70152000
66.79999620	0.00000000	64.82529000	40.92027000
66.99999619	0.00000000	63.33661000	39.00713000
67.19999618	0.00000000	62.59227000	36.26968000
67.39999617	0.00000000	63.33661000	33.15699000
67.59999616	0.00000000	64.86835000	30.00123000
67.79999615	0.00000000	66.82455000	26.88853000
67.99999613	0.00000000	69.10678000	24.19414000
68.19999612	0.00000000	70.60162000	22.61319000
68.39999611	0.00000000	70.64468000	22.28100000
68.59999610	0.00000000	69.43897000	23.44980000
68.79999609	0.00000000	67.10752000	26.55635000
68.99999607	0.00000000	63.57652000	30.41954000
69.19999606	0.00000000	59.79945000	34.73794000
69.39999605	0.00000000	56.68676000	38.96407000
69.59999604	0.00000000	55.61023000	42.03371000
69.79999603	0.00000000	56.73597000	43.14714000
69.99999601	0.00000000	60.26082000	41.61540000
70.19999600	0.00000000	65.24360000	37.75836000
70.39999599	0.00000000	70.68774000	32.73868000
70.59999598	0.00000000	75.25220000	27.30684000
70.79999597	0.00000000	77.57751000	22.69931000
70.99999596	0.00000000	76.83316000	20.01107000
71.19999594	0.00000000	73.72047000	20.01107000
71.39999593	0.00000000	68.64542000	22.65625000
71.59999592	0.00000000	62.13090000	26.88238000
71.79999591	0.00000000	56.36073000	31.53297000
71.99999590	0.00000000	52.82357000	35.80217000
72.19999588	0.00000000	51.66092000	38.87795000
72.39999587	0.00000000	53.24187000	40.03444000
72.59999586	0.00000000	57.51722000	38.92101000
72.79999585	0.00000000	63.66264000	36.26968000
72.99999584	0.00000000	70.17716000	33.15699000
73.19999582	0.00000000	74.83390000	30.08735000
73.39999581	0.00000000	76.83316000	27.81127000
73.59999580	0.00000000	76.45792000	27.39296000
73.79999579	0.00000000	73.72047000	28.46333000
73.99999578	0.00000000	69.10678000	30.00123000
74.19999577	0.00000000	63.71186000	31.53297000
74.39999575	0.00000000	59.05511000	32.64640000
74.59999574	0.00000000	55.98548000	32.64640000
74.79999573	0.00000000	55.19808000	31.53297000
74.99999572	0.00000000	57.09892000	30.04429000
75.19999571	0.00000000	60.50073000	28.88779000
75.39999569	0.00000000	64.40699000	28.55561000
75.59999568	0.00000000	67.85802000	29.34916000
75.79999567	0.00000000	70.22637000	31.66830000
75.99999566	0.00000000	71.01993000	34.68873000
76.19999565	0.00000000	70.68774000	37.43233000
76.39999563	0.00000000	69.48203000	39.29626000
76.59999562	0.00000000	67.57505000	39.61614000
76.79999561	0.00000000	65.33588000	37.34006000
76.99999560	0.00000000	64.17323000	33.48917000
77.19999559	0.00000000	64.45004000	29.20767000
77.39999558	0.00000000	64.78223000	24.61245000
77.59999556	0.00000000	64.82529000	21.59203000
77.79999555	0.00000000	64.82529000	21.16757000
77.99999554	0.00000000	64.78223000	23.07455000
78.19999553	0.00000000	64.40699000	26.97465000
78.39999552	0.00000000	63.66264000	31.99434000
78.59999550	0.00000000	63.28740000	37.42618000
78.79999549	0.00000000	63.28740000	41.99065000
78.99999548	0.00000000	63.75492000	44.30979000
79.19999547	0.00000000	65.29281000	43.57160000
79.39999546	0.00000000	67.57505000	40.50196000
79.59999544	0.00000000	69.48203000	35.85138000
79.79999543	0.00000000	70.64468000	30.46260000
79.99999542	0.00000000	70.64468000	25.86122000
80.19999541	0.00000000	69.48203000	23.07455000
80.39999540	0.00000000	67.52583000	22.28100000
80.59999539	0.00000000	64.82529000	23.07455000
80.79999537	0.00000000	62.17396000	25.77510000
80.99999536	0.00000000	60.63607000	29.58292000
81.19999535	0.00000000	60.59301000	33.11393000
81.39999534	0.00000000	61.75566000	36.26968000
81.59999533	0.00000000	63.71186000	38.96407000
81.79999531	0.00000000	66.40624000	40.50196000
81.99999530	0.00000000	69.06373000	40.50196000
82.19999529	0.00000000	70.64468000	38.96407000
82.39999528	0.00000000	71.06299000	36.31274000
82.59999527	0.00000000	70.60162000	33.57529000
82.79999525	0.00000000	68.68848000	31.15772000
82.99999524	0.00000000	65.66806000	28.46333000
83.19999523	0.00000000	63.37967000	26.14419000
83.39999522	0.00000000	62.17396000	24.98154000
83.59999521	0.00000000	62.17396000	24.56939000
83.79999520	0.00000000	63.24434000	25.44291000
83.99999518	0.00000000	64.40699000	27.72515000
84.19999517	0.00000000	65.20053000	31.20078000
84.39999516	0.00000000	65.98794000	34.68873000
84.59999515	0.00000000	66.36318000	37.80758000
84.79999514	0.00000000	66.40624000	40.12672000
84.99999512	0.00000000	66.40624000	40.82800000
85.19999511	0.00000000	66.40624000	39.70842000
85.39999510	0.00000000	66.40624000	36.60187000
85.59999509	0.00000000	66.44931000	32.73868000
85.79999508	0.00000000	66.82455000	28.46333000
85.99999506	0.00000000	67.52583000	24.65551000
86.19999505	0.00000000	67.52583000	22.69931000
86.39999504	0.00000000	66.78149000	22.69931000
86.59999503	0.00000000	65.98794000	24.65551000
86.79999502	0.00000000	64.82529000	28.51255000
86.99999501	0.00000000	63.71186000	33.11393000
87.19999499	0.00000000	63.28740000	37.38312000
87.39999498	0.00000000	63.28740000	40.40969000
87.59999497	0.00000000	63.71186000	41.19709000
87.79999496	0.00000000	64.86835000	39.29626000
87.99999495	0.00000000	66.40624000	35.85138000
88.19999493	0.00000000	67.94415000	31.53297000
88.39999492	0.00000000	69.06373000	26.97465000
88.59999491	0.00000000	69.06373000	23.54207000
88.79999490	0.00000000	67.94415000	22.74852000
88.99999489	0.00000000	66.45546000	24.23720000
89.19999487	0.00000000	65.24360000	27.34990000
89.39999486	0.00000000	64.49311000	31.57603000
89.59999485	0.00000000	64.03790000	35.85138000
89.79999484	0.00000000	64.07480000	39.24704000
89.99999483	0.00000000	64.08095000	40.77264000
90.19999482	0.00000000	64.86835000	39.20398000
90.39999480	0.00000000	65.93873000	35.47613000
90.59999479	0.00000000	66.40624000	30.79478000
90.79999478	0.00000000	66.82455000	26.59941000
90.99999477	0.00000000	67.52583000	23.49286000
91.19999476	0.00000000	67.52583000	22.79158000
91.39999474	0.00000000	66.82455000	24.65551000
91.59999473	0.00000000	66.44931000	28.51255000
91.79999472	0.00000000	66.40624000	33.11393000
91.99999471	0.00000000	66.40624000	37.34006000
92.19999470	0.00000000	66.40624000	40.03444000
92.39999468	0.00000000	66.40624000	40.40969000
92.59999467	0.00000000	66.36318000	38.50270000
92.79999466	0.00000000	65.98794000	34.64567000
92.99999465	0.00000000	65.20053000	30.09350000
93.19999464	0.00000000	64.45004000	26.19340000
93.39999463	0.00000000	63.66264000	23.91117000
93.59999461	0.00000000	63.33661000	23.54207000
93.79999460	0.00000000	63.71186000	25.86122000
93.99999459	0.00000000	64.91756000	30.04429000
94.19999458	0.00000000	66.82455000	34.64567000
94.39999457	0.00000000	69.15600000	38.45964000
94.59999455	0.00000000	71.01993000	40.03444000
94.79999454	0.00000000	71.85040000	39.29626000
94.99999453	0.00000000	71.43823000	36.96481000
95.19999452	0.00000000	70.26943000	33.11393000
95.39999451	0.00000000	67.90108000	28.97392000
95.59999449	0.00000000	64.87450000	26.23647000
95.79999448	0.00000000	62.13090000	25.44291000
95.99999447	0.00000000	60.21776000	26.23647000
96.19999446	0.00000000	59.43036000	28.88779000
96.39999445	0.00000000	60.26082000	32.32037000
96.59999444	0.00000000	62.59227000	35.06397000
96.79999442	0.00000000	66.45546000	37.38312000
96.99999441	0.00000000	70.64468000	38.45349000
97.19999440	0.00000000	73.76353000	37.38312000
97.39999439	0.00000000	75.30142000	35.11319000
97.59999438	0.00000000	74.92618000	32.78174000
97.79999436	0.00000000	72.60088000	30.46260000
97.99999435	0.00000000	69.15600000	28.97392000
98.19999434	0.00000000	65.24360000	28.93085000
98.39999433	0.00000000	61.75566000	30.00123000
98.59999432	0.00000000	59.05511000	31.15772000
98.79999430	0.00000000	57.89247000	31.95128000
98.99999429	0.00000000	58.63681000	32.73868000
99.19999428	0.00000000	60.59301000	33.11393000
99.39999427	0.00000000	63.71186000	33.15699000
99.59999426	0.00000000	67.57505000	33.15699000
99.79999425	0.00000000	71.01993000	33.15699000
99.99999423	0.00000000	73.34522000	33.20005000
100.19999422	0.00000000	73.76353000	33.57529000
100.39999421	0.00000000	72.64394000	34.31963000
100.59999420	0.00000000	70.68774000	34.64567000
100.79999419	0.00000000	67.94415000	34.27042000
100.99999417	0.00000000	64.87450000	33.11393000
101.19999416	0.00000000	62.17396000	31.53297000
101.39999415	0.00000000	60.59301000	29.62598000
101.59999414	0.00000000	60.17470000	27.72515000
101.79999413	0.00000000	60.59301000	26.97465000
101.99999411	0.00000000	62.13090000	27.34990000
102.19999410	0.00000000	64.45004000	28.93085000
102.39999409	0.00000000	66.78149000	31.57603000
102.59999408	0.00000000	69.10678000	34.27042000
102.79999407	0.00000000	70.64468000	36.22662000
102.99999406	0.00000000	71.06299000	37.38312000
103.19999404	0.00000000	70.68774000	37.34006000
103.39999403	0.00000000	69.53124000	35.80217000
103.59999402	0.00000000	67.94415000	33.11393000
103.79999401	0.00000000	66.03100000	30.04429000
103.99999400	0.00000000	64.08095000	27.34990000
104.19999398	0.00000000	62.91216000	25.81816000
104.39999397	0.00000000	62.13090000	25.77510000
104.59999396	0.00000000	62.17396000	26.93159000
104.79999395	0.00000000	63.33661000	28.88164000
104.99999394	0.00000000	65.20053000	31.62524000
105.19999392	0.00000000	67.15059000	34.64567000
105.39999391	0.00000000	68.27633000	36.92175000
105.59999390	0.00000000	68.73769000	37.34006000
105.79999389	0.00000000	68.32554000	36.22662000
105.99999388	0.00000000	67.57505000	34.27042000
106.19999387	0.00000000	66.40624000	31.62524000
106.39999385	0.00000000	65.29281000	29.29995000
106.59999384	0.00000000	64.86835000	28.13730000
106.79999383	0.00000000	64.86835000	27.76821000
106.99999382	0.00000000	65.24360000	28.93085000
107.19999381	0.00000000	66.03100000	31.15772000
107.39999379	0.00000000	66.78149000	33.06471000
107.59999378	0.00000000	67.57505000	34.27042000
107.79999377	0.00000000	67.95029000	34.69488000
107.99999376	0.00000000	67.95029000	34.64567000
108.19999375	0.00000000	67.52583000	33.85211000
108.39999374	0.00000000	66.40624000	31.99434000
108.59999372	0.00000000	65.29281000	30.46260000
108.79999371	0.00000000	64.86835000	29.66904000
108.99999370	0.00000000	64.86835000	29.30610000
109.19999369	0.00000000	65.24360000	30.08735000
109.39999368	0.00000000	66.03100000	31.57603000
109.59999366	0.00000000	66.82455000	33.15699000
109.79999365	0.00000000	67.99335000	34.68873000
109.99999364	0.00000000	69.10678000	35.80217000
110.19999363	0.00000000	69.48203000	35.85138000
110.39999362	0.00000000	69.10678000	35.11319000
110.59999360	0.00000000	67.94415000	34.31963000
110.79999359	0.00000000	66.45546000	33.11393000
110.99999358	0.00000000	65.29281000	31.62524000
111.19999357	0.00000000	64.86835000	30.46260000
111.39999356	0.00000000	64.82529000	30.04429000
111.59999355	0.00000000	64.86835000	30.04429000
111.79999353	0.00000000	65.24360000	30.46260000
111.99999352	0.00000000	66.03100000	31.57603000
112.19999351	0.00000000	66.78149000	32.73868000
112.39999350	0.00000000	67.57505000	33.53223000
112.59999349	0.00000000	67.95029000	34.31963000
112.79999347	0.00000000	67.99335000	34.69488000
112.99999346	0.00000000	67.95029000	34.69488000
113.19999345	0.00000000	67.57505000	34.31963000
113.39999344	0.00000000	66.82455000	33.57529000
113.59999343	0.00000000	66.44931000	33.15699000
113.79999341	0.00000000	66.40624000	32.73868000
113.99999340	0.00000000	66.40624000	31.99434000
114.19999339	0.00000000	66.40624000	31.61909000
114.39999338	0.00000000	66.40624000	31.53297000
114.59999337	0.00000000	66.44931000	31.15772000
114.79999336	0.00000000	66.78149000	30.41954000
114.99999334	0.00000000	67.19365000	30.09350000
115.19999333	0.00000000	67.20596000	30.41954000
115.39999332	0.00000000	67.57505000	31.15772000
115.59999331	0.00000000	67.52583000	31.57603000
115.79999330	0.00000000	66.82455000	31.99434000
115.99999328	0.00000000	66.44931000	32.78174000
116.19999327	0.00000000	66.40624000	33.53223000
116.39999326	0.00000000	66.40624000	34.31963000
116.59999325	0.00000000	66.40624000	34.64567000
116.79999324	0.00000000	66.40624000	34.31963000
116.99999322	0.00000000	66.40624000	33.53223000
117.19999321	0.00000000	66.44931000	32.73868000
117.39999320	0.00000000	66.82455000	31.53297000
117.59999319	0.00000000	67.61810000	30.04429000
117.79999318	0.00000000	68.32554000	28.93085000
117.99999317	0.00000000	68.73769000	28.88779000
118.19999315	0.00000000	68.36859000	29.62598000
118.39999314	0.00000000	67.99335000	30.37647000
118.59999313	0.00000000	67.52583000	31.20078000
118.79999312	0.00000000	66.40624000	31.95128000
118.99999311	0.00000000	65.24360000	32.73868000
119.19999309	0.00000000	64.49311000	33.11393000
119.39999308	0.00000000	64.08095000	33.15699000
119.59999307	0.00000000	64.45004000	33.15699000
119.79999306	0.00000000	64.86835000	33.11393000
119.99999305	0.00000000	65.71111000	32.73868000
120.19999303	0.00000000	67.57505000	31.99434000
120.39999302	0.00000000	69.06373000	31.57603000
120.59999301	0.00000000	69.53124000	31.15772000
120.79999300	0.00000000	69.53124000	30.46260000
120.99999299	0.00000000	69.10678000	30.46260000
121.19999298	0.00000000	67.99335000	31.15772000
121.39999296	0.00000000	66.82455000	31.53297000
121.59999295	0.00000000	66.03100000	31.57603000
121.79999294	0.00000000	65.24360000	31.61909000
121.99999293	0.00000000	64.86835000	31.99434000
122.19999292	0.00000000	64.82529000	32.73868000
122.39999290	0.00000000	64.86835000	33.11393000
122.59999289	0.00000000	65.29281000	33.15699000
122.79999288	0.00000000	66.40624000	33.15699000
122.99999287	0.00000000	67.57505000	33.15699000
123.19999286	0.00000000	68.36859000	33.15699000
123.39999284	0.00000000	69.15600000	33.15699000
123.59999283	0.00000000	69.53124000	33.11393000
123.79999282	0.00000000	69.53124000	32.73868000
123.99999281	0.00000000	69.15600000	31.99434000
124.19999280	0.00000000	68.36859000	31.61909000
124.39999279	0.00000000	67.61810000	31.57603000
124.59999277	0.00000000	66.78149000	31.57603000
124.79999276	0.00000000	66.03100000	31.61909000
124.99999275	0.00000000	65.24360000	31.99434000
125.19999274	0.00000000	64.91756000	32.78174000
125.39999273	0.00000000	65.24360000	33.53223000
125.59999271	0.00000000	66.03100000	34.31963000
125.79999270	0.00000000	66.78149000	34.69488000
125.99999269	0.00000000	67.61810000	34.69488000
126.19999268	0.00000000	68.36859000	34.31963000
126.39999267	0.00000000	69.15600000	33.57529000
126.59999265	0.00000000	69.53124000	33.20005000
126.79999264	0.00000000	69.53124000	33.11393000
126.99999263	0.00000000	69.10678000	32.73868000
127.19999262	0.00000000	67.99335000	31.99434000
127.39999261	0.00000000	66.82455000	31.61909000
127.59999260	0.00000000	66.03100000	31.57603000
127.79999258	0.00000000	65.24360000	31.57603000
127.99999257	0.00000000	64.91756000	31.61909000
128.19999256	0.00000000	65.29281000	31.99434000
128.39999255	0.00000000	66.45546000	32.73868000
128.59999254	0.00000000	67.94415000	33.11393000
128.79999252	0.00000000	69.10678000	33.15699000
128.99999251	0.00000000	69.48203000	33.15699000
129.19999250	0.00000000	69.15600000	33.11393000
129.39999249	0.00000000	68.36859000	32.73868000
129.59999248	0.00000000	67.61810000	31.99434000
129.79999246	0.00000000	66.78149000	31.61909000
129.99999245	0.00000000	66.03100000	31.57603000
130.19999244	0.00000000	65.24360000	31.57603000
130.39999243	0.00000000	64.91756000	31.61909000
130.59999242	0.00000000	65.29281000	31.99434000
130.79999241	0.00000000	66.40624000	32.73868000
130.99999239	0.00000000	67.52583000	33.11393000
131.19999238	0.00000000	67.99335000	33.11393000
131.39999237	0.00000000	68.36859000	32.73868000
131.59999236	0.00000000	68.73769000	31.99434000
131.79999235	0.00000000	68.36859000	31.61909000
131.99999233	0.00000000	67.99335000	31.53297000
132.19999232	0.00000000	67.57505000	31.20078000
132.39999231	0.00000000	66.82455000	30.83784000
132.59999230	0.00000000	66.44931000	31.20078000
132.79999229	0.00000000	66.40624000	31.57603000
132.99999227	0.00000000	66.44931000	31.99434000
133.19999226	0.00000000	66.82455000	32.73868000
133.39999225	0.00000000	67.52583000	33.11393000
133.59999224	0.00000000	67.57505000	33.15699000
133.79999223	0.00000000	67.20596000	33.15699000
133.99999222	0.00000000	67.19365000	33.11393000
134.19999220	0.00000000	66.78149000	32.73868000
134.39999219	0.00000000	66.49852000	31.95128000
134.59999218	0.00000000	66.78149000	31.15772000
134.79999217	0.00000000	67.19365000	30.08735000
134.99999216	0.00000000	67.20596000	29.67520000
135.19999214	0.00000000	67.61810000	30.40723000
135.39999213	0.00000000	67.95029000	30.74557000
135.59999212	0.00000000	67.99335000	31.25000000
135.79999211	0.00000000	67.95029000	31.95128000
135.99999210	0.00000000	67.57505000	32.73868000
136.19999208	0.00000000	66.82455000	33.11393000
136.39999207	0.00000000	66.44931000	33.15699000
136.59999206	0.00000000	66.40624000	33.15699000
136.79999205	0.00000000	66.40624000	33.11393000
136.99999204	0.00000000	66.44931000	32.73868000
137.19999203	0.00000000	66.82455000	31.99434000
137.39999201	0.00000000	67.61810000	31.61909000
137.59999200	0.00000000	68.32554000	31.57603000
137.79999199	0.00000000	68.78075000	31.57603000
137.99999198	0.00000000	68.74384000	31.57603000
138.19999197	0.00000000	68.78075000	31.57603000
138.39999195	0.00000000	68.32554000	31.57603000
138.59999194	0.00000000	67.61810000	31.57603000
138.79999193	0.00000000	66.82455000	31.61909000
138.99999192	0.00000000	66.44931000	31.99434000
139.19999191	0.00000000	66.40624000	32.78174000
139.39999189	0.00000000	66.40624000	33.53223000
139.59999188	0.00000000	66.44931000	34.31963000
139.79999187	0.00000000	66.82455000	34.64567000
139.99999186	0.00000000	67.61810000	34.31963000
140.19999185	0.00000000	68.32554000	33.53223000
140.39999184	0.00000000	68.73769000	32.78174000
140.59999182	0.00000000	68.36859000	31.99434000
140.79999181	0.00000000	68.03641000	31.61909000
140.99999180	0.00000000	67.95029000	31.57603000
141.19999179	0.00000000	67.57505000	31.57603000
141.39999178	0.00000000	66.82455000	31.61909000
141.59999176	0.00000000	66.44931000	31.99434000
141.79999175	0.00000000	66.44931000	32.78174000
141.99999174	0.00000000	66.82455000	33.53223000
142.19999173	0.00000000	67.57505000	34.31963000
142.39999172	0.00000000	67.95029000	34.69488000
142.59999170	0.00000000	67.99335000	34.69488000
142.79999169	0.00000000	67.99335000	34.31963000
142.99999168	0.00000000	67.99335000	33.53223000
143.19999167	0.00000000	67.99335000	32.78174000
143.39999166	0.00000000	67.99335000	31.99434000
143.59999165	0.00000000	67.99335000	31.61909000
143.79999163	0.00000000	67.99335000	31.57603000
143.99999162	0.00000000	67.99335000	31.61909000
144.19999161	0.00000000	67.99335000	31.99434000
144.39999160	0.00000000	67.99335000	32.78174000
144.59999159	0.00000000	67.99335000	33.53223000
144.79999157	0.00000000	67.99335000	34.31963000
144.99999156	0.00000000	67.99335000	34.64567000
145.19999155	0.00000000	67.99335000	34.31963000
145.39999154	0.00000000	67.95029000	33.57529000
145.59999153	0.00000000	67.57505000	33.15699000
145.79999151	0.00000000	66.82455000	32.73868000
145.99999150	0.00000000	66.44931000	31.95128000
146.19999149	0.00000000	66.40624000	31.25000000
146.39999148	0.00000000	66.49852000	30.83784000
146.59999147	0.00000000	67.19980000	31.20078000
146.79999146	0.00000000	68.31324000	31.57603000
146.99999144	0.00000000	68.32554000	31.99434000
147.19999143	0.00000000	68.03641000	32.73868000
147.39999142	0.00000000	67.99335000	33.11393000
147.59999141	0.00000000	67.99335000	33.15699000
147.79999140	0.00000000	67.99335000	33.15699000
147.99999138	0.00000000	67.95029000	33.15699000
148.19999137	0.00000000	67.57505000	33.11393000
148.39999136	0.00000000	66.82455000	32.73868000
148.59999135	0.00000000	66.44931000	31.99434000
148.79999134	0.00000000	66.44931000	31.61909000
148.99999132	0.00000000	66.82455000	31.57603000
149.19999131	0.00000000	67.57505000	31.57603000
149.39999130	0.00000000	67.95029000	31.57603000
149.59999129	0.00000000	67.99335000	31.57603000
149.79999128	0.00000000	67.99335000	31.57603000
149.99999127	0.00000000	67.99335000	31.61909000
150.19999125	0.00000000	67.99335000	31.99434000
150.39999124	0.00000000	67.99335000	32.73868000
150.59999123	0.00000000	67.95029000	33.11393000
150.79999122	0.00000000	67.57505000	33.15699000
150.99999121	0.00000000	66.82455000	33.15699000
151.19999119	0.00000000	66.44931000	33.11393000
151.39999118	0.00000000	66.44931000	32.73868000
151.59999117	0.00000000	66.82455000	31.99434000
151.79999116	0.00000000	67.57505000	31.61909000
151.99999115	0.00000000	67.95029000	31.57603000
152.19999113	0.00000000	67.99335000	31.57603000
152.39999112	0.00000000	67.99335000	31.57603000
152.59999111	0.00000000	67.99335000	31.57603000
152.79999110	0.00000000	67.99335000	31.61909000
152.99999109	0.00000000	67.99335000	31.99434000
153.19999108	0.00000000	67.99335000	32.73868000
153.39999106	0.00000000	67.99335000	33.11393000
153.59999105	0.00000000	67.95029000	33.15699000
153.79999104	0.00000000	67.57505000	33.15699000
153.99999103	0.00000000	66.82455000	33.15699000
154.19999102	0.00000000	66.44931000	33.15699000
154.39999100	0.00000000	66.44931000	33.15699000
154.59999099	0.00000000	66.82455000	33.15699000
154.79999098	0.00000000	67.57505000	33.15699000
154.99999097	0.00000000	67.95029000	33.15699000
155.19999096	0.00000000	67.99335000	33.11393000
155.39999094	0.00000000	68.03641000	32.78174000
155.59999093	0.00000000	68.36859000	32.41265000
155.79999092	0.00000000	68.73769000	32.78174000
155.99999091	0.00000000	68.36859000	33.11393000
156.19999090	0.00000000	68.03641000	33.15699000
156.39999089	0.00000000	67.95029000	33.15699000
156.59999087	0.00000000	67.61810000	33.20005000
156.79999086	0.00000000	67.20596000	33.57529000
156.99999085	0.00000000	67.24286000	34.31963000
157.19999084	0.00000000	67.20596000	34.64567000
157.39999083	0.00000000	67.61810000	34.31963000
157.59999081	0.00000000	67.95029000	33.57529000
157.79999080	0.00000000	67.99335000	33.20005000
157.99999079	0.00000000	68.03641000	33.15699000
158.19999078	0.00000000	68.41166000	33.11393000
158.39999077	0.00000000	69.15600000	32.78174000
158.59999075	0.00000000	69.53124000	32.41265000
158.79999074	0.00000000	69.53124000	32.78174000
158.99999073	0.00000000	69.15600000	33.11393000
159.19999072	0.00000000	68.41166000	33.15699000
159.39999071	0.00000000	68.03641000	33.20005000
159.59999070	0.00000000	67.99335000	33.57529000
159.79999068	0.00000000	67.99335000	34.27042000
159.99999067	0.00000000	67.99335000	34.27042000
160.19999066	0.00000000	67.99335000	33.57529000
160.39999065	0.00000000	67.99335000	33.20005000
160.59999064	0.00000000	67.99335000	33.11393000
160.79999062	0.00000000	67.99335000	32.73868000
160.99999061	0.00000000	67.99335000	31.99434000
161.19999060	0.00000000	67.99335000	31.61909000
161.39999059	0.00000000	67.99335000	31.61909000
161.59999058	0.00000000	68.03641000	31.99434000
161.79999056	0.00000000	68.36859000	32.73868000
161.99999055	0.00000000	68.78075000	33.11393000
162.19999054	0.00000000	68.74384000	33.15699000
162.39999053	0.00000000	68.82381000	33.15699000
162.59999052	0.00000000	68.74384000	33.15699000
162.79999051	0.00000000	68.78075000	33.15699000
162.99999049	0.00000000	68.36859000	33.15699000
163.19999048	0.00000000	68.03641000	33.11393000
163.39999047	0.00000000	67.95029000	32.73868000
163.59999046	0.00000000	67.61810000	31.99434000
163.79999045	0.00000000	67.24901000	31.61909000
163.99999043	0.00000000	67.61810000	31.57603000
164.19999042	0.00000000	67.95029000	31.57603000
164.39999041	0.00000000	67.99335000	31.57603000
164.59999040	0.00000000	67.99335000	31.57603000
164.79999039	0.00000000	67.99335000	31.57603000
164.99999037	0.00000000	67.99335000	31.61909000
165.19999036	0.00000000	67.99335000	31.95128000
165.39999035	0.00000000	67.99335000	32.32037000
165.59999034	0.00000000	67.99335000	31.95128000
165.79999033	0.00000000	67.99335000	31.61909000
165.99999032	0.00000000	67.99335000	31.61909000
166.19999030	0.00000000	67.99335000	31.99434000
166.39999029	0.00000000	67.99335000	32.73868000
166.59999028	0.00000000	67.99335000	33.06471000
166.79999027	0.00000000	67.99335000	32.73868000
166.99999026	0.00000000	67.99335000	31.99434000
167.19999024	0.00000000	67.99335000	31.66830000
167.39999023	0.00000000	68.03641000	31.99434000
167.59999022	0.00000000	68.36859000	32.68946000
167.79999021	0.00000000	68.78075000	32.73868000
167.99999020	0.00000000	68.78691000	32.41265000
168.19999018	0.00000000	69.15600000	32.78174000
168.39999017	0.00000000	69.10678000	33.11393000
168.59999016	0.00000000	68.41166000	33.15699000
168.79999015	0.00000000	68.03641000	33.15699000
168.99999014	0.00000000	67.99335000	33.15699000
169.19999013	0.00000000	67.99335000	33.15699000
169.39999011	0.00000000	67.99335000	33.15699000
169.59999010	0.00000000	67.99335000	33.15699000
169.79999009	0.00000000	67.99335000	33.15699000
169.99999008	0.00000000	67.99335000	33.15699000
170.19999007	0.00000000	67.99335000	33.15699000
170.39999005	0.00000000	67.99335000	33.15699000
170.59999004	0.00000000	68.03641000	33.15699000
170.79999003	0.00000000	68.41166000	33.15699000
170.99999002	0.00000000	69.15600000	33.15699000
171.19999001	0.00000000	69.48203000	33.11393000
171.39998999	0.00000000	69.19906000	32.78174000
171.59998998	0.00000000	68.82996000	32.41265000
171.79998997	0.00000000	69.15600000	32.78174000
171.99998996	0.00000000	69.10678000	33.11393000
172.19998995	0.00000000	68.41166000	33.15699000
172.39998994	0.00000000	68.08563000	33.15699000
172.59998992	0.00000000	68.41166000	33.15699000
172.79998991	0.00000000	69.10678000	33.15699000
172.99998990	0.00000000	69.15600000	33.15699000
173.19998989	0.00000000	68.78691000	33.15699000
173.39998988	0.00000000	68.78075000	33.15699000
173.59998986	0.00000000	68.41166000	33.15699000
173.79998985	0.00000000	68.41166000	33.15699000
173.99998984	0.00000000	68.78075000	33.15699000
174.19998983	0.00000000	68.74384000	33.15699000
174.39998982	0.00000000	68.82381000	33.15699000
174.59998980	0.00000000	68.74384000	33.15699000
174.79998979	0.00000000	68.78075000	33.15699000
174.99998978	0.00000000	68.36859000	33.15699000
175.19998977	0.00000000	68.03641000	33.15699000
175.39998976	0.00000000	67.99335000	33.15699000
175.59998975	0.00000000	67.99335000	33.15699000
175.79998973	0.00000000	67.99335000	33.15699000
175.99998972	0.00000000	67.99335000	33.15699000
176.19998971	0.00000000	67.99335000	33.15699000
176.39998970	0.00000000	67.99335000	33.15699000
176.59998969	0.00000000	68.03641000	33.15699000
176.79998967	0.00000000	68.41166000	33.11393000
176.99998966	0.00000000	69.10678000	32.73868000
177.19998965	0.00000000	69.10678000	32.04355000
177.39998964	0.00000000	68.41166000	31.99434000
177.59998963	0.00000000	68.03641000	32.32037000
177.79998961	0.00000000	67.99335000	31.99434000
177.99998960	0.00000000	67.99335000	32.04355000
178.19998959	0.00000000	67.99335000	32.73868000
178.39998958	0.00000000	68.03641000	33.11393000
178.59998957	0.00000000	68.36859000	33.15699000
178.79998956	0.00000000	68.78075000	33.15699000
178.99998954	0.00000000	68.78691000	33.15699000
179.19998953	0.00000000	69.15600000	33.15699000
179.39998952	0.00000000	69.10678000	33.15699000
179.59998951	0.00000000	68.41166000	33.11393000
179.79998950	0.00000000	68.03641000	32.78174000
179.99998948	0.00000000	67.99335000	32.41265000
180.19998947	0.00000000	68.03641000	32.73868000
180.39998946	0.00000000	68.41166000	32.68946000
180.59998945	0.00000000	69.10678000	32.04355000
180.79998944	0.00000000	69.10678000	32.04355000
180.99998942	0.00000000	68.41166000	32.73868000
181.19998941	0.00000000	68.03641000	33.11393000
181.39998940	0.00000000	67.99335000	33.15699000
181.59998939	0.00000000	68.03641000	33.15699000
181.79998938	0.00000000	68.41166000	33.15699000
181.99998937	0.00000000	69.15600000	33.15699000
182.19998935	0.00000000	69.53124000	33.15699000
182.39998934	0.00000000	69.57431000	33.11393000
182.59998933	0.00000000	69.57431000	32.73868000
182.79998932	0.00000000	69.53124000	31.99434000
182.99998931	0.00000000	69.19906000	31.61909000
183.19998929	0.00000000	68.82996000	31.57603000
183.39998928	0.00000000	69.15600000	31.61909000
183.59998927	0.00000000	69.10678000	31.99434000
183.79998926	0.00000000	68.41166000	32.73868000
183.99998925	0.00000000	68.03641000	33.11393000
184.19998923	0.00000000	67.99335000	33.15699000
184.39998922	0.00000000	67.99335000	33.15699000
184.59998921	0.00000000	67.99335000	33.15699000
184.79998920	0.00000000	67.99335000	33.15699000
184.99998919	0.00000000	68.03641000	33.15699000
185.19998918	0.00000000	68.41166000	33.15699000
185.39998916	0.00000000	69.10678000	33.15699000
185.59998915	0.00000000	69.15600000	33.11393000
185.79998914	0.00000000	68.82996000	32.78174000
185.99998913	0.00000000	69.19906000	32.36959000
186.19998912	0.00000000	69.53124000	32.36343000
186.39998910	0.00000000	69.57431000	31.99434000
186.59998909	0.00000000	69.53124000	32.04355000
186.79998908	0.00000000	69.15600000	32.73868000
186.99998907	0.00000000	68.46087000	33.15699000
187.19998906	0.00000000	68.41166000	33.53223000
187.39998904	0.00000000	68.73769000	33.94439000
187.59998903	0.00000000	68.36859000	33.90748000
187.79998902	0.00000000	68.08563000	33.98745000
187.99998901	0.00000000	68.41166000	33.90748000
188.19998900	0.00000000	69.15600000	33.94439000
188.39998899	0.00000000	69.53124000	33.53223000
188.59998897	0.00000000	69.57431000	33.20005000
188.79998896	0.00000000	69.57431000	33.11393000
188.99998895	0.00000000	69.57431000	32.78174000
189.19998894	0.00000000	69.57431000	32.41265000
189.39998893	0.00000000	69.57431000	32.78174000
189.59998891	0.00000000	69.57431000	33.11393000
189.79998890	0.00000000	69.57431000	33.15699000
189.99998889	0.00000000	69.57431000	33.15699000
190.19998888	0.00000000	69.53124000	33.20005000
190.39998887	0.00000000	69.19906000	33.57529000
190.59998885	0.00000000	68.82996000	34.31963000
190.79998884	0.00000000	69.15600000	34.64567000
190.99998883	0.00000000	69.15600000	34.31963000
191.19998882	0.00000000	68.82996000	33.57529000
191.39998881	0.00000000	69.19906000	33.20005000
191.59998880	0.00000000	69.53124000	33.15699000
191.79998878	0.00000000	69.57431000	33.15699000
191.99998877	0.00000000	69.57431000	33.15699000
192.19998876	0.00000000	69.57431000	33.11393000
192.39998875	0.00000000	69.57431000	32.78174000
192.59998874	0.00000000	69.57431000	32.41265000
192.79998872	0.00000000	69.53124000	32.78174000
192.99998871	0.00000000	69.15600000	33.11393000
193.19998870	0.00000000	68.41166000	33.15699000
193.39998869	0.00000000	68.08563000	33.15699000
193.59998868	0.00000000	68.41166000	33.15699000
193.79998866	0.00000000	69.15600000	33.15699000
193.99998865	0.00000000	69.53124000	33.15699000
194.19998864	0.00000000	69.57431000	33.15699000
194.39998863	0.00000000	69.57431000	33.15699000
194.59998862	0.00000000	69.57431000	33.15699000
194.79998861	0.00000000	69.57431000	33.11393000
194.99998859	0.00000000	69.57431000	32.73868000
195.19998858	0.00000000	69.53124000	31.99434000
195.39998857	0.00000000	69.19906000	31.61909000
195.59998856	0.00000000	68.78691000	31.61909000
195.79998855	0.00000000	68.78075000	31.95128000
195.99998853	0.00000000	68.36859000	32.32037000
