Time	Channel A	Channel B	Channel C
(us)	(V)	(mV)	(mV)

-4.59999956	0.00000000	43.06717000	23.64050000
-4.39999957	0.00000000	42.73499000	23.26525000
-4.19999958	0.00000000	42.69193000	22.57013000
-3.99999959	0.00000000	42.69193000	22.57013000
-3.79999960	0.00000000	42.69193000	23.26525000
-3.59999962	0.00000000	42.73499000	23.64050000
-3.39999963	0.00000000	43.06717000	23.64050000
-3.19999964	0.00000000	43.43627000	23.26525000
-2.99999965	0.00000000	43.11023000	22.57013000
-2.79999966	0.00000000	43.11023000	22.57013000
-2.59999968	0.00000000	43.43627000	23.26525000
-2.39999969	0.00000000	43.06717000	23.64050000
-2.19999970	0.00000000	42.73499000	23.68356000
-1.99999971	0.00000000	42.69193000	23.68356000
-1.79999972	0.00000000	42.69193000	23.68356000
-1.59999973	0.00000000	42.73499000	23.68356000
-1.39999975	0.00000000	43.06717000	23.68356000
-1.19999976	0.00000000	43.43627000	23.68356000
-0.99999977	0.00000000	43.11023000	23.68356000
-0.79999978	0.00000000	43.15945000	23.68356000
-0.59999979	0.00000000	43.85457000	23.68356000
-0.39999981	0.15871060	44.22982000	23.68356000
-0.19999982	0.47736220	44.27288000	23.68356000
0.00000017	0.79601380	44.27288000	23.68356000
0.20000016	0.95533960	44.27288000	23.68356000
0.40000015	0.95533960	44.22982000	23.68356000
0.60000013	0.63668800	43.89763000	23.68356000
0.80000012	-0.15871060	43.48548000	23.68356000
1.00000011	-1.11466500	43.52239000	23.68356000
1.20000010	-2.07062000	43.44242000	23.68356000
1.40000009	-2.70792300	43.52239000	23.68356000
1.60000008	-2.70792300	43.48548000	23.68356000
1.80000006	-1.91129400	43.89763000	23.68356000
2.00000005	-0.31803640	44.22982000	23.68356000
2.20000004	1.75196900	44.22982000	23.68356000
2.40000003	3.66326300	43.89763000	23.68356000
2.60000002	5.09719500	43.52854000	23.68356000
2.80000000	5.25652100	43.85457000	23.64050000
2.99999999	3.98191400	43.80536000	23.26525000
3.19999998	1.43331700	43.11023000	22.52091000
3.39999997	-1.91129400	42.73499000	22.19488000
3.59999996	-5.25652100	42.73499000	22.52091000
3.79999994	-7.48646600	43.11023000	23.26525000
3.99999993	-7.96444400	43.85457000	23.64050000
4.19999992	-6.37180100	44.22982000	23.68356000
4.39999991	-3.02657500	44.27288000	23.68356000
4.59999990	1.27399100	44.27288000	23.68356000
4.79999989	5.57517200	44.27288000	23.64050000
4.99999987	8.60174700	44.22982000	23.26525000
5.19999986	9.39837600	43.85457000	22.52091000
5.39999985	7.96444400	43.11023000	22.14567000
5.59999984	4.45989200	42.73499000	22.10261000
5.79999983	-0.31803640	42.69193000	22.10261000
5.99999981	-4.93786900	42.73499000	22.10261000
6.19999980	-8.28309500	43.11023000	22.14567000
6.39999979	-9.55770200	43.85457000	22.52091000
6.59999978	-8.44242100	44.22982000	23.26525000
6.79999977	-5.25652100	44.27288000	23.64050000
6.99999975	-0.95533960	44.27288000	23.68356000
7.19999974	3.18590100	44.27288000	23.68356000
7.39999973	6.37180100	44.22982000	23.64050000
7.59999972	7.80511800	43.85457000	23.26525000
7.79999971	7.00848900	43.11023000	22.52091000
7.99999970	4.77854300	42.73499000	22.14567000
8.19999968	1.59264300	42.73499000	22.14567000
8.39999967	-1.59264300	43.11023000	22.52091000
8.59999966	-3.98191400	43.85457000	23.26525000
8.79999965	-5.09719500	44.22982000	23.64050000
8.99999964	-4.93786900	44.27288000	23.68356000
9.19999962	-3.50393700	44.27288000	23.68356000
9.39999961	-1.59264300	44.27288000	23.68356000
9.59999960	0.31803640	44.27288000	23.68356000
9.79999959	1.75196900	44.27288000	23.68356000
9.99999958	2.54859700	44.27288000	23.68356000
10.19999956	2.38927200	44.27288000	23.68356000
10.39999955	1.91129400	44.27288000	23.68356000
10.59999954	0.95533960	44.27288000	23.68356000
10.79999953	0.15871060	44.27288000	23.68356000
10.99999952	-0.47736220	44.27288000	23.68356000
11.19999951	-0.95533960	44.27288000	23.68356000
11.39999949	-0.95533960	44.27288000	23.68356000
11.59999948	-0.79601380	44.27288000	23.68356000
11.79999947	-0.63668800	44.27288000	23.68356000
11.99999946	-0.31803640	44.27288000	23.68356000
12.19999945	-0.15871060	44.27288000	23.68356000
12.39999943	0.00000000	44.27288000	23.68356000
12.59999942	0.00000000	44.27288000	23.68356000
12.79999941	0.00000000	44.27288000	23.68356000
12.99999940	0.00000000	44.27288000	23.68356000
13.19999939	0.00000000	44.27288000	23.68356000
13.39999937	0.00000000	44.27288000	23.68356000
13.59999936	0.00000000	44.27288000	23.68356000
13.79999935	0.00000000	44.27288000	23.68356000
13.99999934	0.00000000	44.27288000	23.68356000
14.19999933	-0.15871060	44.27288000	23.68356000
14.39999932	-0.15871060	44.27288000	23.68356000
14.59999930	-0.15871060	44.27288000	23.68356000
14.79999929	0.00000000	44.27288000	23.68356000
14.99999928	0.00000000	44.27288000	23.68356000
15.19999927	0.00000000	44.27288000	23.68356000
15.39999926	0.00000000	44.27288000	23.68356000
15.59999924	0.00000000	44.27288000	23.68356000
15.79999923	0.00000000	44.27288000	23.68356000
15.99999922	0.00000000	44.27288000	23.68356000
16.19999921	0.00000000	44.27288000	23.68356000
16.39999920	0.00000000	44.27288000	23.68356000
16.59999919	-0.15871060	44.27288000	23.68356000
16.79999917	-0.15871060	44.31594000	23.68356000
16.99999916	0.00000000	44.69119000	23.68356000
17.19999915	0.00000000	45.43553000	23.68356000
17.39999914	0.00000000	45.81078000	23.68356000
17.59999913	0.00000000	45.85384000	23.68356000
17.79999911	0.00000000	45.81078000	23.68356000
17.99999910	0.00000000	45.38631000	23.68356000
18.19999909	0.00000000	44.22982000	23.68356000
18.39999908	0.00000000	42.69193000	23.68356000
18.59999907	0.00000000	41.15403000	23.68356000
18.79999905	0.00000000	39.99754000	23.68356000
18.99999904	0.00000000	39.62229000	23.68356000
19.19999903	0.00000000	40.08366000	23.68356000
19.39999902	0.00000000	42.03986000	23.68356000
19.59999901	0.00000000	45.52165000	23.68356000
19.79999900	0.00000000	49.34793000	23.68356000
19.99999898	0.00000000	52.82972000	23.68356000
20.19999897	0.00000000	54.74286000	23.68356000
20.39999896	0.00000000	54.74286000	23.68356000
20.59999895	0.00000000	52.69439000	23.68356000
20.79999894	0.00000000	47.99458000	23.68356000
20.99999892	0.00000000	41.01870000	23.68356000
21.19999891	0.00000000	33.33538000	23.68356000
21.39999890	0.00000000	26.77780000	23.68356000
21.59999889	0.00000000	23.37598000	23.68356000
21.79999888	0.00000000	24.21875000	23.68356000
21.99999886	0.00000000	30.12426000	23.64050000
22.19999885	0.00000000	40.54502000	23.30832000
22.39999884	0.00000000	53.29109000	22.93922000
22.59999883	0.00000000	65.25590000	23.30832000
22.79999882	0.00000000	73.72047000	23.64050000
22.99999881	0.00000000	76.28567000	23.68356000
23.19999879	0.00000000	71.21062000	23.72662000
23.39999878	0.00000000	58.83981000	24.10187000
23.59999877	0.00000000	42.22441000	24.84621000
23.79999876	0.00000000	24.77854000	25.22145000
23.99999875	0.00000000	10.16855000	25.26452000
24.19999873	0.00000000	2.16535400	25.22145000
24.39999872	0.00000000	3.83858300	24.79700000
24.59999871	0.00000000	15.79724000	23.64050000
24.79999870	0.00000000	35.47613000	22.10261000
24.99999869	0.00000000	57.90477000	20.57087000
25.19999867	0.00000000	78.37721000	19.41437000
25.39999866	0.00000000	92.19364000	19.03912000
25.59999865	0.00000000	95.26328000	19.45743000
25.79999864	0.00000000	86.75565000	21.08145000
25.99999863	0.00000000	68.55930000	24.19414000
26.19999862	0.00000000	44.22982000	28.42027000
26.39999860	0.00000000	19.56816000	32.60334000
26.59999859	0.00000000	0.62746060	35.29773000
26.79999858	0.00000000	-8.25541300	35.67298000
26.99999857	0.00000000	-5.18577700	33.67372000
27.19999856	0.00000000	9.09817800	28.98007000
27.39999854	0.00000000	31.10236000	22.01649000
27.59999853	0.00000000	55.85630000	14.29626000
27.79999852	0.00000000	77.86663000	7.41879900
27.99999851	0.00000000	92.15059000	3.61097400
28.19999850	0.00000000	95.31249000	4.39837600
28.39999848	0.00000000	87.26623000	9.46727400
28.59999847	0.00000000	70.65083000	18.43012000
28.79999846	0.00000000	49.01575000	30.00123000
28.99999845	0.00000000	27.38066000	41.56618000
29.19999844	0.00000000	10.72219000	50.39985000
29.39999843	0.00000000	2.16535400	54.20767000
29.59999841	0.00000000	3.28494100	51.47023000
29.79999840	0.00000000	13.23819000	42.55044000
29.99999839	0.00000000	29.10310000	29.02928000
30.19999838	0.00000000	47.29946000	13.55807000
30.39999837	0.00000000	64.32701000	-0.33218500
30.59999835	0.00000000	76.28567000	-9.94709500
30.79999834	0.00000000	80.65329000	-12.59842000
30.99999833	0.00000000	77.21456000	-7.16658400
31.19999832	0.00000000	67.62426000	5.19192900
31.39999831	0.00000000	54.04773000	22.19488000
31.59999829	0.00000000	39.75148000	39.89911000
31.79999828	0.00000000	27.33760000	54.25689000
31.99999827	0.00000000	19.61122000	62.34621000
32.19999826	0.00000000	17.98105000	62.75836000
32.39999825	0.00000000	22.17027000	55.00122000
32.59999824	0.00000000	30.68405000	41.10482000
32.79999822	0.00000000	41.52928000	23.64050000
32.99999821	0.00000000	52.73745000	5.93626900
33.19999820	0.00000000	61.58341000	-7.95398600
33.39999819	0.00000000	65.90797000	-14.54847000
33.59999818	0.00000000	65.16363000	-13.05979000
33.79999816	0.00000000	60.18085000	-4.18922200
33.99999815	0.00000000	52.08538000	10.11934000
34.19999814	0.00000000	43.24557000	26.75320000
34.39999813	0.00000000	35.85138000	42.59350000
34.59999812	0.00000000	31.23770000	54.12155000
34.79999810	0.00000000	30.45029000	58.39690000
34.99999809	0.00000000	33.84596000	54.63213000
35.19999808	0.00000000	39.57308000	44.59276000
35.39999807	0.00000000	45.81078000	30.69636000
35.59999806	0.00000000	51.58095000	15.64345000
35.79999805	0.00000000	55.38877000	3.32800200
35.99999803	0.00000000	55.76402000	-3.67864200
36.19999802	0.00000000	52.78666000	-4.05388800
36.39999801	0.00000000	47.81004000	2.07923200
36.59999800	0.00000000	42.78420000	13.18282000
36.79999799	0.00000000	38.50270000	25.86737000
36.99999797	0.00000000	35.85138000	36.69414000
37.19999796	0.00000000	35.85138000	43.62082000
37.39999795	0.00000000	38.50270000	44.77731000
37.59999794	0.00000000	42.73499000	39.85605000
37.79999793	0.00000000	47.39173000	31.07160000
37.99999791	0.00000000	51.62401000	21.03223000
38.19999790	0.00000000	54.31840000	12.24778000
38.39999789	0.00000000	54.69365000	7.27731300
38.59999788	0.00000000	52.82972000	8.06471300
38.79999787	0.00000000	49.29871000	14.11171000
38.99999786	0.00000000	45.06028000	23.30832000
39.19999784	0.00000000	40.41584000	32.46801000
39.39999783	0.00000000	37.01402000	39.01944000
39.59999782	0.00000000	35.75910000	40.92643000
39.79999781	0.00000000	36.50344000	37.85679000
39.99999780	0.00000000	38.45964000	30.51796000
40.19999778	0.00000000	41.62155000	20.57087000
40.39999777	0.00000000	45.85384000	11.04208000
40.59999776	0.00000000	50.08612000	5.32726300
40.79999775	0.00000000	53.20496000	5.23499000
40.99999774	0.00000000	54.78592000	10.20546000
41.19999772	0.00000000	54.78592000	18.29478000
41.39999771	0.00000000	53.24803000	27.95275000
41.59999770	0.00000000	50.50443000	36.74335000
41.79999769	0.00000000	47.01648000	42.13213000
41.99999768	0.00000000	43.15945000	42.55044000
42.19999767	0.00000000	40.04060000	38.36737000
42.39999765	0.00000000	38.08440000	31.02239000
42.59999764	0.00000000	37.34006000	22.19488000
42.79999763	0.00000000	38.50270000	14.15477000
42.99999762	0.00000000	41.11097000	9.46727400
43.19999761	0.00000000	43.85457000	8.67371900
43.39999759	0.00000000	46.22908000	11.33120000
43.59999758	0.00000000	48.54823000	17.08292000
43.79999757	0.00000000	50.04306000	23.59129000
43.99999756	0.00000000	50.12918000	29.44759000
44.19999755	0.00000000	49.43405000	33.67372000
44.39999753	0.00000000	49.05881000	35.25467000
44.59999752	0.00000000	49.01575000	34.13509000
44.79999751	0.00000000	48.97269000	31.06545000
44.99999750	0.00000000	48.59744000	26.83932000
45.19999749	0.00000000	47.81004000	22.61319000
45.39999748	0.00000000	46.96727000	19.50049000
45.59999746	0.00000000	45.38631000	17.91953000
45.79999745	0.00000000	43.06717000	17.91953000
45.99999744	0.00000000	40.73573000	19.40822000
46.19999743	0.00000000	38.41658000	21.72736000
46.39999742	0.00000000	36.96481000	24.05881000
46.59999740	0.00000000	37.38927000	26.42101000
46.79999739	0.00000000	40.12672000	28.32800000
46.99999738	0.00000000	44.78346000	29.44759000
47.19999737	0.00000000	50.59670000	29.07234000
47.39999736	0.00000000	56.36687000	27.17150000
47.59999734	0.00000000	60.55610000	24.88927000
47.79999733	0.00000000	61.66953000	22.52091000
47.99999732	0.00000000	58.92593000	20.57087000
48.19999731	0.00000000	52.73745000	19.03912000
48.39999730	0.00000000	44.27288000	18.33784000
48.59999729	0.00000000	35.80217000	19.50049000
48.79999727	0.00000000	29.57062000	22.15182000
48.99999726	0.00000000	26.49483000	25.21530000
49.19999725	0.00000000	27.38066000	27.95891000
49.39999724	0.00000000	33.19390000	29.90895000
49.59999723	0.00000000	42.73499000	31.02239000
49.79999721	0.00000000	52.73745000	30.60408000
49.99999720	0.00000000	60.50689000	28.28494000
50.19999719	0.00000000	64.74532000	24.79700000
50.39999718	0.00000000	64.32086000	20.57087000
50.59999717	0.00000000	58.97515000	16.76304000
50.79999715	0.00000000	50.50443000	14.84990000
50.99999714	0.00000000	41.24631000	15.22515000
51.19999713	0.00000000	33.15083000	17.91953000
51.39999712	0.00000000	28.58636000	22.10261000
51.59999711	0.00000000	28.91240000	26.37795000
51.79999710	0.00000000	33.88902000	29.86589000
51.99999708	0.00000000	41.57234000	32.18504000
52.19999707	0.00000000	50.04306000	32.56028000
52.39999706	0.00000000	56.96973000	31.02239000
52.59999705	0.00000000	60.42076000	27.95275000
52.79999704	0.00000000	59.67027000	24.10187000
52.99999702	0.00000000	54.74286000	20.61393000
53.19999701	0.00000000	47.85310000	17.91953000
53.39999700	0.00000000	41.24631000	16.80610000
53.59999699	0.00000000	35.85138000	17.91953000
53.79999698	0.00000000	33.23696000	20.57087000
53.99999696	0.00000000	34.73179000	23.64050000
54.19999695	0.00000000	39.66535000	26.32874000
54.39999694	0.00000000	45.81078000	27.86663000
54.59999693	0.00000000	51.62401000	27.90969000
54.79999692	0.00000000	55.81324000	26.79626000
54.99999691	0.00000000	56.96973000	25.26452000
55.19999689	0.00000000	54.69365000	23.72662000
55.39999688	0.00000000	50.12918000	22.61319000
55.59999687	0.00000000	44.74040000	22.61319000
55.79999686	0.00000000	40.08366000	23.77584000
55.99999685	0.00000000	37.01402000	25.63976000
56.19999683	0.00000000	36.26968000	27.58366000
56.39999682	0.00000000	38.54576000	28.66018000
56.59999681	0.00000000	42.73499000	28.65403000
56.79999680	0.00000000	47.39173000	26.70398000
56.99999679	0.00000000	51.62401000	23.68356000
57.19999677	0.00000000	54.31840000	20.57087000
57.39999676	0.00000000	54.74286000	17.91953000
57.59999675	0.00000000	53.20496000	16.80610000
57.79999674	0.00000000	50.12918000	18.01181000
57.99999673	0.00000000	46.32135000	21.45669000
58.19999672	0.00000000	43.24557000	26.46407000
58.39999670	0.00000000	41.62155000	31.44069000
58.59999669	0.00000000	41.24631000	35.29773000
58.79999668	0.00000000	41.99680000	36.78642000
58.99999667	0.00000000	43.89763000	35.20546000
59.19999666	0.00000000	45.81078000	30.60408000
59.39999664	0.00000000	47.43479000	24.05881000
59.59999663	0.00000000	48.92347000	17.50123000
59.79999662	0.00000000	49.66781000	12.11245000
59.99999661	0.00000000	48.92347000	9.46727400
60.19999660	0.00000000	47.47785000	10.67298000
60.39999658	0.00000000	46.32135000	15.64960000
60.59999657	0.00000000	45.89690000	23.35138000
60.79999656	0.00000000	45.85384000	31.35457000
60.99999655	0.00000000	45.89690000	37.57381000
61.19999654	0.00000000	46.27214000	40.27436000
61.39999653	0.00000000	47.01648000	39.53002000
61.59999651	0.00000000	47.39173000	35.25467000
61.79999650	0.00000000	47.43479000	28.32800000
61.99999649	0.00000000	47.39173000	20.61393000
62.19999648	0.00000000	46.96727000	13.69340000
62.39999647	0.00000000	45.85384000	9.46727400
62.59999645	0.00000000	44.74040000	9.04281500
62.79999644	0.00000000	44.31594000	12.11245000
62.99999643	0.00000000	44.36515000	17.96260000
63.19999642	0.00000000	45.15871000	25.63976000
63.39999641	0.00000000	47.05954000	33.29847000
63.59999639	0.00000000	48.92347000	38.32431000
63.79999638	0.00000000	50.12918000	39.94832000
63.99999637	0.00000000	50.50443000	38.36737000
64.19999636	0.00000000	50.12918000	33.76599000
64.39999635	0.00000000	48.92347000	27.25763000
64.59999634	0.00000000	47.05954000	21.03223000
64.79999632	0.00000000	45.10950000	15.96334000
64.99999631	0.00000000	43.94069000	12.48770000
65.19999630	0.00000000	43.20251000	11.73720000
65.39999629	0.00000000	43.62082000	13.60113000
65.59999628	0.00000000	45.47859000	17.45817000
65.79999626	0.00000000	47.34252000	22.10261000
65.99999625	0.00000000	48.54823000	26.74705000
66.19999624	0.00000000	48.92347000	30.64714000
66.39999623	0.00000000	48.54823000	32.97859000
66.59999622	0.00000000	47.39173000	33.80905000
66.79999620	0.00000000	45.85384000	33.02165000
66.99999619	-0.15871060	44.36515000	31.11466000
67.19999618	0.00000000	43.57775000	28.37721000
67.39999617	0.00000000	43.98991000	25.26452000
67.59999616	0.00000000	45.15871000	22.15182000
67.79999615	0.00000000	47.47785000	19.40822000
67.99999613	0.00000000	50.08612000	17.40895000
68.19999612	0.00000000	51.66707000	15.87721000
68.39999611	0.00000000	52.04232000	15.13902000
68.59999610	0.00000000	51.24877000	15.96334000
68.79999609	0.00000000	48.88041000	18.29478000
68.99999607	0.00000000	45.43553000	22.19488000
69.19999606	0.00000000	41.57849000	26.83932000
69.39999605	0.00000000	38.50270000	31.44069000
69.59999604	0.00000000	37.01402000	34.87328000
69.79999603	0.00000000	37.76451000	35.67298000
69.99999601	0.00000000	40.91412000	34.18430000
70.19999600	0.00000000	45.53395000	31.02239000
70.39999599	0.00000000	51.34104000	26.37795000
70.59999598	0.00000000	56.27460000	20.98917000
70.79999597	0.00000000	59.01821000	16.38779000
70.99999596	0.00000000	58.97515000	13.64419000
71.19999594	0.00000000	55.89936000	13.27510000
71.39999593	0.00000000	50.50443000	15.22515000
71.59999592	0.00000000	44.31594000	19.45743000
71.79999591	0.00000000	38.54576000	24.79700000
71.99999590	0.00000000	34.68873000	29.44759000
72.19999588	0.00000000	33.88902000	32.56028000
72.39999587	0.00000000	35.80217000	33.71678000
72.59999586	0.00000000	40.08366000	32.60334000
72.79999585	0.00000000	45.85384000	29.95201000
72.99999584	0.00000000	51.66707000	26.88853000
73.19999582	0.00000000	56.32381000	24.14493000
73.39999581	0.00000000	59.01821000	22.19488000
73.59999580	0.00000000	59.01821000	21.08145000
73.79999579	0.00000000	56.32381000	21.45669000
73.99999578	0.00000000	51.71013000	23.30832000
74.19999577	0.00000000	46.32135000	25.17224000
74.39999575	0.00000000	41.66461000	26.32874000
74.59999574	0.00000000	38.54576000	26.32874000
74.79999573	0.00000000	37.43233000	25.21530000
74.99999572	0.00000000	38.92101000	23.72662000
75.19999571	0.00000000	42.35974000	22.57013000
75.39999569	0.00000000	46.18602000	22.23794000
75.59999568	0.00000000	49.71087000	23.03149000
75.79999567	0.00000000	52.04232000	25.35064000
75.99999566	0.00000000	53.24803000	28.37721000
76.19999565	0.00000000	53.20496000	31.06545000
76.39999563	0.00000000	51.71013000	32.60334000
76.59999562	0.00000000	49.43405000	32.56028000
76.79999561	0.00000000	47.52707000	30.60408000
76.99999560	0.00000000	46.32135000	26.74705000
77.19999559	0.00000000	45.94611000	22.14567000
77.39999558	0.00000000	46.27214000	17.87647000
77.59999556	0.00000000	47.01648000	14.80684000
77.79999555	0.00000000	47.39173000	13.69340000
77.99999554	0.00000000	47.39173000	15.27436000
78.19999553	0.00000000	46.96727000	19.45743000
78.39999552	0.00000000	45.85384000	24.84621000
78.59999550	0.00000000	44.78346000	29.90895000
78.79999549	0.00000000	44.78346000	34.14124000
78.99999548	0.00000000	45.89690000	36.41117000
79.19999547	0.00000000	47.43479000	35.67298000
79.39999546	0.00000000	49.01575000	32.60334000
79.59999544	0.00000000	50.55364000	27.95275000
79.79999543	0.00000000	51.71013000	22.57013000
79.99999542	0.00000000	52.04232000	17.96260000
80.19999541	0.00000000	51.24877000	15.18209000
80.39999540	0.00000000	48.92347000	14.38853000
80.59999539	0.00000000	45.89690000	15.18209000
80.79999537	0.00000000	43.20251000	17.87647000
80.99999536	0.00000000	41.66461000	21.68430000
81.19999535	0.00000000	41.66461000	25.21530000
81.39999534	0.00000000	43.15945000	28.37721000
81.59999533	0.00000000	45.47859000	31.06545000
81.79999531	0.00000000	47.81004000	32.60334000
81.99999530	0.00000000	50.12918000	32.60334000
82.19999529	0.00000000	51.66707000	31.11466000
82.39999528	0.00000000	52.04232000	28.79552000
82.59999527	0.00000000	51.29183000	26.42101000
82.79999525	0.00000000	49.39099000	23.68356000
82.99999524	0.00000000	47.47785000	20.98917000
83.19999523	0.00000000	45.89690000	19.03912000
83.39999522	0.00000000	44.74040000	17.83341000
83.59999521	0.00000000	44.31594000	17.50123000
83.79999520	0.00000000	44.36515000	18.29478000
83.99999518	0.00000000	45.10950000	20.61393000
84.19999517	0.00000000	46.64124000	23.72662000
84.39999516	0.00000000	47.76698000	27.21457000
84.59999515	0.00000000	48.59744000	30.64714000
84.79999514	0.00000000	48.92347000	32.60334000
84.99999512	0.00000000	48.64050000	33.02165000
85.19999511	0.00000000	48.22834000	32.18504000
85.39999510	0.00000000	48.26525000	29.44759000
85.59999509	0.00000000	48.22834000	25.26452000
85.79999508	0.00000000	48.64050000	20.98917000
85.99999506	0.00000000	48.97269000	17.50123000
86.19999505	0.00000000	48.97269000	15.22515000
86.39999504	0.00000000	48.54823000	15.27436000
86.59999503	0.00000000	47.43479000	17.91953000
86.79999502	0.00000000	46.27214000	22.14567000
86.99999501	0.00000000	45.47859000	26.79626000
87.19999499	0.00000000	44.74040000	31.06545000
87.39999498	0.00000000	44.78346000	34.13509000
87.59999497	0.00000000	45.89690000	35.25467000
87.79999496	0.00000000	47.43479000	33.71678000
87.99999495	0.00000000	48.97269000	29.90895000
88.19999493	0.00000000	50.12918000	25.30758000
88.39999492	0.00000000	50.55364000	21.03838000
88.59999491	0.00000000	50.55364000	17.96260000
88.79999490	0.00000000	50.12918000	16.80610000
88.99999489	0.00000000	48.97269000	17.96260000
89.19999487	0.00000000	47.47785000	21.08145000
89.39999486	0.00000000	46.27214000	25.68282000
89.59999485	0.00000000	45.52165000	30.60408000
89.79999484	0.00000000	45.15871000	33.67372000
89.99999483	0.00000000	45.89690000	34.14124000
90.19999482	0.00000000	47.01648000	32.60334000
90.39999480	0.00000000	47.81004000	29.49065000
90.59999479	0.00000000	48.64050000	25.22145000
90.79999478	0.00000000	49.34793000	20.66314000
90.99999477	0.00000000	49.76009000	17.22441000
91.19999476	0.00000000	49.39099000	16.43085000
91.39999474	0.00000000	49.01575000	17.96260000
91.59999473	0.00000000	48.64050000	21.45669000
91.79999472	0.00000000	48.27140000	26.42101000
91.99999471	0.00000000	48.64050000	30.97933000
92.19999470	0.00000000	48.97269000	33.71678000
92.39999468	0.00000000	48.97269000	34.09203000
92.59999467	0.00000000	48.59744000	32.18504000
92.79999466	0.00000000	47.81004000	28.32800000
92.99999465	0.00000000	47.01648000	23.72662000
93.19999464	0.00000000	45.89690000	19.50049000
93.39999463	0.00000000	45.15871000	16.80610000
93.59999461	0.00000000	45.47859000	16.43085000
93.79999460	0.00000000	45.89690000	18.33784000
93.99999459	0.00000000	46.73966000	22.19488000
94.19999458	0.00000000	48.64050000	26.74705000
94.39999457	0.00000000	50.55364000	30.60408000
94.59999455	0.00000000	52.13459000	32.51107000
94.79999454	0.00000000	53.24803000	32.18504000
94.99999453	0.00000000	53.20496000	29.86589000
95.19999452	0.00000000	51.66707000	26.42101000
95.39999451	0.00000000	49.01575000	22.57013000
95.59999449	0.00000000	46.27214000	19.50049000
95.79999448	0.00000000	43.89763000	17.96260000
95.99999447	0.00000000	41.62155000	18.33784000
96.19999446	0.00000000	40.55118000	20.61393000
96.39999445	0.00000000	41.66461000	23.68356000
96.59999444	0.00000000	44.36515000	26.75320000
96.79999442	0.00000000	47.85310000	29.07234000
96.99999441	0.00000000	51.71013000	29.86589000
97.19999440	0.00000000	54.78592000	29.49065000
97.39999439	0.00000000	56.36687000	27.90969000
97.59999438	0.00000000	56.36687000	25.30758000
97.79999436	0.00000000	54.78592000	22.98843000
97.99999435	0.00000000	51.71013000	21.81964000
98.19999434	0.00000000	47.85310000	21.40748000
98.39999433	0.00000000	44.36515000	22.15182000
98.59999432	0.00000000	41.62155000	23.26525000
98.79999430	0.00000000	40.12672000	24.05881000
98.99999429	0.00000000	40.50196000	24.88927000
99.19999428	0.00000000	42.78420000	25.63976000
99.39999427	0.00000000	45.89690000	26.37795000
99.59999426	0.00000000	49.39099000	26.42101000
99.79999425	0.00000000	52.87278000	26.10113000
99.99999423	0.00000000	55.16117000	26.46407000
100.19999422	0.00000000	55.99163000	26.83932000
100.39999421	0.00000000	55.20423000	27.21457000
100.59999420	0.00000000	53.29109000	27.58366000
100.79999419	0.00000000	50.55364000	27.17150000
100.99999417	0.00000000	47.47785000	26.37795000
101.19999416	0.00000000	44.78346000	24.79700000
101.39999415	0.00000000	43.20251000	22.57013000
101.59999414	0.00000000	42.78420000	21.03838000
101.79999413	0.00000000	43.15945000	20.62008000
101.99999411	0.00000000	44.31594000	21.03838000
102.19999410	0.00000000	45.94611000	22.61319000
102.39999409	0.00000000	48.22834000	25.30758000
102.59999408	0.00000000	50.91658000	28.37721000
102.79999407	0.00000000	52.46062000	31.02239000
102.99999406	0.00000000	53.29109000	32.18504000
103.19999404	0.00000000	53.24803000	31.44069000
103.39999403	0.00000000	52.08538000	29.53371000
103.59999402	0.00000000	50.17839000	26.79626000
103.79999401	0.00000000	47.85310000	23.72662000
103.99999400	0.00000000	45.94611000	21.03838000
104.19999398	0.00000000	44.74040000	19.50049000
104.39999397	0.00000000	44.36515000	19.45743000
104.59999396	0.00000000	44.74040000	20.66314000
104.79999395	0.00000000	45.89690000	22.98843000
104.99999394	0.00000000	47.43479000	26.42101000
105.19999392	0.00000000	49.01575000	29.44759000
105.39999391	0.00000000	50.55364000	31.02239000
105.59999390	0.00000000	51.66707000	31.06545000
105.79999389	0.00000000	51.66707000	29.90895000
105.99999388	0.00000000	50.55364000	28.00197000
106.19999387	0.00000000	49.05881000	25.68282000
106.39999385	0.00000000	47.90231000	23.72662000
106.59999384	0.00000000	47.47785000	22.19488000
106.79999383	0.00000000	47.43479000	21.45669000
106.99999382	0.00000000	47.47785000	22.23794000
107.19999381	0.00000000	47.90231000	24.10187000
107.39999379	0.00000000	49.01575000	26.37795000
107.59999378	0.00000000	50.12918000	27.90969000
107.79999377	0.00000000	50.50443000	28.32800000
107.99999376	0.00000000	50.17839000	27.95275000
108.19999375	0.00000000	49.39099000	26.79626000
108.39999374	0.00000000	48.59744000	25.26452000
108.59999372	0.00000000	47.43479000	23.72662000
108.79999371	0.00000000	46.32135000	22.57013000
108.99999370	0.00000000	45.94611000	22.19488000
109.19999369	0.00000000	46.32135000	22.57013000
109.39999368	0.00000000	47.47785000	23.72662000
109.59999366	0.00000000	49.01575000	25.26452000
109.79999365	0.00000000	50.55364000	26.79626000
109.99999364	0.00000000	51.66707000	27.95275000
110.19999363	0.00000000	51.71013000	28.32800000
110.39999362	0.00000000	50.97194000	27.95275000
110.59999360	0.00000000	50.17839000	26.79626000
110.79999359	0.00000000	49.01575000	25.26452000
110.99999358	0.00000000	47.90231000	23.72662000
111.19999357	0.00000000	47.47785000	22.57013000
111.39999356	0.00000000	47.43479000	22.19488000
111.59999355	0.00000000	47.43479000	22.52091000
111.79999353	0.00000000	47.47785000	23.30832000
111.99999352	0.00000000	47.85310000	24.05881000
112.19999351	0.00000000	48.64050000	24.88927000
112.39999350	0.00000000	49.34793000	25.63976000
112.59999349	0.00000000	49.76009000	26.42101000
112.79999347	0.00000000	49.39099000	26.79626000
112.99999346	0.00000000	49.05881000	26.83932000
113.19999345	0.00000000	49.01575000	26.79626000
113.39999344	0.00000000	48.97269000	26.42101000
113.59999343	0.00000000	48.59744000	25.68282000
113.79999341	0.00000000	47.90231000	25.30758000
113.99999340	0.00000000	47.90231000	25.22145000
114.19999339	0.00000000	48.54823000	24.84621000
114.39999338	0.00000000	48.59744000	24.10187000
114.59999337	0.00000000	48.27140000	23.72662000
114.79999336	0.00000000	48.64050000	23.68356000
114.99999334	0.00000000	48.97269000	23.68356000
115.19999333	0.00000000	49.01575000	23.68356000
115.39999332	0.00000000	49.01575000	23.72662000
115.59999331	0.00000000	49.01575000	24.15108000
115.79999330	0.00000000	49.01575000	25.26452000
115.99999328	0.00000000	49.01575000	26.37795000
116.19999327	0.00000000	49.01575000	26.83932000
116.39999326	0.00000000	48.97269000	27.21457000
116.59999325	0.00000000	48.64050000	27.58366000
116.79999324	0.00000000	48.27140000	27.17150000
116.99999322	0.00000000	48.64050000	26.46407000
117.19999321	0.00000000	49.01575000	25.63976000
117.39999320	0.00000000	49.43405000	24.88927000
117.59999319	0.00000000	50.17839000	24.10187000
117.79999318	0.00000000	50.55364000	23.72662000
117.99999317	0.00000000	50.59670000	23.68356000
118.19999315	0.00000000	50.59670000	23.72662000
118.39999314	0.00000000	50.55364000	24.15108000
118.59999313	0.00000000	50.12918000	25.26452000
118.79999312	0.00000000	49.01575000	26.42101000
118.99999311	0.00000000	47.85310000	27.17150000
119.19999309	0.00000000	47.05954000	27.62672000
119.39999308	0.00000000	46.32135000	27.63287000
119.59999307	0.00000000	46.36442000	28.00197000
119.79999306	0.00000000	47.47785000	27.95275000
119.99999305	0.00000000	49.01575000	27.21457000
120.19999303	0.00000000	50.55364000	26.46407000
120.39999302	0.00000000	51.71013000	25.68282000
120.59999301	0.00000000	52.13459000	25.30758000
120.79999300	0.00000000	52.13459000	25.26452000
120.99999299	0.00000000	51.75935000	25.26452000
121.19999298	0.00000000	50.97194000	25.26452000
121.39999296	0.00000000	50.12918000	25.26452000
121.59999295	0.00000000	48.59744000	25.26452000
121.79999294	0.00000000	46.78272000	25.30758000
121.99999293	0.00000000	46.36442000	25.68282000
122.19999292	0.00000000	47.01648000	26.42101000
122.39999290	0.00000000	47.43479000	26.79626000
122.59999289	0.00000000	47.90231000	26.83932000
122.79999288	0.00000000	49.01575000	26.83932000
122.99999287	0.00000000	50.17839000	26.83932000
123.19999286	0.00000000	50.97194000	26.83932000
123.39999284	0.00000000	51.75935000	26.83932000
123.59999283	0.00000000	52.13459000	26.79626000
123.79999282	0.00000000	52.13459000	26.42101000
123.99999281	0.00000000	51.71013000	25.68282000
124.19999280	0.00000000	50.59670000	25.30758000
124.39999279	0.00000000	49.43405000	25.22145000
124.59999277	0.00000000	48.64050000	24.88927000
124.79999276	0.00000000	47.85310000	24.52018000
124.99999275	0.00000000	47.47785000	24.88927000
125.19999274	0.00000000	47.47785000	25.26452000
125.39999273	0.00000000	47.81004000	25.68282000
125.59999271	0.00000000	48.22219000	26.42101000
125.79999270	0.00000000	48.27140000	26.79626000
125.99999269	0.00000000	49.05881000	26.83932000
126.19999268	0.00000000	50.17839000	26.79626000
126.39999267	0.00000000	50.92888000	26.42101000
126.59999265	0.00000000	51.34104000	25.68282000
126.79999264	0.00000000	50.97194000	25.30758000
126.99999263	0.00000000	50.59670000	25.22145000
127.19999262	0.00000000	50.12918000	24.84621000
127.39999261	0.00000000	49.01575000	24.15108000
127.59999260	0.00000000	47.90231000	24.15108000
127.79999258	0.00000000	47.47785000	24.84621000
127.99999257	0.00000000	47.43479000	25.22145000
128.19999256	0.00000000	47.47785000	25.30758000
128.39999255	0.00000000	47.90231000	25.68282000
128.59999254	0.00000000	49.05881000	26.37795000
128.79999252	0.00000000	50.55364000	26.37795000
128.99999251	0.00000000	51.71013000	25.72589000
129.19999250	0.00000000	52.08538000	25.68282000
129.39999249	0.00000000	51.71013000	26.00270000
129.59999248	0.00000000	50.59670000	25.63976000
129.79999246	0.00000000	49.43405000	25.30758000
129.99999245	0.00000000	48.64050000	25.26452000
130.19999244	0.00000000	47.85310000	25.26452000
130.39999243	0.00000000	47.52707000	25.26452000
130.59999242	0.00000000	47.85310000	25.30758000
130.79999241	0.00000000	48.64050000	25.68282000
130.99999239	0.00000000	49.39099000	26.42101000
131.19999238	0.00000000	50.17839000	26.79626000
131.39999237	0.00000000	50.59670000	26.83932000
131.59999236	0.00000000	50.97194000	26.79626000
131.79999235	0.00000000	51.34104000	26.42101000
131.99999233	0.00000000	50.92888000	25.68282000
132.19999232	0.00000000	50.22145000	25.30758000
132.39999231	0.00000000	49.43405000	25.26452000
132.59999230	0.00000000	49.05881000	25.30758000
132.79999229	0.00000000	49.05881000	25.68282000
132.99999227	0.00000000	49.39099000	26.42101000
133.19999226	0.00000000	49.80315000	26.79626000
133.39999225	0.00000000	49.80930000	26.88238000
133.59999224	0.00000000	50.22145000	27.21457000
133.79999223	0.00000000	50.55364000	27.58366000
133.99999222	0.00000000	50.55364000	27.17150000
134.19999220	0.00000000	50.22145000	26.46407000
134.39999219	0.00000000	49.85236000	25.68282000
134.59999218	0.00000000	50.22145000	25.26452000
134.79999217	0.00000000	50.55364000	24.84621000
134.99999216	0.00000000	50.59670000	24.15108000
135.19999214	0.00000000	50.59670000	24.15108000
135.39999213	0.00000000	50.59670000	24.84621000
135.59999212	0.00000000	50.59670000	25.26452000
135.79999211	0.00000000	50.59670000	25.68282000
135.99999210	0.00000000	50.55364000	26.42101000
136.19999208	0.00000000	50.17839000	26.79626000
136.39999207	0.00000000	49.43405000	26.83932000
136.59999206	0.00000000	49.05881000	26.79626000
136.79999205	0.00000000	49.01575000	26.46407000
136.99999204	0.00000000	49.05881000	26.05807000
137.19999203	0.00000000	49.43405000	26.04577000
137.39999201	0.00000000	50.22145000	25.63976000
137.59999200	0.00000000	50.97194000	25.30758000
137.79999199	0.00000000	51.75935000	25.26452000
137.99999198	0.00000000	52.08538000	25.26452000
138.19999197	0.00000000	51.75935000	25.26452000
138.39999195	0.00000000	50.97194000	25.26452000
138.59999194	0.00000000	50.22145000	25.26452000
138.79999193	0.00000000	49.43405000	25.30758000
138.99999192	0.00000000	49.05881000	25.68282000
139.19999191	0.00000000	49.01575000	26.42101000
139.39999189	0.00000000	49.05881000	26.83932000
139.59999188	0.00000000	49.43405000	27.21457000
139.79999187	0.00000000	50.17839000	27.58366000
139.99999186	0.00000000	50.55364000	27.21457000
140.19999185	0.00000000	50.59670000	26.83932000
140.39999184	0.00000000	50.59670000	26.42101000
140.59999182	0.00000000	50.59670000	25.63976000
140.79999181	0.00000000	50.55364000	24.88927000
140.99999180	0.00000000	50.17839000	24.15108000
141.19999179	0.00000000	49.43405000	24.15108000
141.39999178	0.00000000	49.05881000	24.88927000
141.59999176	0.00000000	49.05881000	25.63976000
141.79999175	0.00000000	49.43405000	26.46407000
141.99999174	0.00000000	50.17839000	27.21457000
142.19999173	0.00000000	50.55364000	28.00197000
142.39999172	0.00000000	50.59670000	28.32800000
142.59999170	0.00000000	50.59670000	28.00197000
142.79999169	0.00000000	50.59670000	27.21457000
142.99999168	0.00000000	50.59670000	26.46407000
143.19999167	0.00000000	50.55364000	25.63976000
143.39999166	0.00000000	50.22145000	24.88927000
143.59999165	0.00000000	49.80930000	24.10187000
143.79999163	0.00000000	49.84621000	23.77584000
143.99999162	0.00000000	49.80930000	24.10187000
144.19999161	0.00000000	50.22145000	24.88927000
144.39999160	0.00000000	50.55364000	25.63976000
144.59999159	0.00000000	50.59670000	26.42101000
144.79999157	0.00000000	50.59670000	26.79626000
144.99999156	0.00000000	50.59670000	26.83932000
145.19999155	0.00000000	50.59670000	26.83932000
145.39999154	0.00000000	50.59670000	26.79626000
145.59999153	0.00000000	50.59670000	26.42101000
145.79999151	0.00000000	50.55364000	25.63976000
145.99999150	0.00000000	50.22145000	24.93233000
146.19999149	0.00000000	49.85236000	24.52018000
146.39999148	0.00000000	50.22145000	24.88927000
146.59999147	0.00000000	50.55364000	25.22145000
146.79999146	0.00000000	50.63976000	25.30758000
146.99999144	0.00000000	51.01501000	25.68282000
147.19999143	0.00000000	51.71013000	26.42101000
147.39999142	0.00000000	51.71013000	26.79626000
147.59999141	0.00000000	51.01501000	26.83932000
147.79999140	0.00000000	50.63976000	26.83932000
147.99999138	0.00000000	50.55364000	26.83932000
148.19999137	0.00000000	50.17839000	26.83932000
148.39999136	0.00000000	49.43405000	26.79626000
148.59999135	0.00000000	49.10802000	26.42101000
148.79999134	0.00000000	49.43405000	25.68282000
148.99999132	0.00000000	50.17839000	25.30758000
149.19999131	0.00000000	50.59670000	25.26452000
149.39999130	0.00000000	51.01501000	25.26452000
149.59999129	0.00000000	51.75935000	25.30758000
149.79999128	0.00000000	52.13459000	25.68282000
149.99999127	0.00000000	52.13459000	26.42101000
150.19999125	0.00000000	51.75935000	26.79626000
150.39999124	0.00000000	51.01501000	26.83932000
150.59999123	0.00000000	50.63976000	26.83932000
150.79999122	0.00000000	50.59670000	26.83932000
150.99999121	0.00000000	50.59670000	26.83932000
151.19999119	0.00000000	50.59670000	26.83932000
151.39999118	0.00000000	50.59670000	26.83932000
151.59999117	0.00000000	50.59670000	26.79626000
151.79999116	0.00000000	50.59670000	26.42101000
151.99999115	0.00000000	50.63976000	25.72589000
152.19999113	0.00000000	51.01501000	25.72589000
152.39999112	0.00000000	51.75935000	26.42101000
152.59999111	0.00000000	52.13459000	26.79626000
152.79999110	0.00000000	52.17765000	26.83932000
152.99999109	0.00000000	52.17765000	26.83932000
153.19999108	0.00000000	52.13459000	26.83932000
153.39999106	0.00000000	51.75935000	26.83932000
153.59999105	0.00000000	51.01501000	26.83932000
153.79999104	0.00000000	50.63976000	26.83932000
153.99999103	0.00000000	50.59670000	26.83932000
154.19999102	0.00000000	50.59670000	26.83932000
154.39999100	0.00000000	50.59670000	26.83932000
154.59999099	0.00000000	50.59670000	26.83932000
154.79999098	0.00000000	50.59670000	26.79626000
154.99999097	0.00000000	50.63976000	26.42101000
155.19999096	0.00000000	51.01501000	25.68282000
155.39999094	0.00000000	51.75935000	25.30758000
155.59999093	0.00000000	52.13459000	25.26452000
155.79999092	0.00000000	52.17765000	25.30758000
155.99999091	0.00000000	52.13459000	25.68282000
156.19999090	0.00000000	51.75935000	26.42101000
156.39999089	0.00000000	51.01501000	26.79626000
156.59999087	0.00000000	50.59670000	26.83932000
156.79999086	0.00000000	50.22145000	26.83932000
156.99999085	0.00000000	49.85236000	26.83932000
157.19999084	0.00000000	50.22145000	26.83932000
157.39999083	0.00000000	50.55364000	26.83932000
157.59999081	0.00000000	50.59670000	26.79626000
157.79999080	0.00000000	50.63976000	26.42101000
157.99999079	0.00000000	51.01501000	25.68282000
158.19999078	0.00000000	51.75935000	25.30758000
158.39999077	0.00000000	52.13459000	25.26452000
158.59999075	0.00000000	52.13459000	25.26452000
158.79999074	0.00000000	51.75935000	25.26452000
158.99999073	0.00000000	51.01501000	25.30758000
159.19999072	0.00000000	50.63976000	25.68282000
159.39999071	0.00000000	50.59670000	26.42101000
159.59999070	0.00000000	50.59670000	26.79626000
159.79999068	0.00000000	50.59670000	26.83932000
159.99999067	0.00000000	50.59670000	26.83932000
160.19999066	0.00000000	50.59670000	26.83932000
160.39999065	0.00000000	50.59670000	26.83932000
160.59999064	0.00000000	50.59670000	26.79626000
160.79999062	0.00000000	50.59670000	26.42101000
160.99999061	0.00000000	50.59670000	25.68282000
161.19999060	0.00000000	50.59670000	25.30758000
161.39999059	0.00000000	50.59670000	25.26452000
161.59999058	0.00000000	50.63976000	25.30758000
161.79999056	0.00000000	50.97194000	25.68282000
161.99999055	0.00000000	51.38410000	26.42101000
162.19999054	0.00000000	51.39025000	26.79626000
162.39999053	0.00000000	51.75935000	26.83932000
162.59999052	0.00000000	51.71013000	26.83932000
162.79999051	0.00000000	51.01501000	26.83932000
162.99999049	0.00000000	50.63976000	26.83932000
163.19999048	0.00000000	50.59670000	26.83932000
163.39999047	0.00000000	50.59670000	26.83932000
163.59999046	0.00000000	50.59670000	26.83932000
163.79999045	0.00000000	50.59670000	26.83932000
163.99999043	0.00000000	50.59670000	26.83932000
164.19999042	0.00000000	50.63976000	26.83932000
164.39999041	0.00000000	51.01501000	26.83932000
164.59999040	0.00000000	51.75935000	26.83932000
164.79999039	0.00000000	52.13459000	26.83932000
164.99999037	0.00000000	52.17765000	26.83932000
165.19999036	0.00000000	52.17765000	26.83932000
165.39999035	0.00000000	52.17765000	26.83932000
165.59999034	0.00000000	52.17765000	26.83932000
165.79999033	0.00000000	52.13459000	26.83932000
165.99999032	0.00000000	51.75935000	26.83932000
166.19999030	0.00000000	51.06422000	26.83932000
166.39999029	0.00000000	51.01501000	26.83932000
166.59999028	0.00000000	51.34104000	26.83932000
166.79999027	0.00000000	50.97194000	26.83932000
166.99999026	0.00000000	50.68897000	26.83932000
167.19999024	0.00000000	51.01501000	26.83932000
167.39999023	0.00000000	51.75935000	26.83932000
167.59999022	0.00000000	52.17765000	26.83932000
167.79999021	0.00000000	52.55290000	26.83932000
167.99999020	0.00000000	52.92200000	26.83932000
168.19999018	0.00000000	52.55290000	26.83932000
168.39999017	0.00000000	52.22071000	26.83932000
168.59999016	0.00000000	52.17765000	26.83932000
168.79999015	0.00000000	52.17765000	26.83932000
168.99999014	0.00000000	52.17765000	26.83932000
169.19999013	0.00000000	52.17765000	26.83932000
169.39999011	0.00000000	52.17765000	26.83932000
169.59999010	0.00000000	52.13459000	26.83932000
169.79999009	0.00000000	51.75935000	26.83932000
169.99999008	0.00000000	51.01501000	26.83932000
170.19999007	0.00000000	50.68897000	26.83932000
170.39999005	0.00000000	51.01501000	26.83932000
170.59999004	0.00000000	51.75935000	26.83932000
170.79999003	0.00000000	52.13459000	26.83932000
170.99999002	0.00000000	52.17765000	26.83932000
171.19999001	0.00000000	52.17765000	26.83932000
171.39998999	0.00000000	52.17765000	26.83932000
171.59998998	0.00000000	52.17765000	26.79626000
171.79998997	0.00000000	52.17765000	26.42101000
171.99998996	0.00000000	52.17765000	25.72589000
172.19998995	0.00000000	52.17765000	25.72589000
172.39998994	0.00000000	52.17765000	26.42101000
172.59998992	0.00000000	52.17765000	26.79626000
172.79998991	0.00000000	52.17765000	26.83932000
172.99998990	0.00000000	52.17765000	26.83932000
173.19998989	0.00000000	52.13459000	26.83932000
173.39998988	0.00000000	51.80241000	26.83932000
173.59998986	0.00000000	51.43332000	26.83932000
173.79998985	0.00000000	51.80241000	26.83932000
173.99998984	0.00000000	52.13459000	26.83932000
174.19998983	0.00000000	52.17765000	26.83932000
174.39998982	0.00000000	52.17765000	26.79626000
174.59998980	0.00000000	52.17765000	26.42101000
174.79998979	0.00000000	52.17765000	25.68282000
174.99998978	0.00000000	52.17765000	25.30758000
175.19998977	0.00000000	52.17765000	25.26452000
175.39998976	0.00000000	52.17765000	25.26452000
175.59998975	0.00000000	52.17765000	25.30758000
175.79998973	0.00000000	52.17765000	25.68282000
175.99998972	0.00000000	52.13459000	26.37795000
176.19998971	0.00000000	51.80241000	26.42101000
176.39998970	0.00000000	51.43332000	26.10113000
176.59998969	0.00000000	51.80241000	26.46407000
176.79998967	0.00000000	52.13459000	26.79626000
176.99998966	0.00000000	52.17765000	26.83932000
177.19998965	0.00000000	52.17765000	26.83932000
177.39998964	0.00000000	52.17765000	26.83932000
177.59998963	0.00000000	52.17765000	26.83932000
177.79998961	0.00000000	52.17765000	26.83932000
177.99998960	0.00000000	52.17765000	26.83932000
178.19998959	0.00000000	52.17765000	26.83932000
178.39998958	0.00000000	52.17765000	26.88238000
178.59998957	0.00000000	52.17765000	27.21457000
178.79998956	0.00000000	52.17765000	27.58366000
178.99998954	0.00000000	52.17765000	27.21457000
179.19998953	0.00000000	52.17765000	26.88238000
179.39998952	0.00000000	52.17765000	26.83932000
179.59998951	0.00000000	52.17765000	26.83932000
179.79998950	0.00000000	52.17765000	26.83932000
179.99998948	0.00000000	52.17765000	26.83932000
180.19998947	0.00000000	52.17765000	26.83932000
180.39998946	0.00000000	52.17765000	26.83932000
180.59998945	0.00000000	52.17765000	26.83932000
180.79998944	0.00000000	52.17765000	26.88238000
180.99998942	0.00000000	52.17765000	27.25763000
181.19998941	0.00000000	52.17765000	28.00197000
181.39998940	0.00000000	52.17765000	28.37721000
181.59998939	0.00000000	52.17765000	28.42027000
181.79998938	0.00000000	52.17765000	28.42027000
181.99998937	0.00000000	52.17765000	28.42027000
182.19998935	0.00000000	52.22071000	28.37721000
182.39998934	0.00000000	52.55290000	28.00197000
182.59998933	0.00000000	52.92200000	27.25763000
182.79998932	0.00000000	52.55290000	26.88238000
182.99998931	0.00000000	52.22071000	26.83932000
183.19998929	0.00000000	52.17765000	26.83932000
183.39998928	0.00000000	52.17765000	26.83932000
183.59998927	0.00000000	52.17765000	26.83932000
183.79998926	0.00000000	52.17765000	26.83932000
183.99998925	0.00000000	52.17765000	26.88238000
184.19998923	0.00000000	52.17765000	27.21457000
184.39998922	0.00000000	52.17765000	27.62672000
184.59998921	0.00000000	52.17765000	27.58981000
184.79998920	0.00000000	52.17765000	27.62672000
184.99998919	0.00000000	52.17765000	27.21457000
185.19998918	0.00000000	52.17765000	26.88238000
185.39998916	0.00000000	52.17765000	26.83932000
185.59998915	0.00000000	52.17765000	26.79626000
185.79998914	0.00000000	52.17765000	26.42101000
185.99998913	0.00000000	52.17765000	25.68282000
186.19998912	0.00000000	52.17765000	25.35679000
186.39998910	0.00000000	52.17765000	25.63976000
186.59998909	0.00000000	52.17765000	26.04577000
186.79998908	0.00000000	52.17765000	26.05807000
186.99998907	0.00000000	52.17765000	26.46407000
187.19998906	0.00000000	52.17765000	26.79626000
187.39998904	0.00000000	52.17765000	26.88238000
187.59998903	0.00000000	52.17765000	27.21457000
187.79998902	0.00000000	52.13459000	27.58366000
187.99998901	0.00000000	51.80241000	27.21457000
188.19998900	0.00000000	51.43332000	26.88238000
188.39998899	0.00000000	51.80241000	26.79626000
188.59998897	0.00000000	52.13459000	26.42101000
188.79998896	0.00000000	52.17765000	25.68282000
188.99998895	0.00000000	52.22071000	25.35679000
189.19998894	0.00000000	52.55290000	25.63976000
189.39998893	0.00000000	52.92200000	26.04577000
189.59998891	0.00000000	52.55290000	26.05807000
189.79998890	0.00000000	52.22071000	26.46407000
189.99998889	0.00000000	52.17765000	26.79626000
190.19998888	0.00000000	52.17765000	26.83932000
190.39998887	0.00000000	52.17765000	26.83932000
190.59998885	0.00000000	52.17765000	26.83932000
190.79998884	0.00000000	52.17765000	26.83932000
190.99998883	0.00000000	52.17765000	26.83932000
191.19998882	0.00000000	52.17765000	26.83932000
191.39998881	0.00000000	52.22071000	26.83932000
191.59998880	0.00000000	52.59596000	26.83932000
191.79998878	0.00000000	53.29109000	26.83932000
191.99998877	0.00000000	53.29109000	26.83932000
192.19998876	0.00000000	52.59596000	26.83932000
192.39998875	0.00000000	52.22071000	26.83932000
192.59998874	0.00000000	52.17765000	26.83932000
192.79998872	0.00000000	52.17765000	26.83932000
192.99998871	0.00000000	52.17765000	26.83932000
193.19998870	0.00000000	52.17765000	26.83932000
193.39998869	0.00000000	52.17765000	26.83932000
193.59998868	0.00000000	52.17765000	26.88238000
193.79998866	0.00000000	52.17765000	27.21457000
193.99998865	0.00000000	52.17765000	27.62672000
194.19998864	0.00000000	52.22071000	27.63287000
194.39998863	0.00000000	52.55290000	28.00197000
194.59998862	0.00000000	52.96506000	28.00197000
194.79998861	0.00000000	52.92815000	27.63287000
194.99998859	0.00000000	52.96506000	27.62672000
195.19998858	0.00000000	52.55290000	27.21457000
195.39998857	0.00000000	52.22071000	26.88238000
195.59998856	0.00000000	52.17765000	26.83932000
195.79998855	0.00000000	52.17765000	26.83932000
195.99998853	0.00000000	52.17765000	26.83932000
