Time	Channel A	Channel B	Channel C
(us)	(V)	(mV)	(mV)

-4.59999956	0.00000000	25.29527000	7.89247000
-4.39999957	0.00000000	25.29527000	7.89247000
-4.19999958	0.00000000	25.29527000	7.89247000
-3.99999959	0.00000000	25.29527000	7.89247000
-3.79999960	0.00000000	25.29527000	7.89247000
-3.59999962	0.00000000	25.29527000	7.89247000
-3.39999963	0.00000000	25.29527000	7.89247000
-3.19999964	0.00000000	25.29527000	7.89247000
-2.99999965	0.00000000	25.29527000	7.89247000
-2.79999966	0.00000000	25.29527000	7.89247000
-2.59999968	0.00000000	25.29527000	7.89247000
-2.39999969	0.00000000	25.33834000	7.89247000
-2.19999970	0.00000000	25.67052000	7.84940900
-1.99999971	0.00000000	26.03961000	7.51722400
-1.79999972	0.00000000	25.67052000	7.14812900
-1.59999973	0.00000000	25.33834000	7.51722400
-1.39999975	0.00000000	25.29527000	7.84940900
-1.19999976	0.00000000	25.29527000	7.89247000
-0.99999977	0.00000000	25.29527000	7.89247000
-0.79999978	0.00000000	25.29527000	7.89247000
-0.59999979	0.00000000	25.29527000	7.89247000
-0.39999981	0.15871060	25.29527000	7.89247000
-0.19999982	0.47736220	25.29527000	7.89247000
0.00000017	0.79601380	25.29527000	7.89247000
0.20000016	0.95533960	25.29527000	7.89247000
0.40000015	0.95533960	25.29527000	7.89247000
0.60000013	0.63668800	25.29527000	7.89247000
0.80000012	0.00000000	25.29527000	7.89247000
1.00000011	-0.95533960	25.29527000	7.89247000
1.20000010	-1.91129400	25.29527000	7.89247000
1.40000009	-2.54859700	25.29527000	7.89247000
1.60000008	-2.70792300	25.29527000	7.89247000
1.80000006	-2.07062000	25.29527000	7.89247000
2.00000005	-0.63668800	25.29527000	7.89247000
2.20000004	1.43331700	25.29527000	7.89247000
2.40000003	3.50393700	25.29527000	7.89247000
2.60000002	4.93786900	25.29527000	7.89247000
2.80000000	5.25652100	25.29527000	7.84940900
2.99999999	4.30056600	25.29527000	7.47416300
3.19999998	1.75196900	25.29527000	6.72982200
3.39999997	-1.43331700	25.29527000	6.40378900
3.59999996	-4.77854300	25.29527000	6.72982200
3.79999994	-7.16781500	25.29527000	7.47416300
3.99999993	-7.96444400	25.29527000	7.84940900
4.19999992	-6.69045300	25.29527000	7.89247000
4.39999991	-3.50393700	25.29527000	7.89247000
4.59999990	0.63668800	25.29527000	7.89247000
4.79999989	4.93786900	25.29527000	7.89247000
4.99999987	8.12377000	25.29527000	7.84940900
5.19999986	9.55770200	25.29527000	7.47416300
5.39999985	8.28309500	25.29527000	6.72982200
5.59999984	5.09719500	25.29527000	6.35457700
5.79999983	0.47736220	25.29527000	6.31151500
5.99999981	-4.14124000	25.29527000	6.35457700
6.19999980	-7.80511800	25.29527000	6.72982200
6.39999979	-9.39837600	25.29527000	7.47416300
6.59999978	-8.76107300	25.29527000	7.84940900
6.79999977	-5.89382400	25.29527000	7.89247000
6.99999975	-1.75196900	25.29527000	7.89247000
7.19999974	2.54859700	25.29527000	7.89247000
7.39999973	6.05315000	25.29527000	7.89247000
7.59999972	7.64579200	25.29527000	7.84940900
7.79999971	7.32714100	25.29527000	7.47416300
7.99999970	5.25652100	25.29527000	6.72982200
8.19999968	2.07062000	25.29527000	6.40378900
8.39999967	-1.11466500	25.29527000	6.72982200
8.59999966	-3.82258900	25.29527000	7.47416300
8.79999965	-5.09719500	25.29527000	7.84940900
8.99999964	-5.09719500	25.29527000	7.89247000
9.19999962	-3.82258900	25.25221000	7.84940900
9.39999961	-1.91129400	24.92003000	7.51722400
9.59999960	0.15871060	24.55093000	7.14812900
9.79999959	1.59264300	24.92003000	7.51722400
9.99999958	2.38927200	25.25221000	7.80019600
10.19999956	2.38927200	25.29527000	7.47416300
10.39999955	1.91129400	25.29527000	6.77903500
10.59999954	1.11466500	25.29527000	6.77903500
10.79999953	0.15871060	25.29527000	7.47416300
10.99999952	-0.47736220	25.29527000	7.84940900
11.19999951	-0.79601380	25.29527000	7.89247000
11.39999949	-0.95533960	25.29527000	7.89247000
11.59999948	-0.95533960	25.29527000	7.89247000
11.79999947	-0.63668800	25.29527000	7.89247000
11.99999946	-0.31803640	25.29527000	7.89247000
12.19999945	-0.15871060	25.29527000	7.89247000
12.39999943	-0.15871060	25.29527000	7.89247000
12.59999942	0.00000000	25.29527000	7.89247000
12.79999941	0.00000000	25.29527000	7.89247000
12.99999940	0.00000000	25.29527000	7.89247000
13.19999939	0.00000000	25.29527000	7.84940900
13.39999937	0.00000000	25.29527000	7.51722400
13.59999936	0.00000000	25.29527000	7.14812900
13.79999935	0.00000000	25.29527000	7.51722400
13.99999934	0.00000000	25.29527000	7.84940900
14.19999933	-0.15871060	25.29527000	7.89247000
14.39999932	-0.15871060	25.29527000	7.89247000
14.59999930	0.00000000	25.29527000	7.89247000
14.79999929	0.00000000	25.25221000	7.89247000
14.99999928	0.00000000	24.92003000	7.89247000
15.19999927	0.00000000	24.55093000	7.89247000
15.39999926	0.00000000	24.87697000	7.89247000
15.59999924	0.00000000	24.82775000	7.89247000
15.79999923	0.00000000	24.13263000	7.89247000
15.99999922	0.00000000	23.80659000	7.89247000
16.19999921	0.00000000	24.13263000	7.89247000
16.39999920	-0.15871060	24.87697000	7.89247000
16.59999919	-0.15871060	25.25221000	7.89247000
16.79999917	0.00000000	25.29527000	7.89247000
16.99999916	-0.15871060	25.33834000	7.89247000
17.19999915	0.00000000	25.71358000	7.89247000
17.39999914	0.00000000	26.45792000	7.89247000
17.59999913	0.00000000	26.83317000	7.89247000
17.79999911	0.00000000	26.83317000	7.89247000
17.99999910	0.00000000	26.40871000	7.89247000
18.19999909	0.00000000	25.20300000	7.89247000
18.39999908	0.00000000	23.33907000	7.89247000
18.59999907	0.00000000	21.38902000	7.89247000
18.79999905	0.00000000	20.22022000	7.89247000
18.99999904	0.00000000	19.48204000	7.89247000
19.19999903	0.00000000	19.94340000	7.89247000
19.39999902	0.00000000	22.22564000	7.89247000
19.59999901	0.00000000	25.33834000	7.89247000
19.79999900	0.00000000	28.87549000	7.89247000
19.99999898	0.00000000	32.68946000	7.84940900
20.19999897	0.00000000	35.34695000	7.47416300
20.39999896	0.00000000	35.72219000	6.72982200
20.59999895	0.00000000	33.76599000	6.40378900
20.79999894	0.00000000	29.39837000	6.72982200
20.99999892	0.00000000	22.82849000	7.42495000
21.19999891	0.00000000	15.11442000	7.42495000
21.39999890	0.00000000	8.59375000	6.77903500
21.59999889	0.00000000	4.73671200	6.72982200
21.79999888	0.00000000	4.87204700	7.09891700
21.99999886	0.00000000	9.94094400	7.06200700
22.19999885	0.00000000	19.66043000	7.09891700
22.39999884	0.00000000	31.99434000	6.72982200
22.59999883	0.00000000	44.32209000	6.77903500
22.79999882	0.00000000	53.16806000	7.47416300
22.99999881	0.00000000	56.23769000	7.84940900
23.19999879	0.00000000	52.61442000	7.89247000
23.39999878	-0.15871060	41.72613000	7.89247000
23.59999877	0.00000000	25.11688000	7.93553100
23.79999876	0.00000000	7.01279500	8.31077700
23.99999875	0.00000000	-8.42765700	9.00590400
24.19999873	0.00000000	-17.22441000	8.96284400
24.39999872	0.00000000	-16.80610000	7.89247000
24.59999871	0.00000000	-6.71136800	6.68676100
24.79999870	0.00000000	11.10359000	5.51796200
24.99999869	0.00000000	33.15699000	3.94931100
25.19999867	0.00000000	54.69980000	2.82357300
25.39999866	0.00000000	70.10334000	2.04232300
25.59999865	0.00000000	75.08612000	2.12844500
25.79999864	-0.15871060	68.52239000	3.70939900
25.99999863	0.00000000	51.49483000	6.82209600
26.19999862	0.00000000	27.94660000	11.04823000
26.39999860	0.00000000	3.24188000	15.27436000
26.59999859	0.00000000	-16.84916000	18.35015000
26.79999858	0.00000000	-27.64517000	19.46358000
26.99999857	0.00000000	-26.90084000	17.88263000
27.19999856	0.00000000	-14.48081000	13.56422000
27.39999854	0.00000000	6.69291300	6.96358300
27.59999853	0.00000000	31.80979000	-1.11343500
27.79999852	0.00000000	54.56446000	-8.36614100
27.99999851	0.00000000	70.10334000	-12.63533000
28.19999850	0.00000000	75.13533000	-12.96752000
28.39999848	0.00000000	68.98991000	-9.01205700
28.59999847	0.00000000	53.16806000	-0.46751960
28.79999846	0.00000000	31.57603000	11.05438000
28.99999845	0.00000000	9.52263600	22.66240000
29.19999844	0.00000000	-8.29232200	31.87131000
29.39999843	0.00000000	-18.34400000	36.50959000
29.59999841	0.00000000	-18.43012000	34.84867000
29.79999840	0.00000000	-9.27042300	27.12844000
29.99999839	0.00000000	5.80708600	13.93947000
30.19999838	0.00000000	23.62820000	-1.43946800
30.39999837	0.00000000	40.69882000	-15.79724000
30.59999835	0.00000000	53.45103000	-26.15649000
30.79999834	0.00000000	59.67642000	-29.97047000
30.99999833	0.00000000	57.77559000	-25.69513000
31.19999832	0.00000000	48.97884000	-14.12401000
31.39999831	0.00000000	35.81446000	2.13459600
31.59999829	0.00000000	21.10605000	19.92495000
31.79999828	0.00000000	7.94168200	35.72219000
31.99999827	0.00000000	-0.99040350	45.71235000
32.19999826	0.00000000	-4.10310000	47.29330000
32.39999825	0.00000000	-1.03346500	40.37278000
32.59999824	0.00000000	7.43110200	26.85162000
32.79999822	0.00000000	18.97145000	9.43036400
32.99999821	0.00000000	30.55487000	-8.32308000
33.19999820	0.00000000	39.49311000	-22.63164000
33.39999819	0.00000000	44.19291000	-30.38878000
33.59999818	0.00000000	44.23597000	-30.38878000
33.79999816	0.00000000	39.99754000	-22.67470000
33.99999815	0.00000000	32.64640000	-8.78444900
34.19999814	0.00000000	23.80659000	7.84940900
34.39999813	0.00000000	15.71112000	24.06496000
34.59999812	0.00000000	10.68528000	36.42347000
34.79999810	0.00000000	9.43651600	41.81841000
34.99999809	0.00000000	11.75566000	39.57923000
35.19999808	0.00000000	16.78149000	30.33341000
35.39999807	0.00000000	23.67126000	16.85531000
35.59999806	0.00000000	30.17962000	2.12844500
35.79999805	0.00000000	34.04897000	-10.96826000
35.99999803	0.00000000	34.87943000	-19.42667000
36.19999802	0.00000000	32.56028000	-21.00148000
36.39999801	0.00000000	27.98966000	-15.66191000
36.59999800	0.00000000	22.60088000	-5.29650500
36.79999799	0.00000000	17.98720000	7.38804100
36.99999797	0.00000000	15.29281000	18.90994000
37.19999796	0.00000000	15.24975000	26.24877000
37.39999795	0.00000000	17.56890000	27.87278000
37.59999794	0.00000000	21.43824000	24.02190000
37.79999793	0.00000000	26.40871000	15.97564000
37.99999791	0.00000000	30.64714000	5.62253900
38.19999790	0.00000000	33.02165000	-3.53715500
38.39999789	0.00000000	33.76599000	-8.92593500
38.59999788	0.00000000	32.18504000	-8.92593500
38.79999787	0.00000000	28.41412000	-3.58021600
38.99999786	0.00000000	24.13263000	5.15501900
39.19999784	0.00000000	20.22022000	14.39468000
39.39999783	0.00000000	16.73843000	21.27830000
39.59999782	0.00000000	14.82529000	24.34178000
39.79999781	0.00000000	14.78223000	21.97342000
39.99999780	0.00000000	16.36319000	14.76993000
40.19999778	0.00000000	19.48204000	5.15501900
40.39999777	0.00000000	23.71432000	-4.00467500
40.59999776	0.00000000	27.94660000	-10.17470000
40.79999775	0.00000000	31.10851000	-11.34350000
40.99999774	0.00000000	33.06471000	-7.89862200
41.19999772	0.00000000	33.80905000	-0.51673230
41.39999771	0.00000000	32.64640000	9.43036400
41.59999770	0.00000000	29.94586000	19.00221000
41.79999769	0.00000000	26.45792000	25.13533000
41.99999768	0.00000000	22.55167000	26.34104000
42.19999767	0.00000000	19.10679000	22.52707000
42.39999765	0.00000000	16.73843000	15.23130000
42.59999764	0.00000000	15.98794000	6.40378900
42.79999763	0.00000000	16.73843000	-1.67322800
42.99999762	0.00000000	19.06373000	-6.74212600
43.19999761	0.00000000	22.09030000	-8.31692900
43.39999759	0.00000000	24.78469000	-6.36687900
43.59999758	0.00000000	26.40871000	-1.02116100
43.79999757	0.00000000	27.25147000	5.85014700
43.99999756	0.00000000	27.98966000	12.03248000
44.19999755	0.00000000	27.98966000	16.30167000
44.39999753	0.00000000	27.29453000	17.88263000
44.59999752	0.00000000	26.91929000	16.76919000
44.79999751	0.00000000	26.87623000	13.69956000
44.99999750	0.00000000	26.83317000	9.47342500
45.19999749	0.00000000	26.40871000	5.24729300
45.39999748	0.00000000	25.25221000	2.12844500
45.59999746	0.00000000	23.67126000	0.55364170
45.79999745	0.00000000	21.66585000	0.55364170
45.99999744	0.00000000	18.97145000	2.04232300
46.19999743	0.00000000	16.32013000	4.40452700
46.39999742	0.00000000	14.78223000	7.06200700
46.59999740	0.00000000	14.82529000	9.79330600
46.79999739	0.00000000	16.87377000	11.33120000
46.99999738	0.00000000	21.52436000	12.16166000
47.19999737	0.00000000	28.03888000	12.07554000
47.39999736	0.00000000	34.18430000	10.53765000
47.59999734	0.00000000	38.46580000	7.89247000
47.79999733	0.00000000	39.95448000	5.19808000
47.99999732	0.00000000	37.99828000	3.24803100
48.19999731	0.00000000	32.56028000	2.04232300
48.39999730	0.00000000	24.82775000	1.71013800
48.59999729	0.00000000	16.32013000	2.50369100
48.79999727	0.00000000	9.06126900	4.82283400
48.99999726	0.00000000	5.19808000	7.84940900
49.19999725	0.00000000	5.98548200	10.58686000
49.39999724	0.00000000	11.01747000	12.53691000
49.59999723	0.00000000	19.52510000	13.69956000
49.79999721	0.00000000	29.48450000	13.61343000
49.99999720	0.00000000	37.95522000	11.65723000
50.19999719	0.00000000	42.61196000	7.84940900
50.39999718	0.00000000	42.61196000	3.62327700
50.59999717	0.00000000	37.99828000	0.13533460
50.79999715	0.00000000	29.90280000	-2.14074800
50.99999714	0.00000000	20.64468000	-2.14074800
51.19999713	0.00000000	12.17397000	0.13533460
51.39999712	0.00000000	6.82824800	3.62327700
51.59999711	0.00000000	6.40378900	7.89247000
51.79999710	0.00000000	10.59301000	12.11860000
51.99999708	0.00000000	17.90108000	15.18824000
52.19999707	0.00000000	26.36565000	16.34473000
52.39999706	0.00000000	33.67372000	15.18824000
52.59999705	0.00000000	37.91216000	12.11860000
52.79999704	0.00000000	37.91216000	7.89247000
52.99999702	0.00000000	33.72293000	3.70939900
53.19999701	0.00000000	26.83317000	0.97194880
53.39999700	0.00000000	19.56816000	0.17839570
53.59999699	0.00000000	14.13017000	0.87967510
53.79999698	0.00000000	11.79872000	2.87278500
53.99999696	0.00000000	12.54921000	5.53026500
54.19999695	0.00000000	16.45546000	8.58759800
54.39999694	0.00000000	22.55167000	10.49459000
54.59999693	0.00000000	29.06619000	10.91289000
54.79999692	0.00000000	33.67372000	10.16855000
54.99999691	0.00000000	35.21161000	8.26771600
55.19999689	0.00000000	33.34769000	6.40378900
55.39999688	0.00000000	28.74631000	5.19808000
55.59999687	0.00000000	23.38214000	4.87204700
55.79999686	0.00000000	18.31939000	5.61638700
55.99999685	0.00000000	14.87451000	7.51722400
56.19999683	0.00000000	13.71186000	9.42421200
56.39999682	0.00000000	15.24975000	10.91289000
56.59999681	0.00000000	19.10679000	11.23893000
56.79999680	0.00000000	24.04650000	9.33809000
56.99999679	0.00000000	28.69094000	6.31151500
57.19999677	0.00000000	31.39149000	3.19881900
57.39999676	0.00000000	32.22810000	0.51058070
57.59999675	0.00000000	31.02239000	-0.97810030
57.79999674	0.00000000	27.98966000	-0.51673230
57.99999673	0.00000000	24.18184000	2.55290300
58.19999672	0.00000000	21.06299000	7.51722400
58.39999670	0.00000000	19.10679000	12.53691000
58.59999669	0.00000000	18.31939000	16.76919000
58.79999668	0.00000000	19.10679000	19.04527000
58.99999667	0.00000000	20.97072000	18.21481000
59.19999666	0.00000000	23.29601000	14.35162000
59.39999664	0.00000000	25.20300000	7.84940900
59.59999663	0.00000000	26.40871000	0.92888770
59.79999662	0.00000000	26.78395000	-4.46604300
59.99999661	0.00000000	26.40871000	-7.52952700
60.19999660	0.00000000	25.25221000	-6.74212600
60.39999658	0.00000000	23.75738000	-2.51599400
60.59999657	0.00000000	22.60088000	4.08464600
60.79999656	0.00000000	22.17643000	12.11860000
60.99999655	0.00000000	22.17643000	19.04527000
61.19999654	0.00000000	22.55167000	22.85925000
61.39999653	0.00000000	23.33907000	22.89616000
61.59999651	0.00000000	24.08957000	18.67618000
61.79999650	0.00000000	24.82775000	12.11860000
61.99999649	0.00000000	24.78469000	4.36146600
62.19999648	0.00000000	23.71432000	-3.29724400
62.39999647	0.00000000	22.55167000	-8.27386800
62.59999645	0.00000000	21.75812000	-9.47957600
62.79999644	0.00000000	21.01993000	-6.78518600
62.99999643	0.00000000	21.06299000	-1.02116100
63.19999642	0.00000000	22.17643000	6.31766700
63.39999641	0.00000000	23.71432000	13.65650000
63.59999639	0.00000000	25.25221000	19.42052000
63.79999638	0.00000000	26.40871000	22.10876000
63.99999637	0.00000000	26.78395000	20.99532000
64.19999636	0.00000000	26.40871000	16.76919000
64.39999635	0.00000000	25.25221000	10.62992000
64.59999634	0.00000000	23.71432000	4.04158400
64.79999632	0.00000000	22.17643000	-1.35334600
64.99999631	0.00000000	21.01993000	-4.87204700
65.19999630	0.00000000	20.59547000	-5.67175200
65.39999629	0.00000000	20.64468000	-4.13385800
65.59999628	0.00000000	21.43824000	-0.69512790
65.79999626	0.00000000	23.29601000	3.94315900
65.99999625	0.00000000	24.78469000	8.22465500
66.19999624	0.00000000	25.25221000	12.16166000
66.39999623	0.00000000	25.20300000	15.18824000
66.59999622	0.00000000	24.45866000	16.39395000
66.79999620	0.00000000	22.92692000	15.69882000
66.99999619	0.00000000	21.80118000	14.16092000
67.19999618	0.00000000	21.01993000	12.16781000
67.39999617	0.00000000	21.06299000	9.42421200
67.59999616	0.00000000	22.22564000	6.31151500
67.79999615	0.00000000	24.13263000	3.19881900
67.99999613	0.00000000	26.45792000	0.46751960
68.19999612	0.00000000	28.36491000	-1.43946800
68.39999611	0.00000000	29.48450000	-2.22687000
68.59999610	0.00000000	29.06619000	-1.39640700
68.79999609	0.00000000	26.74089000	0.92888770
68.99999607	0.00000000	23.24680000	4.82898600
69.19999606	0.00000000	19.01451000	9.43036400
69.39999605	0.00000000	15.24975000	13.74262000
69.59999604	0.00000000	13.71186000	17.18750000
69.79999603	0.00000000	14.82529000	19.08834000
69.99999601	0.00000000	17.94414000	18.25787000
70.19999600	0.00000000	22.60088000	14.81299000
70.39999599	0.00000000	27.98966000	9.42421200
70.59999598	0.00000000	32.60334000	3.66633800
70.79999597	0.00000000	35.30389000	-1.02116100
70.99999596	0.00000000	35.30389000	-4.09079700
71.19999594	0.00000000	32.60334000	-4.87819900
71.39999593	0.00000000	27.94660000	-2.97736200
71.59999592	0.00000000	22.13336000	0.51058070
71.79999591	0.00000000	16.36319000	5.15501900
71.99999590	0.00000000	12.13091000	10.11934000
72.19999588	0.00000000	10.54995000	13.60728000
72.39999587	0.00000000	11.71260000	15.18824000
72.59999586	0.00000000	15.20054000	14.81299000
72.79999585	0.00000000	20.64468000	12.53691000
72.99999584	0.00000000	26.78395000	9.47342500
73.19999582	0.00000000	32.18504000	6.36072800
73.39999581	0.00000000	35.25467000	3.70939900
73.59999580	0.00000000	35.30389000	2.54675200
73.79999579	0.00000000	32.60334000	3.24803100
73.99999578	0.00000000	27.98966000	4.73671200
74.19999577	0.00000000	22.60088000	6.26845500
74.39999575	0.00000000	17.94414000	7.38188900
74.59999574	0.00000000	14.82529000	7.38188900
74.79999573	0.00000000	13.66880000	6.26845500
74.99999572	0.00000000	14.78223000	4.77977300
75.19999571	0.00000000	17.48277000	3.62327700
75.39999569	0.00000000	20.97072000	3.29109200
75.59999568	0.00000000	24.82775000	4.08464600
75.79999567	0.00000000	27.86048000	6.40378900
75.99999566	0.00000000	29.06619000	9.42421200
76.19999565	0.00000000	28.36491000	12.16781000
76.39999563	0.00000000	26.87623000	14.07480000
76.59999562	0.00000000	25.29527000	14.76993000
76.79999561	0.00000000	23.75738000	13.18898000
76.99999560	0.00000000	22.55167000	9.33809000
77.19999559	0.00000000	21.80118000	4.41067900
77.39999558	0.00000000	21.43824000	-0.27682080
77.59999556	0.00000000	22.17643000	-3.30339500
77.79999555	0.00000000	23.20374000	-4.50295200
77.99999554	0.00000000	23.24680000	-2.88508800
78.19999553	0.00000000	22.50861000	0.87967510
78.39999552	0.00000000	21.75812000	5.93626900
78.59999550	0.00000000	20.97072000	10.95595000
78.79999549	0.00000000	20.64468000	15.23130000
78.99999548	0.00000000	21.06299000	17.88263000
79.19999547	0.00000000	22.60088000	17.92569000
79.39999546	0.00000000	24.87697000	15.60654000
79.59999544	0.00000000	26.78395000	11.70029000
79.79999543	0.00000000	27.94660000	6.31151500
79.99999542	0.00000000	27.94660000	0.97194880
80.19999541	0.00000000	26.78395000	-2.51599400
80.39999540	0.00000000	24.82775000	-3.76476400
80.59999539	0.00000000	22.13336000	-2.97736200
80.79999537	0.00000000	19.43897000	-0.69512790
80.99999536	0.00000000	17.52584000	2.82972400
81.19999535	0.00000000	16.78149000	6.68676100
81.39999534	0.00000000	17.94414000	10.53765000
81.59999533	0.00000000	20.59547000	13.28125000
81.79999531	0.00000000	23.67126000	14.49311000
81.99999530	0.00000000	26.36565000	14.85605000
82.19999529	0.00000000	27.94660000	13.69956000
82.39999528	0.00000000	28.36491000	11.42347000
82.59999527	0.00000000	27.94660000	9.05511800
82.79999525	0.00000000	26.36565000	6.26845500
82.99999524	0.00000000	23.71432000	3.19881900
83.19999523	0.00000000	21.06299000	0.51058070
83.39999522	0.00000000	19.52510000	-1.02116100
83.59999521	0.00000000	19.48204000	-1.06422200
83.79999520	0.00000000	20.55241000	0.09227362
83.99999518	0.00000000	21.71506000	2.08538400
84.19999517	0.00000000	22.50861000	5.19808000
84.39999516	0.00000000	23.29601000	9.05511800
84.59999515	0.00000000	23.67126000	12.49385000
84.79999514	0.00000000	23.71432000	14.85605000
84.99999512	0.00000000	23.71432000	15.60654000
85.19999511	0.00000000	23.71432000	14.81299000
85.39999510	0.00000000	23.71432000	12.07554000
85.59999509	0.00000000	23.71432000	7.89247000
85.79999508	0.00000000	23.71432000	3.62327700
85.99999506	0.00000000	23.71432000	0.09227362
86.19999505	0.00000000	23.71432000	-2.55905500
86.39999504	0.00000000	23.67126000	-3.29724400
86.59999503	0.00000000	23.24680000	-1.39640700
86.79999502	0.00000000	22.13336000	2.08538400
86.99999501	0.00000000	20.97072000	6.72982200
87.19999499	0.00000000	20.22022000	11.65723000
87.39999498	0.00000000	19.85728000	14.76993000
87.59999497	0.00000000	20.64468000	15.60654000
87.79999496	0.00000000	22.13336000	14.76993000
87.99999495	0.00000000	23.71432000	11.65723000
88.19999493	0.00000000	25.25221000	6.72982200
88.39999492	0.00000000	26.36565000	2.12844500
88.59999491	0.00000000	26.40871000	-0.97810030
88.79999490	0.00000000	25.62746000	-2.13459600
88.99999489	0.00000000	24.45866000	-0.97810030
89.19999487	0.00000000	22.55167000	2.08538400
89.39999486	0.00000000	21.06299000	6.31151500
89.59999485	0.00000000	20.59547000	10.53765000
89.79999484	0.00000000	20.55241000	13.65650000
89.99999483	0.00000000	20.59547000	15.18824000
90.19999482	0.00000000	21.01993000	14.72072000
90.39999480	0.00000000	22.13336000	11.65723000
90.59999479	0.00000000	23.24680000	6.72982200
90.79999478	0.00000000	23.67126000	2.12844500
90.99999477	0.00000000	23.71432000	-0.97810030
91.19999476	0.00000000	23.71432000	-2.13459600
91.39999474	0.00000000	23.71432000	-0.97810030
91.59999473	0.00000000	23.71432000	2.12844500
91.79999472	0.00000000	23.71432000	6.72982200
91.99999471	0.00000000	23.71432000	11.65723000
92.19999470	0.00000000	23.71432000	14.72072000
92.39999468	0.00000000	23.71432000	15.18824000
92.59999467	0.00000000	23.71432000	13.65650000
92.79999466	0.00000000	23.62205000	10.49459000
92.99999465	0.00000000	22.87770000	5.93626900
93.19999464	0.00000000	21.34596000	1.34719500
93.39999463	0.00000000	20.26944000	-1.35334600
93.59999461	0.00000000	19.80807000	-2.13459600
93.79999460	0.00000000	20.22022000	-0.55979330
93.99999459	0.00000000	20.97072000	3.20497000
94.19999458	0.00000000	22.26870000	7.43110200
94.39999457	0.00000000	24.50787000	10.96211000
94.59999455	0.00000000	27.15305000	13.60728000
94.79999454	0.00000000	28.32185000	14.30241000
94.99999453	0.00000000	28.36491000	12.03248000
95.19999452	0.00000000	27.52830000	7.89247000
95.39999451	0.00000000	25.20300000	3.66633800
95.59999449	0.00000000	22.13336000	0.59670270
95.79999448	0.00000000	19.01451000	-0.60285430
95.99999447	0.00000000	16.36319000	0.13533460
96.19999446	0.00000000	15.20054000	2.08538400
96.39999445	0.00000000	15.98794000	5.15501900
96.59999444	0.00000000	18.27633000	8.58759800
96.79999442	0.00000000	21.80118000	10.86983000
96.99999441	0.00000000	25.62746000	11.70029000
97.19999440	0.00000000	29.10925000	10.96211000
97.39999439	0.00000000	31.02239000	9.42421200
97.59999438	0.00000000	31.06545000	7.47416300
97.79999436	0.00000000	29.48450000	5.19808000
97.99999435	0.00000000	26.40871000	3.66633800
98.19999434	0.00000000	22.55167000	3.24803100
98.39999433	0.00000000	19.06373000	3.62327700
98.59999432	0.00000000	16.32013000	4.73671200
98.79999430	0.00000000	14.78223000	5.89320800
98.99999429	0.00000000	14.78223000	6.68676100
99.19999428	0.00000000	16.36319000	7.47416300
99.39999427	0.00000000	19.43897000	7.84940900
99.59999426	0.00000000	23.29601000	7.89247000
99.79999425	0.00000000	26.78395000	7.89247000
99.99999423	0.00000000	29.48450000	7.89247000
100.19999422	0.00000000	30.64714000	7.93553100
100.39999421	0.00000000	29.90280000	8.31077700
100.59999420	0.00000000	27.98966000	9.00590400
100.79999419	0.00000000	25.25221000	8.96284400
100.99999417	0.00000000	22.17643000	7.84940900
101.19999416	0.00000000	19.43897000	6.26845500
101.39999415	0.00000000	17.48277000	4.36146600
101.59999414	0.00000000	16.36319000	2.46063000
101.79999413	0.00000000	16.73843000	1.71013800
101.99999411	0.00000000	18.59621000	2.08538400
102.19999410	0.00000000	20.55241000	3.66633800
102.39999409	0.00000000	22.55167000	6.31151500
102.59999408	0.00000000	24.87697000	9.00590400
102.79999407	0.00000000	26.74089000	11.00517000
102.99999406	0.00000000	27.57136000	12.53691000
103.19999404	0.00000000	27.15920000	13.23819000
103.39999403	0.00000000	26.03961000	12.07554000
103.59999402	0.00000000	24.08957000	9.38115100
103.79999401	0.00000000	22.17643000	5.93626900
103.99999400	0.00000000	20.59547000	2.46063000
104.19999398	0.00000000	19.43897000	0.17839570
104.39999397	0.00000000	19.01451000	-0.60285430
104.59999396	0.00000000	19.06373000	0.55364170
104.79999395	0.00000000	19.85728000	3.19881900
104.99999394	0.00000000	21.71506000	6.26845500
105.19999392	0.00000000	23.24680000	9.00590400
105.39999391	0.00000000	24.08957000	10.91289000
105.59999390	0.00000000	24.87697000	11.70029000
105.79999389	0.00000000	25.20300000	10.91289000
105.99999388	0.00000000	24.82775000	9.05511800
106.19999387	0.00000000	23.67126000	6.68676100
106.39999385	0.00000000	22.17643000	4.40452700
106.59999384	0.00000000	21.01993000	2.50369100
106.79999383	0.00000000	20.64468000	2.12844500
106.99999382	0.00000000	21.01993000	3.19881900
107.19999381	0.00000000	22.13336000	4.73671200
107.39999379	0.00000000	23.24680000	6.31151500
107.59999378	0.00000000	23.67126000	7.84940900
107.79999377	0.00000000	23.71432000	8.96284400
107.99999376	0.00000000	23.67126000	8.96284400
108.19999375	0.00000000	23.24680000	7.84940900
108.39999374	0.00000000	22.13336000	6.31151500
108.59999372	0.00000000	20.97072000	4.77977300
108.79999371	0.00000000	20.22022000	3.62327700
108.99999370	0.00000000	19.80807000	3.24803100
109.19999369	0.00000000	20.22022000	3.62327700
109.39999368	0.00000000	20.97072000	4.77977300
109.59999366	0.00000000	22.17643000	6.31151500
109.79999365	0.00000000	23.67126000	7.84940900
109.99999364	0.00000000	24.82775000	9.00590400
110.19999363	0.00000000	25.20300000	9.38115100
110.39999362	0.00000000	24.82775000	9.00590400
110.59999360	0.00000000	23.67126000	7.89247000
110.79999359	0.00000000	22.22564000	6.68676100
110.99999358	0.00000000	21.38902000	5.51796200
111.19999357	0.00000000	21.33981000	3.99237200
111.39999356	0.00000000	20.92766000	3.24803100
111.59999355	0.00000000	20.64468000	3.19881900
111.79999353	0.00000000	20.97072000	3.62327700
111.99999352	0.00000000	21.75812000	4.73671200
112.19999351	0.00000000	22.50861000	5.89320800
112.39999350	0.00000000	23.29601000	6.68676100
112.59999349	0.00000000	23.67126000	7.47416300
112.79999347	0.00000000	23.71432000	7.84940900
112.99999346	0.00000000	23.67126000	7.89247000
113.19999345	0.00000000	23.29601000	7.84940900
113.39999344	0.00000000	22.55167000	7.47416300
113.59999343	0.00000000	22.17643000	6.72982200
113.79999341	0.00000000	22.13336000	6.35457700
113.99999340	0.00000000	22.13336000	6.26845500
114.19999339	0.00000000	22.13336000	5.89320800
114.39999338	0.00000000	22.13336000	5.15501900
114.59999337	0.00000000	22.13336000	4.77977300
114.79999336	0.00000000	22.13336000	4.73671200
114.99999334	0.00000000	22.13336000	4.73671200
115.19999333	0.00000000	22.13336000	4.73671200
115.39999332	0.00000000	22.13336000	4.77977300
115.59999331	0.00000000	22.13336000	5.15501900
115.79999330	0.00000000	22.13336000	5.93626900
115.99999328	0.00000000	22.13336000	6.68676100
116.19999327	0.00000000	22.09030000	7.51722400
116.39999326	0.00000000	21.75812000	8.22465500
116.59999325	0.00000000	21.38902000	8.63681000
116.79999324	0.00000000	21.75812000	8.22465500
116.99999322	0.00000000	22.09030000	7.51722400
117.19999321	0.00000000	22.13336000	6.68676100
117.39999320	0.00000000	22.17643000	5.93626900
117.59999319	0.00000000	22.55167000	5.11195900
117.79999318	0.00000000	23.29601000	4.40452700
117.99999317	0.00000000	23.67126000	3.99237200
118.19999315	0.00000000	23.71432000	4.40452700
118.39999314	0.00000000	23.67126000	5.11195900
118.59999313	0.00000000	23.24680000	5.93626900
118.79999312	0.00000000	22.13336000	6.68676100
118.99999311	0.00000000	20.97072000	7.47416300
119.19999309	0.00000000	20.17716000	7.84940900
119.39999308	0.00000000	19.43897000	7.89247000
119.59999307	0.00000000	19.48204000	7.89247000
119.79999306	0.00000000	20.55241000	7.84940900
119.99999305	0.00000000	21.71506000	7.47416300
120.19999303	0.00000000	22.55167000	6.72982200
120.39999302	0.00000000	23.71432000	6.31151500
120.59999301	0.00000000	24.82775000	5.89320800
120.79999300	0.00000000	25.20300000	5.15501900
120.99999299	0.00000000	24.82775000	4.77977300
121.19999298	0.00000000	23.71432000	4.73671200
121.39999296	0.00000000	22.55167000	4.77977300
121.59999295	0.00000000	21.71506000	5.15501900
121.79999294	0.00000000	20.55241000	5.89320800
121.99999293	0.00000000	19.43897000	6.26845500
122.19999292	0.00000000	19.06373000	6.31151500
122.39999290	0.00000000	19.38976000	6.35457700
122.59999289	0.00000000	20.17716000	6.72982200
122.79999288	0.00000000	20.97072000	7.47416300
122.99999287	0.00000000	22.13336000	7.84940900
123.19999286	0.00000000	23.24680000	7.84940900
123.39999284	0.00000000	23.71432000	7.47416300
123.59999283	0.00000000	24.08957000	6.72982200
123.79999282	0.00000000	24.45866000	6.31151500
123.99999281	0.00000000	24.04650000	5.89320800
124.19999280	0.00000000	23.33907000	5.15501900
124.39999279	0.00000000	22.50861000	4.77977300
124.59999277	0.00000000	21.75812000	4.73671200
124.79999276	0.00000000	20.97072000	4.77977300
124.99999275	0.00000000	20.59547000	5.15501900
125.19999274	0.00000000	20.55241000	5.89320800
125.39999273	0.00000000	20.59547000	6.31151500
125.59999271	0.00000000	20.97072000	6.72982200
125.79999270	0.00000000	21.75812000	7.47416300
125.99999269	0.00000000	22.50861000	7.84940900
126.19999268	0.00000000	23.29601000	7.84940900
126.39999267	0.00000000	23.67126000	7.47416300
126.59999265	0.00000000	23.71432000	6.72982200
126.79999264	0.00000000	23.67126000	6.31151500
126.99999263	0.00000000	23.24680000	5.89320800
127.19999262	0.00000000	22.13336000	5.19808000
127.39999261	0.00000000	21.01993000	5.15501900
127.59999260	0.00000000	20.55241000	5.47490100
127.79999258	0.00000000	20.17716000	5.15501900
127.99999257	0.00000000	19.80807000	5.19808000
128.19999256	0.00000000	20.22022000	5.89320800
128.39999255	0.00000000	20.97072000	6.26845500
128.59999254	0.00000000	22.13336000	6.31151500
128.79999252	0.00000000	23.24680000	6.31151500
128.99999251	0.00000000	23.67126000	6.31151500
129.19999250	0.00000000	23.71432000	6.31151500
129.39999249	0.00000000	23.67126000	6.31151500
129.59999248	0.00000000	23.24680000	6.26845500
129.79999246	0.00000000	22.13336000	5.93626900
129.99999245	0.00000000	20.97072000	5.57332700
130.19999244	0.00000000	20.22022000	5.93626900
130.39999243	0.00000000	19.80807000	6.26845500
130.59999242	0.00000000	20.22022000	6.31151500
130.79999241	0.00000000	20.92766000	6.31151500
130.99999239	0.00000000	21.75812000	6.31151500
131.19999238	0.00000000	22.50861000	6.31151500
131.39999237	0.00000000	23.29601000	6.31151500
131.59999236	0.00000000	23.62205000	6.26845500
131.79999235	0.00000000	23.29601000	5.89320800
131.99999233	0.00000000	22.55167000	5.15501900
132.19999232	0.00000000	22.13336000	4.77977300
132.39999231	0.00000000	21.71506000	4.73671200
132.59999230	0.00000000	20.97072000	4.77977300
132.79999229	0.00000000	20.59547000	5.15501900
132.99999227	0.00000000	20.59547000	5.89320800
133.19999226	0.00000000	20.97072000	6.31151500
133.39999225	0.00000000	21.71506000	6.72982200
133.59999224	0.00000000	22.09030000	7.47416300
133.79999223	0.00000000	22.13336000	7.80019600
133.99999222	0.00000000	22.13336000	7.47416300
134.19999220	0.00000000	22.13336000	6.68676100
134.39999219	0.00000000	22.13336000	5.93626900
134.59999218	0.00000000	22.13336000	5.15501900
134.79999217	0.00000000	22.13336000	4.77977300
134.99999216	0.00000000	22.13336000	4.73671200
135.19999214	0.00000000	22.17643000	4.73671200
135.39999213	0.00000000	22.50861000	4.77977300
135.59999212	0.00000000	22.87770000	5.15501900
135.79999211	0.00000000	22.50861000	5.89320800
135.99999210	0.00000000	22.13336000	6.31151500
136.19999208	0.00000000	21.71506000	6.72982200
136.39999207	0.00000000	20.97072000	7.47416300
136.59999206	0.00000000	20.59547000	7.80019600
136.79999205	0.00000000	20.55241000	7.47416300
136.99999204	0.00000000	20.59547000	6.72982200
137.19999203	0.00000000	21.01993000	6.31151500
137.39999201	0.00000000	22.13336000	5.89320800
137.59999200	0.00000000	23.24680000	5.15501900
137.79999199	0.00000000	23.67126000	4.77977300
137.99999198	0.00000000	23.67126000	4.73671200
138.19999197	0.00000000	23.29601000	4.73671200
138.39999195	0.00000000	22.50861000	4.73671200
138.59999194	0.00000000	21.75812000	4.77977300
138.79999193	0.00000000	20.97072000	5.15501900
138.99999192	0.00000000	20.55241000	5.93626900
139.19999191	0.00000000	20.17716000	6.68676100
139.39999189	0.00000000	19.85728000	7.47416300
139.59999188	0.00000000	20.59547000	7.84940900
139.79999187	0.00000000	21.66585000	7.84940900
139.99999186	0.00000000	22.13336000	7.47416300
140.19999185	0.00000000	22.50861000	6.68676100
140.39999184	0.00000000	22.87770000	5.93626900
140.59999182	0.00000000	22.50861000	5.15501900
140.79999181	0.00000000	22.17643000	4.77977300
140.99999180	0.00000000	22.13336000	4.73671200
141.19999179	0.00000000	22.09030000	4.77977300
141.39999178	0.00000000	21.75812000	5.15501900
141.59999176	0.00000000	21.38902000	5.89320800
141.79999175	0.00000000	21.75812000	6.31151500
141.99999174	0.00000000	22.09030000	6.72982200
142.19999173	0.00000000	22.13336000	7.47416300
142.39999172	0.00000000	22.13336000	7.84940900
142.59999170	0.00000000	22.13336000	7.84940900
142.79999169	0.00000000	22.13336000	7.47416300
142.99999168	0.00000000	22.13336000	6.68676100
143.19999167	0.00000000	22.09030000	5.93626900
143.39999166	0.00000000	21.71506000	5.15501900
143.59999165	0.00000000	21.01993000	4.77977300
143.79999163	0.00000000	20.97072000	4.73671200
143.99999162	0.00000000	21.33981000	4.77977300
144.19999161	0.00000000	21.34596000	5.15501900
144.39999160	0.00000000	21.75812000	5.93626900
144.59999159	0.00000000	22.09030000	6.68676100
144.79999157	0.00000000	22.13336000	7.47416300
144.99999156	0.00000000	22.13336000	7.80019600
145.19999155	0.00000000	22.09030000	7.47416300
145.39999154	0.00000000	21.71506000	6.72982200
145.59999153	0.00000000	20.97072000	6.31151500
145.79999151	0.00000000	20.59547000	5.89320800
145.99999150	0.00000000	20.55241000	5.15501900
146.19999149	0.00000000	20.55241000	4.77977300
146.39999148	0.00000000	20.59547000	4.73671200
146.59999147	0.00000000	20.97072000	4.73671200
146.79999146	0.00000000	21.71506000	4.77977300
146.99999144	0.00000000	22.09030000	5.15501900
147.19999143	0.00000000	22.13336000	5.89320800
147.39999142	0.00000000	22.13336000	6.26845500
147.59999141	0.00000000	22.13336000	6.31151500
147.79999140	0.00000000	22.13336000	6.31151500
147.99999138	0.00000000	22.09030000	6.31151500
148.19999137	0.00000000	21.71506000	6.31151500
148.39999136	0.00000000	20.97072000	6.31151500
148.59999135	0.00000000	20.59547000	6.26845500
148.79999134	0.00000000	20.59547000	5.89320800
148.99999132	0.00000000	20.97072000	5.15501900
149.19999131	0.00000000	21.71506000	4.77977300
149.39999130	0.00000000	22.09030000	4.73671200
149.59999129	0.00000000	22.13336000	4.77977300
149.79999128	0.00000000	22.13336000	5.15501900
149.99999127	0.00000000	22.13336000	5.89320800
150.19999125	0.00000000	22.13336000	6.26845500
150.39999124	0.00000000	22.09030000	6.31151500
150.59999123	0.00000000	21.75812000	6.31151500
150.79999122	0.00000000	21.34596000	6.31151500
150.99999121	0.00000000	21.33981000	6.31151500
151.19999119	0.00000000	20.92766000	6.31151500
151.39999118	0.00000000	20.59547000	6.26845500
151.59999117	0.00000000	20.55241000	5.89320800
151.79999116	0.00000000	20.59547000	5.19808000
151.99999115	0.00000000	20.92766000	5.15501900
152.19999113	0.00000000	21.33981000	5.51796200
152.39999112	0.00000000	21.34596000	5.53026500
152.59999111	0.00000000	21.75812000	5.93626900
152.79999110	0.00000000	22.09030000	6.26845500
152.99999109	0.00000000	22.13336000	6.31151500
153.19999108	0.00000000	22.13336000	6.31151500
153.39999106	0.00000000	22.09030000	6.31151500
153.59999105	0.00000000	21.71506000	6.31151500
153.79999104	0.00000000	20.97072000	6.31151500
153.99999103	0.00000000	20.59547000	6.31151500
154.19999102	0.00000000	20.55241000	6.31151500
154.39999100	0.00000000	20.55241000	6.31151500
154.59999099	0.00000000	20.55241000	6.31151500
154.79999098	0.00000000	20.59547000	6.26845500
154.99999097	0.00000000	20.97072000	5.89320800
155.19999096	0.00000000	21.71506000	5.15501900
155.39999094	0.00000000	22.09030000	4.77977300
155.59999093	0.00000000	22.13336000	4.77977300
155.79999092	0.00000000	22.13336000	5.15501900
155.99999091	0.00000000	22.13336000	5.89320800
156.19999090	0.00000000	22.09030000	6.26845500
156.39999089	0.00000000	21.71506000	6.31151500
156.59999087	0.00000000	20.97072000	6.31151500
156.79999086	0.00000000	20.59547000	6.31151500
156.99999085	0.00000000	20.55241000	6.31151500
157.19999084	0.00000000	20.55241000	6.31151500
157.39999083	0.00000000	20.55241000	6.31151500
157.59999081	0.00000000	20.59547000	6.31151500
157.79999080	0.00000000	20.97072000	6.31151500
157.99999079	0.00000000	21.71506000	6.26845500
158.19999078	0.00000000	22.09030000	5.89320800
158.39999077	0.00000000	22.13336000	5.15501900
158.59999075	0.00000000	22.13336000	4.77977300
158.79999074	0.00000000	22.13336000	4.77977300
158.99999073	0.00000000	22.13336000	5.15501900
159.19999072	0.00000000	22.13336000	5.89320800
159.39999071	0.00000000	22.09030000	6.31151500
159.59999070	0.00000000	21.71506000	6.72982200
159.79999068	0.00000000	20.97072000	7.47416300
159.99999067	0.00000000	20.59547000	7.80019600
160.19999066	0.00000000	20.55241000	7.47416300
160.39999065	0.00000000	20.59547000	6.72982200
160.59999064	0.00000000	20.92766000	6.35457700
160.79999062	0.00000000	21.29675000	6.26845500
160.99999061	0.00000000	20.92766000	5.89320800
161.19999060	0.00000000	20.59547000	5.15501900
161.39999059	0.00000000	20.59547000	4.77977300
161.59999058	0.00000000	20.97072000	4.73671200
161.79999056	0.00000000	21.66585000	4.77977300
161.99999055	0.00000000	21.71506000	5.15501900
162.19999054	0.00000000	21.38902000	5.89320800
162.39999053	0.00000000	21.75812000	6.26845500
162.59999052	0.00000000	22.04109000	6.31151500
162.79999051	0.00000000	21.71506000	6.31151500
162.99999049	0.00000000	20.97072000	6.31151500
163.19999048	0.00000000	20.59547000	6.31151500
163.39999047	0.00000000	20.55241000	6.31151500
163.59999046	0.00000000	20.55241000	6.26845500
163.79999045	0.00000000	20.55241000	5.89320800
163.99999043	0.00000000	20.55241000	5.19808000
164.19999042	0.00000000	20.59547000	5.15501900
164.39999041	0.00000000	20.97072000	5.47490100
164.59999040	0.00000000	21.71506000	5.15501900
164.79999039	0.00000000	22.09030000	5.19808000
164.99999037	0.00000000	22.13336000	5.85014700
165.19999036	0.00000000	22.13336000	5.89320800
165.39999035	0.00000000	22.09030000	5.53026500
165.59999034	0.00000000	21.71506000	5.56717500
165.79999033	0.00000000	20.97072000	5.53026500
165.99999032	0.00000000	20.59547000	5.93626900
166.19999030	0.00000000	20.55241000	6.26845500
166.39999029	0.00000000	20.55241000	6.31151500
166.59999028	0.00000000	20.55241000	6.31151500
166.79999027	0.00000000	20.55241000	6.31151500
166.99999026	0.00000000	20.55241000	6.31151500
167.19999024	0.00000000	20.55241000	6.31151500
167.39999023	0.00000000	20.59547000	6.31151500
167.59999022	0.00000000	20.97072000	6.31151500
167.79999021	0.00000000	21.71506000	6.26845500
167.99999020	0.00000000	22.09030000	5.93626900
168.19999018	0.00000000	22.13336000	5.57332700
168.39999017	0.00000000	22.09030000	5.89320800
168.59999016	0.00000000	21.71506000	5.89320800
168.79999015	0.00000000	20.97072000	5.53026500
168.99999014	0.00000000	20.59547000	5.51796200
169.19999013	0.00000000	20.55241000	5.11195900
169.39999011	0.00000000	20.55241000	4.77977300
169.59999010	0.00000000	20.55241000	4.77977300
169.79999009	0.00000000	20.55241000	5.15501900
169.99999008	0.00000000	20.55241000	5.89320800
170.19999007	0.00000000	20.55241000	6.26845500
170.39999005	0.00000000	20.55241000	6.31151500
170.59999004	0.00000000	20.55241000	6.31151500
170.79999003	0.00000000	20.55241000	6.31151500
170.99999002	0.00000000	20.55241000	6.26845500
171.19999001	0.00000000	20.59547000	5.93626900
171.39998999	0.00000000	20.92766000	5.53026500
171.59998998	0.00000000	21.29675000	5.51796200
171.79998997	0.00000000	20.92766000	5.15501900
171.99998996	0.00000000	20.59547000	5.19808000
172.19998995	0.00000000	20.55241000	5.89320800
172.39998994	0.00000000	20.55241000	6.26845500
172.59998992	0.00000000	20.55241000	6.31151500
172.79998991	0.00000000	20.55241000	6.31151500
172.99998990	0.00000000	20.55241000	6.31151500
173.19998989	0.00000000	20.55241000	6.31151500
173.39998988	0.00000000	20.59547000	6.31151500
173.59998986	0.00000000	20.97072000	6.31151500
173.79998985	0.00000000	21.66585000	6.31151500
173.99998984	0.00000000	21.66585000	6.26845500
174.19998983	0.00000000	20.97072000	5.93626900
174.39998982	0.00000000	20.59547000	5.57332700
174.59998980	0.00000000	20.55241000	5.93626900
174.79998979	0.00000000	20.55241000	6.21924200
174.99998978	0.00000000	20.55241000	5.89320800
175.19998977	0.00000000	20.55241000	5.19808000
175.39998976	0.00000000	20.55241000	5.19808000
175.59998975	0.00000000	20.55241000	5.89320800
175.79998973	0.00000000	20.55241000	6.26845500
175.99998972	0.00000000	20.55241000	6.31151500
176.19998971	0.00000000	20.55241000	6.31151500
176.39998970	0.00000000	20.55241000	6.26845500
176.59998969	0.00000000	20.55241000	5.93626900
176.79998967	0.00000000	20.59547000	5.57332700
176.99998966	0.00000000	20.92766000	5.89320800
177.19998965	0.00000000	21.29675000	5.89320800
177.39998964	0.00000000	20.92766000	5.53026500
177.59998963	0.00000000	20.59547000	5.51796200
177.79998961	0.00000000	20.55241000	5.15501900
177.99998960	0.00000000	20.55241000	5.19808000
178.19998959	0.00000000	20.55241000	5.89320800
178.39998958	0.00000000	20.55241000	6.26845500
178.59998957	0.00000000	20.55241000	6.31151500
178.79998956	0.00000000	20.55241000	6.31151500
178.99998954	0.00000000	20.55241000	6.31151500
179.19998953	0.00000000	20.59547000	6.26845500
179.39998952	0.00000000	20.92766000	5.93626900
179.59998951	0.00000000	21.29675000	5.57332700
179.79998950	0.00000000	20.92766000	5.89320800
179.99998948	0.00000000	20.59547000	5.85014700
180.19998947	0.00000000	20.55241000	5.15501900
180.39998946	0.00000000	20.55241000	4.77977300
180.59998945	0.00000000	20.55241000	4.77977300
180.79998944	0.00000000	20.55241000	5.11195900
180.99998942	0.00000000	20.55241000	5.51796200
181.19998941	0.00000000	20.55241000	5.53026500
181.39998940	0.00000000	20.55241000	5.93626900
181.59998939	0.00000000	20.55241000	6.26845500
181.79998938	0.00000000	20.55241000	6.31151500
181.99998937	0.00000000	20.55241000	6.31151500
182.19998935	0.00000000	20.55241000	6.31151500
182.39998934	0.00000000	20.59547000	6.31151500
182.59998933	0.00000000	20.92766000	6.26845500
182.79998932	0.00000000	21.29675000	5.89320800
182.99998931	0.00000000	20.92766000	5.15501900
183.19998929	0.00000000	20.59547000	4.77977300
183.39998928	0.00000000	20.55241000	4.73671200
183.59998927	0.00000000	20.55241000	4.77977300
183.79998926	0.00000000	20.55241000	5.15501900
183.99998925	0.00000000	20.55241000	5.89320800
184.19998923	0.00000000	20.55241000	6.26845500
184.39998922	0.00000000	20.55241000	6.31151500
184.59998921	0.00000000	20.55241000	6.31151500
184.79998920	0.00000000	20.55241000	6.31151500
184.99998919	0.00000000	20.55241000	6.31151500
185.19998918	0.00000000	20.55241000	6.31151500
185.39998916	0.00000000	20.59547000	6.31151500
185.59998915	0.00000000	20.92766000	6.26845500
185.79998914	0.00000000	21.29675000	5.89320800
185.99998913	0.00000000	20.92766000	5.15501900
186.19998912	0.00000000	20.59547000	4.77977300
186.39998910	0.00000000	20.55241000	4.73671200
186.59998909	0.00000000	20.55241000	4.73671200
186.79998908	0.00000000	20.55241000	4.77977300
186.99998907	0.00000000	20.55241000	5.15501900
187.19998906	0.00000000	20.55241000	5.89320800
187.39998904	0.00000000	20.55241000	6.26845500
187.59998903	0.00000000	20.55241000	6.31151500
187.79998902	0.00000000	20.55241000	6.31151500
187.99998901	0.00000000	20.55241000	6.31151500
188.19998900	0.00000000	20.55241000	6.31151500
188.39998899	0.00000000	20.55241000	6.26845500
188.59998897	0.00000000	20.55241000	5.89320800
188.79998896	0.00000000	20.55241000	5.15501900
188.99998895	0.00000000	20.55241000	4.77977300
189.19998894	0.00000000	20.55241000	4.73671200
189.39998893	0.00000000	20.55241000	4.73671200
189.59998891	0.00000000	20.55241000	4.77977300
189.79998890	0.00000000	20.55241000	5.15501900
189.99998889	0.00000000	20.55241000	5.89320800
190.19998888	0.00000000	20.55241000	6.26845500
190.39998887	0.00000000	20.55241000	6.31151500
190.59998885	0.00000000	20.55241000	6.31151500
190.79998884	0.00000000	20.55241000	6.26845500
190.99998883	0.00000000	20.55241000	5.93626900
191.19998882	0.00000000	20.55241000	5.57332700
191.39998881	0.00000000	20.55241000	5.93626900
191.59998880	0.00000000	20.55241000	6.26845500
191.79998878	0.00000000	20.55241000	6.26845500
191.99998877	0.00000000	20.55241000	5.89320800
192.19998876	0.00000000	20.55241000	5.15501900
192.39998875	0.00000000	20.55241000	4.77977300
192.59998874	0.00000000	20.55241000	4.73671200
192.79998872	0.00000000	20.55241000	4.73671200
192.99998871	0.00000000	20.55241000	4.73671200
193.19998870	0.00000000	20.55241000	4.73671200
193.39998869	0.00000000	20.50935000	4.77977300
193.59998868	0.00000000	20.17716000	5.15501900
193.79998866	0.00000000	19.80807000	5.89320800
193.99998865	0.00000000	20.22022000	6.26845500
194.19998864	0.00000000	20.88459000	6.31151500
194.39998863	0.00000000	21.29675000	6.31151500
194.59998862	0.00000000	20.92766000	6.31151500
194.79998861	0.00000000	20.59547000	6.26845500
194.99998859	0.00000000	20.55241000	5.93626900
195.19998858	0.00000000	20.55241000	5.53026500
195.39998857	0.00000000	20.55241000	5.51796200
195.59998856	0.00000000	20.55241000	5.11195900
195.79998855	0.00000000	20.55241000	4.77977300
195.99998853	0.00000000	20.55241000	4.73671200
