Time	Channel A	Channel B	Channel C
(us)	(V)	(mV)	(mV)

-4.59999956	0.00000000	-79.52755000	-23.68356000
-4.39999957	0.00000000	-80.22269000	-23.68356000
-4.19999958	0.00000000	-80.59792000	-23.68356000
-3.99999959	0.00000000	-80.64099000	-23.68356000
-3.79999960	0.00000000	-80.64099000	-23.68356000
-3.59999962	0.00000000	-80.64099000	-23.68356000
-3.39999963	0.00000000	-80.64099000	-23.68356000
-3.19999964	0.00000000	-80.64099000	-23.68356000
-2.99999965	0.00000000	-80.64099000	-23.68356000
-2.79999966	0.00000000	-80.64099000	-23.68356000
-2.59999968	0.00000000	-80.64099000	-23.68356000
-2.39999969	0.00000000	-80.64099000	-23.68356000
-2.19999970	0.00000000	-80.64099000	-23.68356000
-1.99999971	0.00000000	-80.64099000	-23.68356000
-1.79999972	0.00000000	-80.64099000	-23.68356000
-1.59999973	0.00000000	-80.64099000	-23.68356000
-1.39999975	0.00000000	-80.64099000	-23.68356000
-1.19999976	0.00000000	-80.64099000	-23.68356000
-0.99999977	0.00000000	-80.64099000	-23.68356000
-0.79999978	0.00000000	-80.64099000	-23.68356000
-0.59999979	0.00000000	-80.64099000	-23.68356000
-0.39999981	0.15871060	-80.64099000	-23.68356000
-0.19999982	0.47736220	-80.64099000	-23.68356000
0.00000017	0.79601380	-80.64099000	-23.68356000
0.20000016	0.95533960	-80.64099000	-23.68356000
0.40000015	0.95533960	-80.64099000	-23.68356000
0.60000013	0.63668800	-80.64099000	-23.72662000
0.80000012	0.00000000	-80.64099000	-24.05881000
1.00000011	-0.95533960	-80.64099000	-24.42790000
1.20000010	-1.91129400	-80.64099000	-24.05881000
1.40000009	-2.70792300	-80.64099000	-23.72662000
1.60000008	-2.70792300	-80.64099000	-23.68356000
1.80000006	-1.91129400	-80.64099000	-23.68356000
2.00000005	-0.47736220	-80.64099000	-23.68356000
2.20000004	1.59264300	-80.64099000	-23.68356000
2.40000003	3.66326300	-80.64099000	-23.68356000
2.60000002	5.09719500	-80.64099000	-23.68356000
2.80000000	5.25652100	-80.64099000	-23.68356000
2.99999999	4.14124000	-80.64099000	-23.68356000
3.19999998	1.59264300	-80.64099000	-23.68356000
3.39999997	-1.75196900	-80.64099000	-23.68356000
3.59999996	-5.09719500	-80.64099000	-23.68356000
3.79999994	-7.32714100	-80.59792000	-23.68356000
3.99999993	-7.96444400	-80.26574000	-23.68356000
4.19999992	-6.53112700	-79.89664000	-23.68356000
4.39999991	-3.18590100	-80.22269000	-23.64050000
4.59999990	1.11466500	-80.22269000	-23.30832000
4.79999989	5.41584600	-79.89664000	-22.93922000
4.99999987	8.44242100	-80.26574000	-23.30832000
5.19999986	9.55770200	-80.59792000	-23.68356000
5.39999985	8.12377000	-80.64099000	-24.10187000
5.59999984	4.77854300	-80.64099000	-24.79700000
5.79999983	0.00000000	-80.64099000	-24.79700000
5.99999981	-4.61921700	-80.59792000	-24.10187000
6.19999980	-8.12377000	-80.22269000	-23.68356000
6.39999979	-9.39837600	-79.52755000	-23.30832000
6.59999978	-8.44242100	-79.47834000	-22.89616000
6.79999977	-5.41584600	-79.80437000	-22.89001000
6.99999975	-1.27399100	-79.47834000	-22.52091000
7.19999974	3.02657500	-79.52755000	-22.57013000
7.39999973	6.21247500	-80.17347000	-23.26525000
7.59999972	7.80511800	-80.22269000	-23.64050000
7.79999971	7.16781500	-79.89664000	-23.68356000
7.99999970	4.93786900	-80.26574000	-23.68356000
8.19999968	1.75196900	-80.59792000	-23.68356000
8.39999967	-1.43331700	-80.64099000	-23.68356000
8.59999966	-3.82258900	-80.59792000	-23.68356000
8.79999965	-5.09719500	-80.22269000	-23.68356000
8.99999964	-4.93786900	-79.47834000	-23.68356000
9.19999962	-3.66326300	-79.10310000	-23.68356000
9.39999961	-1.75196900	-79.10310000	-23.68356000
9.59999960	0.31803640	-79.43528000	-23.68356000
9.79999959	1.75196900	-79.84743000	-23.68356000
9.99999958	2.54859700	-79.81052000	-23.68356000
10.19999956	2.38927200	-79.89050000	-23.68356000
10.39999955	1.91129400	-79.85359000	-23.68356000
10.59999954	0.95533960	-80.26574000	-23.68356000
10.79999953	0.15871060	-80.59792000	-23.68356000
10.99999952	-0.47736220	-80.64099000	-23.68356000
11.19999951	-0.79601380	-80.64099000	-23.68356000
11.39999949	-0.95533960	-80.59792000	-23.68356000
11.59999948	-0.79601380	-80.22269000	-23.68356000
11.79999947	-0.63668800	-79.52755000	-23.68356000
11.99999946	-0.15871060	-79.47834000	-23.68356000
12.19999945	-0.15871060	-79.84743000	-23.68356000
12.39999943	0.00000000	-79.85359000	-23.68356000
12.59999942	0.00000000	-80.22269000	-23.68356000
12.79999941	0.00000000	-80.22269000	-23.68356000
12.99999940	0.00000000	-79.89664000	-23.68356000
13.19999939	0.00000000	-80.26574000	-23.68356000
13.39999937	0.00000000	-80.59792000	-23.68356000
13.59999936	0.00000000	-80.64099000	-23.68356000
13.79999935	0.00000000	-80.59792000	-23.68356000
13.99999934	0.00000000	-80.22269000	-23.68356000
14.19999933	-0.15871060	-79.47834000	-23.68356000
14.39999932	-0.15871060	-79.15231000	-23.68356000
14.59999930	0.00000000	-79.43528000	-23.68356000
14.79999929	0.00000000	-79.80437000	-23.68356000
14.99999928	0.00000000	-79.47834000	-23.68356000
15.19999927	0.00000000	-79.52755000	-23.68356000
15.39999926	0.00000000	-80.22269000	-23.68356000
15.59999924	0.00000000	-80.59792000	-23.68356000
15.79999923	0.00000000	-80.64099000	-23.68356000
15.99999922	0.00000000	-80.64099000	-23.68356000
16.19999921	0.00000000	-80.59792000	-23.68356000
16.39999920	0.00000000	-80.22269000	-23.68356000
16.59999919	-0.15871060	-79.47834000	-23.68356000
16.79999917	0.00000000	-79.10310000	-23.68356000
16.99999916	0.00000000	-79.01697000	-23.68356000
17.19999915	0.00000000	-78.64173000	-23.68356000
17.39999914	0.00000000	-77.89738000	-23.68356000
17.59999913	0.00000000	-77.57135000	-23.68356000
17.79999911	0.00000000	-77.94660000	-23.68356000
17.99999910	0.00000000	-79.06004000	-23.68356000
18.19999909	0.00000000	-80.26574000	-23.68356000
18.39999908	0.00000000	-81.47760000	-23.68356000
18.59999907	0.00000000	-83.38459000	-23.68356000
18.79999905	0.00000000	-84.87327000	-23.68356000
18.99999904	0.00000000	-85.24852000	-23.68356000
19.19999903	0.00000000	-84.45496000	-23.68356000
19.39999902	0.00000000	-82.12967000	-23.64050000
19.59999901	0.00000000	-79.01697000	-23.26525000
19.79999900	0.00000000	-75.47981000	-22.57013000
19.99999898	0.00000000	-71.62278000	-22.57013000
20.19999897	0.00000000	-68.63927000	-23.26525000
20.39999896	0.00000000	-67.89492000	-23.64050000
20.59999895	0.00000000	-70.26328000	-23.68356000
20.79999894	0.00000000	-75.28912000	-23.68356000
20.99999892	0.00000000	-82.31422000	-23.68356000
21.19999891	0.00000000	-89.99139000	-23.68356000
21.39999890	0.00000000	-96.59202000	-23.68356000
21.59999889	0.00000000	-100.32600000	-23.68356000
21.79999888	0.00000000	-99.85851000	-23.68356000
21.99999886	0.00000000	-93.62696000	-23.68356000
22.19999885	0.00000000	-83.24926000	-23.68356000
22.39999884	0.00000000	-71.15526000	-23.68356000
22.59999883	0.00000000	-59.19045000	-23.68356000
22.79999882	0.00000000	-50.07381000	-23.68356000
22.99999881	0.00000000	-47.46555000	-23.64050000
23.19999879	0.00000000	-52.86048000	-23.26525000
23.39999878	0.00000000	-64.86221000	-22.47785000
23.59999877	0.00000000	-81.19463000	-21.72736000
23.79999876	0.00000000	-98.92347000	-20.98917000
23.99999875	0.00000000	-113.95180000	-20.98917000
24.19999873	0.00000000	-121.96110000	-21.72736000
24.39999872	0.00000000	-120.74930000	-22.52091000
24.59999871	0.00000000	-109.44880000	-23.72662000
24.79999870	0.00000000	-90.17593000	-25.26452000
24.99999869	0.00000000	-67.38435000	-26.79626000
25.19999867	0.00000000	-46.57972000	-27.95275000
25.39999866	0.00000000	-32.67101000	-28.32800000
25.59999865	0.00000000	-29.26919000	-27.90969000
25.79999864	0.00000000	-37.37082000	-26.28568000
25.99999863	0.00000000	-55.55487000	-23.17298000
26.19999862	0.00000000	-79.47834000	-18.94685000
26.39999860	0.00000000	-103.85700000	-14.76378000
26.59999859	0.00000000	-123.12380000	-12.06939000
26.79999858	0.00000000	-132.75100000	-11.69414000
26.99999857	0.00000000	-130.05660000	-13.69340000
27.19999856	0.00000000	-115.81570000	-18.38706000
27.39999854	0.00000000	-93.80536000	-25.30758000
27.59999853	0.00000000	-69.05757000	-32.64640000
27.79999852	0.00000000	-47.04724000	-38.82874000
27.99999851	0.00000000	-32.76329000	-42.63656000
28.19999850	0.00000000	-29.60138000	-42.55044000
28.39999848	0.00000000	-37.64764000	-37.89985000
28.59999847	0.00000000	-54.26304000	-29.35531000
28.79999846	0.00000000	-75.89813000	-18.52854000
28.99999845	0.00000000	-97.48400000	-7.33267600
29.19999844	0.00000000	-113.76720000	1.45177200
29.39999843	0.00000000	-121.62890000	5.30265700
29.59999841	0.00000000	-120.51550000	2.94045300
29.79999840	0.00000000	-111.25120000	-5.23499000
29.99999839	0.00000000	-95.80462000	-18.38706000
30.19999838	0.00000000	-78.03272000	-33.80905000
30.39999837	0.00000000	-61.74950000	-47.70546000
30.59999835	0.00000000	-50.11687000	-57.32037000
30.79999834	0.00000000	-45.41708000	-59.97170000
30.99999833	0.00000000	-48.07455000	-54.58292000
31.19999832	0.00000000	-56.91437000	-42.59350000
31.39999831	0.00000000	-69.66043000	-26.32874000
31.59999829	0.00000000	-83.24926000	-8.99975300
31.79999828	0.00000000	-95.25098000	5.34571800
31.99999827	0.00000000	-103.34650000	13.81028000
32.19999826	0.00000000	-105.35190000	14.96678000
32.39999825	0.00000000	-101.62400000	7.58489100
32.59999824	0.00000000	-94.22982000	-6.26230300
32.79999822	0.00000000	-84.49802000	-23.68356000
32.99999821	0.00000000	-73.70817000	-41.01255000
33.19999820	0.00000000	-64.86221000	-54.20767000
33.39999819	0.00000000	-60.16240000	-60.85137000
33.59999818	0.00000000	-60.11934000	-60.43307000
33.79999816	0.00000000	-64.35777000	-52.63287000
33.99999815	0.00000000	-71.61663000	-38.36737000
34.19999814	0.00000000	-79.75516000	-21.03838000
34.39999813	0.00000000	-86.73721000	-4.81668300
34.59999812	0.00000000	-91.75688000	6.79133800
34.79999810	0.00000000	-93.29478000	11.44193000
34.99999809	0.00000000	-91.06176000	8.41535400
35.19999808	0.00000000	-86.45423000	-1.24261800
35.39999807	0.00000000	-80.64099000	-15.09596000
35.59999806	0.00000000	-74.87081000	-30.18578000
35.79999805	0.00000000	-70.63853000	-42.87647000
35.99999803	0.00000000	-69.10064000	-50.63361000
36.19999802	0.00000000	-70.63853000	-51.37795000
36.39999801	0.00000000	-74.82775000	-45.28789000
36.59999800	0.00000000	-80.17347000	-34.18430000
36.79999799	0.00000000	-84.78715000	-21.45669000
36.99999797	0.00000000	-87.52460000	-10.29774000
37.19999796	0.00000000	-87.89984000	-2.96505900
37.39999795	0.00000000	-85.99286000	-1.79626000
37.59999794	0.00000000	-82.12967000	-6.35457700
37.79999793	0.00000000	-77.52214000	-15.18209000
37.99999791	0.00000000	-73.28986000	-25.91043000
38.19999790	0.00000000	-70.54626000	-35.07013000
38.39999789	0.00000000	-69.80192000	-40.08366000
38.59999788	0.00000000	-70.92150000	-39.34547000
38.79999787	0.00000000	-74.03419000	-33.63066000
38.99999786	0.00000000	-77.89738000	-24.79700000
39.19999784	0.00000000	-82.17889000	-15.22515000
39.39999783	0.00000000	-85.99286000	-7.97244000
39.59999782	0.00000000	-87.94906000	-5.27805100
39.79999781	0.00000000	-87.99212000	-7.97244000
39.99999780	0.00000000	-86.45423000	-15.27436000
40.19999778	0.00000000	-83.71062000	-25.21530000
40.39999777	0.00000000	-80.22269000	-34.78716000
40.59999776	0.00000000	-76.31644000	-40.92643000
40.79999775	0.00000000	-72.82849000	-42.08292000
40.99999774	0.00000000	-70.12794000	-37.89985000
41.19999772	0.00000000	-69.01452000	-29.82283000
41.39999771	0.00000000	-70.17101000	-20.19562000
41.59999770	0.00000000	-73.20374000	-10.99901000
41.79999769	0.00000000	-77.10384000	-5.28420300
41.99999768	0.00000000	-80.97318000	-4.81668300
42.19999767	0.00000000	-84.49802000	-8.95669300
42.39999765	0.00000000	-86.78642000	-15.87721000
42.59999764	0.00000000	-87.61687000	-23.63435000
42.79999763	0.00000000	-86.78642000	-30.97933000
42.99999762	0.00000000	-84.49802000	-36.31890000
43.19999761	0.00000000	-81.05930000	-37.89985000
43.39999759	0.00000000	-77.98966000	-35.67298000
43.59999758	0.00000000	-75.99039000	-31.06545000
43.79999757	0.00000000	-74.78469000	-25.26452000
43.99999756	0.00000000	-74.40945000	-19.50049000
44.19999755	0.00000000	-74.73548000	-15.27436000
44.39999753	0.00000000	-75.52288000	-13.65034000
44.59999752	0.00000000	-76.27337000	-14.38853000
44.79999751	0.00000000	-77.06077000	-16.67077000
44.99999750	0.00000000	-77.43602000	-20.19562000
45.19999749	0.00000000	-77.52214000	-23.96653000
45.39999748	0.00000000	-77.98966000	-27.11614000
45.59999746	0.00000000	-79.57062000	-28.66018000
45.79999745	0.00000000	-82.22194000	-29.07234000
45.99999744	0.00000000	-84.96555000	-27.90969000
46.19999743	0.00000000	-87.24778000	-25.63976000
46.39999742	0.00000000	-88.73031000	-23.30832000
46.59999740	0.00000000	-87.89984000	-20.98917000
46.79999739	0.00000000	-84.83022000	-19.45743000
46.99999738	0.00000000	-80.13041000	-19.03912000
47.19999737	0.00000000	-74.31717000	-19.41437000
47.39999736	0.00000000	-68.54699000	-20.61393000
47.59999734	0.00000000	-64.35777000	-22.52091000
47.79999733	0.00000000	-63.23819000	-24.84621000
47.99999732	0.00000000	-65.93873000	-26.75320000
48.19999731	0.00000000	-71.75196000	-27.90969000
48.39999730	0.00000000	-79.52755000	-27.90969000
48.59999729	0.00000000	-87.99212000	-26.75320000
48.79999727	0.00000000	-94.87573000	-24.79700000
48.99999726	0.00000000	-97.95152000	-22.05955000
49.19999725	0.00000000	-96.41363000	-19.03297000
49.39999724	0.00000000	-90.60039000	-16.71383000
49.59999723	0.00000000	-81.75443000	-15.96334000
49.79999721	0.00000000	-72.08414000	-16.71383000
49.99999720	0.00000000	-64.02558000	-19.08218000
50.19999719	0.00000000	-59.42421000	-22.52091000
50.39999718	0.00000000	-60.16240000	-26.37795000
50.59999717	0.00000000	-65.51427000	-29.44759000
50.79999715	0.00000000	-73.66510000	-31.02239000
50.99999714	0.00000000	-83.29231000	-31.02239000
51.19999713	0.00000000	-91.67076000	-29.44759000
51.39999712	0.00000000	-95.94611000	-26.32874000
51.59999711	0.00000000	-95.25098000	-22.10261000
51.79999710	0.00000000	-90.64346000	-17.87647000
51.99999708	0.00000000	-83.29231000	-14.80684000
52.19999707	0.00000000	-74.87081000	-13.65034000
52.39999706	0.00000000	-67.93799000	-14.80684000
52.59999705	0.00000000	-64.44389000	-17.87647000
52.79999704	0.00000000	-64.86221000	-22.10261000
52.99999702	0.00000000	-69.47588000	-26.32874000
53.19999701	0.00000000	-77.06077000	-29.39837000
53.39999700	0.00000000	-84.31963000	-30.60408000
53.59999699	0.00000000	-89.06249000	-29.86589000
53.79999698	0.00000000	-90.97564000	-27.95891000
53.99999696	0.00000000	-89.80683000	-25.21530000
54.19999695	0.00000000	-85.20546000	-22.19488000
54.39999694	0.00000000	-79.10310000	-19.87574000
54.59999693	0.00000000	-73.28986000	-19.08218000
54.79999692	0.00000000	-69.05757000	-19.45743000
54.99999691	0.00000000	-67.51968000	-20.98917000
55.19999689	0.00000000	-69.05757000	-23.22219000
55.39999688	0.00000000	-73.28986000	-24.75394000
55.59999687	0.00000000	-79.01697000	-25.17224000
55.79999686	0.00000000	-84.41190000	-24.75394000
55.99999685	0.00000000	-87.85679000	-23.22219000
56.19999683	0.00000000	-88.64419000	-20.98917000
56.39999682	0.00000000	-86.36810000	-19.50049000
56.59999681	0.00000000	-82.17889000	-19.50049000
56.79999680	0.00000000	-77.57135000	-21.03838000
56.99999679	0.00000000	-73.66510000	-23.72662000
57.19999677	0.00000000	-71.33366000	-26.79626000
57.39999676	0.00000000	-70.54626000	-29.44759000
57.59999675	0.00000000	-71.75196000	-30.56102000
57.79999674	0.00000000	-74.78469000	-29.39837000
57.99999673	0.00000000	-78.64173000	-26.32874000
58.19999672	0.00000000	-82.08661000	-22.05955000
58.39999670	0.00000000	-84.41190000	-17.45817000
58.59999669	0.00000000	-84.83022000	-13.64419000
58.79999668	0.00000000	-83.71062000	-12.11245000
58.99999667	0.00000000	-81.75443000	-13.26895000
59.19999666	0.00000000	-79.10310000	-16.80610000
59.39999664	0.00000000	-76.78395000	-22.57013000
59.59999663	0.00000000	-75.61516000	-29.07234000
59.79999662	0.00000000	-75.20300000	-34.09203000
59.99999661	0.00000000	-75.99039000	-36.78642000
60.19999660	0.00000000	-77.43602000	-36.32505000
60.39999658	0.00000000	-78.64173000	-32.09276000
60.59999657	0.00000000	-79.43528000	-25.21530000
60.79999656	0.00000000	-80.17347000	-17.87647000
60.99999655	0.00000000	-80.17347000	-11.73720000
61.19999654	0.00000000	-79.43528000	-8.25541300
61.39999653	0.00000000	-78.68478000	-8.66756800
61.59999651	0.00000000	-77.89738000	-12.48770000
61.79999650	0.00000000	-77.57135000	-19.08218000
61.99999649	0.00000000	-77.89738000	-26.75320000
62.19999648	0.00000000	-78.68478000	-33.71678000
62.39999647	0.00000000	-79.43528000	-38.32431000
62.59999645	0.00000000	-80.22269000	-39.48080000
62.79999644	0.00000000	-80.64099000	-36.78642000
62.99999643	0.00000000	-80.97318000	-30.97933000
63.19999642	0.00000000	-80.91781000	-23.30832000
63.39999641	0.00000000	-79.39222000	-15.60039000
63.59999639	0.00000000	-77.57135000	-10.20546000
63.79999638	0.00000000	-76.36565000	-7.83710600
63.99999637	0.00000000	-75.94118000	-8.99975300
64.19999636	0.00000000	-75.99039000	-13.22589000
64.39999635	0.00000000	-76.78395000	-19.36516000
64.59999634	0.00000000	-78.64173000	-25.95964000
64.79999632	0.00000000	-80.17347000	-31.35457000
64.99999631	0.00000000	-80.97318000	-34.87328000
65.19999630	0.00000000	-81.38533000	-35.62377000
65.39999629	0.00000000	-80.97318000	-33.76599000
65.59999628	0.00000000	-80.22269000	-29.90895000
65.79999626	0.00000000	-79.01697000	-25.26452000
65.99999625	0.00000000	-77.57135000	-20.61393000
66.19999624	0.00000000	-76.78395000	-16.71383000
66.39999623	0.00000000	-77.14690000	-14.34547000
66.59999622	0.00000000	-77.89738000	-13.18282000
66.79999620	0.00000000	-79.10310000	-13.60113000
66.99999619	0.00000000	-80.54871000	-15.83415000
67.19999618	0.00000000	-81.33611000	-18.57160000
67.39999617	0.00000000	-80.92397000	-21.36442000
67.59999616	0.00000000	-79.80437000	-24.84621000
67.79999615	0.00000000	-77.81126000	-27.90969000
67.99999613	0.00000000	-75.56593000	-29.90895000
68.19999612	0.00000000	-73.62204000	-31.11466000
68.39999611	0.00000000	-72.91461000	-31.44069000
68.59999610	0.00000000	-73.66510000	-30.64714000
68.79999609	0.00000000	-76.03346000	-28.28494000
68.99999607	0.00000000	-79.47834000	-24.79700000
69.19999606	0.00000000	-83.33538000	-20.52780000
69.39999605	0.00000000	-86.36810000	-16.29552000
69.59999604	0.00000000	-87.52460000	-13.22589000
69.79999603	0.00000000	-86.36810000	-12.02018000
69.99999601	0.00000000	-83.29231000	-12.85679000
70.19999600	0.00000000	-79.01697000	-15.55733000
70.39999599	0.00000000	-74.36023000	-20.19562000
70.59999598	0.00000000	-70.12794000	-25.22145000
70.79999597	0.00000000	-67.47047000	-29.86589000
70.99999596	0.00000000	-67.47047000	-33.29847000
71.19999594	0.00000000	-70.17101000	-34.04897000
71.39999593	0.00000000	-74.78469000	-32.18504000
71.59999592	0.00000000	-80.22269000	-28.32800000
71.79999591	0.00000000	-85.24852000	-23.72662000
71.99999590	0.00000000	-89.10555000	-19.40822000
72.19999588	0.00000000	-90.64346000	-15.96334000
72.39999587	0.00000000	-89.48080000	-14.01944000
72.59999586	0.00000000	-85.99286000	-14.43159000
72.79999585	0.00000000	-80.59792000	-16.67077000
72.99999584	0.00000000	-74.82775000	-20.15256000
73.19999582	0.00000000	-70.17101000	-23.54823000
73.39999581	0.00000000	-67.47047000	-25.91043000
73.59999580	0.00000000	-67.42741000	-26.70398000
73.79999579	0.00000000	-69.75270000	-26.37795000
73.99999578	0.00000000	-73.62204000	-25.21530000
74.19999577	0.00000000	-78.64173000	-23.72662000
74.39999575	0.00000000	-83.20619000	-22.57013000
74.59999574	0.00000000	-85.99286000	-22.19488000
74.79999573	0.00000000	-86.78642000	-22.57013000
74.99999572	0.00000000	-86.03592000	-23.68356000
75.19999571	0.00000000	-83.71062000	-24.79700000
75.39999569	0.00000000	-80.64099000	-25.17224000
75.59999568	0.00000000	-77.52214000	-24.75394000
75.79999567	0.00000000	-74.87081000	-23.17298000
75.99999566	0.00000000	-73.66510000	-20.57087000
76.19999565	0.00000000	-73.98499000	-18.20251000
76.39999563	0.00000000	-74.73548000	-16.66462000
76.59999562	0.00000000	-75.94118000	-15.60039000
76.79999561	0.00000000	-77.43602000	-16.80610000
76.99999560	0.00000000	-78.59251000	-20.19562000
77.19999559	0.00000000	-79.01697000	-24.10187000
77.39999558	0.00000000	-79.06004000	-28.37721000
77.59999556	0.00000000	-79.06004000	-32.14198000
77.79999555	0.00000000	-79.06004000	-33.67372000
77.99999554	0.00000000	-79.10310000	-32.56028000
78.19999553	0.00000000	-79.52755000	-29.44759000
78.39999552	0.00000000	-80.59792000	-24.79700000
78.59999550	0.00000000	-81.33611000	-19.41437000
78.79999549	0.00000000	-80.97318000	-14.80684000
78.99999548	0.00000000	-80.17347000	-12.06939000
79.19999547	0.00000000	-78.59251000	-11.69414000
79.39999546	0.00000000	-76.31644000	-13.64419000
79.59999544	0.00000000	-74.40945000	-17.87647000
79.79999543	0.00000000	-73.24680000	-23.21604000
79.99999542	0.00000000	-73.24680000	-27.86663000
80.19999541	0.00000000	-74.40945000	-31.02239000
80.39999540	0.00000000	-76.36565000	-32.56028000
80.59999539	0.00000000	-79.06004000	-32.18504000
80.79999537	0.00000000	-81.75443000	-29.86589000
80.99999536	0.00000000	-83.62450000	-26.42101000
81.19999535	0.00000000	-84.03666000	-22.52091000
81.39999534	0.00000000	-82.50491000	-19.03297000
81.59999533	0.00000000	-80.22269000	-16.29552000
81.79999531	0.00000000	-77.47908000	-14.76378000
81.99999530	0.00000000	-74.82775000	-14.72072000
82.19999529	0.00000000	-73.24680000	-15.87721000
82.39999528	0.00000000	-72.87155000	-17.83341000
82.59999527	0.00000000	-73.62204000	-20.57087000
82.79999525	0.00000000	-75.52288000	-23.64050000
82.99999524	0.00000000	-77.43602000	-26.37795000
83.19999523	0.00000000	-79.01697000	-28.32800000
83.39999522	0.00000000	-80.17347000	-29.53371000
83.59999521	0.00000000	-80.59792000	-29.86589000
83.79999520	0.00000000	-80.59792000	-29.07234000
83.99999518	0.00000000	-80.22269000	-26.75320000
84.19999517	0.00000000	-79.43528000	-23.68356000
84.39999516	0.00000000	-78.68478000	-20.52780000
84.59999515	0.00000000	-77.89738000	-17.41511000
84.79999514	0.00000000	-77.52214000	-14.76378000
84.99999512	0.00000000	-77.43602000	-13.60113000
85.19999511	0.00000000	-77.10384000	-14.43159000
85.39999510	0.00000000	-76.69167000	-17.08907000
85.59999509	0.00000000	-76.68553000	-21.35212000
85.79999508	0.00000000	-76.27337000	-25.59055000
85.99999506	0.00000000	-75.99039000	-29.49065000
86.19999505	0.00000000	-76.36565000	-32.14198000
86.39999504	0.00000000	-77.47908000	-32.51107000
86.59999503	0.00000000	-78.64173000	-30.60408000
86.79999502	0.00000000	-79.43528000	-26.74705000
86.99999501	0.00000000	-80.22269000	-22.10261000
87.19999499	0.00000000	-80.59792000	-17.45817000
87.39999498	0.00000000	-80.59792000	-13.64419000
87.59999497	0.00000000	-80.17347000	-12.15551000
87.79999496	0.00000000	-79.01697000	-13.64419000
87.99999495	0.00000000	-77.47908000	-17.50123000
88.19999493	0.00000000	-75.94118000	-22.47785000
88.39999492	0.00000000	-74.82775000	-27.49138000
88.59999491	0.00000000	-74.82775000	-30.97933000
88.79999490	0.00000000	-75.89813000	-32.51107000
88.99999489	0.00000000	-77.10384000	-31.71752000
89.19999487	0.00000000	-78.27264000	-28.24188000
89.39999486	0.00000000	-79.80437000	-23.26525000
89.59999485	0.00000000	-80.54871000	-17.87647000
89.79999484	0.00000000	-80.59792000	-13.69340000
89.99999483	0.00000000	-80.17347000	-12.15551000
90.19999482	0.00000000	-79.06004000	-13.64419000
90.39999480	0.00000000	-77.94660000	-17.50123000
90.59999479	0.00000000	-77.47908000	-22.47785000
90.79999478	0.00000000	-77.10384000	-27.53445000
90.99999477	0.00000000	-76.73474000	-31.35457000
91.19999476	0.00000000	-77.10384000	-33.25541000
91.39999474	0.00000000	-77.43602000	-32.04970000
91.59999473	0.00000000	-77.47908000	-27.90969000
91.79999472	0.00000000	-77.47908000	-22.52091000
91.99999471	0.00000000	-77.47908000	-17.54429000
92.19999470	0.00000000	-77.47908000	-14.01944000
92.39999468	0.00000000	-77.47908000	-12.89985000
92.59999467	0.00000000	-77.52214000	-14.01944000
92.79999466	0.00000000	-77.89738000	-17.54429000
92.99999465	0.00000000	-78.68478000	-22.47785000
93.19999464	0.00000000	-79.43528000	-27.49138000
93.39999463	0.00000000	-80.22269000	-30.93627000
93.59999461	0.00000000	-80.59792000	-32.09276000
93.79999460	0.00000000	-80.54871000	-30.56102000
93.99999459	0.00000000	-79.75516000	-26.74705000
94.19999458	0.00000000	-77.85432000	-22.14567000
94.39999457	0.00000000	-75.89813000	-17.91953000
94.59999455	0.00000000	-73.94193000	-15.22515000
94.79999454	0.00000000	-72.12721000	-14.84990000
94.99999453	0.00000000	-72.12721000	-16.71383000
95.19999452	0.00000000	-73.98499000	-20.19562000
95.39999451	0.00000000	-76.31644000	-24.01575000
95.59999449	0.00000000	-79.10310000	-27.49138000
95.79999448	0.00000000	-82.12967000	-29.40452000
95.99999447	0.00000000	-84.45496000	-29.40452000
96.19999446	0.00000000	-85.20546000	-27.49138000
96.39999445	0.00000000	-84.45496000	-24.05881000
96.59999444	0.00000000	-82.08661000	-20.66314000
96.79999442	0.00000000	-78.64173000	-18.29478000
96.99999441	0.00000000	-74.78469000	-17.50123000
97.19999440	0.00000000	-71.66584000	-17.83341000
97.39999439	0.00000000	-69.70964000	-19.03912000
97.59999438	0.00000000	-69.01452000	-20.94611000
97.79999436	0.00000000	-70.54626000	-23.22219000
97.99999435	0.00000000	-73.98499000	-24.75394000
98.19999434	0.00000000	-77.85432000	-25.22145000
98.39999433	0.00000000	-81.75443000	-25.22145000
98.59999432	0.00000000	-84.83022000	-24.79700000
98.79999430	0.00000000	-86.36810000	-23.68356000
98.99999429	0.00000000	-85.99286000	-22.52091000
99.19999428	0.00000000	-83.71062000	-21.72736000
99.39999427	0.00000000	-80.59792000	-20.98917000
99.59999426	0.00000000	-77.10384000	-20.94611000
99.79999425	0.00000000	-73.62204000	-21.26599000
99.99999423	0.00000000	-71.29060000	-20.85384000
100.19999422	0.00000000	-70.08488000	-20.15256000
100.39999421	0.00000000	-70.12794000	-19.41437000
100.59999420	0.00000000	-71.66584000	-19.41437000
100.79999419	0.00000000	-74.36023000	-20.19562000
100.99999417	0.00000000	-77.47908000	-21.36442000
101.19999416	0.00000000	-80.54871000	-23.30832000
101.39999415	0.00000000	-82.87401000	-25.17224000
101.59999414	0.00000000	-83.66756000	-26.37795000
101.79999413	0.00000000	-83.33538000	-26.74705000
101.99999411	0.00000000	-82.12967000	-26.37795000
102.19999410	0.00000000	-80.17347000	-25.17224000
102.39999409	0.00000000	-77.47908000	-23.22219000
102.59999408	0.00000000	-74.82775000	-20.52780000
102.79999407	0.00000000	-73.24680000	-17.87647000
102.99999406	0.00000000	-72.82849000	-16.33858000
103.19999404	0.00000000	-73.20374000	-16.33858000
103.39999403	0.00000000	-74.36023000	-17.87647000
103.59999402	0.00000000	-75.94118000	-20.57087000
103.79999401	0.00000000	-77.89738000	-23.64050000
103.99999400	0.00000000	-80.17347000	-26.37795000
104.19999398	0.00000000	-81.71136000	-28.28494000
104.39999397	0.00000000	-82.12967000	-29.02928000
104.59999396	0.00000000	-81.75443000	-27.86663000
104.79999395	0.00000000	-80.59792000	-25.21530000
104.99999394	0.00000000	-79.06004000	-22.15182000
105.19999392	0.00000000	-77.47908000	-19.40822000
105.39999391	0.00000000	-75.94118000	-17.50123000
105.59999390	0.00000000	-74.82775000	-16.71383000
105.79999389	0.00000000	-74.82775000	-17.50123000
105.99999388	0.00000000	-75.89813000	-19.40822000
106.19999387	0.00000000	-77.06077000	-22.10261000
106.39999385	0.00000000	-77.85432000	-24.75394000
106.59999384	0.00000000	-78.64173000	-26.28568000
106.79999383	0.00000000	-79.01697000	-26.32874000
106.99999382	0.00000000	-79.01697000	-25.21530000
107.19999381	0.00000000	-78.59251000	-23.64050000
107.39999379	0.00000000	-77.47908000	-21.72736000
107.59999378	0.00000000	-76.36565000	-19.82652000
107.79999377	0.00000000	-75.94118000	-19.08218000
107.99999376	0.00000000	-75.94118000	-19.41437000
108.19999375	0.00000000	-76.36565000	-20.61393000
108.39999374	0.00000000	-77.47908000	-22.47785000
108.59999372	0.00000000	-78.59251000	-24.37869000
108.79999371	0.00000000	-79.06004000	-25.17224000
108.99999370	0.00000000	-79.43528000	-25.22145000
109.19999369	0.00000000	-79.75516000	-24.79700000
109.39999368	0.00000000	-78.96776000	-23.64050000
109.59999366	0.00000000	-77.52214000	-22.10261000
109.79999365	0.00000000	-76.36565000	-20.57087000
109.99999364	0.00000000	-75.89813000	-19.41437000
110.19999363	0.00000000	-75.52288000	-19.03912000
110.39999362	0.00000000	-75.20300000	-19.41437000
110.59999360	0.00000000	-75.99039000	-20.57087000
110.79999359	0.00000000	-77.43602000	-22.10261000
110.99999358	0.00000000	-78.59251000	-23.68356000
111.19999357	0.00000000	-79.01697000	-25.17224000
111.39999356	0.00000000	-79.06004000	-25.95964000
111.59999355	0.00000000	-79.01697000	-25.59055000
111.79999353	0.00000000	-78.64173000	-24.84621000
111.99999352	0.00000000	-77.89738000	-23.64050000
112.19999351	0.00000000	-77.47908000	-22.15182000
112.39999350	0.00000000	-77.06077000	-20.98917000
112.59999349	0.00000000	-76.31644000	-20.57087000
112.79999347	0.00000000	-75.94118000	-20.52780000
112.99999346	0.00000000	-75.94118000	-20.52780000
113.19999345	0.00000000	-76.27337000	-20.57087000
113.39999344	0.00000000	-76.68553000	-20.94611000
113.59999343	0.00000000	-76.69167000	-21.68430000
113.79999341	0.00000000	-77.10384000	-22.10261000
113.99999340	0.00000000	-77.43602000	-22.52091000
114.19999339	0.00000000	-77.47908000	-23.26525000
114.39999338	0.00000000	-77.47908000	-23.64050000
114.59999337	0.00000000	-77.47908000	-23.68356000
114.79999336	0.00000000	-77.47908000	-23.68356000
114.99999334	0.00000000	-77.47908000	-23.68356000
115.19999333	0.00000000	-77.47908000	-23.68356000
115.39999332	0.00000000	-77.47908000	-23.64050000
115.59999331	0.00000000	-77.47908000	-23.26525000
115.79999330	0.00000000	-77.47908000	-22.47785000
115.99999328	0.00000000	-77.47908000	-21.72736000
116.19999327	0.00000000	-77.47908000	-20.90305000
116.39999326	0.00000000	-77.47908000	-20.19562000
116.59999325	0.00000000	-77.47908000	-19.78346000
116.79999324	0.00000000	-77.47908000	-20.19562000
116.99999322	0.00000000	-77.43602000	-20.90305000
117.19999321	0.00000000	-77.10384000	-21.72736000
117.39999320	0.00000000	-76.69167000	-22.47785000
117.59999319	0.00000000	-76.68553000	-23.30832000
117.79999318	0.00000000	-76.27337000	-24.05881000
117.99999317	0.00000000	-75.94118000	-24.84621000
118.19999315	0.00000000	-75.89813000	-25.17224000
118.39999314	0.00000000	-75.94118000	-24.79700000
118.59999313	0.00000000	-76.31644000	-23.68356000
118.79999312	0.00000000	-77.10384000	-22.52091000
118.99999311	0.00000000	-77.89738000	-21.72736000
119.19999309	0.00000000	-79.01697000	-20.94611000
119.39999308	0.00000000	-79.75516000	-20.57087000
119.59999307	0.00000000	-79.43528000	-20.52780000
119.79999306	0.00000000	-79.06004000	-20.57087000
119.99999305	0.00000000	-78.59251000	-20.94611000
120.19999303	0.00000000	-77.43602000	-21.72736000
120.39999302	0.00000000	-75.94118000	-22.47785000
120.59999301	0.00000000	-74.78469000	-23.26525000
120.79999300	0.00000000	-74.40945000	-23.64050000
120.99999299	0.00000000	-74.73548000	-23.68356000
121.19999298	0.00000000	-75.52288000	-23.68356000
121.39999296	0.00000000	-76.31644000	-23.64050000
121.59999295	0.00000000	-77.52214000	-23.26525000
121.79999294	0.00000000	-79.01697000	-22.52091000
121.99999293	0.00000000	-80.17347000	-22.14567000
122.19999292	0.00000000	-80.54871000	-22.05955000
122.39999290	0.00000000	-80.17347000	-21.68430000
122.59999289	0.00000000	-79.01697000	-20.94611000
122.79999288	0.00000000	-77.52214000	-20.57087000
122.99999287	0.00000000	-76.31644000	-20.57087000
123.19999286	0.00000000	-75.52288000	-20.94611000
123.39999284	0.00000000	-74.73548000	-21.68430000
123.59999283	0.00000000	-74.36023000	-22.05955000
123.79999282	0.00000000	-74.36023000	-22.14567000
123.99999281	0.00000000	-74.78469000	-22.52091000
124.19999280	0.00000000	-75.89813000	-23.26525000
124.39999279	0.00000000	-77.06077000	-23.59129000
124.59999277	0.00000000	-77.85432000	-23.26525000
124.79999276	0.00000000	-78.64173000	-22.52091000
124.99999275	0.00000000	-79.01697000	-22.14567000
125.19999274	0.00000000	-79.06004000	-22.10261000
125.39999273	0.00000000	-79.01697000	-22.10261000
125.59999271	0.00000000	-78.59251000	-22.05955000
125.79999270	0.00000000	-77.47908000	-21.68430000
125.99999269	0.00000000	-76.36565000	-20.98917000
126.19999268	0.00000000	-75.89813000	-20.98917000
126.39999267	0.00000000	-75.47981000	-21.68430000
126.59999265	0.00000000	-74.73548000	-22.05955000
126.79999264	0.00000000	-74.40945000	-22.10261000
126.99999263	0.00000000	-74.78469000	-22.14567000
127.19999262	0.00000000	-75.94118000	-22.52091000
127.39999261	0.00000000	-77.43602000	-23.26525000
127.59999260	0.00000000	-78.59251000	-23.59129000
127.79999258	0.00000000	-79.01697000	-23.26525000
127.99999257	0.00000000	-79.06004000	-22.52091000
128.19999256	0.00000000	-79.01697000	-22.14567000
128.39999255	0.00000000	-78.59251000	-22.10261000
128.59999254	0.00000000	-77.43602000	-22.10261000
128.79999252	0.00000000	-75.94118000	-22.10261000
128.99999251	0.00000000	-74.78469000	-22.10261000
129.19999250	0.00000000	-74.40945000	-22.10261000
129.39999249	0.00000000	-74.78469000	-22.14567000
129.59999248	0.00000000	-75.89813000	-22.52091000
129.79999246	0.00000000	-77.06077000	-23.26525000
129.99999245	0.00000000	-77.85432000	-23.64050000
130.19999244	0.00000000	-78.64173000	-23.64050000
130.39999243	0.00000000	-79.01697000	-23.26525000
130.59999242	0.00000000	-79.01697000	-22.47785000
130.79999241	0.00000000	-78.59251000	-21.77658000
130.99999239	0.00000000	-77.47908000	-21.36442000
131.19999238	0.00000000	-76.31644000	-21.72736000
131.39999237	0.00000000	-75.56593000	-22.05955000
131.59999236	0.00000000	-75.15379000	-22.14567000
131.79999235	0.00000000	-75.52288000	-22.52091000
131.99999233	0.00000000	-75.89813000	-23.26525000
132.19999232	0.00000000	-76.31644000	-23.64050000
132.39999231	0.00000000	-77.06077000	-23.64050000
132.59999230	0.00000000	-77.43602000	-23.26525000
132.79999229	0.00000000	-77.47908000	-22.52091000
132.99999227	0.00000000	-77.47908000	-22.10261000
133.19999226	0.00000000	-77.43602000	-21.68430000
133.39999225	0.00000000	-77.10384000	-20.94611000
133.59999224	0.00000000	-76.69167000	-20.57087000
133.79999223	0.00000000	-76.72858000	-20.52780000
133.99999222	0.00000000	-76.69167000	-20.57087000
134.19999220	0.00000000	-77.06077000	-20.94611000
134.39999219	0.00000000	-77.01156000	-21.72736000
134.59999218	0.00000000	-76.31644000	-22.47785000
134.79999217	0.00000000	-75.94118000	-23.26525000
134.99999216	0.00000000	-75.89813000	-23.64050000
135.19999214	0.00000000	-75.89813000	-23.64050000
135.39999213	0.00000000	-75.89813000	-23.26525000
135.59999212	0.00000000	-75.94118000	-22.52091000
135.79999211	0.00000000	-76.31644000	-22.10261000
135.99999210	0.00000000	-77.06077000	-21.68430000
136.19999208	0.00000000	-77.43602000	-20.94611000
136.39999207	0.00000000	-77.47908000	-20.57087000
136.59999206	0.00000000	-77.47908000	-20.57087000
136.79999205	0.00000000	-77.47908000	-20.94611000
136.99999204	0.00000000	-77.43602000	-21.68430000
137.19999203	0.00000000	-77.06077000	-22.10261000
137.39999201	0.00000000	-76.31644000	-22.52091000
137.59999200	0.00000000	-75.89813000	-23.26525000
137.79999199	0.00000000	-75.52288000	-23.64050000
137.99999198	0.00000000	-75.15379000	-23.68356000
138.19999197	0.00000000	-75.52288000	-23.64050000
138.39999195	0.00000000	-75.89813000	-23.26525000
138.59999194	0.00000000	-76.31644000	-22.52091000
138.79999193	0.00000000	-77.06077000	-22.10261000
138.99999192	0.00000000	-77.43602000	-21.68430000
139.19999191	0.00000000	-77.47908000	-20.94611000
139.39999189	0.00000000	-77.43602000	-20.57087000
139.59999188	0.00000000	-77.06077000	-20.52780000
139.79999187	0.00000000	-76.31644000	-20.57087000
139.99999186	0.00000000	-75.94118000	-20.94611000
140.19999185	0.00000000	-75.89813000	-21.68430000
140.39999184	0.00000000	-75.89813000	-22.10261000
140.59999182	0.00000000	-75.89813000	-22.52091000
140.79999181	0.00000000	-75.94118000	-23.26525000
140.99999180	0.00000000	-76.31644000	-23.64050000
141.19999179	0.00000000	-77.06077000	-23.68356000
141.39999178	0.00000000	-77.43602000	-23.64050000
141.59999176	0.00000000	-77.47908000	-23.21604000
141.79999175	0.00000000	-77.43602000	-22.10261000
141.99999174	0.00000000	-77.06077000	-20.98917000
142.19999173	0.00000000	-76.31644000	-20.57087000
142.39999172	0.00000000	-75.94118000	-20.52780000
142.59999170	0.00000000	-75.89813000	-20.52780000
142.79999169	0.00000000	-75.89813000	-20.57087000
142.99999168	0.00000000	-75.89813000	-20.98917000
143.19999167	0.00000000	-75.94118000	-22.10261000
143.39999166	0.00000000	-76.31644000	-23.21604000
143.59999165	0.00000000	-77.06077000	-23.64050000
143.79999163	0.00000000	-77.43602000	-23.68356000
143.99999162	0.00000000	-77.43602000	-23.64050000
144.19999161	0.00000000	-77.06077000	-23.26525000
144.39999160	0.00000000	-76.31644000	-22.47785000
144.59999159	0.00000000	-75.94118000	-21.72736000
144.79999157	0.00000000	-75.89813000	-20.94611000
144.99999156	0.00000000	-75.89813000	-20.57087000
145.19999155	0.00000000	-75.89813000	-20.52780000
145.39999154	0.00000000	-75.94118000	-20.57087000
145.59999153	0.00000000	-76.31644000	-20.94611000
145.79999151	0.00000000	-77.06077000	-21.68430000
145.99999150	0.00000000	-77.43602000	-22.10261000
146.19999149	0.00000000	-77.43602000	-22.52091000
146.39999148	0.00000000	-77.06077000	-23.26525000
146.59999147	0.00000000	-76.31644000	-23.64050000
146.79999146	0.00000000	-75.94118000	-23.64050000
146.99999144	0.00000000	-75.89813000	-23.21604000
147.19999143	0.00000000	-75.89813000	-22.10261000
147.39999142	0.00000000	-75.89813000	-20.98917000
147.59999141	0.00000000	-75.89813000	-20.57087000
147.79999140	0.00000000	-75.89813000	-20.52780000
147.99999138	0.00000000	-75.94118000	-20.57087000
148.19999137	0.00000000	-76.31644000	-20.94611000
148.39999136	0.00000000	-77.06077000	-21.68430000
148.59999135	0.00000000	-77.43602000	-22.05955000
148.79999134	0.00000000	-77.43602000	-22.14567000
148.99999132	0.00000000	-77.06077000	-22.52091000
149.19999131	0.00000000	-76.27337000	-23.21604000
149.39999130	0.00000000	-75.56593000	-23.26525000
149.59999129	0.00000000	-75.15379000	-22.89616000
149.79999128	0.00000000	-75.52288000	-22.89001000
149.99999127	0.00000000	-75.85506000	-22.47785000
150.19999125	0.00000000	-75.89813000	-22.10261000
150.39999124	0.00000000	-75.89813000	-21.68430000
150.59999123	0.00000000	-75.94118000	-20.98917000
150.79999122	0.00000000	-76.31644000	-20.98917000
150.99999121	0.00000000	-77.06077000	-21.68430000
151.19999119	0.00000000	-77.43602000	-22.05955000
151.39999118	0.00000000	-77.47908000	-22.10261000
151.59999117	0.00000000	-77.47908000	-22.10261000
151.79999116	0.00000000	-77.43602000	-22.10261000
151.99999115	0.00000000	-77.06077000	-22.10261000
152.19999113	0.00000000	-76.31644000	-22.10261000
152.39999112	0.00000000	-75.94118000	-22.14567000
152.59999111	0.00000000	-75.89813000	-22.47785000
152.79999110	0.00000000	-75.89813000	-22.84695000
152.99999109	0.00000000	-75.89813000	-22.47785000
153.19999108	0.00000000	-75.89813000	-22.14567000
153.39999106	0.00000000	-75.94118000	-22.10261000
153.59999105	0.00000000	-76.31644000	-22.05955000
153.79999104	0.00000000	-77.06077000	-21.72736000
153.99999103	0.00000000	-77.43602000	-21.36442000
154.19999102	0.00000000	-77.47908000	-21.72736000
154.39999100	0.00000000	-77.47908000	-22.05955000
154.59999099	0.00000000	-77.47908000	-22.10261000
154.79999098	0.00000000	-77.43602000	-22.10261000
154.99999097	0.00000000	-77.06077000	-22.10261000
155.19999096	0.00000000	-76.31644000	-22.10261000
155.39999094	0.00000000	-75.94118000	-22.10261000
155.59999093	0.00000000	-75.89813000	-22.10261000
155.79999092	0.00000000	-75.89813000	-22.10261000
155.99999091	0.00000000	-75.89813000	-22.10261000
156.19999090	0.00000000	-75.89813000	-22.10261000
156.39999089	0.00000000	-75.94118000	-22.05955000
156.59999087	0.00000000	-76.31644000	-21.68430000
156.79999086	0.00000000	-77.10384000	-20.98917000
156.99999085	0.00000000	-77.81126000	-20.98917000
157.19999084	0.00000000	-78.22342000	-21.68430000
157.39999083	0.00000000	-77.85432000	-22.05955000
157.59999081	0.00000000	-77.47908000	-22.10261000
157.79999080	0.00000000	-77.06077000	-22.10261000
157.99999079	0.00000000	-76.31644000	-22.10261000
158.19999078	0.00000000	-75.94118000	-22.10261000
158.39999077	0.00000000	-75.89813000	-22.10261000
158.59999075	0.00000000	-75.89813000	-22.10261000
158.79999074	0.00000000	-75.89813000	-22.10261000
158.99999073	0.00000000	-75.89813000	-22.10261000
159.19999072	0.00000000	-75.89813000	-22.05955000
159.39999071	0.00000000	-75.89813000	-21.68430000
159.59999070	0.00000000	-75.94118000	-20.94611000
159.79999068	0.00000000	-76.31644000	-20.57087000
159.99999067	0.00000000	-77.01156000	-20.52780000
160.19999066	0.00000000	-77.06077000	-20.57087000
160.39999065	0.00000000	-76.73474000	-20.94611000
160.59999064	0.00000000	-77.06077000	-21.68430000
160.79999062	0.00000000	-77.01156000	-22.05955000
160.99999061	0.00000000	-76.31644000	-22.10261000
161.19999060	0.00000000	-75.94118000	-22.10261000
161.39999059	0.00000000	-75.89813000	-22.10261000
161.59999058	0.00000000	-75.89813000	-22.10261000
161.79999056	0.00000000	-75.89813000	-22.10261000
161.99999055	0.00000000	-75.89813000	-22.10261000
162.19999054	0.00000000	-75.89813000	-22.10261000
162.39999053	0.00000000	-75.89813000	-22.10261000
162.59999052	0.00000000	-75.89813000	-22.10261000
162.79999051	0.00000000	-75.89813000	-22.05955000
162.99999049	0.00000000	-75.94118000	-21.72736000
163.19999048	0.00000000	-76.31644000	-21.36442000
163.39999047	0.00000000	-77.06077000	-21.72736000
163.59999046	0.00000000	-77.43602000	-22.05955000
163.79999045	0.00000000	-77.43602000	-22.10261000
163.99999043	0.00000000	-77.06077000	-22.10261000
164.19999042	0.00000000	-76.31644000	-22.10261000
164.39999041	0.00000000	-75.94118000	-22.10261000
164.59999040	0.00000000	-75.89813000	-22.10261000
164.79999039	0.00000000	-75.85506000	-22.10261000
164.99999037	0.00000000	-75.52288000	-22.10261000
165.19999036	0.00000000	-75.15379000	-22.10261000
165.39999035	0.00000000	-75.52288000	-22.10261000
165.59999034	0.00000000	-75.85506000	-22.10261000
165.79999033	0.00000000	-75.89813000	-22.10261000
165.99999032	0.00000000	-75.94118000	-22.10261000
166.19999030	0.00000000	-76.27337000	-22.05955000
166.39999029	0.00000000	-76.64246000	-21.68430000
166.59999028	0.00000000	-76.27337000	-20.94611000
166.79999027	0.00000000	-75.94118000	-20.62008000
166.99999026	0.00000000	-75.89813000	-20.94611000
167.19999024	0.00000000	-75.89813000	-21.68430000
167.39999023	0.00000000	-75.89813000	-22.05955000
167.59999022	0.00000000	-75.89813000	-22.10261000
167.79999021	0.00000000	-75.89813000	-22.10261000
167.99999020	0.00000000	-75.89813000	-22.10261000
168.19999018	0.00000000	-75.89813000	-22.10261000
168.39999017	0.00000000	-75.89813000	-22.10261000
168.59999016	0.00000000	-75.89813000	-22.10261000
168.79999015	0.00000000	-75.89813000	-22.10261000
168.99999014	0.00000000	-75.89813000	-22.10261000
169.19999013	0.00000000	-75.89813000	-22.10261000
169.39999011	0.00000000	-75.89813000	-22.10261000
169.59999010	0.00000000	-75.89813000	-22.10261000
169.79999009	0.00000000	-75.94118000	-22.10261000
169.99999008	0.00000000	-76.27337000	-22.10261000
170.19999007	0.00000000	-76.64246000	-22.10261000
170.39999005	0.00000000	-76.27337000	-22.10261000
170.59999004	0.00000000	-75.94118000	-22.10261000
170.79999003	0.00000000	-75.89813000	-22.10261000
170.99999002	0.00000000	-75.89813000	-22.10261000
171.19999001	0.00000000	-75.89813000	-22.10261000
171.39998999	0.00000000	-75.89813000	-22.10261000
171.59998998	0.00000000	-75.89813000	-22.10261000
171.79998997	0.00000000	-75.89813000	-22.10261000
171.99998996	0.00000000	-75.89813000	-22.10261000
172.19998995	0.00000000	-75.89813000	-22.10261000
172.39998994	0.00000000	-75.89813000	-22.05955000
172.59998992	0.00000000	-75.94118000	-21.72736000
172.79998991	0.00000000	-76.27337000	-21.36442000
172.99998990	0.00000000	-76.64246000	-21.72736000
173.19998989	0.00000000	-76.27337000	-22.05955000
173.39998988	0.00000000	-75.94118000	-22.10261000
173.59998986	0.00000000	-75.89813000	-22.10261000
173.79998985	0.00000000	-75.89813000	-22.10261000
173.99998984	0.00000000	-75.89813000	-22.10261000
174.19998983	0.00000000	-75.89813000	-22.10261000
174.39998982	0.00000000	-75.89813000	-22.10261000
174.59998980	0.00000000	-75.89813000	-22.10261000
174.79998979	0.00000000	-75.89813000	-22.10261000
174.99998978	0.00000000	-75.89813000	-22.10261000
175.19998977	0.00000000	-75.89813000	-22.10261000
175.39998976	0.00000000	-75.89813000	-22.10261000
175.59998975	0.00000000	-75.89813000	-22.10261000
175.79998973	0.00000000	-75.89813000	-22.10261000
175.99998972	0.00000000	-75.89813000	-22.10261000
176.19998971	0.00000000	-75.89813000	-22.10261000
176.39998970	0.00000000	-75.89813000	-22.10261000
176.59998969	0.00000000	-75.89813000	-22.10261000
176.79998967	0.00000000	-75.89813000	-22.10261000
176.99998966	0.00000000	-75.89813000	-22.10261000
177.19998965	0.00000000	-75.89813000	-22.10261000
177.39998964	0.00000000	-75.89813000	-22.10261000
177.59998963	0.00000000	-75.89813000	-22.10261000
177.79998961	0.00000000	-75.89813000	-22.10261000
177.99998960	0.00000000	-75.89813000	-22.10261000
178.19998959	0.00000000	-75.89813000	-22.10261000
178.39998958	0.00000000	-75.89813000	-22.10261000
178.59998957	0.00000000	-75.89813000	-22.10261000
178.79998956	0.00000000	-75.89813000	-22.10261000
178.99998954	0.00000000	-75.89813000	-22.10261000
179.19998953	0.00000000	-75.89813000	-22.10261000
179.39998952	0.00000000	-75.89813000	-22.10261000
179.59998951	0.00000000	-75.89813000	-22.10261000
179.79998950	0.00000000	-75.89813000	-22.10261000
179.99998948	0.00000000	-75.89813000	-22.10261000
180.19998947	0.00000000	-75.89813000	-22.10261000
180.39998946	0.00000000	-75.89813000	-22.10261000
180.59998945	0.00000000	-75.89813000	-22.10261000
180.79998944	0.00000000	-75.89813000	-22.10261000
180.99998942	0.00000000	-75.89813000	-22.10261000
181.19998941	0.00000000	-75.94118000	-22.10261000
181.39998940	0.00000000	-76.27337000	-22.05955000
181.59998939	0.00000000	-76.64246000	-21.72736000
181.79998938	0.00000000	-76.27337000	-21.36442000
181.99998937	0.00000000	-75.94118000	-21.68430000
182.19998935	0.00000000	-75.89813000	-21.68430000
182.39998934	0.00000000	-75.89813000	-21.36442000
182.59998933	0.00000000	-75.85506000	-21.72736000
182.79998932	0.00000000	-75.47981000	-22.05955000
182.99998931	0.00000000	-74.78469000	-22.10261000
183.19998929	0.00000000	-74.78469000	-22.10261000
183.39998928	0.00000000	-75.47981000	-22.10261000
183.59998927	0.00000000	-75.85506000	-22.10261000
183.79998926	0.00000000	-75.89813000	-22.10261000
183.99998925	0.00000000	-75.89813000	-22.10261000
184.19998923	0.00000000	-75.89813000	-22.10261000
184.39998922	0.00000000	-75.89813000	-22.05955000
184.59998921	0.00000000	-75.89813000	-21.68430000
184.79998920	0.00000000	-75.89813000	-20.94611000
184.99998919	0.00000000	-75.89813000	-20.57087000
185.19998918	0.00000000	-75.89813000	-20.52780000
185.39998916	0.00000000	-75.85506000	-20.57087000
185.59998915	0.00000000	-75.52288000	-20.94611000
185.79998914	0.00000000	-75.11072000	-21.68430000
185.99998913	0.00000000	-75.10458000	-22.05955000
186.19998912	0.00000000	-74.73548000	-22.10261000
186.39998910	0.00000000	-74.78469000	-22.10261000
186.59998909	0.00000000	-75.47981000	-22.10261000
186.79998908	0.00000000	-75.85506000	-22.10261000
186.99998907	0.00000000	-75.89813000	-22.05955000
187.19998906	0.00000000	-75.89813000	-21.68430000
187.39998904	0.00000000	-75.85506000	-20.94611000
187.59998903	0.00000000	-75.52288000	-20.57087000
187.79998902	0.00000000	-75.15379000	-20.52780000
187.99998901	0.00000000	-75.52288000	-20.57087000
188.19998900	0.00000000	-75.80585000	-20.94611000
188.39998899	0.00000000	-75.52288000	-21.68430000
188.59998897	0.00000000	-75.11072000	-22.05955000
188.79998896	0.00000000	-75.14763000	-22.10261000
188.99998895	0.00000000	-75.11072000	-22.10261000
189.19998894	0.00000000	-75.52288000	-22.10261000
189.39998893	0.00000000	-75.85506000	-22.10261000
189.59998891	0.00000000	-75.89813000	-22.10261000
189.79998890	0.00000000	-75.89813000	-22.10261000
189.99998889	0.00000000	-75.89813000	-22.05955000
190.19998888	0.00000000	-75.89813000	-21.72736000
190.39998887	0.00000000	-75.89813000	-21.32136000
190.59998885	0.00000000	-75.89813000	-21.30905000
190.79998884	0.00000000	-75.89813000	-20.90305000
190.99998883	0.00000000	-75.89813000	-20.62008000
191.19998882	0.00000000	-75.89813000	-20.90305000
191.39998881	0.00000000	-75.85506000	-21.30905000
191.59998880	0.00000000	-75.52288000	-21.27214000
191.79998878	0.00000000	-75.11072000	-21.35827000
191.99998877	0.00000000	-75.14763000	-21.32136000
192.19998876	0.00000000	-75.11072000	-21.72736000
192.39998875	0.00000000	-75.52288000	-22.05955000
192.59998874	0.00000000	-75.85506000	-22.10261000
192.79998872	0.00000000	-75.89813000	-22.10261000
192.99998871	0.00000000	-75.89813000	-22.10261000
193.19998870	0.00000000	-75.89813000	-22.10261000
193.39998869	0.00000000	-75.89813000	-22.05955000
193.59998868	0.00000000	-75.89813000	-21.68430000
193.79998866	0.00000000	-75.89813000	-20.94611000
193.99998865	0.00000000	-75.89813000	-20.57087000
194.19998864	0.00000000	-75.85506000	-20.52780000
194.39998863	0.00000000	-75.52288000	-20.52780000
194.59998862	0.00000000	-75.11072000	-20.57087000
194.79998861	0.00000000	-75.14763000	-20.90305000
194.99998859	0.00000000	-75.11072000	-21.30905000
195.19998858	0.00000000	-75.52288000	-21.32136000
195.39998857	0.00000000	-75.85506000	-21.72736000
195.59998856	0.00000000	-75.89813000	-22.05955000
195.79998855	0.00000000	-75.89813000	-22.10261000
195.99998853	0.00000000	-75.89813000	-22.05955000
