Time	Channel A	Channel B	Channel C
(us)	(V)	(mV)	(mV)

-4.49999956	0.00000000	-14.22859000	2.78051200
-4.29999957	0.00000000	-14.22859000	3.11269700
-4.09999958	0.00000000	-14.22859000	3.15575800
-3.89999959	0.00000000	-14.22859000	3.15575800
-3.69999960	0.00000000	-14.22859000	3.15575800
-3.49999962	0.00000000	-14.22859000	3.11269700
-3.29999963	0.00000000	-14.22859000	2.78051200
-3.09999964	0.00000000	-14.22859000	2.41141700
-2.89999965	0.00000000	-14.22859000	2.78051200
-2.69999966	0.00000000	-14.22859000	3.11269700
-2.49999968	0.00000000	-14.22859000	3.15575800
-2.29999969	0.00000000	-14.22859000	3.15575800
-2.09999970	0.00000000	-14.22859000	3.15575800
-1.89999971	0.00000000	-14.22859000	3.15575800
-1.69999972	0.00000000	-14.22859000	3.11269700
-1.49999973	0.00000000	-14.22859000	2.78051200
-1.29999975	0.00000000	-14.22859000	2.41141700
-1.09999976	0.00000000	-14.22859000	2.78051200
-0.89999977	0.00000000	-14.22859000	3.11269700
-0.69999978	0.00000000	-14.22859000	3.15575800
-0.49999979	0.00000000	-14.22859000	3.15575800
-0.29999981	0.31803640	-14.22859000	3.15575800
-0.09999982	0.63668800	-14.22859000	3.15575800
0.10000017	0.95533960	-14.22859000	3.15575800
0.30000016	0.95533960	-14.22859000	3.15575800
0.50000015	0.95533960	-14.22859000	3.15575800
0.70000013	0.31803640	-14.22859000	3.15575800
0.90000012	-0.47736220	-14.22859000	3.15575800
1.10000011	-1.43331700	-14.22859000	3.15575800
1.30000010	-2.38927200	-14.22859000	3.15575800
1.50000009	-2.70792300	-14.22859000	3.15575800
1.70000008	-2.54859700	-14.22859000	3.15575800
1.90000006	-1.43331700	-14.22859000	3.15575800
2.10000005	0.31803640	-14.22859000	3.15575800
2.30000004	2.38927200	-14.22859000	3.15575800
2.50000003	4.30056600	-14.22859000	3.15575800
2.70000002	5.41584600	-14.22859000	3.11269700
2.90000000	4.93786900	-14.22859000	2.73745100
3.09999999	3.18590100	-14.22859000	1.99311000
3.29999998	0.31803640	-14.22859000	1.66707700
3.49999997	-3.18590100	-14.22859000	1.95004900
3.69999996	-6.21247500	-14.22859000	2.36220500
3.89999994	-7.80511800	-14.22859000	2.36835600
4.09999993	-7.64579200	-14.22859000	2.78051200
4.29999992	-5.41584600	-14.22859000	3.11269700
4.49999991	-1.43331700	-14.22859000	3.15575800
4.69999990	3.02657500	-14.22859000	3.11269700
4.89999989	6.84916400	-14.22859000	2.73745100
5.09999987	9.23905000	-14.22859000	1.99311000
5.29999986	9.23905000	-14.22859000	1.61786400
5.49999985	7.00848900	-14.22859000	1.57480300
5.69999984	2.70792300	-14.22859000	1.57480300
5.89999983	-1.91129400	-14.22859000	1.57480300
6.09999981	-6.21247500	-14.22859000	1.61786400
6.29999980	-8.92039900	-14.22859000	1.99311000
6.49999979	-9.39837600	-14.22859000	2.73745100
6.69999978	-7.32714100	-14.22859000	3.11269700
6.89999977	-3.82258900	-14.22859000	3.15575800
7.09999975	0.47736220	-14.22859000	3.15575800
7.29999974	4.45989200	-14.22859000	3.11269700
7.49999973	7.16781500	-14.22859000	2.78051200
7.69999972	7.80511800	-14.22859000	2.36835600
7.89999971	6.37180100	-14.22859000	2.36220500
8.09999970	3.82258900	-14.22859000	1.95004900
8.29999968	0.47736220	-14.22859000	1.61786400
8.49999967	-2.54859700	-14.22859000	1.61786400
8.69999966	-4.61921700	-14.22859000	1.99311000
8.89999965	-5.09719500	-14.22859000	2.73745100
9.09999964	-4.45989200	-14.22859000	3.11269700
9.29999962	-2.86724900	-14.22859000	3.15575800
9.49999961	-0.79601380	-14.22859000	3.15575800
9.69999960	0.95533960	-14.22859000	3.15575800
9.89999959	2.22994600	-14.22859000	3.15575800
10.09999958	2.54859700	-14.22859000	3.15575800
10.29999956	2.22994600	-14.22859000	3.11269700
10.49999955	1.59264300	-14.22859000	2.78051200
10.69999954	0.63668800	-14.22859000	2.41141700
10.89999953	-0.15871060	-14.22859000	2.78051200
11.09999952	-0.63668800	-14.22859000	3.11269700
11.29999951	-0.95533960	-14.22859000	3.11269700
11.49999949	-0.95533960	-14.22859000	2.78051200
11.69999948	-0.79601380	-14.22859000	2.41141700
11.89999947	-0.47736220	-14.22859000	2.78051200
12.09999946	-0.15871060	-14.22859000	3.11269700
12.29999945	-0.15871060	-14.22859000	3.15575800
12.49999943	0.00000000	-14.22859000	3.15575800
12.69999942	0.00000000	-14.22859000	3.15575800
12.89999941	0.00000000	-14.22859000	3.11269700
13.09999940	0.15871060	-14.18553000	2.78051200
13.29999939	0.00000000	-13.85334000	2.41141700
13.49999937	0.00000000	-13.48425000	2.78051200
13.69999936	0.00000000	-13.85334000	3.11269700
13.89999935	0.00000000	-14.18553000	3.15575800
14.09999934	-0.15871060	-14.22859000	3.15575800
14.29999933	-0.15871060	-14.22859000	3.15575800
14.49999932	-0.15871060	-14.22859000	3.15575800
14.69999930	0.00000000	-14.22859000	3.15575800
14.89999929	0.00000000	-14.22859000	3.15575800
15.09999928	0.00000000	-14.22859000	3.15575800
15.29999927	0.00000000	-14.22859000	3.11269700
15.49999926	0.00000000	-14.22859000	2.73745100
15.69999924	0.00000000	-14.22859000	2.04232300
15.89999923	0.00000000	-14.22859000	2.04232300
16.09999922	0.00000000	-14.22859000	2.73745100
16.29999921	0.00000000	-14.22859000	3.11269700
16.49999920	0.00000000	-14.18553000	3.15575800
16.69999919	0.00000000	-13.81028000	3.15575800
16.89999917	-0.15871060	-13.06594000	3.15575800
17.09999916	0.00000000	-12.69070000	3.15575800
17.29999915	0.00000000	-12.64764000	3.15575800
17.49999914	0.00000000	-12.64764000	3.15575800
17.69999913	0.00000000	-12.64764000	3.15575800
17.89999911	0.00000000	-12.69070000	3.11269700
18.09999910	0.00000000	-13.11516000	2.78051200
18.29999909	0.00000000	-14.27165000	2.41141700
18.49999908	0.00000000	-15.80955000	2.73745100
18.69999907	0.00000000	-17.34744000	2.73745100
18.89999905	0.00000000	-18.50394000	2.41141700
19.09999904	0.00000000	-18.83612000	2.78051200
19.29999903	0.00000000	-17.99951000	3.11269700
19.49999902	0.00000000	-15.29897000	3.15575800
19.69999901	0.00000000	-11.44193000	3.15575800
19.89999900	0.00000000	-7.57258800	3.15575800
20.09999898	0.00000000	-4.09079700	3.15575800
20.29999897	0.00000000	-2.26993100	3.15575800
20.49999896	0.00000000	-3.06348400	3.15575800
20.69999895	0.00000000	-6.96973400	3.11269700
20.89999894	0.00000000	-13.15822000	2.78051200
21.09999892	0.00000000	-20.55241000	2.41141700
21.29999891	0.00000000	-27.86048000	2.78051200
21.49999890	0.00000000	-33.21235000	3.11269700
21.69999889	0.00000000	-34.65797000	3.15575800
21.89999888	0.00000000	-31.16388000	3.11269700
22.09999886	0.00000000	-22.98228000	2.78051200
22.29999885	0.00000000	-11.76181000	2.41141700
22.49999884	0.00000000	0.65206690	2.78051200
22.69999883	0.00000000	11.40502000	3.11269700
22.89999882	0.00000000	17.87033000	3.15575800
23.09999881	0.00000000	17.40280000	3.15575800
23.29999879	0.00000000	9.27042300	3.19881900
23.49999878	0.00000000	-4.69365100	3.57406500
23.69999877	0.00000000	-22.13336000	4.31840500
23.89999876	0.00000000	-39.44390000	4.69365100
24.09999875	0.00000000	-52.10384000	4.69365100
24.29999873	0.00000000	-56.29306000	4.26919300
24.49999872	0.00000000	-50.47367000	3.11269700
24.69999871	0.00000000	-35.77140000	1.57480300
24.89999870	0.00000000	-15.25591000	0.00000000
25.09999869	0.00000000	6.74827700	-1.53174200
25.29999867	0.00000000	25.26452000	-2.64517700
25.49999866	0.00000000	35.59916000	-2.60211600
25.69999865	0.00000000	34.80561000	-1.11343500
25.89999864	0.00000000	22.39173000	1.29183100
26.09999863	0.00000000	1.21186000	4.45989200
26.29999862	0.00000000	-23.90502000	9.05511800
26.49999860	0.00000000	-46.65969000	13.14591000
26.69999859	0.00000000	-62.14936000	14.72687000
26.89999858	0.00000000	-66.71382000	13.56422000
27.09999857	0.00000000	-59.03666000	10.07628000
27.29999856	0.00000000	-40.93873000	4.55831700
27.49999854	0.00000000	-17.39050000	-2.36835600
27.69999853	0.00000000	6.24384800	-9.70103300
27.89999852	0.00000000	25.17839000	-15.05290000
28.09999851	0.00000000	35.22392000	-17.37205000
28.29999850	0.00000000	34.06742000	-15.70497000
28.49999848	0.00000000	22.15182000	-9.47957600
28.69999847	0.00000000	2.51599400	0.59670270
28.89999846	0.00000000	-19.48819000	12.49385000
29.09999845	0.00000000	-38.89025000	23.31447000
29.29999844	0.00000000	-52.05462000	30.19808000
29.49999843	0.00000000	-56.37918000	31.72982000
29.69999841	0.00000000	-51.40255000	26.62401000
29.89999840	0.00000000	-39.06865000	15.84030000
30.09999839	0.00000000	-22.09030000	1.48868100
30.29999838	0.00000000	-4.69365100	-13.57037000
30.49999837	0.00000000	9.31348400	-26.24877000
30.69999835	0.00000000	17.87033000	-33.16929000
30.89999834	0.00000000	19.45128000	-32.38804000
31.09999833	0.00000000	14.09941000	-24.24951000
31.29999832	0.00000000	3.67864200	-9.94094400
31.49999831	0.00000000	-9.48572700	7.43110200
31.69999829	0.00000000	-22.65010000	24.06496000
31.89999828	0.00000000	-33.12008000	36.74950000
32.09999827	0.00000000	-38.93946000	42.18134000
32.29999826	0.00000000	-38.98253000	39.12401000
32.49999825	0.00000000	-33.63066000	29.07849000
32.69999824	0.00000000	-24.74163000	13.56422000
32.89999822	0.00000000	-14.27165000	-4.18307100
33.09999821	0.00000000	-4.22613100	-20.39862000
33.29999820	0.00000000	3.12500000	-31.59449000
33.49999819	0.00000000	6.24384800	-35.12549000
33.69999818	0.00000000	4.70595500	-30.89936000
33.89999816	0.00000000	-1.02116100	-20.06643000
34.09999815	0.00000000	-9.06742000	-4.60137700
34.29999814	0.00000000	-16.83686000	11.98942000
34.49999813	0.00000000	-23.06841000	26.29183000
34.69999812	0.00000000	-26.92544000	35.16855000
34.89999810	0.00000000	-27.30069000	36.74950000
35.09999809	0.00000000	-24.23105000	30.98548000
35.29999808	0.00000000	-18.46087000	19.42052000
35.49999807	0.00000000	-11.62032000	4.73671200
35.69999806	0.00000000	-6.22539300	-9.89788300
35.89999805	0.00000000	-3.85088600	-21.05069000
36.09999803	0.00000000	-4.18307100	-25.69513000
36.29999802	0.00000000	-6.92052100	-23.09301000
36.49999801	0.00000000	-11.48499000	-14.67766000
36.69999800	0.00000000	-16.50467000	-3.11269700
36.89999799	0.00000000	-20.32480000	8.87672100
37.09999797	0.00000000	-22.27485000	18.86688000
37.29999796	0.00000000	-21.53666000	24.20645000
37.49999795	0.00000000	-18.83612000	23.09301000
37.69999794	0.00000000	-14.97293000	16.25861000
37.89999793	0.00000000	-10.37155000	6.31151500
38.09999791	0.00000000	-6.87746000	-3.67249000
38.29999790	0.00000000	-4.92125900	-11.01132000
38.49999789	0.00000000	-4.55831700	-14.03789000
38.69999788	0.00000000	-6.50221400	-11.75566000
38.89999787	0.00000000	-9.95324800	-4.50910400
39.09999786	0.00000000	-14.22859000	4.64443900
39.29999784	0.00000000	-18.46087000	13.14591000
39.49999783	0.00000000	-21.57972000	18.81767000
39.69999782	0.00000000	-23.11762000	19.55585000
39.89999781	0.00000000	-22.74237000	14.63459000
40.09999780	0.00000000	-20.41708000	6.22539300
40.29999778	0.00000000	-16.92298000	-3.02042300
40.49999777	0.00000000	-12.64764000	-11.10359000
40.69999776	0.00000000	-8.41535400	-15.61270000
40.89999775	0.00000000	-5.29650500	-14.86836000
41.09999774	0.00000000	-3.75861200	-8.78444900
41.29999772	0.00000000	-4.13385800	0.04306102
41.49999771	0.00000000	-6.41609200	9.33809000
41.69999770	0.00000000	-9.52879000	17.37205000
41.89999769	0.00000000	-13.06594000	21.60433000
42.09999768	0.00000000	-16.92298000	20.85999000
42.29999767	0.00000000	-19.99877000	15.88336000
42.49999765	0.00000000	-21.57972000	7.80634800
42.69999764	0.00000000	-21.57972000	-0.97810030
42.89999763	0.00000000	-20.04183000	-7.94783400
43.09999762	0.00000000	-17.34744000	-11.47884000
43.29999761	0.00000000	-14.27165000	-11.52190000
43.49999759	0.00000000	-11.57726000	-8.45226300
43.69999758	0.00000000	-9.99630800	-3.06963600
43.89999757	0.00000000	-9.52879000	3.06963600
44.09999756	0.00000000	-9.52879000	8.50147600
44.29999755	0.00000000	-9.90403500	11.94021000
44.49999753	0.00000000	-10.64838000	12.77067000
44.69999752	0.00000000	-11.02362000	10.86983000
44.89999751	0.00000000	-11.06668000	7.47416300
45.09999750	0.00000000	-11.10974000	3.57406500
45.29999749	0.00000000	-11.53420000	0.13533460
45.49999748	0.00000000	-12.73991000	-2.22687000
45.69999746	0.00000000	-14.69611000	-3.02042300
45.89999745	0.00000000	-17.43356000	-2.64517700
46.09999744	0.00000000	-20.46014000	-1.11343500
46.29999743	0.00000000	-22.74237000	1.15649600
46.49999742	0.00000000	-23.11762000	3.11269700
46.69999740	0.00000000	-21.53666000	4.73671200
46.89999739	0.00000000	-17.99951000	6.22539300
47.09999738	0.00000000	-12.55536000	6.96358300
47.29999737	0.00000000	-6.41609200	6.22539300
47.49999736	0.00000000	-1.02116100	4.68750000
47.69999734	0.00000000	2.00541300	2.73745100
47.89999733	0.00000000	1.58710600	0.41830710
48.09999732	0.00000000	-2.64517700	-1.43946800
48.29999731	0.00000000	-9.62106200	-2.22687000
48.49999730	0.00000000	-17.76575000	-1.48868100
48.69999729	0.00000000	-25.85507000	0.04306102
48.89999727	0.00000000	-31.53912000	2.04232300
49.09999726	0.00000000	-32.70177000	4.73671200
49.29999725	0.00000000	-28.88779000	7.38188900
49.49999724	0.00000000	-21.53666000	8.91978400
49.69999723	0.00000000	-12.27239000	8.96284400
49.89999721	0.00000000	-3.02042300	7.75713500
50.09999720	0.00000000	3.50024600	5.43184000
50.29999719	0.00000000	5.86860200	1.95004900
50.49999718	0.00000000	3.50024600	-1.48868100
50.69999717	0.00000000	-3.02042300	-4.18307100
50.89999715	0.00000000	-12.27239000	-5.33956700
51.09999714	0.00000000	-21.44439000	-4.55831700
51.29999713	0.00000000	-28.04503000	-2.22687000
51.49999712	0.00000000	-30.37647000	1.62401600
51.69999711	0.00000000	-28.46333000	5.85014700
51.89999710	0.00000000	-22.65010000	9.33809000
52.09999708	0.00000000	-14.22859000	11.61417000
52.29999707	0.00000000	-5.80708600	11.61417000
52.49999706	0.00000000	-0.03690945	9.33809000
52.69999705	0.00000000	1.54404500	5.89320800
52.89999704	0.00000000	-1.10728300	1.99311000
53.09999702	0.00000000	-6.87746000	-1.44562000
53.29999701	0.00000000	-14.18553000	-3.80782500
53.49999700	0.00000000	-21.11220000	-4.55831700
53.69999699	0.00000000	-25.67667000	-3.80782500
53.89999698	0.00000000	-26.46407000	-1.48868100
54.09999696	0.00000000	-23.06841000	1.58095500
54.29999695	0.00000000	-17.34744000	4.64443900
54.49999694	0.00000000	-11.15896000	6.92052100
54.69999693	0.00000000	-5.76402500	7.29576700
54.89999692	0.00000000	-2.68823800	5.85014700
55.09999691	0.00000000	-2.68823800	3.57406500
55.29999689	0.00000000	-5.76402500	1.66707700
55.49999688	0.00000000	-11.10974000	0.51058070
55.69999687	0.00000000	-16.83686000	0.51058070
55.89999686	0.00000000	-21.11220000	1.62401600
56.09999685	0.00000000	-23.06841000	3.15575800
56.29999683	0.00000000	-22.69316000	4.68750000
56.49999682	0.00000000	-19.95571000	5.80093500
56.69999681	0.00000000	-15.39124000	5.75787400
56.89999680	0.00000000	-10.41462000	4.22613100
57.09999679	0.00000000	-6.92052100	1.53174200
57.29999677	0.00000000	-5.33956700	-1.48868100
57.49999676	0.00000000	-5.71481200	-3.76476400
57.69999675	0.00000000	-8.04010800	-4.14000900
57.89999674	0.00000000	-11.44193000	-2.55905500
58.09999673	0.00000000	-14.97293000	0.92888770
58.29999672	0.00000000	-17.63041000	5.89320800
58.49999670	0.00000000	-19.20522000	10.45152000
58.69999669	0.00000000	-18.79306000	13.18898000
58.89999668	0.00000000	-16.97219000	13.56422000
59.09999667	0.00000000	-14.64690000	11.61417000
59.29999666	0.00000000	-12.69070000	7.33882900
59.49999664	0.00000000	-11.10974000	1.53174200
59.69999663	0.00000000	-9.99630800	-4.60137700
59.89999662	0.00000000	-9.99630800	-9.52263600
60.09999661	0.00000000	-11.10974000	-11.01132000
60.29999660	0.00000000	-12.60458000	-8.40920300
60.49999658	0.00000000	-13.76107000	-3.02042300
60.69999657	0.00000000	-14.18553000	3.57406500
60.89999656	0.00000000	-14.22859000	10.49459000
61.09999655	0.00000000	-14.18553000	15.84030000
61.29999654	0.00000000	-13.81028000	17.79035000
61.49999653	0.00000000	-13.06594000	16.21555000
61.69999651	0.00000000	-12.69070000	11.18971000
61.89999650	0.00000000	-12.64764000	3.53100400
62.09999649	0.00000000	-12.69070000	-4.14000900
62.29999648	0.00000000	-13.11516000	-9.99015700
62.49999647	0.00000000	-14.22859000	-13.05364000
62.69999645	0.00000000	-15.34203000	-12.63533000
62.89999644	0.00000000	-15.71727000	-8.40920300
63.09999643	0.00000000	-15.34203000	-1.53174200
63.29999642	0.00000000	-14.18553000	5.80708600
63.49999641	0.00000000	-12.64764000	12.03248000
63.69999639	0.00000000	-11.10974000	16.25861000
63.89999638	0.00000000	-9.99630800	17.42126000
64.09999637	0.00000000	-9.95324800	15.14518000
64.29999636	0.00000000	-10.69144000	10.49459000
64.49999635	0.00000000	-11.53420000	4.26919300
64.69999634	0.00000000	-13.06594000	-2.60211600
64.89999632	0.00000000	-14.92372000	-7.94783400
65.09999631	0.00000000	-15.67421000	-9.94094400
65.29999630	0.00000000	-15.39124000	-8.91978400
65.49999629	0.00000000	-14.60384000	-6.17618100
65.69999628	0.00000000	-13.81028000	-2.27608300
65.89999626	0.00000000	-12.64764000	2.73745100
66.09999625	0.00000000	-11.57726000	7.33882900
66.29999624	0.00000000	-11.53420000	10.49459000
66.49999623	0.00000000	-12.27239000	12.07554000
66.69999622	0.00000000	-13.06594000	12.11860000
66.89999620	0.00000000	-14.22859000	10.96211000
67.09999619	0.00000000	-15.34203000	9.00590400
67.29999618	0.00000000	-15.76649000	6.26845500
67.49999617	0.00000000	-15.67421000	3.15575800
67.69999616	0.00000000	-14.50541000	0.04306102
67.89999615	0.00000000	-11.86024000	-2.69439000
68.09999613	0.00000000	-9.62106200	-4.64443900
68.29999612	0.00000000	-8.41535400	-5.80093500
68.49999611	0.00000000	-8.45841400	-5.75787400
68.69999610	0.00000000	-9.99630800	-4.18307100
68.89999609	0.00000000	-12.69070000	-1.07037400
69.09999607	0.00000000	-15.80955000	3.15575800
69.29999606	0.00000000	-18.92839000	7.43110200
69.49999605	0.00000000	-21.53666000	10.96211000
69.69999604	0.00000000	-22.27485000	13.60728000
69.89999603	0.00000000	-20.37401000	14.30241000
70.09999601	0.00000000	-16.87992000	12.03248000
70.29999600	0.00000000	-12.22933000	7.84940900
70.49999599	0.00000000	-7.25270600	3.15575800
70.69999598	0.00000000	-3.75861200	-1.53174200
70.89999597	0.00000000	-2.17765700	-5.75787400
71.09999596	0.00000000	-2.64517700	-8.40920300
71.29999594	0.00000000	-5.76402500	-8.40920300
71.49999593	0.00000000	-11.15896000	-5.75787400
71.69999592	0.00000000	-17.25517000	-1.53174200
71.89999591	0.00000000	-22.31791000	3.11269700
72.09999590	0.00000000	-25.02460000	7.38188900
72.29999588	0.00000000	-25.43676000	10.45152000
72.49999587	0.00000000	-23.06841000	11.60802000
72.69999586	0.00000000	-18.50394000	10.49459000
72.89999585	0.00000000	-13.06594000	7.80019600
73.09999584	0.00000000	-8.04010800	4.36146600
73.29999582	0.00000000	-4.13385800	0.92888770
73.49999581	0.00000000	-2.22687000	-1.02116100
73.69999580	0.00000000	-2.60211600	-1.48253000
73.89999579	0.00000000	-5.33956700	-1.06422200
74.09999578	0.00000000	-9.90403500	0.41830710
74.29999577	0.00000000	-14.92372000	2.27608300
74.49999575	0.00000000	-18.79306000	3.06348400
74.69999574	0.00000000	-21.16142000	3.11269700
74.89999573	0.00000000	-21.53666000	2.68823800
75.09999572	0.00000000	-20.04183000	1.57480300
75.29999571	0.00000000	-17.34744000	0.51058070
75.49999569	0.00000000	-14.22859000	0.51058070
75.69999568	0.00000000	-11.15896000	1.66707700
75.89999567	0.00000000	-8.83366100	3.61712600
76.09999566	0.00000000	-8.04010800	6.26845500
76.29999565	0.00000000	-8.37229300	8.58759800
76.49999563	0.00000000	-9.52879000	9.71333600
76.69999562	0.00000000	-11.06668000	9.70103300
76.89999561	0.00000000	-12.60458000	7.71407400
77.09999560	0.00000000	-13.71801000	4.26919300
77.29999559	0.00000000	-13.76107000	0.00000000
77.49999558	0.00000000	-13.06594000	-4.18307100
77.69999556	0.00000000	-12.73991000	-6.87746000
77.89999555	0.00000000	-13.06594000	-7.24655500
78.09999554	0.00000000	-13.85334000	-5.33956700
78.29999553	0.00000000	-14.60384000	-1.43946800
78.49999552	0.00000000	-15.39124000	3.53100400
78.69999550	0.00000000	-15.71727000	8.58759800
78.89999549	0.00000000	-15.34203000	12.40773000
79.09999548	0.00000000	-14.18553000	14.35162000
79.29999547	0.00000000	-12.60458000	13.56422000
79.49999546	0.00000000	-10.69144000	10.49459000
79.69999544	0.00000000	-8.79060000	5.85014700
79.89999543	0.00000000	-8.04010800	0.46136810
80.09999542	0.00000000	-8.41535400	-4.14000900
80.29999541	0.00000000	-9.99630800	-6.87746000
80.49999540	0.00000000	-12.69070000	-7.29576700
80.69999539	0.00000000	-15.71727000	-5.80093500
80.89999537	0.00000000	-18.04257000	-3.06348400
81.09999536	0.00000000	-18.83612000	0.41830710
81.29999535	0.00000000	-18.46087000	4.31840500
81.49999534	0.00000000	-16.87992000	7.75713500
81.69999533	0.00000000	-14.22859000	10.11934000
81.89999531	0.00000000	-11.53420000	10.91289000
82.09999530	0.00000000	-9.57800100	10.53765000
82.29999529	0.00000000	-8.41535400	8.96284400
82.49999528	0.00000000	-8.41535400	6.26845500
82.69999527	0.00000000	-9.52879000	3.19881900
82.89999525	0.00000000	-11.10974000	0.41830710
83.09999524	0.00000000	-13.02288000	-1.90698800
83.29999523	0.00000000	-14.97293000	-3.85088600
83.49999522	0.00000000	-16.09252000	-4.60137700
83.69999521	0.00000000	-16.50467000	-4.22613100
83.89999520	0.00000000	-15.71727000	-2.64517700
84.09999518	0.00000000	-14.27165000	0.04306102
84.29999517	0.00000000	-13.11516000	3.15575800
84.49999516	0.00000000	-12.69070000	6.31151500
84.69999515	0.00000000	-12.64764000	9.38115100
84.89999514	0.00000000	-12.64764000	11.65723000
85.09999512	0.00000000	-12.60458000	11.98327000
85.29999511	0.00000000	-12.22933000	10.11934000
85.49999510	0.00000000	-11.48499000	6.64370100
85.69999509	0.00000000	-11.10974000	2.73745100
85.89999508	0.00000000	-11.10974000	-1.53174200
86.09999506	0.00000000	-11.48499000	-5.33956700
86.29999505	0.00000000	-12.27239000	-7.24655500
86.49999504	0.00000000	-13.02288000	-6.87746000
86.69999503	0.00000000	-13.85334000	-4.14000900
86.89999502	0.00000000	-14.60384000	0.46136810
87.09999501	0.00000000	-15.39124000	5.80093500
87.29999499	0.00000000	-15.71727000	10.07628000
87.49999498	0.00000000	-15.34203000	12.40157000
87.69999497	0.00000000	-14.18553000	12.77067000
87.89999496	0.00000000	-12.64764000	10.45152000
88.09999495	0.00000000	-11.10974000	6.21924200
88.29999493	0.00000000	-9.95324800	1.19955700
88.49999492	0.00000000	-9.57800100	-3.76476400
88.69999491	0.00000000	-9.95324800	-6.82824800
88.89999490	0.00000000	-11.10974000	-7.24655500
89.09999489	0.00000000	-12.60458000	-5.29650500
89.29999487	0.00000000	-13.81028000	-1.06422200
89.49999486	0.00000000	-14.60384000	4.27534400
89.69999485	0.00000000	-15.39124000	8.91978400
89.89999484	0.00000000	-15.71727000	12.03248000
90.09999483	0.00000000	-15.34203000	13.10285000
90.29999482	0.00000000	-14.22859000	11.18971000
90.49999480	0.00000000	-13.06594000	6.64370100
90.69999479	0.00000000	-12.27239000	1.62401600
90.89999478	0.00000000	-11.48499000	-3.02042300
91.09999477	0.00000000	-11.15896000	-6.40994000
91.29999476	0.00000000	-11.48499000	-6.82824800
91.49999474	0.00000000	-12.22933000	-4.55831700
91.69999473	0.00000000	-12.60458000	-0.69512790
91.89999472	0.00000000	-12.64764000	4.31840500
92.09999471	0.00000000	-12.64764000	8.91978400
92.29999470	0.00000000	-12.60458000	11.98942000
92.49999468	0.00000000	-12.27239000	12.72761000
92.69999467	0.00000000	-11.95251000	10.40846000
92.89999466	0.00000000	-12.69070000	5.89320800
93.09999465	0.00000000	-13.81028000	0.87967510
93.29999464	0.00000000	-14.60384000	-2.97736200
93.49999463	0.00000000	-15.39124000	-5.29650500
93.69999461	0.00000000	-15.71727000	-5.24729300
93.89999460	0.00000000	-15.34203000	-2.60211600
94.09999459	0.00000000	-14.18553000	1.57480300
94.29999458	0.00000000	-12.60458000	5.80093500
94.49999457	0.00000000	-10.64838000	8.91978400
94.69999455	0.00000000	-8.41535400	10.45152000
94.89999454	0.00000000	-7.29576700	10.03322000
95.09999453	0.00000000	-7.99704600	7.38188900
95.29999452	0.00000000	-9.57800100	3.57406500
95.49999451	0.00000000	-11.95251000	0.09227362
95.69999449	0.00000000	-15.39124000	-2.60211600
95.89999448	0.00000000	-18.41781000	-3.76476400
96.09999447	0.00000000	-19.99877000	-3.02042300
96.29999446	0.00000000	-19.99877000	-1.11343500
96.49999445	0.00000000	-18.46087000	1.62401600
96.69999444	0.00000000	-15.71727000	4.64443900
96.89999442	0.00000000	-12.22933000	6.96358300
97.09999441	0.00000000	-8.37229300	7.71407400
97.29999440	0.00000000	-5.29650500	7.01279500
97.49999439	0.00000000	-3.75861200	5.11195900
97.69999438	0.00000000	-4.13385800	3.19881900
97.89999436	0.00000000	-6.45915300	1.62401600
98.09999435	0.00000000	-9.95324800	0.46136810
98.29999434	0.00000000	-14.18553000	0.09227362
98.49999433	0.00000000	-18.04257000	0.41830710
98.69999432	0.00000000	-20.37401000	1.19955700
98.89999430	0.00000000	-21.20448000	1.95004900
99.09999429	0.00000000	-20.37401000	2.78051200
99.29999428	0.00000000	-18.08563000	3.48794300
99.49999427	0.00000000	-14.56078000	3.94315900
99.69999426	0.00000000	-10.73450000	3.94931100
99.89999425	0.00000000	-7.25270600	4.36146600
100.09999423	0.00000000	-5.33956700	4.73671200
100.29999422	0.00000000	-5.25344500	5.15501900
100.49999421	0.00000000	-6.41609200	5.85014700
100.69999420	0.00000000	-8.37229300	5.80093500
100.89999419	0.00000000	-11.10974000	4.68750000
101.09999417	0.00000000	-14.18553000	3.15575800
101.29999416	0.00000000	-16.87992000	1.57480300
101.49999415	0.00000000	-18.46087000	0.04306102
101.69999414	0.00000000	-18.87918000	-1.11343500
101.89999413	0.00000000	-18.46087000	-1.43946800
102.09999411	0.00000000	-16.87992000	-0.69512790
102.29999410	0.00000000	-14.22859000	1.29183100
102.49999409	0.00000000	-11.53420000	3.94931100
102.69999408	0.00000000	-9.57800100	7.01279500
102.89999407	0.00000000	-8.37229300	8.91978400
103.09999406	0.00000000	-7.99704600	9.38115100
103.29999404	0.00000000	-8.37229300	8.91978400
103.49999403	0.00000000	-9.57800100	6.96358300
103.69999402	0.00000000	-11.48499000	3.53100400
103.89999401	0.00000000	-13.81028000	0.13533460
104.09999400	0.00000000	-15.71727000	-2.22687000
104.29999398	0.00000000	-16.87992000	-3.02042300
104.49999397	0.00000000	-16.87992000	-2.64517700
104.69999396	0.00000000	-15.76649000	-1.07037400
104.89999395	0.00000000	-14.22859000	1.62401600
105.09999394	0.00000000	-12.64764000	4.68750000
105.29999392	0.00000000	-11.10974000	7.38188900
105.49999391	0.00000000	-9.95324800	8.91978400
105.69999390	0.00000000	-9.57800100	8.91978400
105.89999389	0.00000000	-9.95324800	7.38188900
106.09999388	0.00000000	-11.10974000	4.73671200
106.29999387	0.00000000	-12.64764000	2.04232300
106.49999385	0.00000000	-14.13632000	0.09227362
106.69999384	0.00000000	-14.92372000	-1.06422200
106.89999383	0.00000000	-14.56078000	-1.02116100
107.09999382	0.00000000	-13.81028000	0.46751960
107.29999381	0.00000000	-12.64764000	2.73745100
107.49999379	0.00000000	-11.53420000	4.64443900
107.69999378	0.00000000	-11.10974000	5.85014700
107.89999377	0.00000000	-11.06668000	6.21924200
108.09999376	0.00000000	-11.10974000	5.85014700
108.29999375	0.00000000	-11.53420000	4.68750000
108.49999374	0.00000000	-12.69070000	3.15575800
108.69999372	0.00000000	-14.18553000	1.62401600
108.89999371	0.00000000	-15.29897000	0.46136810
109.09999370	0.00000000	-15.34203000	0.09227362
109.29999369	0.00000000	-14.60384000	0.46136810
109.49999368	0.00000000	-13.81028000	1.66707700
109.69999366	0.00000000	-12.64764000	3.53100400
109.89999365	0.00000000	-11.53420000	5.43184000
110.09999364	0.00000000	-11.06668000	6.21924200
110.29999363	0.00000000	-10.69144000	6.26845500
110.49999362	0.00000000	-10.37155000	5.85014700
110.69999360	0.00000000	-11.10974000	4.68750000
110.89999359	0.00000000	-12.22933000	3.15575800
111.09999358	0.00000000	-13.02288000	1.62401600
111.29999357	0.00000000	-13.81028000	0.46136810
111.49999356	0.00000000	-14.18553000	0.09227362
111.69999355	0.00000000	-14.18553000	0.41830710
111.89999353	0.00000000	-13.81028000	1.19955700
112.09999352	0.00000000	-13.06594000	1.99311000
112.29999351	0.00000000	-12.64764000	3.15575800
112.49999350	0.00000000	-12.22933000	4.26919300
112.69999349	0.00000000	-11.53420000	4.69365100
112.89999347	0.00000000	-11.53420000	4.73671200
113.09999346	0.00000000	-12.22933000	4.69365100
113.29999345	0.00000000	-12.60458000	4.31840500
113.49999344	0.00000000	-12.64764000	3.57406500
113.69999343	0.00000000	-12.64764000	3.19881900
113.89999341	0.00000000	-12.64764000	3.15575800
114.09999340	0.00000000	-12.64764000	3.11269700
114.29999339	0.00000000	-12.64764000	2.73745100
114.49999338	0.00000000	-12.64764000	1.99311000
114.69999337	0.00000000	-12.64764000	1.61786400
114.89999336	0.00000000	-12.64764000	1.57480300
115.09999334	0.00000000	-12.64764000	1.57480300
115.29999333	0.00000000	-12.64764000	1.61786400
115.49999332	0.00000000	-12.64764000	1.99311000
115.69999331	0.00000000	-12.64764000	2.78051200
115.89999330	0.00000000	-12.64764000	3.53100400
116.09999328	0.00000000	-12.64764000	4.31840500
116.29999327	0.00000000	-12.64764000	4.69365100
116.49999326	0.00000000	-12.64764000	4.73671200
116.69999325	0.00000000	-12.64764000	4.73671200
116.89999324	0.00000000	-12.64764000	4.69365100
117.09999322	0.00000000	-12.64764000	4.26919300
117.29999321	0.00000000	-12.60458000	3.15575800
117.49999320	0.00000000	-12.22933000	1.99311000
117.69999319	0.00000000	-11.48499000	1.19955700
117.89999318	0.00000000	-11.10974000	0.46136810
118.09999317	0.00000000	-11.06668000	0.46136810
118.29999315	0.00000000	-11.10974000	1.19955700
118.49999314	0.00000000	-11.48499000	1.95004900
118.69999313	0.00000000	-12.27239000	2.78051200
118.89999312	0.00000000	-13.02288000	3.53100400
119.09999311	0.00000000	-13.85334000	4.31840500
119.29999309	0.00000000	-14.56078000	4.69365100
119.49999308	0.00000000	-14.97293000	4.73671200
119.69999307	0.00000000	-14.56078000	4.69365100
119.89999306	0.00000000	-13.81028000	4.31840500
120.09999305	0.00000000	-12.64764000	3.57406500
120.29999303	0.00000000	-11.48499000	3.15575800
120.49999302	0.00000000	-10.69144000	2.73745100
120.69999301	0.00000000	-9.90403500	1.99311000
120.89999300	0.00000000	-9.57800100	1.61786400
121.09999299	0.00000000	-9.95324800	1.57480300
121.29999298	0.00000000	-11.10974000	1.57480300
121.49999296	0.00000000	-12.60458000	1.61786400
121.69999295	0.00000000	-13.81028000	1.99311000
121.89999294	0.00000000	-14.60384000	2.73745100
122.09999293	0.00000000	-15.39124000	3.15575800
122.29999292	0.00000000	-15.71727000	3.57406500
122.49999290	0.00000000	-15.34203000	4.31840500
122.69999289	0.00000000	-14.18553000	4.69365100
122.89999288	0.00000000	-12.69070000	4.73671200
123.09999287	0.00000000	-11.48499000	4.69365100
123.29999286	0.00000000	-10.69144000	4.31840500
123.49999284	0.00000000	-9.95324800	3.57406500
123.69999283	0.00000000	-9.95324800	3.15575800
123.89999282	0.00000000	-10.64838000	2.73745100
124.09999281	0.00000000	-11.06668000	1.99311000
124.29999280	0.00000000	-11.48499000	1.61786400
124.49999279	0.00000000	-12.27239000	1.57480300
124.69999277	0.00000000	-13.02288000	1.61786400
124.89999276	0.00000000	-13.81028000	1.99311000
125.09999275	0.00000000	-14.18553000	2.73745100
125.29999274	0.00000000	-14.22859000	3.15575800
125.49999273	0.00000000	-14.18553000	3.57406500
125.69999271	0.00000000	-13.76107000	4.31840500
125.89999270	0.00000000	-12.64764000	4.69365100
126.09999269	0.00000000	-11.48499000	4.73671200
126.29999268	0.00000000	-10.69144000	4.69365100
126.49999267	0.00000000	-9.90403500	4.31840500
126.69999265	0.00000000	-9.57800100	3.53100400
126.89999264	0.00000000	-9.95324800	2.82357300
127.09999263	0.00000000	-11.10974000	2.36835600
127.29999262	0.00000000	-12.60458000	2.40526600
127.49999261	0.00000000	-13.76107000	2.36835600
127.69999260	0.00000000	-14.22859000	2.78051200
127.89999258	0.00000000	-14.60384000	3.11269700
128.09999257	0.00000000	-14.92372000	3.15575800
128.29999256	0.00000000	-14.18553000	3.15575800
128.49999255	0.00000000	-13.06594000	3.15575800
128.69999254	0.00000000	-12.22933000	3.15575800
128.89999252	0.00000000	-11.06668000	3.15575800
129.09999251	0.00000000	-9.99630800	3.15575800
129.29999250	0.00000000	-9.95324800	3.15575800
129.49999249	0.00000000	-10.69144000	3.15575800
129.69999248	0.00000000	-11.48499000	3.11269700
129.89999246	0.00000000	-12.64764000	2.78051200
130.09999245	0.00000000	-13.76107000	2.41141700
130.29999244	0.00000000	-14.18553000	2.78051200
130.49999243	0.00000000	-14.18553000	3.11269700
130.69999242	0.00000000	-13.81028000	3.19881900
130.89999241	0.00000000	-13.02288000	3.53100400
131.09999239	0.00000000	-12.27239000	3.90009800
131.29999238	0.00000000	-11.48499000	3.53100400
131.49999237	0.00000000	-11.06668000	3.19881900
131.69999236	0.00000000	-10.73450000	3.11269700
131.89999235	0.00000000	-10.74680000	2.73745100
132.09999233	0.00000000	-11.85408000	1.99311000
132.29999232	0.00000000	-12.55536000	1.61786400
132.49999231	0.00000000	-12.64764000	1.57480300
132.69999230	0.00000000	-12.64764000	1.61786400
132.89999229	0.00000000	-12.64764000	2.04232300
133.09999227	0.00000000	-12.64764000	3.15575800
133.29999226	0.00000000	-12.64764000	4.26919300
133.49999225	0.00000000	-12.64764000	4.69365100
133.69999224	0.00000000	-12.64764000	4.73671200
133.89999223	0.00000000	-12.64764000	4.69365100
134.09999222	0.00000000	-12.64764000	4.31840500
134.29999220	0.00000000	-12.64764000	3.57406500
134.49999219	0.00000000	-12.64764000	3.15575800
134.69999218	0.00000000	-12.60458000	2.73745100
134.89999217	0.00000000	-12.22933000	1.99311000
135.09999216	0.00000000	-11.48499000	1.61786400
135.29999214	0.00000000	-11.10974000	1.61786400
135.49999213	0.00000000	-11.10974000	1.99311000
135.69999212	0.00000000	-11.48499000	2.78051200
135.89999211	0.00000000	-12.22933000	3.53100400
136.09999210	0.00000000	-12.64764000	4.31840500
136.29999208	0.00000000	-13.06594000	4.69365100
136.49999207	0.00000000	-13.81028000	4.73671200
136.69999206	0.00000000	-14.13632000	4.69365100
136.89999205	0.00000000	-13.81028000	4.31840500
137.09999204	0.00000000	-13.02288000	3.57406500
137.29999203	0.00000000	-12.27239000	3.15575800
137.49999201	0.00000000	-11.48499000	2.73745100
137.69999200	0.00000000	-11.10974000	1.99311000
137.89999199	0.00000000	-11.06668000	1.61786400
138.09999198	0.00000000	-11.10974000	1.57480300
138.29999197	0.00000000	-11.48499000	1.61786400
138.49999195	0.00000000	-12.22933000	1.99311000
138.69999194	0.00000000	-12.64764000	2.73745100
138.89999193	0.00000000	-13.02288000	3.15575800
139.09999192	0.00000000	-13.43504000	3.57406500
139.29999191	0.00000000	-13.39813000	4.31840500
139.49999189	0.00000000	-13.43504000	4.69365100
139.69999188	0.00000000	-12.97982000	4.69365100
139.89999187	0.00000000	-12.27239000	4.31840500
140.09999186	0.00000000	-11.48499000	3.57406500
140.29999185	0.00000000	-11.10974000	3.19881900
140.49999184	0.00000000	-11.06668000	3.11269700
140.69999182	0.00000000	-11.10974000	2.73745100
140.89999181	0.00000000	-11.48499000	1.99311000
141.09999180	0.00000000	-12.22933000	1.61786400
141.29999179	0.00000000	-12.60458000	1.61786400
141.49999178	0.00000000	-12.64764000	1.99311000
141.69999176	0.00000000	-12.64764000	2.78051200
141.89999175	0.00000000	-12.60458000	3.53100400
142.09999174	0.00000000	-12.22933000	4.31840500
142.29999173	0.00000000	-11.48499000	4.69365100
142.49999172	0.00000000	-11.10974000	4.73671200
142.69999170	0.00000000	-11.06668000	4.69365100
142.89999169	0.00000000	-11.06668000	4.31840500
143.09999168	0.00000000	-11.10974000	3.57406500
143.29999167	0.00000000	-11.48499000	3.15575800
143.49999166	0.00000000	-12.22933000	2.73745100
143.69999165	0.00000000	-12.60458000	1.99311000
143.89999163	0.00000000	-12.64764000	1.61786400
144.09999162	0.00000000	-12.64764000	1.61786400
144.29999161	0.00000000	-12.64764000	1.99311000
144.49999160	0.00000000	-12.60458000	2.78051200
144.69999159	0.00000000	-12.22933000	3.53100400
144.89999157	0.00000000	-11.48499000	4.31840500
145.09999156	0.00000000	-11.15896000	4.69365100
145.29999155	0.00000000	-11.48499000	4.69365100
145.49999154	0.00000000	-12.22933000	4.31840500
145.69999153	0.00000000	-12.60458000	3.53100400
145.89999151	0.00000000	-12.64764000	2.78051200
146.09999150	0.00000000	-12.64764000	1.99311000
146.29999149	0.00000000	-12.64764000	1.61786400
146.49999148	0.00000000	-12.60458000	1.57480300
146.69999147	0.00000000	-12.22933000	1.61786400
146.89999146	0.00000000	-11.48499000	1.99311000
147.09999144	0.00000000	-11.10974000	2.73745100
147.29999143	0.00000000	-11.06668000	3.11269700
147.49999142	0.00000000	-11.10974000	3.19881900
147.69999141	0.00000000	-11.48499000	3.57406500
147.89999140	0.00000000	-12.22933000	4.26919300
148.09999138	0.00000000	-12.60458000	4.26919300
148.29999137	0.00000000	-12.64764000	3.57406500
148.49999136	0.00000000	-12.64764000	3.19881900
148.69999135	0.00000000	-12.64764000	3.11269700
148.89999134	0.00000000	-12.64764000	2.73745100
149.09999132	0.00000000	-12.60458000	2.04232300
149.29999131	0.00000000	-12.22933000	1.99311000
149.49999130	0.00000000	-11.48499000	2.36220500
149.69999129	0.00000000	-11.10974000	2.36835600
149.89999128	0.00000000	-11.06668000	2.78051200
150.09999127	0.00000000	-11.06668000	3.11269700
150.29999125	0.00000000	-11.06668000	3.19881900
150.49999124	0.00000000	-11.10974000	3.57406500
150.69999123	0.00000000	-11.48499000	4.26919300
150.89999122	0.00000000	-12.22933000	4.26919300
151.09999121	0.00000000	-12.60458000	3.57406500
151.29999119	0.00000000	-12.64764000	3.19881900
151.49999118	0.00000000	-12.64764000	3.15575800
151.69999117	0.00000000	-12.64764000	3.15575800
151.89999116	0.00000000	-12.60458000	3.15575800
152.09999115	0.00000000	-12.22933000	3.11269700
152.29999113	0.00000000	-11.48499000	2.78051200
152.49999112	0.00000000	-11.10974000	2.41141700
152.69999111	0.00000000	-11.06668000	2.78051200
152.89999110	0.00000000	-11.06668000	3.11269700
153.09999109	0.00000000	-11.06668000	3.15575800
153.29999108	0.00000000	-11.10974000	3.15575800
153.49999106	0.00000000	-11.48499000	3.15575800
153.69999105	0.00000000	-12.22933000	3.19881900
153.89999104	0.00000000	-12.60458000	3.53100400
154.09999103	0.00000000	-12.64764000	3.90009800
154.29999102	0.00000000	-12.64764000	3.53100400
154.49999100	0.00000000	-12.64764000	3.19881900
154.69999099	0.00000000	-12.64764000	3.15575800
154.89999098	0.00000000	-12.60458000	3.15575800
155.09999097	0.00000000	-12.22933000	3.15575800
155.29999096	0.00000000	-11.48499000	3.15575800
155.49999094	0.00000000	-11.10974000	3.15575800
155.69999093	0.00000000	-11.06668000	3.15575800
155.89999092	0.00000000	-11.06668000	3.15575800
156.09999091	0.00000000	-11.10974000	3.15575800
156.29999090	0.00000000	-11.48499000	3.19881900
156.49999089	0.00000000	-12.22933000	3.53100400
156.69999087	0.00000000	-12.60458000	3.94315900
156.89999086	0.00000000	-12.64764000	3.94931100
157.09999085	0.00000000	-12.64764000	4.31840500
157.29999084	0.00000000	-12.64764000	4.26919300
157.49999083	0.00000000	-12.64764000	3.57406500
157.69999081	0.00000000	-12.64764000	3.19881900
157.89999080	0.00000000	-12.60458000	3.15575800
158.09999079	0.00000000	-12.22933000	3.11269700
158.29999078	0.00000000	-11.48499000	2.73745100
158.49999077	0.00000000	-11.10974000	2.04232300
158.69999075	0.00000000	-11.06668000	2.04232300
158.89999074	0.00000000	-11.06668000	2.73745100
159.09999073	0.00000000	-11.06668000	3.15575800
159.29999072	0.00000000	-11.10974000	3.53100400
159.49999071	0.00000000	-11.48499000	3.94315900
159.69999070	0.00000000	-12.22933000	3.94931100
159.89999068	0.00000000	-12.60458000	4.36146600
160.09999067	0.00000000	-12.64764000	4.64443900
160.29999066	0.00000000	-12.64764000	4.31840500
160.49999065	0.00000000	-12.64764000	3.57406500
160.69999064	0.00000000	-12.64764000	3.19881900
160.89999062	0.00000000	-12.64764000	3.15575800
161.09999061	0.00000000	-12.60458000	3.15575800
161.29999060	0.00000000	-12.22933000	3.15575800
161.49999059	0.00000000	-11.48499000	3.15575800
161.69999058	0.00000000	-11.10974000	3.15575800
161.89999056	0.00000000	-11.06668000	3.15575800
162.09999055	0.00000000	-11.06668000	3.15575800
162.29999054	0.00000000	-11.06668000	3.15575800
162.49999053	0.00000000	-11.10974000	3.15575800
162.69999052	0.00000000	-11.48499000	3.15575800
162.89999051	0.00000000	-12.22933000	3.15575800
163.09999049	0.00000000	-12.60458000	3.15575800
163.29999048	0.00000000	-12.64764000	3.15575800
163.49999047	0.00000000	-12.64764000	3.15575800
163.69999046	0.00000000	-12.64764000	3.15575800
163.89999045	0.00000000	-12.64764000	3.15575800
164.09999043	0.00000000	-12.64764000	3.15575800
164.29999042	0.00000000	-12.64764000	3.11269700
164.49999041	0.00000000	-12.60458000	2.78051200
164.69999040	0.00000000	-12.22933000	2.41141700
164.89999039	0.00000000	-11.48499000	2.78051200
165.09999037	0.00000000	-11.10974000	3.11269700
165.29999036	0.00000000	-11.06668000	3.15575800
165.49999035	0.00000000	-11.06668000	3.15575800
165.69999034	0.00000000	-11.10974000	3.15575800
165.89999033	0.00000000	-11.48499000	3.15575800
166.09999032	0.00000000	-12.22933000	3.15575800
166.29999030	0.00000000	-12.60458000	3.15575800
166.49999029	0.00000000	-12.64764000	3.15575800
166.69999028	0.00000000	-12.64764000	3.15575800
166.89999027	0.00000000	-12.64764000	3.15575800
167.09999026	0.00000000	-12.60458000	3.15575800
167.29999024	0.00000000	-12.22933000	3.15575800
167.49999023	0.00000000	-11.48499000	3.15575800
167.69999022	0.00000000	-11.10974000	3.15575800
167.89999021	0.00000000	-11.06668000	3.15575800
168.09999020	0.00000000	-11.06668000	3.15575800
168.29999018	0.00000000	-11.06668000	3.15575800
168.49999017	0.00000000	-11.06668000	3.15575800
168.69999016	0.00000000	-11.10974000	3.15575800
168.89999015	0.00000000	-11.44193000	3.15575800
169.09999014	0.00000000	-11.85408000	3.15575800
169.29999013	0.00000000	-11.86024000	3.15575800
169.49999011	0.00000000	-12.27239000	3.15575800
169.69999010	0.00000000	-12.60458000	3.15575800
169.89999009	0.00000000	-12.64764000	3.15575800
170.09999008	0.00000000	-12.64764000	3.15575800
170.29999007	0.00000000	-12.60458000	3.15575800
170.49999005	0.00000000	-12.22933000	3.15575800
170.69999004	0.00000000	-11.48499000	3.15575800
170.89999003	0.00000000	-11.10974000	3.15575800
171.09999002	0.00000000	-11.06668000	3.15575800
171.29999001	0.00000000	-11.06668000	3.15575800
171.49998999	0.00000000	-11.06668000	3.15575800
171.69998998	0.00000000	-11.06668000	3.15575800
171.89998997	0.00000000	-11.10974000	3.15575800
172.09998996	0.00000000	-11.44193000	3.15575800
172.29998995	0.00000000	-11.85408000	3.15575800
172.49998994	0.00000000	-11.86024000	3.15575800
172.69998992	0.00000000	-12.22933000	3.15575800
172.89998991	0.00000000	-12.18012000	3.15575800
173.09998990	0.00000000	-11.53420000	3.15575800
173.29998989	0.00000000	-11.48499000	3.15575800
173.49998988	0.00000000	-11.81102000	3.15575800
173.69998986	0.00000000	-11.48499000	3.15575800
173.89998985	0.00000000	-11.48499000	3.15575800
174.09998984	0.00000000	-11.81102000	3.15575800
174.29998983	0.00000000	-11.44193000	3.15575800
174.49998982	0.00000000	-11.10974000	3.15575800
174.69998980	0.00000000	-11.06668000	3.15575800
174.89998979	0.00000000	-11.06668000	3.15575800
175.09998978	0.00000000	-11.10974000	3.15575800
175.29998977	0.00000000	-11.44193000	3.15575800
175.49998976	0.00000000	-11.85408000	3.15575800
175.69998975	0.00000000	-11.86024000	3.15575800
175.89998973	0.00000000	-12.22933000	3.15575800
176.09998972	0.00000000	-12.22933000	3.15575800
176.29998971	0.00000000	-11.86024000	3.15575800
176.49998970	0.00000000	-11.85408000	3.15575800
176.69998969	0.00000000	-11.44193000	3.15575800
176.89998967	0.00000000	-11.10974000	3.15575800
177.09998966	0.00000000	-11.06668000	3.15575800
177.29998965	0.00000000	-11.10974000	3.15575800
177.49998964	0.00000000	-11.44193000	3.15575800
177.69998963	0.00000000	-11.81102000	3.15575800
177.89998961	0.00000000	-11.48499000	3.15575800
178.09998960	0.00000000	-11.48499000	3.15575800
178.29998959	0.00000000	-11.85408000	3.15575800
178.49998958	0.00000000	-11.81717000	3.15575800
178.69998957	0.00000000	-11.85408000	3.15575800
178.89998956	0.00000000	-11.44193000	3.15575800
179.09998954	0.00000000	-11.10974000	3.15575800
179.29998953	0.00000000	-11.06668000	3.15575800
179.49998952	0.00000000	-11.06668000	3.15575800
179.69998951	0.00000000	-11.06668000	3.15575800
179.89998950	0.00000000	-11.06668000	3.15575800
180.09998948	0.00000000	-11.06668000	3.15575800
180.29998947	0.00000000	-11.10974000	3.15575800
180.49998946	0.00000000	-11.48499000	3.15575800
180.69998945	0.00000000	-12.22933000	3.15575800
180.89998944	0.00000000	-12.55536000	3.15575800
181.09998942	0.00000000	-12.22933000	3.15575800
181.29998941	0.00000000	-11.53420000	3.15575800
181.49998940	0.00000000	-11.48499000	3.15575800
181.69998939	0.00000000	-11.85408000	3.15575800
181.89998938	0.00000000	-11.81717000	3.15575800
182.09998937	0.00000000	-11.85408000	3.15575800
182.29998935	0.00000000	-11.44193000	3.15575800
182.49998934	0.00000000	-11.10974000	3.15575800
182.69998933	0.00000000	-11.06668000	3.15575800
182.89998932	0.00000000	-11.06668000	3.15575800
183.09998931	0.00000000	-11.06668000	3.15575800
183.29998929	0.00000000	-11.06668000	3.15575800
183.49998928	0.00000000	-11.06668000	3.15575800
183.69998927	0.00000000	-11.10974000	3.15575800
183.89998926	0.00000000	-11.48499000	3.15575800
184.09998925	0.00000000	-12.22933000	3.15575800
184.29998923	0.00000000	-12.60458000	3.15575800
184.49998922	0.00000000	-12.60458000	3.15575800
184.69998921	0.00000000	-12.22933000	3.19881900
184.89998920	0.00000000	-11.48499000	3.53100400
185.09998919	0.00000000	-11.10974000	3.90009800
185.29998918	0.00000000	-11.06668000	3.53100400
185.49998916	0.00000000	-11.06668000	3.19881900
185.69998915	0.00000000	-11.06668000	3.15575800
185.89998914	0.00000000	-11.06668000	3.15575800
186.09998913	0.00000000	-11.06668000	3.15575800
186.29998912	0.00000000	-11.06668000	3.15575800
186.49998910	0.00000000	-11.06668000	3.15575800
186.69998909	0.00000000	-11.06668000	3.15575800
186.89998908	0.00000000	-11.10974000	3.15575800
187.09998907	0.00000000	-11.48499000	3.15575800
187.29998906	0.00000000	-12.22933000	3.19881900
187.49998904	0.00000000	-12.55536000	3.57406500
187.69998903	0.00000000	-12.22933000	4.31840500
187.89998902	0.00000000	-11.48499000	4.64443900
188.09998901	0.00000000	-11.10974000	4.31840500
188.29998900	0.00000000	-11.06668000	3.57406500
188.49998899	0.00000000	-11.06668000	3.19881900
188.69998897	0.00000000	-11.06668000	3.15575800
188.89998896	0.00000000	-11.06668000	3.15575800
189.09998895	0.00000000	-11.06668000	3.15575800
189.29998894	0.00000000	-11.10974000	3.15575800
189.49998893	0.00000000	-11.44193000	3.15575800
189.69998891	0.00000000	-11.81102000	3.15575800
189.89998890	0.00000000	-11.48499000	3.15575800
190.09998889	0.00000000	-11.48499000	3.19881900
190.29998888	0.00000000	-11.81102000	3.57406500
190.49998887	0.00000000	-11.44193000	4.31840500
190.69998885	0.00000000	-11.10974000	4.69365100
190.89998884	0.00000000	-11.06668000	4.73671200
191.09998883	0.00000000	-11.06668000	4.69365100
191.29998882	0.00000000	-11.06668000	4.31840500
191.49998881	0.00000000	-11.06668000	3.57406500
191.69998880	0.00000000	-11.06668000	3.19881900
191.89998878	0.00000000	-11.06668000	3.15575800
192.09998877	0.00000000	-11.06668000	3.15575800
192.29998876	0.00000000	-11.06668000	3.15575800
192.49998875	0.00000000	-11.06668000	3.15575800
192.69998874	0.00000000	-11.10974000	3.15575800
192.89998872	0.00000000	-11.48499000	3.15575800
193.09998871	0.00000000	-12.22933000	3.15575800
193.29998870	0.00000000	-12.60458000	3.15575800
193.49998869	0.00000000	-12.60458000	3.15575800
193.69998868	0.00000000	-12.27239000	3.15575800
193.89998866	0.00000000	-11.86024000	3.19881900
194.09998865	0.00000000	-11.85408000	3.53100400
194.29998864	0.00000000	-11.44193000	3.90009800
194.49998863	0.00000000	-11.10974000	3.53100400
194.69998862	0.00000000	-11.06668000	3.19881900
194.89998861	0.00000000	-11.06668000	3.15575800
195.09998859	0.00000000	-11.06668000	3.15575800
195.29998858	0.00000000	-11.06668000	3.15575800
195.49998857	0.00000000	-11.06668000	3.15575800
195.69998856	0.00000000	-11.10974000	3.15575800
195.89998855	0.00000000	-11.48499000	3.15575800
196.09998853	0.00000000	-12.18012000	3.15575800
