Time	Channel A	Channel B	Channel C
(us)	(V)	(mV)	(mV)

-4.49999956	0.00000000	47.43479000	9.47342500
-4.29999957	0.00000000	47.43479000	9.47342500
-4.09999958	0.00000000	47.43479000	9.47342500
-3.89999959	0.00000000	47.43479000	9.47342500
-3.69999960	0.00000000	47.43479000	9.47342500
-3.49999962	0.00000000	47.43479000	9.47342500
-3.29999963	0.00000000	47.43479000	9.47342500
-3.09999964	0.00000000	47.43479000	9.47342500
-2.89999965	0.00000000	47.43479000	9.47342500
-2.69999966	0.00000000	47.43479000	9.47342500
-2.49999968	0.00000000	47.43479000	9.47342500
-2.29999969	0.00000000	47.43479000	9.47342500
-2.09999970	0.00000000	47.43479000	9.47342500
-1.89999971	0.00000000	47.39173000	9.47342500
-1.69999972	0.00000000	47.05954000	9.47342500
-1.49999973	0.00000000	46.69045000	9.47342500
-1.29999975	0.00000000	47.05954000	9.47342500
-1.09999976	0.00000000	47.39173000	9.47342500
-0.89999977	0.00000000	47.43479000	9.47342500
-0.69999978	0.00000000	47.43479000	9.47342500
-0.49999979	0.00000000	47.43479000	9.47342500
-0.29999981	0.31803640	47.43479000	9.47342500
-0.09999982	0.63668800	47.43479000	9.47342500
0.10000017	0.95533960	47.43479000	9.47342500
0.30000016	1.11466500	47.39173000	9.47342500
0.50000015	0.79601380	47.05954000	9.47342500
0.70000013	0.15871060	46.64739000	9.47342500
0.90000012	-0.63668800	46.68430000	9.47342500
1.10000011	-1.59264300	46.64739000	9.47342500
1.30000010	-2.38927200	47.05954000	9.47342500
1.50000009	-2.70792300	47.39173000	9.47342500
1.70000008	-2.38927200	47.43479000	9.47342500
1.90000006	-1.11466500	47.43479000	9.47342500
2.10000005	0.63668800	47.43479000	9.47342500
2.30000004	2.86724900	47.43479000	9.47342500
2.50000003	4.61921700	47.43479000	9.47342500
2.70000002	5.41584600	47.39173000	9.47342500
2.90000000	4.77854300	47.05954000	9.43036400
3.09999999	2.70792300	46.64739000	9.05511800
3.29999998	-0.47736220	46.64124000	8.35998900
3.49999997	-3.82258900	46.27214000	8.35998900
3.69999996	-6.69045300	46.32135000	9.05511800
3.89999994	-7.96444400	47.01648000	9.43036400
4.09999993	-7.32714100	47.39173000	9.51648500
4.29999992	-4.77854300	47.43479000	9.89173200
4.49999991	-0.63668800	47.43479000	10.58686000
4.69999990	3.82258900	47.43479000	10.58686000
4.89999989	7.48646600	47.43479000	9.89173200
5.09999987	9.39837600	47.39173000	9.51648500
5.29999986	8.92039900	47.05954000	9.47342500
5.49999985	6.21247500	46.64739000	9.47342500
5.69999984	1.91129400	46.64124000	9.43036400
5.89999983	-2.86724900	46.22908000	9.09817800
6.09999981	-6.84916400	45.89690000	8.72908400
6.29999980	-9.23905000	45.89690000	9.14124000
6.49999979	-9.23905000	46.27214000	9.84867000
6.69999978	-6.84916400	47.01648000	10.62992000
6.89999977	-2.86724900	47.39173000	10.95595000
7.09999975	1.43331700	47.43479000	10.62992000
7.29999974	5.09719500	47.43479000	9.89173200
7.49999973	7.32714100	47.43479000	9.51648500
7.69999972	7.64579200	47.39173000	9.47342500
7.89999971	5.89382400	47.01648000	9.47342500
8.09999970	3.02657500	46.32135000	9.43036400
8.29999968	-0.15871060	46.27214000	9.09817800
8.49999967	-3.02657500	46.59818000	8.72908400
8.69999966	-4.77854300	46.27214000	9.09817800
8.89999965	-5.09719500	46.32135000	9.43036400
9.09999964	-4.30056600	47.01648000	9.47342500
9.29999962	-2.54859700	47.39173000	9.47342500
9.49999961	-0.47736220	47.43479000	9.47342500
9.69999960	1.27399100	47.43479000	9.47342500
9.89999959	2.22994600	47.39173000	9.47342500
10.09999958	2.54859700	47.01648000	9.47342500
10.29999956	2.22994600	46.32135000	9.47342500
10.49999955	1.27399100	46.32135000	9.47342500
10.69999954	0.47736220	46.96727000	9.47342500
10.89999953	-0.31803640	47.01648000	9.47342500
11.09999952	-0.79601380	46.69045000	9.47342500
11.29999951	-0.95533960	47.01648000	9.47342500
11.49999949	-0.95533960	47.01648000	9.47342500
11.69999948	-0.63668800	46.64739000	9.47342500
11.89999947	-0.31803640	46.64124000	9.47342500
12.09999946	-0.15871060	46.22908000	9.47342500
12.29999945	-0.15871060	45.89690000	9.47342500
12.49999943	0.00000000	45.85384000	9.47342500
12.69999942	0.00000000	45.85384000	9.47342500
12.89999941	0.00000000	45.89690000	9.47342500
13.09999940	0.00000000	46.22908000	9.47342500
13.29999939	0.00000000	46.59818000	9.47342500
13.49999937	0.00000000	46.22908000	9.47342500
13.69999936	0.00000000	45.89690000	9.47342500
13.89999935	0.00000000	45.85384000	9.47342500
14.09999934	-0.15871060	45.85384000	9.47342500
14.29999933	-0.15871060	45.85384000	9.47342500
14.49999932	-0.15871060	45.85384000	9.47342500
14.69999930	0.00000000	45.85384000	9.47342500
14.89999929	0.00000000	45.85384000	9.47342500
15.09999928	0.00000000	45.85384000	9.47342500
15.29999927	0.00000000	45.85384000	9.47342500
15.49999926	0.00000000	45.85384000	9.47342500
15.69999924	0.00000000	45.85384000	9.47342500
15.89999923	0.00000000	45.85384000	9.47342500
16.09999922	0.00000000	45.85384000	9.47342500
16.29999921	0.00000000	45.85384000	9.47342500
16.49999920	-0.15871060	45.89690000	9.47342500
16.69999919	-0.15871060	46.27214000	9.47342500
16.89999917	-0.15871060	47.01648000	9.47342500
17.09999916	0.00000000	47.43479000	9.47342500
17.29999915	0.00000000	47.85310000	9.47342500
17.49999914	0.00000000	48.54823000	9.47342500
17.69999913	0.00000000	48.54823000	9.47342500
17.89999911	0.00000000	47.81004000	9.47342500
18.09999910	0.00000000	47.01648000	9.47342500
18.29999909	0.00000000	45.81078000	9.47342500
18.49999908	0.00000000	44.27288000	9.47342500
18.69999907	0.00000000	42.73499000	9.47342500
18.89999905	0.00000000	41.62155000	9.47342500
19.09999904	0.00000000	41.66461000	9.47342500
19.29999903	0.00000000	43.20251000	9.47342500
19.49999902	0.00000000	45.94611000	9.47342500
19.69999901	0.00000000	49.43405000	9.47342500
19.89999900	0.00000000	53.29109000	9.47342500
20.09999898	0.00000000	56.36687000	9.47342500
20.29999897	0.00000000	57.85556000	9.47342500
20.49999896	0.00000000	57.01894000	9.47342500
20.69999895	0.00000000	53.11269000	9.47342500
20.89999894	0.00000000	46.88115000	9.47342500
21.09999892	0.00000000	39.15477000	9.47342500
21.29999891	0.00000000	31.47761000	9.47342500
21.49999890	0.00000000	26.53789000	9.47342500
21.69999889	0.00000000	25.79970000	9.47342500
21.89999888	0.00000000	30.12426000	9.47342500
22.09999886	0.00000000	39.05635000	9.47342500
22.29999885	0.00000000	51.06422000	9.47342500
22.49999884	0.00000000	63.76107000	9.47342500
22.69999883	0.00000000	73.76968000	9.47342500
22.89999882	0.00000000	78.37721000	9.47342500
23.09999881	0.00000000	76.33489000	9.51648500
23.29999879	0.00000000	66.97834000	9.89173200
23.49999878	0.00000000	51.48868000	10.62992000
23.69999877	0.00000000	33.38459000	11.00517000
23.89999876	0.00000000	16.77534000	11.04823000
24.09999875	0.00000000	6.02239100	11.00517000
24.29999873	0.00000000	3.78937000	10.58686000
24.49999872	0.00000000	11.56496000	9.42421200
24.69999871	0.00000000	28.21112000	7.89247000
24.89999870	0.00000000	49.80930000	6.31151500
25.09999869	0.00000000	71.85654000	4.77977300
25.29999867	0.00000000	88.80413000	3.66633800
25.49999866	0.00000000	96.89345000	3.70939900
25.69999865	0.00000000	93.68848000	5.29035400
25.89999864	0.00000000	79.02928000	8.35998900
26.09999863	0.00000000	56.27460000	12.25394000
26.29999862	0.00000000	31.19464000	16.11712000
26.49999860	0.00000000	9.51648500	19.54970000
26.69999859	0.00000000	-3.98006900	21.04454000
26.89999858	0.00000000	-6.25615100	19.83883000
27.09999857	0.00000000	3.74630900	15.93258000
27.29999856	0.00000000	23.42520000	9.38115100
27.49999854	0.00000000	47.71776000	2.04232300
27.69999853	0.00000000	71.34595000	-4.55831700
27.89999852	0.00000000	88.71185000	-9.52263600
28.09999851	0.00000000	96.47514000	-10.96826000
28.29999850	0.00000000	92.66116000	-7.85556000
28.49999848	0.00000000	78.79552000	-0.46751960
28.69999847	0.00000000	58.73523000	9.98400600
28.89999846	0.00000000	36.68799000	21.54897000
29.09999845	0.00000000	18.11639000	31.53912000
29.29999844	0.00000000	6.44685000	37.30315000
29.49999843	0.00000000	3.70324800	37.26009000
29.69999841	0.00000000	10.21161000	31.03469000
29.89999840	0.00000000	23.70817000	19.42052000
30.09999839	0.00000000	41.11097000	4.73671200
30.29999838	0.00000000	58.50763000	-9.94094400
30.49999837	0.00000000	72.09646000	-21.51206000
30.69999835	0.00000000	79.49680000	-27.23302000
30.89999834	0.00000000	79.53986000	-25.27682000
31.09999833	0.00000000	72.65009000	-15.61270000
31.29999832	0.00000000	61.06668000	-0.55979330
31.49999831	0.00000000	47.52091000	16.86147000
31.69999829	0.00000000	34.73179000	33.07701000
31.89999828	0.00000000	25.42446000	44.64198000
32.09999827	0.00000000	21.09990000	48.86811000
32.29999826	0.00000000	22.21334000	44.64198000
32.49999825	0.00000000	28.03272000	33.07701000
32.69999824	0.00000000	37.29700000	16.81225000
32.89999822	0.00000000	48.08686000	-0.97810030
33.09999821	0.00000000	57.39419000	-16.77534000
33.29999820	0.00000000	63.62573000	-26.80856000
33.49999819	0.00000000	65.95103000	-28.80782000
33.69999818	0.00000000	63.62573000	-23.04995000
33.89999816	0.00000000	57.52953000	-11.06053000
34.09999815	0.00000000	49.43405000	4.82898600
34.29999814	0.00000000	41.70767000	21.41363000
34.49999813	0.00000000	35.85138000	35.30389000
34.69999812	0.00000000	32.77559000	43.02411000
34.89999810	0.00000000	33.15083000	43.06717000
35.09999809	0.00000000	36.96481000	35.77140000
35.29999808	0.00000000	42.73499000	23.03765000
35.49999807	0.00000000	48.88041000	8.02780400
35.69999806	0.00000000	53.90009000	-5.90551100
35.89999805	0.00000000	56.18848000	-15.52657000
36.09999803	0.00000000	55.48105000	-19.05143000
36.29999802	0.00000000	52.04232000	-15.56963000
36.49999801	0.00000000	47.43479000	-6.40994000
36.69999800	0.00000000	42.78420000	5.89320800
36.89999799	0.00000000	38.97022000	17.83957000
37.09999797	0.00000000	37.43233000	26.71629000
37.29999796	0.00000000	38.54576000	30.56717000
37.49999795	0.00000000	41.62155000	28.29109000
37.69999794	0.00000000	45.85384000	21.03838000
37.89999793	0.00000000	50.12918000	11.04823000
38.09999791	0.00000000	53.58022000	1.10728300
38.29999790	0.00000000	55.52411000	-5.81323800
38.49999789	0.00000000	55.11196000	-7.72022600
38.69999788	0.00000000	52.82972000	-4.27534400
38.89999787	0.00000000	48.97269000	3.75861200
39.09999786	0.00000000	44.69119000	13.65650000
39.29999784	0.00000000	40.82800000	22.06570000
39.49999783	0.00000000	37.71530000	26.29183000
39.69999782	0.00000000	36.59571000	25.17839000
39.89999781	0.00000000	37.29700000	19.42052000
40.09999780	0.00000000	39.66535000	10.58686000
40.29999778	0.00000000	43.15945000	1.01501000
40.49999777	0.00000000	47.43479000	-6.27460600
40.69999776	0.00000000	51.66707000	-9.34424200
40.89999775	0.00000000	54.78592000	-7.43725300
41.09999774	0.00000000	56.32381000	-0.93503930
41.29999772	0.00000000	55.94857000	7.94168200
41.49999771	0.00000000	53.62328000	17.18750000
41.69999770	0.00000000	50.12918000	24.80315000
41.89999769	0.00000000	45.85384000	27.87278000
42.09999768	0.00000000	41.66461000	25.68897000
42.29999767	0.00000000	38.92101000	19.88189000
42.49999765	0.00000000	38.08440000	11.79257000
42.69999764	0.00000000	38.45964000	2.97121000
42.89999763	0.00000000	40.04060000	-3.53715500
43.09999762	0.00000000	42.73499000	-6.32381900
43.29999761	0.00000000	45.81078000	-5.20423200
43.49999759	0.00000000	48.54823000	-1.02116100
43.69999758	0.00000000	50.46136000	4.73671200
43.89999757	0.00000000	51.24877000	10.53765000
44.09999756	0.00000000	50.55364000	15.18824000
44.29999755	0.00000000	49.48326000	17.92569000
44.49999753	0.00000000	49.01575000	18.30093000
44.69999752	0.00000000	48.59744000	16.43701000
44.89999751	0.00000000	47.85310000	12.96137000
45.09999750	0.00000000	47.43479000	9.14124000
45.29999749	0.00000000	46.96727000	5.66560000
45.49999748	0.00000000	45.76156000	3.70939900
45.69999746	0.00000000	43.80536000	3.24803100
45.89999745	0.00000000	41.11097000	3.66633800
46.09999744	0.00000000	38.41658000	5.24729300
46.29999743	0.00000000	36.54650000	7.89247000
46.49999742	0.00000000	36.18356000	10.58686000
46.69999740	0.00000000	38.17667000	12.49385000
46.89999739	0.00000000	42.03986000	13.32431000
47.09999738	0.00000000	47.52707000	12.96137000
47.29999737	0.00000000	53.66634000	12.16166000
47.49999736	0.00000000	59.01821000	10.58686000
47.69999734	0.00000000	61.66953000	8.31077700
47.89999733	0.00000000	60.50689000	6.36072800
48.09999732	0.00000000	55.85630000	4.82283400
48.29999731	0.00000000	48.50517000	4.08464600
48.49999730	0.00000000	39.99138000	4.87204700
48.69999729	0.00000000	32.30807000	6.77903500
48.89999727	0.00000000	27.33145000	9.47342500
49.09999726	0.00000000	27.00541000	12.16781000
49.29999725	0.00000000	31.56988000	14.11786000
49.49999724	0.00000000	39.66535000	15.27436000
49.69999723	0.00000000	48.92347000	15.23130000
49.89999721	0.00000000	57.48031000	13.69956000
50.09999720	0.00000000	63.58267000	10.96211000
50.29999719	0.00000000	65.48966000	7.47416300
50.49999718	0.00000000	62.00172000	3.66633800
50.69999717	0.00000000	54.41068000	1.01501000
50.89999715	0.00000000	45.10950000	0.59670270
51.09999714	0.00000000	36.63877000	2.12844500
51.29999713	0.00000000	30.45029000	5.19808000
51.49999712	0.00000000	28.58636000	9.09817800
51.69999711	0.00000000	31.61294000	12.96137000
51.89999710	0.00000000	38.50270000	16.39395000
52.09999708	0.00000000	46.96727000	17.92569000
52.29999707	0.00000000	54.65059000	17.18750000
52.49999706	0.00000000	59.67027000	14.85605000
52.69999705	0.00000000	60.46383000	11.00517000
52.89999704	0.00000000	57.39419000	6.82209600
53.09999702	0.00000000	51.24877000	3.70939900
53.29999701	0.00000000	43.57775000	2.12844500
53.49999700	0.00000000	37.10014000	2.12844500
53.69999699	0.00000000	33.56914000	3.66633800
53.89999698	0.00000000	33.93824000	6.31151500
54.09999696	0.00000000	37.38312000	9.05511800
54.29999695	0.00000000	43.15945000	11.33735000
54.49999694	0.00000000	49.66781000	12.90600000
54.69999693	0.00000000	54.65059000	12.86909000
54.89999692	0.00000000	57.01894000	11.79257000
55.09999691	0.00000000	56.23154000	9.84867000
55.29999689	0.00000000	52.78666000	7.98474400
55.49999688	0.00000000	47.39173000	6.82209600
55.69999687	0.00000000	41.66461000	6.82209600
55.89999686	0.00000000	37.43233000	7.98474400
56.09999685	0.00000000	35.85138000	9.84867000
56.29999683	0.00000000	36.96481000	11.70029000
56.49999682	0.00000000	40.04060000	12.07554000
56.69999681	0.00000000	44.31594000	10.96211000
56.89999680	0.00000000	48.92347000	9.00590400
57.09999679	0.00000000	52.73745000	6.31151500
57.29999677	0.00000000	54.27534000	3.66633800
57.49999676	0.00000000	53.20496000	2.12844500
57.69999675	0.00000000	50.55364000	2.17150600
57.89999674	0.00000000	47.43479000	4.12770700
58.09999673	0.00000000	44.31594000	7.98474400
58.29999672	0.00000000	41.62155000	12.58612000
58.49999670	0.00000000	40.08366000	16.81225000
58.69999669	0.00000000	40.08366000	19.46358000
58.89999668	0.00000000	41.62155000	19.46358000
59.09999667	0.00000000	44.27288000	16.72613000
59.29999666	0.00000000	46.92421000	11.74951000
59.49999664	0.00000000	48.50517000	5.57332700
59.69999663	0.00000000	48.92347000	0.17839570
59.89999662	0.00000000	48.54823000	-3.67249000
60.09999661	0.00000000	47.43479000	-4.74286400
60.29999660	0.00000000	46.27214000	-2.04847400
60.49999658	0.00000000	45.47859000	3.70939900
60.69999657	0.00000000	44.69119000	11.00517000
60.89999656	0.00000000	44.36515000	17.92569000
61.09999655	0.00000000	44.69119000	22.57628000
61.29999654	0.00000000	45.47859000	24.10802000
61.49999653	0.00000000	46.22908000	22.15797000
61.69999651	0.00000000	46.96727000	16.72613000
61.89999650	0.00000000	46.96727000	9.05511800
62.09999649	0.00000000	46.22908000	1.02116100
62.29999648	0.00000000	45.47859000	-4.78592500
62.49999647	0.00000000	44.64813000	-7.11122000
62.69999645	0.00000000	43.89763000	-5.99163300
62.89999644	0.00000000	43.15945000	-1.30413400
63.09999643	0.00000000	43.20251000	5.57332700
63.29999642	0.00000000	44.31594000	13.33046000
63.49999641	0.00000000	45.85384000	19.83883000
63.69999639	0.00000000	47.39173000	23.68971000
63.89999638	0.00000000	48.50517000	23.73892000
64.09999637	0.00000000	48.50517000	20.30020000
64.29999636	0.00000000	47.39173000	14.90526000
64.49999635	0.00000000	45.89690000	8.31077700
64.69999634	0.00000000	44.69119000	2.17765700
64.89999632	0.00000000	43.89763000	-2.09768700
65.09999631	0.00000000	43.15945000	-3.67249000
65.29999630	0.00000000	43.15945000	-2.55905500
65.49999629	0.00000000	43.89763000	0.51058070
65.69999628	0.00000000	44.69119000	4.77977300
65.89999626	0.00000000	45.85384000	9.43036400
66.09999625	0.00000000	46.96727000	13.69956000
66.29999624	0.00000000	47.34252000	16.81225000
66.49999623	0.00000000	46.96727000	18.39321000
66.69999622	0.00000000	45.81078000	18.39321000
66.89999620	0.00000000	44.31594000	16.85531000
67.09999619	0.00000000	43.15945000	14.16092000
67.29999618	0.00000000	42.82726000	11.04823000
67.49999617	0.00000000	43.57775000	7.89247000
67.69999616	0.00000000	45.52165000	4.77977300
67.89999615	0.00000000	47.81004000	2.08538400
68.09999613	0.00000000	50.08612000	0.51058070
68.29999612	0.00000000	51.20571000	0.09227362
68.49999611	0.00000000	50.46136000	0.51058070
68.69999610	0.00000000	48.50517000	2.12844500
68.89999609	0.00000000	45.38631000	5.24729300
69.09999607	0.00000000	41.57849000	9.51648500
69.29999606	0.00000000	38.45964000	14.11786000
69.49999605	0.00000000	36.54650000	17.97490000
69.69999604	0.00000000	36.22662000	19.93110000
69.89999603	0.00000000	38.54576000	19.93110000
70.09999601	0.00000000	42.73499000	17.93184000
70.29999600	0.00000000	47.43479000	13.69956000
70.49999599	0.00000000	52.08538000	8.31077700
70.69999598	0.00000000	55.85630000	3.29109200
70.89999597	0.00000000	57.01894000	-0.60285430
71.09999596	0.00000000	55.11196000	-2.50984200
71.29999594	0.00000000	51.24877000	-2.14074800
71.49999593	0.00000000	45.81078000	0.59670270
71.69999592	0.00000000	40.04060000	5.15501900
71.89999591	0.00000000	35.38385000	10.16855000
72.09999590	0.00000000	32.68332000	14.07480000
72.29999588	0.00000000	32.73252000	16.76919000
72.49999587	0.00000000	35.80217000	17.50738000
72.69999586	0.00000000	41.15403000	15.64960000
72.89999585	0.00000000	46.96727000	12.62918000
73.09999584	0.00000000	51.99926000	9.51648500
73.29999582	0.00000000	55.52411000	6.82209600
73.49999581	0.00000000	56.64985000	5.24729300
73.69999580	0.00000000	55.52411000	4.82898600
73.89999579	0.00000000	52.04232000	5.19808000
74.09999578	0.00000000	47.43479000	6.36072800
74.29999577	0.00000000	42.78420000	7.84940900
74.49999575	0.00000000	38.92101000	8.96284400
74.69999574	0.00000000	36.96481000	8.96284400
74.89999573	0.00000000	36.96481000	7.89247000
75.09999572	0.00000000	38.87795000	6.77903500
75.29999571	0.00000000	42.31668000	6.35457700
75.49999569	0.00000000	45.76156000	6.40378900
75.69999568	0.00000000	48.50517000	7.24040300
75.89999567	0.00000000	50.04306000	9.55954600
76.09999566	0.00000000	50.08612000	12.53691000
76.29999565	0.00000000	48.97269000	14.85605000
76.49999563	0.00000000	47.47785000	15.60654000
76.69999562	0.00000000	46.27214000	14.85605000
76.89999561	0.00000000	45.47859000	12.49385000
77.09999560	0.00000000	44.69119000	9.00590400
77.29999559	0.00000000	44.36515000	4.73671200
77.49999558	0.00000000	44.64813000	0.55364170
77.69999556	0.00000000	45.01722000	-2.09153500
77.89999555	0.00000000	44.60506000	-2.09153500
78.09999554	0.00000000	43.89763000	0.59670270
78.29999553	0.00000000	43.11023000	5.24729300
78.49999552	0.00000000	42.73499000	10.96211000
78.69999550	0.00000000	42.73499000	16.01870000
78.89999549	0.00000000	43.15945000	19.09449000
79.09999548	0.00000000	44.36515000	20.29404000
79.29999547	0.00000000	46.27214000	18.71924000
79.49999546	0.00000000	48.54823000	15.27436000
79.69999544	0.00000000	50.08612000	10.62992000
79.89999543	0.00000000	50.46136000	5.61638700
80.09999542	0.00000000	49.66781000	1.71013800
80.29999541	0.00000000	47.39173000	-0.97810030
80.49999540	0.00000000	44.69119000	-1.71628900
80.69999539	0.00000000	42.35974000	0.13533460
80.89999537	0.00000000	40.41584000	3.19881900
81.09999536	0.00000000	39.70842000	6.77903500
81.29999535	0.00000000	40.41584000	10.95595000
81.49999534	0.00000000	42.35974000	14.43775000
81.69999533	0.00000000	44.64813000	16.02485000
81.89999531	0.00000000	47.01648000	16.48007000
82.09999530	0.00000000	48.92347000	15.64960000
82.29999529	0.00000000	50.08612000	13.79183000
82.49999528	0.00000000	50.08612000	11.42347000
82.69999527	0.00000000	48.92347000	9.05511800
82.89999525	0.00000000	47.01648000	6.31151500
83.09999524	0.00000000	44.69119000	3.61712600
83.29999523	0.00000000	42.78420000	1.66707700
83.49999522	0.00000000	41.62155000	0.55364170
83.69999521	0.00000000	41.62155000	0.97194880
83.89999520	0.00000000	42.69193000	3.24803100
84.09999518	0.00000000	43.80536000	6.31151500
84.29999517	0.00000000	44.27288000	9.47342500
84.49999516	0.00000000	44.69119000	12.58612000
84.69999515	0.00000000	45.43553000	15.27436000
84.89999514	0.00000000	45.81078000	16.81225000
85.09999512	0.00000000	45.81078000	16.76919000
85.29999511	0.00000000	45.47859000	14.81299000
85.49999510	0.00000000	45.15871000	10.95595000
85.69999509	0.00000000	45.85384000	6.35457700
85.89999508	0.00000000	46.54896000	2.12844500
86.09999506	0.00000000	46.22908000	-0.60285430
86.29999505	0.00000000	45.85384000	-1.39640700
86.49999504	0.00000000	45.38631000	-0.55979330
86.69999503	0.00000000	44.22982000	2.55290300
86.89999502	0.00000000	42.73499000	7.51722400
87.09999501	0.00000000	41.62155000	12.49385000
87.29999499	0.00000000	41.57849000	16.39395000
87.49999498	0.00000000	42.35974000	18.30093000
87.69999497	0.00000000	43.52854000	17.92569000
87.89999496	0.00000000	45.43553000	15.18824000
88.09999495	0.00000000	46.96727000	10.58686000
88.29999493	0.00000000	47.76698000	5.24729300
88.49999492	0.00000000	48.17913000	1.02116100
88.69999491	0.00000000	47.76698000	-0.97810030
88.89999490	0.00000000	47.01648000	-0.97810030
89.09999489	0.00000000	45.81078000	1.02116100
89.29999487	0.00000000	44.27288000	5.24729300
89.49999486	0.00000000	42.78420000	10.58686000
89.69999485	0.00000000	41.99680000	15.18824000
89.89999484	0.00000000	42.35974000	17.92569000
90.09999483	0.00000000	43.11023000	18.25787000
90.29999482	0.00000000	44.27288000	15.97564000
90.49999480	0.00000000	45.38631000	11.33120000
90.69999479	0.00000000	45.81078000	5.98548200
90.89999478	0.00000000	45.85384000	1.01501000
91.09999477	0.00000000	45.85384000	-1.67322800
91.29999476	0.00000000	45.81078000	-1.31028500
91.49999474	0.00000000	45.47859000	1.39025600
91.69999473	0.00000000	45.10950000	6.40378900
91.89999472	0.00000000	45.47859000	12.07554000
92.09999471	0.00000000	45.81078000	16.35089000
92.29999470	0.00000000	45.85384000	18.30093000
92.49999468	0.00000000	45.81078000	17.92569000
92.69999467	0.00000000	45.43553000	15.18824000
92.89999466	0.00000000	44.64813000	10.58686000
93.09999465	0.00000000	43.85457000	5.24729300
93.29999464	0.00000000	42.69193000	1.02116100
93.49999463	0.00000000	41.62155000	-0.93503930
93.69999461	0.00000000	41.62155000	-0.51673230
93.89999460	0.00000000	42.73499000	2.55290300
94.09999459	0.00000000	44.36515000	7.51722400
94.29999458	0.00000000	46.64739000	12.45079000
94.49999457	0.00000000	49.29256000	15.92642000
94.69999455	0.00000000	50.46136000	16.71998000
94.89999454	0.00000000	50.50443000	15.23130000
95.09999453	0.00000000	49.71087000	12.16166000
95.29999452	0.00000000	47.71776000	8.31077700
95.49999451	0.00000000	45.01722000	4.82283400
95.69999449	0.00000000	41.52928000	2.12844500
95.89999448	0.00000000	38.50270000	1.01501000
96.09999447	0.00000000	36.96481000	2.12844500
96.29999446	0.00000000	37.34006000	4.82283400
96.49999445	0.00000000	39.62229000	8.26771600
96.69999444	0.00000000	42.73499000	11.70029000
96.89999442	0.00000000	46.22908000	13.61343000
97.09999441	0.00000000	49.71087000	13.69956000
97.29999440	0.00000000	52.04232000	12.53691000
97.49999439	0.00000000	53.20496000	10.62992000
97.69999438	0.00000000	52.78666000	8.31077700
97.89999436	0.00000000	50.46136000	6.40378900
98.09999435	0.00000000	46.96727000	5.24729300
98.29999434	0.00000000	42.73499000	5.19808000
98.49999433	0.00000000	38.92101000	5.93626900
98.69999432	0.00000000	36.92175000	6.72982200
98.89999430	0.00000000	36.50344000	7.89247000
99.09999429	0.00000000	37.34006000	9.00590400
99.29999428	0.00000000	40.04060000	9.43036400
99.49999427	0.00000000	43.85457000	9.47342500
99.69999426	0.00000000	47.34252000	9.51648500
99.89999425	0.00000000	50.08612000	9.89173200
100.09999423	0.00000000	51.66707000	10.62992000
100.29999422	0.00000000	52.04232000	11.00517000
100.49999421	0.00000000	51.24877000	11.00517000
100.69999420	0.00000000	48.92347000	10.58686000
100.89999419	0.00000000	45.85384000	9.42421200
101.09999417	0.00000000	42.73499000	7.89247000
101.29999416	0.00000000	40.04060000	6.31151500
101.49999415	0.00000000	38.50270000	4.77977300
101.69999414	0.00000000	38.45964000	3.66633800
101.89999413	0.00000000	39.62229000	3.66633800
102.09999411	0.00000000	41.52928000	4.82283400
102.29999410	0.00000000	43.85457000	6.77903500
102.49999409	0.00000000	45.85384000	9.47342500
102.69999408	0.00000000	47.76698000	12.16781000
102.89999407	0.00000000	49.29256000	14.07480000
103.09999406	0.00000000	49.29871000	14.85605000
103.29999404	0.00000000	48.59744000	14.03174000
103.49999403	0.00000000	47.34252000	11.74951000
103.69999402	0.00000000	45.43553000	8.26771600
103.89999401	0.00000000	43.11023000	4.87204700
104.09999400	0.00000000	41.20325000	2.50369100
104.29999398	0.00000000	40.04060000	1.75319900
104.49999397	0.00000000	40.04060000	2.50369100
104.69999396	0.00000000	41.15403000	4.82283400
104.89999395	0.00000000	42.69193000	7.84940900
105.09999394	0.00000000	44.27288000	10.58686000
105.29999392	0.00000000	45.81078000	12.53691000
105.49999391	0.00000000	46.92421000	13.69956000
105.69999390	0.00000000	46.96727000	13.65650000
105.89999389	0.00000000	46.22908000	12.11860000
106.09999388	0.00000000	45.43553000	9.47342500
106.29999387	0.00000000	44.27288000	6.77903500
106.49999385	0.00000000	43.15945000	4.87204700
106.69999384	0.00000000	42.73499000	4.08464600
106.89999383	0.00000000	42.73499000	4.82283400
107.09999382	0.00000000	43.15945000	6.31151500
107.29999381	0.00000000	44.27288000	7.89247000
107.49999379	0.00000000	45.38631000	9.47342500
107.69999378	0.00000000	45.81078000	10.96211000
107.89999377	0.00000000	45.85384000	11.70029000
108.09999376	0.00000000	45.81078000	10.96211000
108.29999375	0.00000000	45.38631000	9.47342500
108.49999374	0.00000000	44.22982000	7.89247000
108.69999372	0.00000000	42.73499000	6.36072800
108.89999371	0.00000000	41.62155000	5.24729300
109.09999370	0.00000000	41.62155000	5.24729300
109.29999369	0.00000000	42.69193000	6.36072800
109.49999368	0.00000000	43.85457000	7.89247000
109.69999366	0.00000000	44.69119000	9.47342500
109.89999365	0.00000000	45.85384000	11.00517000
110.09999364	0.00000000	46.96727000	12.11860000
110.29999363	0.00000000	47.34252000	12.11860000
110.49999362	0.00000000	46.96727000	11.00517000
110.69999360	0.00000000	45.81078000	9.47342500
110.89999359	0.00000000	44.31594000	7.89247000
111.09999358	0.00000000	43.15945000	6.36072800
111.29999357	0.00000000	42.73499000	5.19808000
111.49999356	0.00000000	42.69193000	4.82898600
111.69999355	0.00000000	42.73499000	5.15501900
111.89999353	0.00000000	43.11023000	5.98548200
112.09999352	0.00000000	43.89763000	7.10506800
112.29999351	0.00000000	44.60506000	8.58759800
112.49999350	0.00000000	45.06028000	9.00590400
112.69999349	0.00000000	45.06644000	8.72908400
112.89999347	0.00000000	45.47859000	9.14124000
113.09999346	0.00000000	45.76156000	9.75639700
113.29999345	0.00000000	45.43553000	9.79330600
113.49999344	0.00000000	44.69119000	8.68602300
113.69999343	0.00000000	44.31594000	7.98474400
113.89999341	0.00000000	44.27288000	7.89247000
114.09999340	0.00000000	44.27288000	7.84940900
114.29999339	0.00000000	44.27288000	7.47416300
114.49999338	0.00000000	44.27288000	6.72982200
114.69999337	0.00000000	44.27288000	6.35457700
114.89999336	0.00000000	44.27288000	6.31151500
115.09999334	0.00000000	44.27288000	6.35457700
115.29999333	0.00000000	44.27288000	6.72982200
115.49999332	0.00000000	44.27288000	7.47416300
115.69999331	0.00000000	44.27288000	7.89247000
115.89999330	0.00000000	44.27288000	8.31077700
116.09999328	0.00000000	44.27288000	9.09817800
116.29999327	0.00000000	44.27288000	9.84867000
116.49999326	0.00000000	44.22982000	10.58686000
116.69999325	0.00000000	43.89763000	10.58686000
116.89999324	0.00000000	43.52854000	9.84867000
117.09999322	0.00000000	43.89763000	9.05511800
117.29999321	0.00000000	44.22982000	7.89247000
117.49999320	0.00000000	44.31594000	6.77903500
117.69999319	0.00000000	44.69119000	6.35457700
117.89999318	0.00000000	45.43553000	6.31151500
118.09999317	0.00000000	45.81078000	6.31151500
118.29999315	0.00000000	45.81078000	6.35457700
118.49999314	0.00000000	45.38631000	6.72982200
118.69999313	0.00000000	44.27288000	7.51722400
118.89999312	0.00000000	43.11023000	8.31077700
119.09999311	0.00000000	42.31668000	9.42421200
119.29999309	0.00000000	41.52928000	10.16855000
119.49999308	0.00000000	41.20325000	9.84867000
119.69999307	0.00000000	41.57849000	9.51648500
119.89999306	0.00000000	42.73499000	9.43036400
120.09999305	0.00000000	44.22982000	9.05511800
120.29999303	0.00000000	45.43553000	8.26771600
120.49999302	0.00000000	46.22908000	7.51722400
120.69999301	0.00000000	46.96727000	6.72982200
120.89999300	0.00000000	46.96727000	6.35457700
121.09999299	0.00000000	46.22908000	6.35457700
121.29999298	0.00000000	45.43553000	6.68676100
121.49999296	0.00000000	44.22982000	7.09891700
121.69999295	0.00000000	42.73499000	7.10506800
121.89999294	0.00000000	41.57849000	7.56028500
122.09999293	0.00000000	41.15403000	8.26771600
122.29999292	0.00000000	41.15403000	9.05511800
122.49999290	0.00000000	41.57849000	9.43036400
122.69999289	0.00000000	42.69193000	9.47342500
122.89999288	0.00000000	43.85457000	9.47342500
123.09999287	0.00000000	44.69119000	9.47342500
123.29999286	0.00000000	45.85384000	9.43036400
123.49999284	0.00000000	46.92421000	9.05511800
123.69999283	0.00000000	46.96727000	8.31077700
123.89999282	0.00000000	46.22908000	7.89247000
124.09999281	0.00000000	45.47859000	7.47416300
124.29999280	0.00000000	44.64813000	6.72982200
124.49999279	0.00000000	43.85457000	6.40378900
124.69999277	0.00000000	42.69193000	6.72982200
124.89999276	0.00000000	41.57849000	7.47416300
125.09999275	0.00000000	41.20325000	7.89247000
125.29999274	0.00000000	41.52928000	8.31077700
125.49999273	0.00000000	42.27362000	9.05511800
125.69999271	0.00000000	42.69193000	9.43036400
125.89999270	0.00000000	43.15945000	9.47342500
126.09999269	0.00000000	44.31594000	9.51648500
126.29999268	0.00000000	45.76156000	9.79945900
126.49999267	0.00000000	46.54896000	9.79330600
126.69999265	0.00000000	46.18602000	8.68602300
126.89999264	0.00000000	45.47859000	7.93553100
127.09999263	0.00000000	44.64813000	7.47416300
127.29999262	0.00000000	43.85457000	6.72982200
127.49999261	0.00000000	42.69193000	6.40378900
127.69999260	0.00000000	41.57849000	6.72982200
127.89999258	0.00000000	41.20325000	7.47416300
128.09999257	0.00000000	41.52928000	7.84940900
128.29999256	0.00000000	42.31668000	7.93553100
128.49999255	0.00000000	43.11023000	8.31077700
128.69999254	0.00000000	44.27288000	9.00590400
128.89999252	0.00000000	45.38631000	9.00590400
129.09999251	0.00000000	45.81078000	8.31077700
129.29999250	0.00000000	45.81078000	7.93553100
129.49999249	0.00000000	45.38631000	7.89247000
129.69999248	0.00000000	44.27288000	7.89247000
129.89999246	0.00000000	43.11023000	7.89247000
130.09999245	0.00000000	42.35974000	7.89247000
130.29999244	0.00000000	41.94759000	7.89247000
130.49999243	0.00000000	42.31668000	7.89247000
130.69999242	0.00000000	42.69193000	7.93553100
130.89999241	0.00000000	43.11023000	8.31077700
131.09999239	0.00000000	43.89763000	9.00590400
131.29999238	0.00000000	44.64813000	9.00590400
131.49999237	0.00000000	45.38631000	8.31077700
131.69999236	0.00000000	45.38631000	7.89247000
131.89999235	0.00000000	44.69119000	7.47416300
132.09999233	0.00000000	44.27288000	6.72982200
132.29999232	0.00000000	43.85457000	6.35457700
132.49999231	0.00000000	43.11023000	6.35457700
132.69999230	0.00000000	42.73499000	6.72982200
132.89999229	0.00000000	42.69193000	7.51722400
133.09999227	0.00000000	42.73499000	8.26771600
133.29999226	0.00000000	43.11023000	9.05511800
133.49999225	0.00000000	43.85457000	9.43036400
133.69999224	0.00000000	44.22982000	9.47342500
133.89999223	0.00000000	44.27288000	9.43036400
134.09999222	0.00000000	44.27288000	9.00590400
134.29999220	0.00000000	44.22982000	7.89247000
134.49999219	0.00000000	43.89763000	6.77903500
134.69999218	0.00000000	43.52854000	6.35457700
134.89999217	0.00000000	43.89763000	6.31151500
135.09999216	0.00000000	44.22982000	6.31151500
135.29999214	0.00000000	44.27288000	6.35457700
135.49999213	0.00000000	44.27288000	6.72982200
135.69999212	0.00000000	44.22982000	7.51722400
135.89999211	0.00000000	43.85457000	8.26771600
136.09999210	0.00000000	43.11023000	9.05511800
136.29999208	0.00000000	42.73499000	9.43036400
136.49999207	0.00000000	42.69193000	9.47342500
136.69999206	0.00000000	42.69193000	9.43036400
136.89999205	0.00000000	42.73499000	9.05511800
137.09999204	0.00000000	43.11023000	8.26771600
137.29999203	0.00000000	43.85457000	7.51722400
137.49999201	0.00000000	44.27288000	6.72982200
137.69999200	0.00000000	44.64813000	6.35457700
137.89999199	0.00000000	45.01722000	6.31151500
138.09999198	0.00000000	44.64813000	6.31151500
138.29999197	0.00000000	44.27288000	6.31151500
138.49999195	0.00000000	43.85457000	6.35457700
138.69999194	0.00000000	43.11023000	6.72982200
138.89999193	0.00000000	42.73499000	7.51722400
139.09999192	0.00000000	42.69193000	8.26771600
139.29999191	0.00000000	42.69193000	9.05511800
139.49999189	0.00000000	42.73499000	9.43036400
139.69999188	0.00000000	43.11023000	9.47342500
139.89999187	0.00000000	43.85457000	9.43036400
140.09999186	0.00000000	44.22982000	9.00590400
140.29999185	0.00000000	44.27288000	7.89247000
140.49999184	0.00000000	44.27288000	6.77903500
140.69999182	0.00000000	44.27288000	6.35457700
140.89999181	0.00000000	44.22982000	6.31151500
141.09999180	0.00000000	43.85457000	6.35457700
141.29999179	0.00000000	43.11023000	6.72982200
141.49999178	0.00000000	42.73499000	7.51722400
141.69999176	0.00000000	42.69193000	8.26771600
141.89999175	0.00000000	42.73499000	9.05511800
142.09999174	0.00000000	43.11023000	9.43036400
142.29999173	0.00000000	43.85457000	9.47342500
142.49999172	0.00000000	44.22982000	9.43036400
142.69999170	0.00000000	44.27288000	9.05511800
142.89999169	0.00000000	44.22982000	8.26771600
143.09999168	0.00000000	43.85457000	7.51722400
143.29999167	0.00000000	43.11023000	6.72982200
143.49999166	0.00000000	42.73499000	6.35457700
143.69999165	0.00000000	42.69193000	6.31151500
143.89999163	0.00000000	42.69193000	6.31151500
144.09999162	0.00000000	42.73499000	6.35457700
144.29999161	0.00000000	43.11023000	6.72982200
144.49999160	0.00000000	43.85457000	7.51722400
144.69999159	0.00000000	44.22982000	8.26771600
144.89999157	0.00000000	44.27288000	9.05511800
145.09999156	0.00000000	44.22982000	9.38115100
145.29999155	0.00000000	43.85457000	9.05511800
145.49999154	0.00000000	43.11023000	8.31077700
145.69999153	0.00000000	42.73499000	7.89247000
145.89999151	0.00000000	42.69193000	7.47416300
146.09999150	0.00000000	42.69193000	6.72982200
146.29999149	0.00000000	42.69193000	6.35457700
146.49999148	0.00000000	42.73499000	6.31151500
146.69999147	0.00000000	43.11023000	6.35457700
146.89999146	0.00000000	43.85457000	6.72982200
147.09999144	0.00000000	44.22982000	7.47416300
147.29999143	0.00000000	44.27288000	7.89247000
147.49999142	0.00000000	44.22982000	8.31077700
147.69999141	0.00000000	43.85457000	9.05511800
147.89999140	0.00000000	43.11023000	9.38115100
148.09999138	0.00000000	42.73499000	9.05511800
148.29999137	0.00000000	42.69193000	8.31077700
148.49999136	0.00000000	42.69193000	7.93553100
148.69999135	0.00000000	42.69193000	7.84940900
148.89999134	0.00000000	42.69193000	7.47416300
149.09999132	0.00000000	42.69193000	6.72982200
149.29999131	0.00000000	42.73499000	6.40378900
149.49999130	0.00000000	43.11023000	6.72982200
149.69999129	0.00000000	43.80536000	7.47416300
149.89999128	0.00000000	43.85457000	7.80019600
150.09999127	0.00000000	43.52854000	7.51722400
150.29999125	0.00000000	43.85457000	7.19734200
150.49999124	0.00000000	43.80536000	7.89247000
150.69999123	0.00000000	43.11023000	8.58759800
150.89999122	0.00000000	42.73499000	8.26771600
151.09999121	0.00000000	42.69193000	7.93553100
151.29999119	0.00000000	42.69193000	7.89247000
151.49999118	0.00000000	42.69193000	7.89247000
151.69999117	0.00000000	42.69193000	7.84940900
151.89999116	0.00000000	42.69193000	7.47416300
152.09999115	0.00000000	42.69193000	6.72982200
152.29999113	0.00000000	42.73499000	6.40378900
152.49999112	0.00000000	43.11023000	6.72982200
152.69999111	0.00000000	43.85457000	7.47416300
152.89999110	0.00000000	44.22982000	7.84940900
153.09999109	0.00000000	44.27288000	7.89247000
153.29999108	0.00000000	44.22982000	7.89247000
153.49999106	0.00000000	43.85457000	7.89247000
153.69999105	0.00000000	43.11023000	7.89247000
153.89999104	0.00000000	42.73499000	7.89247000
154.09999103	0.00000000	42.64886000	7.84940900
154.29999102	0.00000000	42.27362000	7.51722400
154.49999100	0.00000000	41.57849000	7.14812900
154.69999099	0.00000000	41.57849000	7.51722400
154.89999098	0.00000000	42.27362000	7.80019600
155.09999097	0.00000000	42.69193000	7.51722400
155.29999096	0.00000000	43.11023000	7.14812900
155.49999094	0.00000000	43.85457000	7.51722400
155.69999093	0.00000000	44.22982000	7.84940900
155.89999092	0.00000000	44.27288000	7.89247000
156.09999091	0.00000000	44.22982000	7.89247000
156.29999090	0.00000000	43.80536000	7.89247000
156.49999089	0.00000000	42.73499000	7.89247000
156.69999087	0.00000000	41.99680000	7.89247000
156.89999086	0.00000000	42.27362000	7.89247000
157.09999085	0.00000000	42.27362000	7.89247000
157.29999084	0.00000000	41.94759000	7.89247000
157.49999083	0.00000000	42.31668000	7.89247000
157.69999081	0.00000000	42.64886000	7.89247000
157.89999080	0.00000000	42.69193000	7.84940900
158.09999079	0.00000000	42.73499000	7.47416300
158.29999078	0.00000000	43.11023000	6.72982200
158.49999077	0.00000000	43.85457000	6.35457700
158.69999075	0.00000000	44.18061000	6.35457700
158.89999074	0.00000000	43.85457000	6.72982200
159.09999073	0.00000000	43.11023000	7.47416300
159.29999072	0.00000000	42.73499000	7.89247000
159.49999071	0.00000000	42.69193000	8.26771600
159.69999070	0.00000000	42.69193000	8.63681000
159.89999068	0.00000000	42.69193000	8.31077700
160.09999067	0.00000000	42.69193000	8.31077700
160.29999066	0.00000000	42.69193000	8.63681000
160.49999065	0.00000000	42.69193000	8.22465500
160.69999064	0.00000000	42.69193000	7.51722400
160.89999062	0.00000000	42.69193000	6.72982200
161.09999061	0.00000000	42.69193000	6.35457700
161.29999060	0.00000000	42.69193000	6.31151500
161.49999059	0.00000000	42.69193000	6.35457700
161.69999058	0.00000000	42.69193000	6.72982200
161.89999056	0.00000000	42.73499000	7.47416300
162.09999055	0.00000000	43.06717000	7.84940900
162.29999054	0.00000000	43.43627000	7.89247000
162.49999053	0.00000000	43.06717000	7.89247000
162.69999052	0.00000000	42.73499000	7.89247000
162.89999051	0.00000000	42.69193000	7.89247000
163.09999049	0.00000000	42.69193000	7.89247000
163.29999048	0.00000000	42.69193000	7.89247000
163.49999047	0.00000000	42.64886000	7.89247000
163.69999046	0.00000000	42.31668000	7.89247000
163.89999045	0.00000000	41.94759000	7.89247000
164.09999043	0.00000000	42.31668000	7.89247000
164.29999042	0.00000000	42.64886000	7.89247000
164.49999041	0.00000000	42.73499000	7.89247000
164.69999040	0.00000000	43.11023000	7.89247000
164.89999039	0.00000000	43.80536000	7.89247000
165.09999037	0.00000000	43.85457000	7.89247000
165.29999036	0.00000000	43.48548000	7.89247000
165.49999035	0.00000000	43.47933000	7.89247000
165.69999034	0.00000000	43.06717000	7.89247000
165.89999033	0.00000000	42.73499000	7.89247000
166.09999032	0.00000000	42.69193000	7.89247000
166.29999030	0.00000000	42.69193000	7.89247000
166.49999029	0.00000000	42.64886000	7.89247000
166.69999028	0.00000000	42.31668000	7.89247000
166.89999027	0.00000000	41.94759000	7.89247000
167.09999026	0.00000000	42.31668000	7.84940900
167.29999024	0.00000000	42.64886000	7.47416300
167.49999023	0.00000000	42.69193000	6.77903500
167.69999022	0.00000000	42.69193000	6.72982200
167.89999021	0.00000000	42.69193000	7.09891700
168.09999020	0.00000000	42.73499000	7.10506800
168.29999018	0.00000000	43.06717000	7.51722400
168.49999017	0.00000000	43.43627000	7.84940900
168.69999016	0.00000000	43.06717000	7.84940900
168.89999015	0.00000000	42.73499000	7.47416300
169.09999014	0.00000000	42.69193000	6.77903500
169.29999013	0.00000000	42.69193000	6.77903500
169.49999011	0.00000000	42.69193000	7.47416300
169.69999010	0.00000000	42.69193000	7.84940900
169.89999009	0.00000000	42.69193000	7.89247000
170.09999008	0.00000000	42.69193000	7.89247000
170.29999007	0.00000000	42.69193000	7.84940900
170.49999005	0.00000000	42.69193000	7.51722400
170.69999004	0.00000000	42.69193000	7.14812900
170.89999003	0.00000000	42.69193000	7.51722400
171.09999002	0.00000000	42.69193000	7.84940900
171.29999001	0.00000000	42.69193000	7.84940900
171.49998999	0.00000000	42.69193000	7.51722400
171.69998998	0.00000000	42.69193000	7.14812900
171.89998997	0.00000000	42.69193000	7.51722400
172.09998996	0.00000000	42.69193000	7.84940900
172.29998995	0.00000000	42.69193000	7.89247000
172.49998994	0.00000000	42.69193000	7.89247000
172.69998992	0.00000000	42.69193000	7.89247000
172.89998991	0.00000000	42.69193000	7.89247000
173.09998990	0.00000000	42.69193000	7.89247000
173.29998989	0.00000000	42.69193000	7.84940900
173.49998988	0.00000000	42.69193000	7.51722400
173.69998986	0.00000000	42.69193000	7.14812900
173.89998985	0.00000000	42.69193000	7.51722400
174.09998984	0.00000000	42.69193000	7.84940900
174.29998983	0.00000000	42.69193000	7.84940900
174.49998982	0.00000000	42.69193000	7.51722400
174.69998980	0.00000000	42.69193000	7.14812900
174.89998979	0.00000000	42.69193000	7.51722400
175.09998978	0.00000000	42.69193000	7.84940900
175.29998977	0.00000000	42.69193000	7.84940900
175.49998976	0.00000000	42.69193000	7.47416300
175.69998975	0.00000000	42.69193000	6.77903500
175.89998973	0.00000000	42.69193000	6.77903500
176.09998972	0.00000000	42.69193000	7.47416300
176.29998971	0.00000000	42.69193000	7.84940900
176.49998970	0.00000000	42.69193000	7.89247000
176.69998969	0.00000000	42.69193000	7.84940900
176.89998967	0.00000000	42.69193000	7.51722400
177.09998966	0.00000000	42.69193000	7.10506800
177.29998965	0.00000000	42.69193000	7.14197800
177.49998964	0.00000000	42.69193000	7.10506800
177.69998963	0.00000000	42.64886000	7.47416300
177.89998961	0.00000000	42.31668000	7.47416300
178.09998960	0.00000000	41.94759000	7.14812900
178.29998959	0.00000000	42.31668000	7.51722400
178.49998958	0.00000000	42.64886000	7.84940900
178.69998957	0.00000000	42.69193000	7.89247000
178.89998956	0.00000000	42.69193000	7.89247000
179.09998954	0.00000000	42.69193000	7.89247000
179.29998953	0.00000000	42.69193000	7.89247000
179.49998952	0.00000000	42.69193000	7.89247000
179.69998951	0.00000000	42.69193000	7.84940900
179.89998950	0.00000000	42.69193000	7.47416300
180.09998948	0.00000000	42.69193000	6.72982200
180.29998947	0.00000000	42.69193000	6.35457700
180.49998946	0.00000000	42.69193000	6.31151500
180.69998945	0.00000000	42.64886000	6.31151500
180.89998944	0.00000000	42.27362000	6.35457700
181.09998942	0.00000000	41.57849000	6.72982200
181.29998941	0.00000000	41.52928000	7.47416300
181.49998940	0.00000000	41.89838000	7.84940900
181.69998939	0.00000000	41.86147000	7.89247000
181.89998938	0.00000000	41.94144000	7.89247000
182.09998937	0.00000000	41.90453000	7.84940900
182.29998935	0.00000000	42.31668000	7.51722400
182.49998934	0.00000000	42.64886000	7.14812900
182.69998933	0.00000000	42.69193000	7.47416300
182.89998932	0.00000000	42.69193000	7.42495000
183.09998931	0.00000000	42.69193000	6.72982200
183.29998929	0.00000000	42.69193000	6.35457700
183.49998928	0.00000000	42.64886000	6.31151500
183.69998927	0.00000000	42.27362000	6.31151500
183.89998926	0.00000000	41.52928000	6.35457700
184.09998925	0.00000000	41.15403000	6.72982200
184.29998923	0.00000000	41.15403000	7.47416300
184.49998922	0.00000000	41.48622000	7.84940900
184.69998921	0.00000000	41.89838000	7.89247000
184.89998920	0.00000000	41.90453000	7.89247000
185.09998919	0.00000000	42.31668000	7.89247000
185.29998918	0.00000000	42.64886000	7.89247000
185.49998916	0.00000000	42.69193000	7.84940900
185.69998915	0.00000000	42.69193000	7.47416300
185.89998914	0.00000000	42.69193000	6.72982200
186.09998913	0.00000000	42.69193000	6.35457700
186.29998912	0.00000000	42.69193000	6.31151500
186.49998910	0.00000000	42.69193000	6.31151500
186.69998909	0.00000000	42.64886000	6.31151500
186.89998908	0.00000000	42.27362000	6.35457700
187.09998907	0.00000000	41.52928000	6.72982200
187.29998906	0.00000000	41.15403000	7.47416300
187.49998904	0.00000000	41.15403000	7.84940900
187.69998903	0.00000000	41.52928000	7.89247000
187.89998902	0.00000000	42.27362000	7.89247000
188.09998901	0.00000000	42.59965000	7.89247000
188.29998900	0.00000000	42.31668000	7.89247000
188.49998899	0.00000000	41.94759000	7.84940900
188.69998897	0.00000000	42.31668000	7.47416300
188.89998896	0.00000000	42.64886000	6.72982200
189.09998895	0.00000000	42.69193000	6.35457700
189.29998894	0.00000000	42.69193000	6.31151500
189.49998893	0.00000000	42.69193000	6.31151500
189.69998891	0.00000000	42.64886000	6.31151500
189.89998890	0.00000000	42.27362000	6.35457700
190.09998889	0.00000000	41.52928000	6.68676100
190.29998888	0.00000000	41.20325000	7.09891700
190.49998887	0.00000000	41.52928000	7.06200700
190.69998885	0.00000000	42.22441000	7.09891700
190.89998884	0.00000000	42.27362000	6.72982200
191.09998883	0.00000000	41.94759000	6.72982200
191.29998882	0.00000000	42.31668000	7.05585600
191.49998881	0.00000000	42.64886000	6.68676100
191.69998880	0.00000000	42.69193000	6.35457700
191.89998878	0.00000000	42.64886000	6.31151500
192.09998877	0.00000000	42.27362000	6.31151500
192.29998876	0.00000000	41.52928000	6.31151500
192.49998875	0.00000000	41.15403000	6.31151500
192.69998874	0.00000000	41.11097000	6.31151500
192.89998872	0.00000000	41.11097000	6.31151500
193.09998871	0.00000000	41.11097000	6.31151500
193.29998870	0.00000000	41.11097000	6.35457700
193.49998869	0.00000000	41.11097000	6.72982200
193.69998868	0.00000000	41.11097000	7.47416300
193.89998866	0.00000000	41.15403000	7.84940900
194.09998865	0.00000000	41.52928000	7.89247000
194.29998864	0.00000000	42.27362000	7.89247000
194.49998863	0.00000000	42.64886000	7.84940900
194.69998862	0.00000000	42.69193000	7.51722400
194.89998861	0.00000000	42.69193000	7.10506800
195.09998859	0.00000000	42.64886000	7.09891700
195.29998858	0.00000000	42.27362000	6.68676100
195.49998857	0.00000000	41.52928000	6.35457700
195.69998856	0.00000000	41.15403000	6.26845500
195.89998855	0.00000000	41.11097000	5.93626900
196.09998853	0.00000000	41.11097000	5.61638700
