Time	Channel A	Channel B	Channel C
(us)	(V)	(mV)	(mV)

-4.49999956	0.00000000	-12.64764000	-10.31004000
-4.29999957	0.00000000	-12.64764000	-10.67298000
-4.09999958	0.00000000	-12.64764000	-11.00517000
-3.89999959	0.00000000	-12.64764000	-11.04823000
-3.69999960	0.00000000	-12.64764000	-11.04823000
-3.49999962	0.00000000	-12.64764000	-11.04823000
-3.29999963	0.00000000	-12.64764000	-11.04823000
-3.09999964	0.00000000	-12.64764000	-11.04823000
-2.89999965	0.00000000	-12.64764000	-11.04823000
-2.69999966	0.00000000	-12.64764000	-11.04823000
-2.49999968	0.00000000	-12.64764000	-11.04823000
-2.29999969	0.00000000	-12.64764000	-11.04823000
-2.09999970	0.00000000	-12.64764000	-11.04823000
-1.89999971	0.00000000	-12.64764000	-11.04823000
-1.69999972	0.00000000	-12.64764000	-11.04823000
-1.49999973	0.00000000	-12.64764000	-11.04823000
-1.29999975	0.00000000	-12.64764000	-11.04823000
-1.09999976	0.00000000	-12.64764000	-11.04823000
-0.89999977	0.00000000	-12.64764000	-11.04823000
-0.69999978	0.00000000	-12.64764000	-11.04823000
-0.49999979	0.00000000	-12.64764000	-11.04823000
-0.29999981	0.31803640	-12.64764000	-11.04823000
-0.09999982	0.63668800	-12.64764000	-11.04823000
0.10000017	0.95533960	-12.64764000	-11.04823000
0.30000016	0.95533960	-12.64764000	-11.04823000
0.50000015	0.95533960	-12.64764000	-11.04823000
0.70000013	0.31803640	-12.64764000	-11.04823000
0.90000012	-0.47736220	-12.64764000	-11.04823000
1.10000011	-1.43331700	-12.64764000	-11.04823000
1.30000010	-2.22994600	-12.64764000	-11.04823000
1.50000009	-2.70792300	-12.64764000	-11.04823000
1.70000008	-2.54859700	-12.64764000	-11.04823000
1.90000006	-1.43331700	-12.64764000	-11.04823000
2.10000005	0.31803640	-12.64764000	-11.04823000
2.30000004	2.38927200	-12.64764000	-11.04823000
2.50000003	4.30056600	-12.64764000	-11.04823000
2.70000002	5.25652100	-12.64764000	-11.04823000
2.90000000	4.93786900	-12.64764000	-11.04823000
3.09999999	3.18590100	-12.69070000	-11.09129000
3.29999998	0.15871060	-13.02288000	-11.42347000
3.49999997	-3.34522600	-13.39198000	-11.79257000
3.69999996	-6.21247500	-13.02288000	-11.42347000
3.89999994	-7.80511800	-12.69070000	-11.09129000
4.09999993	-7.64579200	-12.64764000	-11.00517000
4.29999992	-5.25652100	-12.64764000	-10.62992000
4.49999991	-1.43331700	-12.64764000	-9.93479300
4.69999990	3.02657500	-12.64764000	-9.93479300
4.89999989	6.84916400	-12.64764000	-10.62992000
5.09999987	9.23905000	-12.64764000	-11.04823000
5.29999986	9.23905000	-12.69070000	-11.46653000
5.49999985	6.84916400	-13.02288000	-12.21087000
5.69999984	2.70792300	-13.39198000	-12.53691000
5.89999983	-2.07062000	-13.02288000	-12.21087000
6.09999981	-6.21247500	-12.73991000	-11.46653000
6.29999980	-8.92039900	-13.02288000	-11.14050000
6.49999979	-9.39837600	-13.39198000	-11.38041000
6.69999978	-7.48646600	-13.02288000	-11.41732000
6.89999977	-3.82258900	-12.69070000	-10.68528000
7.09999975	0.47736220	-12.69070000	-10.72219000
7.29999974	4.61921700	-13.06594000	-11.00517000
7.49999973	7.16781500	-13.81028000	-11.04823000
7.69999972	7.64579200	-14.13632000	-11.04823000
7.89999971	6.37180100	-13.85334000	-11.04823000
8.09999970	3.82258900	-13.48425000	-11.04823000
8.29999968	0.47736220	-13.85334000	-11.04823000
8.49999967	-2.54859700	-14.13632000	-11.04823000
8.69999966	-4.61921700	-13.81028000	-11.04823000
8.89999965	-5.25652100	-13.11516000	-11.04823000
9.09999964	-4.45989200	-13.06594000	-11.04823000
9.29999962	-2.86724900	-13.39198000	-11.04823000
9.49999961	-0.79601380	-13.06594000	-11.04823000
9.69999960	0.95533960	-13.11516000	-11.04823000
9.89999959	2.22994600	-13.81028000	-11.04823000
10.09999958	2.54859700	-14.18553000	-11.04823000
10.29999956	2.22994600	-14.22859000	-11.04823000
10.49999955	1.43331700	-14.18553000	-11.09129000
10.69999954	0.63668800	-13.81028000	-11.42347000
10.89999953	-0.15871060	-13.11516000	-11.79257000
11.09999952	-0.79601380	-13.11516000	-11.42347000
11.29999951	-0.95533960	-13.76107000	-11.09129000
11.49999949	-0.95533960	-13.76107000	-11.04823000
11.69999948	-0.79601380	-13.11516000	-11.04823000
11.89999947	-0.47736220	-13.11516000	-11.04823000
12.09999946	-0.15871060	-13.76107000	-11.04823000
12.29999945	-0.15871060	-13.81028000	-11.04823000
12.49999943	0.00000000	-13.48425000	-11.04823000
12.69999942	0.00000000	-13.85334000	-11.04823000
12.89999941	0.00000000	-14.18553000	-11.04823000
13.09999940	0.00000000	-14.22859000	-11.04823000
13.29999939	0.00000000	-14.22859000	-11.04823000
13.49999937	0.00000000	-14.22859000	-11.04823000
13.69999936	0.00000000	-14.22859000	-11.04823000
13.89999935	0.00000000	-14.22859000	-11.04823000
14.09999934	0.00000000	-14.22859000	-11.04823000
14.29999933	-0.15871060	-14.22859000	-11.04823000
14.49999932	-0.15871060	-14.22859000	-11.04823000
14.69999930	0.00000000	-14.22859000	-11.04823000
14.89999929	0.00000000	-14.22859000	-11.04823000
15.09999928	0.00000000	-14.22859000	-11.04823000
15.29999927	0.00000000	-14.22859000	-11.04823000
15.49999926	0.00000000	-14.22859000	-11.04823000
15.69999924	0.00000000	-14.22859000	-11.04823000
15.89999923	0.00000000	-14.22859000	-11.04823000
16.09999922	0.00000000	-14.22859000	-11.04823000
16.29999921	0.00000000	-14.22859000	-11.04823000
16.49999920	-0.15871060	-14.18553000	-11.04823000
16.69999919	-0.15871060	-13.81028000	-11.09129000
16.89999917	0.00000000	-13.06594000	-11.42347000
17.09999916	0.00000000	-12.64764000	-11.79257000
17.29999915	0.00000000	-12.27239000	-11.42347000
17.49999914	0.00000000	-11.90330000	-11.09129000
17.69999913	0.00000000	-12.27239000	-11.04823000
17.89999911	0.00000000	-12.64764000	-11.04823000
18.09999910	0.00000000	-13.11516000	-11.04823000
18.29999909	0.00000000	-14.27165000	-11.04823000
18.49999908	0.00000000	-15.80955000	-11.04823000
18.69999907	0.00000000	-17.34744000	-11.04823000
18.89999905	0.00000000	-18.50394000	-11.04823000
19.09999904	0.00000000	-18.83612000	-11.04823000
19.29999903	0.00000000	-18.04257000	-11.04823000
19.49999902	0.00000000	-15.67421000	-11.04823000
19.69999901	0.00000000	-12.18012000	-11.04823000
19.89999900	0.00000000	-7.94783400	-11.04823000
20.09999898	0.00000000	-4.18307100	-11.04823000
20.29999897	0.00000000	-2.64517700	-11.09129000
20.49999896	0.00000000	-3.80782500	-11.42347000
20.69999895	0.00000000	-7.34498000	-11.79257000
20.89999894	0.00000000	-13.20128000	-11.46653000
21.09999892	0.00000000	-20.55241000	-11.51575000
21.29999891	0.00000000	-27.90354000	-12.16166000
21.49999890	0.00000000	-33.58760000	-12.16166000
21.69999889	0.00000000	-35.44537000	-11.51575000
21.89999888	0.00000000	-31.91437000	-11.51575000
22.09999886	0.00000000	-23.81275000	-12.21087000
22.29999885	0.00000000	-12.51230000	-12.58612000
22.49999884	0.00000000	-0.17839570	-12.62918000
22.69999883	0.00000000	10.61147000	-12.58612000
22.89999882	0.00000000	16.70768000	-12.21087000
23.09999881	0.00000000	16.24631000	-11.46653000
23.29999879	0.00000000	8.42765700	-11.04823000
23.49999878	0.00000000	-5.89936000	-10.62992000
23.69999877	0.00000000	-23.67126000	-9.89173200
23.89999876	0.00000000	-40.98179000	-9.51648500
24.09999875	0.00000000	-53.30954000	-9.51648500
24.29999873	0.00000000	-57.12967000	-9.93479300
24.49999872	0.00000000	-51.59325000	-11.09744000
24.69999871	0.00000000	-36.51574000	-12.62918000
24.89999870	0.00000000	-14.93602000	-14.21014000
25.09999869	0.00000000	7.08046200	-15.74188000
25.29999867	0.00000000	25.26452000	-16.85531000
25.49999866	0.00000000	35.18085000	-16.85531000
25.69999865	0.00000000	33.64296000	-15.64960000
25.89999864	0.00000000	20.89690000	-13.28125000
26.09999863	0.00000000	0.00615157	-9.43036400
26.29999862	0.00000000	-24.74163000	-5.24729300
26.49999860	0.00000000	-47.82234000	-2.12844500
26.69999859	0.00000000	-63.26894000	-0.59670270
26.89999858	0.00000000	-67.18134000	-1.01501000
27.09999857	0.00000000	-59.45497000	-3.84473400
27.29999856	0.00000000	-41.67692000	-9.28272600
27.49999854	0.00000000	-17.76575000	-16.94759000
27.69999853	0.00000000	6.19463500	-24.24335000
27.89999852	0.00000000	25.12918000	-29.31225000
28.09999851	0.00000000	34.80561000	-31.58834000
28.29999850	0.00000000	32.94783000	-29.91511000
28.49999848	0.00000000	21.03223000	-23.68971000
28.69999847	0.00000000	2.05462600	-13.61343000
28.89999846	0.00000000	-19.95571000	-1.66707700
29.09999845	0.00000000	-40.00984000	9.47957600
29.29999844	0.00000000	-53.21727000	16.73228000
29.49999843	0.00000000	-57.17273000	17.89493000
29.69999841	0.00000000	-52.23917000	12.45694000
29.89999840	0.00000000	-39.86835000	1.63016700
30.09999839	0.00000000	-23.25295000	-12.72146000
30.29999838	0.00000000	-5.85014700	-27.73130000
30.49999837	0.00000000	8.51993000	-40.08366000
30.69999835	0.00000000	17.08292000	-46.59818000
30.89999834	0.00000000	19.03297000	-45.84769000
31.09999833	0.00000000	13.63804000	-37.67839000
31.29999832	0.00000000	2.51599400	-23.78199000
31.49999831	0.00000000	-11.02362000	-6.73597400
31.69999829	0.00000000	-24.18799000	9.85482200
31.89999828	0.00000000	-34.28272000	22.58243000
32.09999827	0.00000000	-39.40084000	28.29724000
32.29999826	0.00000000	-39.40084000	25.23376000
32.49999825	0.00000000	-34.37500000	14.08095000
32.69999824	0.00000000	-25.15994000	-2.08538400
32.89999822	0.00000000	-14.73917000	-19.54970000
33.09999821	0.00000000	-5.38877900	-35.02707000
33.29999820	0.00000000	1.58710600	-45.89075000
33.49999819	0.00000000	4.66289300	-49.71087000
33.69999818	0.00000000	3.12500000	-45.89075000
33.89999816	0.00000000	-2.60211600	-35.02707000
34.09999815	0.00000000	-10.64838000	-19.59892000
34.29999814	0.00000000	-18.41781000	-2.59596400
34.49999813	0.00000000	-24.64936000	12.03863000
34.69999812	0.00000000	-28.46333000	20.95841000
34.89999810	0.00000000	-28.46333000	22.53937000
35.09999809	0.00000000	-24.69857000	16.77534000
35.29999808	0.00000000	-18.97145000	5.16117100
35.49999807	0.00000000	-13.15822000	-9.84867000
35.69999806	0.00000000	-8.50147600	-24.85236000
35.89999805	0.00000000	-5.80708600	-35.67913000
36.09999803	0.00000000	-5.80708600	-40.37278000
36.29999802	0.00000000	-8.50147600	-38.46580000
36.49999801	0.00000000	-13.06594000	-30.38263000
36.69999800	0.00000000	-18.08563000	-18.48548000
36.89999799	0.00000000	-21.90576000	-5.80093500
37.09999797	0.00000000	-23.85581000	4.18922200
37.29999796	0.00000000	-23.11762000	8.87672100
37.49999795	0.00000000	-20.41708000	7.72022600
37.69999794	0.00000000	-16.55389000	1.21186000
37.89999793	0.00000000	-11.95251000	-9.09817800
38.09999791	0.00000000	-8.45841400	-19.42052000
38.29999790	0.00000000	-6.50221400	-26.75935000
38.49999789	0.00000000	-6.13927100	-29.45374000
38.69999788	0.00000000	-8.08316900	-26.75935000
38.89999787	0.00000000	-11.53420000	-19.50664000
39.09999786	0.00000000	-15.80955000	-9.94094400
39.29999784	0.00000000	-20.04183000	-1.15649600
39.49999783	0.00000000	-23.16068000	4.23228400
39.69999782	0.00000000	-24.69857000	4.60752900
39.89999781	0.00000000	-24.32333000	0.00615157
40.09999780	0.00000000	-21.99803000	-8.44611200
40.29999778	0.00000000	-18.50394000	-18.39321000
40.49999777	0.00000000	-14.22859000	-26.80241000
40.69999776	0.00000000	-9.99630800	-31.02854000
40.89999775	0.00000000	-6.87746000	-29.91511000
41.09999774	0.00000000	-5.33956700	-24.15723000
41.29999772	0.00000000	-5.71481200	-15.28051000
41.49999771	0.00000000	-8.04010800	-5.33341500
41.69999770	0.00000000	-11.48499000	2.74360200
41.89999769	0.00000000	-15.39124000	6.60679100
42.09999768	0.00000000	-18.87918000	5.85629900
42.29999767	0.00000000	-21.57972000	0.51673230
42.49999765	0.00000000	-22.78543000	-7.51722400
42.69999764	0.00000000	-22.41634000	-15.60654000
42.89999763	0.00000000	-21.24754000	-22.20103000
43.09999762	0.00000000	-18.87918000	-25.68897000
43.29999761	0.00000000	-15.85261000	-25.73203000
43.49999759	0.00000000	-13.15822000	-22.66240000
43.69999758	0.00000000	-11.57726000	-17.27362000
43.89999757	0.00000000	-11.15896000	-11.14050000
44.09999756	0.00000000	-11.48499000	-5.75172200
44.29999755	0.00000000	-12.22933000	-2.63902500
44.49999753	0.00000000	-12.60458000	-2.17150600
44.69999752	0.00000000	-12.69070000	-3.70939900
44.89999751	0.00000000	-13.06594000	-6.77903500
45.09999750	0.00000000	-13.81028000	-10.62992000
45.29999749	0.00000000	-14.27165000	-14.11786000
45.49999748	0.00000000	-15.11442000	-16.81225000
45.69999746	0.00000000	-17.05832000	-17.97490000
45.89999745	0.00000000	-19.38976000	-17.27362000
46.09999744	0.00000000	-22.09030000	-15.74188000
46.29999743	0.00000000	-24.36639000	-13.79183000
46.49999742	0.00000000	-25.11688000	-11.51575000
46.69999740	0.00000000	-24.23105000	-9.93479300
46.89999739	0.00000000	-20.69390000	-9.09817800
47.09999738	0.00000000	-14.56078000	-8.40305000
47.29999737	0.00000000	-8.04010800	-8.82135800
47.49999736	0.00000000	-2.64517700	-10.72219000
47.69999734	0.00000000	0.04921259	-13.00443000
47.89999733	0.00000000	-0.73203740	-15.32357000
48.09999732	0.00000000	-4.64443900	-16.85531000
48.29999731	0.00000000	-11.66339000	-17.27362000
48.49999730	0.00000000	-20.46014000	-16.85531000
48.69999729	0.00000000	-28.55561000	-15.32357000
48.89999727	0.00000000	-33.58760000	-12.95522000
49.09999726	0.00000000	-34.75024000	-10.25467000
49.29999725	0.00000000	-31.58218000	-7.19734200
49.49999724	0.00000000	-24.27411000	-5.33341500
49.69999723	0.00000000	-14.64690000	-5.29035400
49.89999721	0.00000000	-5.43184000	-6.86515700
50.09999720	0.00000000	1.16879900	-9.93479300
50.29999719	0.00000000	3.45103300	-13.79183000
50.49999718	0.00000000	1.16879900	-17.27977000
50.69999717	0.00000000	-5.43184000	-19.97416000
50.89999715	0.00000000	-14.60384000	-21.08760000
51.09999714	0.00000000	-23.85581000	-19.97416000
51.29999713	0.00000000	-30.41954000	-17.27977000
51.49999712	0.00000000	-33.12008000	-13.74262000
51.69999711	0.00000000	-31.20694000	-9.51648500
51.89999710	0.00000000	-25.06767000	-5.70866100
52.09999708	0.00000000	-17.01525000	-3.75246000
52.29999707	0.00000000	-8.92593500	-3.70939900
52.49999706	0.00000000	-3.19881900	-5.29035400
52.69999705	0.00000000	-1.61786400	-8.40305000
52.89999704	0.00000000	-4.26919300	-12.62918000
53.09999702	0.00000000	-9.99630800	-16.81225000
53.29999701	0.00000000	-16.97219000	-19.50664000
53.49999700	0.00000000	-23.48671000	-19.93110000
53.69999699	0.00000000	-28.08809000	-18.43627000
53.89999698	0.00000000	-28.83858000	-15.74188000
54.09999696	0.00000000	-25.81201000	-12.67224000
54.29999695	0.00000000	-20.08489000	-9.98400600
54.49999694	0.00000000	-13.53346000	-8.44611200
54.69999693	0.00000000	-8.17544300	-8.40305000
54.89999692	0.00000000	-5.06274600	-9.51648500
55.09999691	0.00000000	-5.43184000	-11.04823000
55.29999689	0.00000000	-8.45841400	-12.58612000
55.49999688	0.00000000	-13.11516000	-13.74262000
55.69999687	0.00000000	-18.50394000	-14.07480000
55.89999686	0.00000000	-23.11762000	-13.32431000
56.09999685	0.00000000	-25.81201000	-11.42347000
56.29999683	0.00000000	-25.76895000	-9.60875900
56.49999682	0.00000000	-22.74237000	-8.82135800
56.69999681	0.00000000	-17.80881000	-9.60875900
56.89999680	0.00000000	-13.15822000	-11.51575000
57.09999679	0.00000000	-9.66412400	-14.25320000
57.29999677	0.00000000	-7.72022600	-17.27977000
57.49999676	0.00000000	-8.13238100	-19.55585000
57.69999675	0.00000000	-10.37155000	-19.88189000
57.89999674	0.00000000	-13.85334000	-17.97490000
58.09999673	0.00000000	-17.29823000	-14.11786000
58.29999672	0.00000000	-20.04183000	-9.51648500
58.49999670	0.00000000	-21.57972000	-5.24729300
58.69999669	0.00000000	-21.62278000	-2.22071800
58.89999668	0.00000000	-20.46014000	-1.48253000
59.09999667	0.00000000	-18.50394000	-3.80167300
59.29999666	0.00000000	-15.85261000	-8.40305000
59.49999664	0.00000000	-13.57652000	-14.21014000
59.69999663	0.00000000	-12.78297000	-19.97416000
59.89999662	0.00000000	-13.11516000	-24.20029000
60.09999661	0.00000000	-14.22859000	-25.68897000
60.29999660	0.00000000	-15.39124000	-23.73892000
60.49999658	0.00000000	-16.18479000	-18.35015000
60.69999657	0.00000000	-16.97219000	-11.09744000
60.89999656	0.00000000	-17.34744000	-4.17691900
61.09999655	0.00000000	-17.34744000	0.46751960
61.29999654	0.00000000	-16.97219000	2.04847400
61.49999653	0.00000000	-16.22785000	0.42445860
61.69999651	0.00000000	-15.85261000	-4.55216500
61.89999650	0.00000000	-15.85261000	-11.83563000
62.09999649	0.00000000	-16.22785000	-18.81152000
62.29999648	0.00000000	-17.01525000	-24.66781000
62.49999647	0.00000000	-17.76575000	-28.38337000
62.69999645	0.00000000	-18.55315000	-27.96506000
62.89999644	0.00000000	-18.87918000	-23.08686000
63.09999643	0.00000000	-18.50394000	-16.16018000
63.29999642	0.00000000	-17.34744000	-9.14124000
63.49999641	0.00000000	-15.80955000	-2.59596400
63.69999639	0.00000000	-14.27165000	1.63016700
63.89999638	0.00000000	-13.15822000	2.42372000
64.09999637	0.00000000	-13.11516000	0.14148620
64.29999636	0.00000000	-13.89641000	-4.91510800
64.49999635	0.00000000	-15.06521000	-11.42347000
64.69999634	0.00000000	-16.97219000	-18.01796000
64.89999632	0.00000000	-18.46087000	-22.99459000
65.09999631	0.00000000	-18.92839000	-25.35679000
65.29999630	0.00000000	-18.92839000	-24.61860000
65.49999629	0.00000000	-18.50394000	-21.59203000
65.69999628	0.00000000	-17.39050000	-17.32283000
65.89999626	0.00000000	-16.22785000	-12.67224000
66.09999625	0.00000000	-15.47736000	-8.40305000
66.29999624	0.00000000	-15.06521000	-5.29035400
66.49999623	0.00000000	-15.47736000	-3.70939900
66.69999622	0.00000000	-16.22785000	-3.66633800
66.89999620	0.00000000	-17.43356000	-4.82283400
67.09999619	0.00000000	-18.87918000	-6.77903500
67.29999618	0.00000000	-19.62352000	-9.51648500
67.49999617	0.00000000	-18.83612000	-12.62918000
67.69999616	0.00000000	-16.97219000	-15.74188000
67.89999615	0.00000000	-14.64690000	-18.47933000
68.09999613	0.00000000	-12.73991000	-20.43553000
68.29999612	0.00000000	-11.57726000	-21.59203000
68.49999611	0.00000000	-11.62032000	-21.54897000
68.69999610	0.00000000	-13.20128000	-19.97416000
68.89999609	0.00000000	-16.27707000	-16.85531000
69.09999607	0.00000000	-20.13410000	-12.62918000
69.29999606	0.00000000	-23.57899000	-8.35998900
69.49999605	0.00000000	-25.90428000	-4.87204700
69.69999604	0.00000000	-26.23031000	-2.54675200
69.89999603	0.00000000	-24.32333000	-2.17150600
70.09999601	0.00000000	-20.41708000	-3.75246000
70.29999600	0.00000000	-15.43430000	-7.24040300
70.49999599	0.00000000	-10.41462000	-12.25394000
70.69999598	0.00000000	-6.96973400	-17.27362000
70.89999597	0.00000000	-5.76402500	-21.54897000
71.09999596	0.00000000	-6.96973400	-24.20029000
71.29999594	0.00000000	-10.45768000	-24.20029000
71.49999593	0.00000000	-15.85261000	-21.54897000
71.69999592	0.00000000	-21.62278000	-17.32283000
71.89999591	0.00000000	-26.27953000	-12.67224000
72.09999590	0.00000000	-29.01698000	-8.40305000
72.29999588	0.00000000	-29.39222000	-5.33341500
72.49999587	0.00000000	-27.43602000	-4.17691900
72.69999586	0.00000000	-23.16068000	-5.29035400
72.89999585	0.00000000	-17.39050000	-7.93553100
73.09999584	0.00000000	-11.62032000	-11.04823000
73.29999582	0.00000000	-7.38804100	-14.11786000
73.49999581	0.00000000	-5.80708600	-16.43701000
73.69999580	0.00000000	-6.92052100	-17.23056000
73.89999579	0.00000000	-9.99630800	-16.85531000
74.09999578	0.00000000	-14.27165000	-15.36663000
74.29999577	0.00000000	-18.92839000	-13.50886000
74.49999575	0.00000000	-23.11762000	-12.72146000
74.69999574	0.00000000	-25.43676000	-12.67224000
74.89999573	0.00000000	-25.15994000	-13.09670000
75.09999572	0.00000000	-23.62205000	-14.21014000
75.29999571	0.00000000	-21.24754000	-15.27436000
75.49999569	0.00000000	-17.80881000	-15.27436000
75.69999568	0.00000000	-14.78223000	-14.11786000
75.89999567	0.00000000	-13.15822000	-12.16781000
76.09999566	0.00000000	-12.73991000	-9.47342500
76.29999565	0.00000000	-13.11516000	-6.82209600
76.49999563	0.00000000	-14.27165000	-5.33341500
76.69999562	0.00000000	-15.76649000	-5.70866100
76.89999561	0.00000000	-16.92298000	-8.02780400
77.09999560	0.00000000	-17.34744000	-11.51575000
77.29999559	0.00000000	-17.39050000	-15.78494000
77.49999558	0.00000000	-17.39050000	-19.97416000
77.69999556	0.00000000	-17.39050000	-22.66855000
77.89999555	0.00000000	-17.43356000	-23.03765000
78.09999554	0.00000000	-17.80881000	-21.08760000
78.29999553	0.00000000	-18.59621000	-16.85531000
78.49999552	0.00000000	-19.34670000	-11.46653000
78.69999550	0.00000000	-20.08489000	-6.44685000
78.89999549	0.00000000	-20.04183000	-2.59596400
79.09999548	0.00000000	-18.87918000	-1.05807100
79.29999547	0.00000000	-16.97219000	-2.17765700
79.49999546	0.00000000	-14.64690000	-5.29035400
79.69999544	0.00000000	-12.73991000	-9.93479300
79.89999543	0.00000000	-11.62032000	-15.32357000
80.09999542	0.00000000	-12.03863000	-19.92495000
80.29999541	0.00000000	-14.32087000	-22.66855000
80.49999540	0.00000000	-17.34744000	-23.08686000
80.69999539	0.00000000	-20.08489000	-21.59203000
80.89999537	0.00000000	-22.04109000	-18.85458000
81.09999536	0.00000000	-23.20374000	-15.36663000
81.29999535	0.00000000	-23.16068000	-11.46653000
81.49999534	0.00000000	-21.62278000	-8.02780400
81.69999533	0.00000000	-18.97145000	-5.66560000
81.89999531	0.00000000	-16.27707000	-4.87204700
82.09999530	0.00000000	-14.32087000	-5.24729300
82.29999529	0.00000000	-13.15822000	-6.82209600
82.49999528	0.00000000	-13.15822000	-9.51648500
82.69999527	0.00000000	-14.27165000	-12.62918000
82.89999525	0.00000000	-15.85261000	-15.74188000
83.09999524	0.00000000	-17.76575000	-18.47933000
83.29999523	0.00000000	-19.71580000	-20.43553000
83.49999522	0.00000000	-20.83538000	-21.59203000
83.69999521	0.00000000	-21.29675000	-21.54897000
83.89999520	0.00000000	-20.88459000	-19.97416000
84.09999518	0.00000000	-20.13410000	-16.90453000
84.29999517	0.00000000	-18.97145000	-13.04749000
84.49999516	0.00000000	-17.85802000	-9.55954600
84.69999515	0.00000000	-17.43356000	-6.82209600
84.89999514	0.00000000	-17.39050000	-5.29035400
85.09999512	0.00000000	-17.39050000	-5.29035400
85.29999511	0.00000000	-17.39050000	-6.86515700
85.49999510	0.00000000	-17.34744000	-9.98400600
85.69999509	0.00000000	-16.97219000	-14.21014000
85.89999508	0.00000000	-16.22785000	-18.43627000
86.09999506	0.00000000	-15.90182000	-21.54897000
86.29999505	0.00000000	-16.27707000	-23.08686000
86.49999504	0.00000000	-17.43356000	-22.66855000
86.69999503	0.00000000	-18.92839000	-19.97416000
86.89999502	0.00000000	-20.13410000	-15.74188000
87.09999501	0.00000000	-20.88459000	-11.09129000
87.29999499	0.00000000	-21.29675000	-6.86515700
87.49999498	0.00000000	-20.88459000	-4.17076700
87.69999497	0.00000000	-20.08489000	-3.80167300
87.89999496	0.00000000	-18.50394000	-5.75172200
88.09999495	0.00000000	-16.27707000	-9.98400600
88.29999493	0.00000000	-14.73917000	-15.32357000
88.49999492	0.00000000	-14.32087000	-19.92495000
88.69999491	0.00000000	-14.69611000	-22.66855000
88.89999490	0.00000000	-15.85261000	-23.03765000
89.09999489	0.00000000	-17.39050000	-21.08760000
89.29999487	0.00000000	-18.92839000	-16.85531000
89.49999486	0.00000000	-20.08489000	-11.51575000
89.69999485	0.00000000	-20.50935000	-6.86515700
89.89999484	0.00000000	-20.50935000	-3.79552100
90.09999483	0.00000000	-20.08489000	-3.05733300
90.29999482	0.00000000	-18.97145000	-5.33341500
90.49999480	0.00000000	-17.80881000	-9.56569900
90.69999479	0.00000000	-17.05832000	-14.58538000
90.89999478	0.00000000	-16.64616000	-19.55585000
91.09999477	0.00000000	-17.01525000	-22.61934000
91.29999476	0.00000000	-17.34744000	-23.03765000
91.49999474	0.00000000	-17.39050000	-21.08760000
91.69999473	0.00000000	-17.39050000	-16.81225000
91.89999472	0.00000000	-17.39050000	-11.14050000
92.09999471	0.00000000	-17.39050000	-6.17002900
92.29999470	0.00000000	-17.39050000	-3.80167300
92.49999468	0.00000000	-17.43356000	-3.75246000
92.69999467	0.00000000	-17.80881000	-5.75172200
92.89999466	0.00000000	-18.59621000	-9.98400600
93.09999465	0.00000000	-19.38976000	-15.32357000
93.29999464	0.00000000	-20.55241000	-19.92495000
93.49999463	0.00000000	-21.62278000	-22.61934000
93.69999461	0.00000000	-21.62278000	-22.61934000
93.89999460	0.00000000	-20.50935000	-19.97416000
94.09999459	0.00000000	-18.97145000	-15.74188000
94.29999458	0.00000000	-17.34744000	-11.14050000
94.49999457	0.00000000	-15.43430000	-7.28346400
94.69999455	0.00000000	-13.53346000	-5.37647600
94.89999454	0.00000000	-12.78297000	-5.75172200
95.09999453	0.00000000	-13.15822000	-8.44611200
95.29999452	0.00000000	-14.78223000	-12.62918000
95.49999451	0.00000000	-17.80881000	-16.85531000
95.69999449	0.00000000	-21.29675000	-19.92495000
95.89999448	0.00000000	-23.99729000	-21.08760000
96.09999447	0.00000000	-25.94734000	-19.97416000
96.29999446	0.00000000	-26.27953000	-17.32283000
96.49999445	0.00000000	-24.78469000	-14.21014000
96.69999444	0.00000000	-22.04109000	-11.14050000
96.89999442	0.00000000	-18.55315000	-8.86441900
97.09999441	0.00000000	-14.69611000	-8.44611200
97.29999440	0.00000000	-11.62032000	-9.55954600
97.49999439	0.00000000	-10.08243000	-11.46653000
97.69999438	0.00000000	-10.45768000	-13.79183000
97.89999436	0.00000000	-12.78297000	-15.69882000
98.09999435	0.00000000	-16.22785000	-16.89837000
98.29999434	0.00000000	-20.13410000	-17.27362000
98.49999433	0.00000000	-23.62205000	-16.89837000
98.69999432	0.00000000	-26.32259000	-15.78494000
98.89999430	0.00000000	-27.43602000	-14.62844000
99.09999429	0.00000000	-26.32259000	-13.83489000
99.29999428	0.00000000	-23.62205000	-13.04749000
99.49999427	0.00000000	-20.17716000	-12.67224000
99.69999426	0.00000000	-16.69537000	-12.62918000
99.89999425	0.00000000	-14.32087000	-12.58612000
100.09999423	0.00000000	-12.69070000	-12.21087000
100.29999422	0.00000000	-11.62032000	-11.46653000
100.49999421	0.00000000	-12.03863000	-11.09129000
100.69999420	0.00000000	-14.32087000	-11.14050000
100.89999419	0.00000000	-17.39050000	-11.88484000
101.09999417	0.00000000	-20.50935000	-13.45964000
101.29999416	0.00000000	-23.20374000	-14.96063000
101.49999415	0.00000000	-24.78469000	-16.57234000
101.69999414	0.00000000	-25.15994000	-17.64887000
101.89999413	0.00000000	-24.40945000	-18.06102000
102.09999411	0.00000000	-22.46555000	-17.23056000
102.29999410	0.00000000	-20.17716000	-15.32357000
102.49999409	0.00000000	-17.80881000	-12.62918000
102.69999408	0.00000000	-15.85261000	-9.93479300
102.89999407	0.00000000	-14.32087000	-8.02780400
103.09999406	0.00000000	-13.57652000	-7.24040300
103.29999404	0.00000000	-14.36393000	-8.02780400
103.49999403	0.00000000	-16.22785000	-9.93479300
103.69999402	0.00000000	-18.55315000	-12.67224000
103.89999401	0.00000000	-20.50935000	-15.74188000
104.09999400	0.00000000	-22.09030000	-18.39321000
104.29999398	0.00000000	-23.20374000	-19.59892000
104.49999397	0.00000000	-23.20374000	-19.22982000
104.69999396	0.00000000	-22.09030000	-18.06102000
104.89999395	0.00000000	-20.55241000	-15.69882000
105.09999394	0.00000000	-18.97145000	-12.67224000
105.29999392	0.00000000	-17.43356000	-9.98400600
105.49999391	0.00000000	-16.27707000	-8.44611200
105.69999390	0.00000000	-15.90182000	-8.44611200
105.89999389	0.00000000	-16.27707000	-9.93479300
106.09999388	0.00000000	-17.43356000	-12.25394000
106.29999387	0.00000000	-18.97145000	-14.58538000
106.49999385	0.00000000	-20.46014000	-16.85531000
106.69999384	0.00000000	-21.24754000	-17.97490000
106.89999383	0.00000000	-20.92766000	-17.27362000
107.09999382	0.00000000	-20.55241000	-15.78494000
107.29999381	0.00000000	-20.08489000	-14.16092000
107.49999379	0.00000000	-18.97145000	-12.25394000
107.69999378	0.00000000	-17.85802000	-10.40231000
107.89999377	0.00000000	-17.48277000	-10.02707000
108.09999376	0.00000000	-17.80881000	-11.09744000
108.29999375	0.00000000	-18.59621000	-12.62918000
108.49999374	0.00000000	-19.38976000	-14.21014000
108.69999372	0.00000000	-20.55241000	-15.74188000
108.89999371	0.00000000	-21.66585000	-16.89837000
109.09999370	0.00000000	-22.04109000	-17.23056000
109.29999369	0.00000000	-21.66585000	-16.48622000
109.49999368	0.00000000	-20.50935000	-14.58538000
109.69999366	0.00000000	-19.01451000	-12.67224000
109.89999365	0.00000000	-17.85802000	-11.09744000
110.09999364	0.00000000	-17.43356000	-9.98400600
110.29999363	0.00000000	-17.39050000	-9.98400600
110.49999362	0.00000000	-17.43356000	-11.09744000
110.69999360	0.00000000	-17.85802000	-12.62918000
110.89999359	0.00000000	-19.01451000	-14.21014000
111.09999358	0.00000000	-20.50935000	-15.74188000
111.29999357	0.00000000	-21.66585000	-16.89837000
111.49999356	0.00000000	-22.04109000	-17.27362000
111.69999355	0.00000000	-21.71506000	-16.94759000
111.89999353	0.00000000	-20.92766000	-16.16018000
112.09999352	0.00000000	-20.17716000	-15.36663000
112.29999351	0.00000000	-19.38976000	-14.21014000
112.49999350	0.00000000	-19.01451000	-13.09670000
112.69999349	0.00000000	-18.97145000	-12.67224000
112.89999347	0.00000000	-18.97145000	-12.62918000
113.09999346	0.00000000	-18.97145000	-12.67224000
113.29999345	0.00000000	-18.97145000	-13.04749000
113.49999344	0.00000000	-18.97145000	-13.79183000
113.69999343	0.00000000	-19.01451000	-14.16708000
113.89999341	0.00000000	-19.38976000	-14.21014000
114.09999340	0.00000000	-20.13410000	-14.25320000
114.29999339	0.00000000	-20.50935000	-14.62844000
114.49999338	0.00000000	-20.55241000	-15.36663000
114.69999337	0.00000000	-20.55241000	-15.74188000
114.89999336	0.00000000	-20.55241000	-15.78494000
115.09999334	0.00000000	-20.55241000	-15.78494000
115.29999333	0.00000000	-20.55241000	-15.78494000
115.49999332	0.00000000	-20.50935000	-15.74188000
115.69999331	0.00000000	-20.13410000	-15.32357000
115.89999330	0.00000000	-19.38976000	-14.21014000
116.09999328	0.00000000	-19.06373000	-13.09670000
116.29999327	0.00000000	-19.38976000	-12.67224000
116.49999326	0.00000000	-20.13410000	-12.62918000
116.69999325	0.00000000	-20.50935000	-12.62918000
116.89999324	0.00000000	-20.55241000	-12.67224000
117.09999322	0.00000000	-20.50935000	-13.04749000
117.29999321	0.00000000	-20.13410000	-13.83489000
117.49999320	0.00000000	-19.38976000	-14.58538000
117.69999319	0.00000000	-19.01451000	-15.36663000
117.89999318	0.00000000	-18.92839000	-15.74188000
118.09999317	0.00000000	-18.59621000	-15.74188000
118.29999315	0.00000000	-18.22711000	-15.36663000
118.49999314	0.00000000	-18.63927000	-14.62844000
118.69999313	0.00000000	-19.38976000	-14.21014000
118.89999312	0.00000000	-20.55241000	-13.74262000
119.09999311	0.00000000	-21.66585000	-12.62918000
119.29999309	0.00000000	-22.09030000	-11.55881000
119.49999308	0.00000000	-22.13336000	-11.51575000
119.69999307	0.00000000	-22.09030000	-12.21087000
119.89999306	0.00000000	-21.66585000	-12.62918000
120.09999305	0.00000000	-20.50935000	-13.04749000
120.29999303	0.00000000	-19.01451000	-13.79183000
120.49999302	0.00000000	-17.85802000	-14.21014000
120.69999301	0.00000000	-17.43356000	-14.62844000
120.89999300	0.00000000	-17.43356000	-15.36663000
121.09999299	0.00000000	-17.85802000	-15.74188000
121.29999298	0.00000000	-19.01451000	-15.78494000
121.49999296	0.00000000	-20.50935000	-15.74188000
121.69999295	0.00000000	-21.66585000	-15.32357000
121.89999294	0.00000000	-22.13336000	-14.25320000
122.09999293	0.00000000	-22.50861000	-13.46580000
122.29999292	0.00000000	-22.87770000	-13.41658000
122.49999290	0.00000000	-22.46555000	-13.00443000
122.69999289	0.00000000	-21.71506000	-12.67224000
122.89999288	0.00000000	-20.50935000	-12.62918000
123.09999287	0.00000000	-19.01451000	-12.62918000
123.29999286	0.00000000	-17.85802000	-12.67224000
123.49999284	0.00000000	-17.43356000	-13.04749000
123.69999283	0.00000000	-17.43356000	-13.83489000
123.89999282	0.00000000	-17.80881000	-14.53617000
124.09999281	0.00000000	-18.59621000	-14.94833000
124.29999280	0.00000000	-19.34670000	-14.58538000
124.49999279	0.00000000	-20.17716000	-14.25320000
124.69999277	0.00000000	-20.92766000	-14.21014000
124.89999276	0.00000000	-21.71506000	-14.21014000
125.09999275	0.00000000	-22.09030000	-14.16708000
125.29999274	0.00000000	-22.13336000	-13.79183000
125.49999273	0.00000000	-22.09030000	-13.04749000
125.69999271	0.00000000	-21.66585000	-12.67224000
125.89999270	0.00000000	-20.55241000	-12.62918000
126.09999269	0.00000000	-19.38976000	-12.62918000
126.29999268	0.00000000	-18.59621000	-12.62918000
126.49999267	0.00000000	-17.80881000	-12.67224000
126.69999265	0.00000000	-17.48277000	-13.04749000
126.89999264	0.00000000	-17.85802000	-13.79183000
127.09999263	0.00000000	-19.01451000	-14.21014000
127.29999262	0.00000000	-20.50935000	-14.62844000
127.49999261	0.00000000	-21.71506000	-15.36663000
127.69999260	0.00000000	-22.50861000	-15.69267000
127.89999258	0.00000000	-23.24680000	-15.36663000
128.09999257	0.00000000	-23.24680000	-14.62844000
128.29999256	0.00000000	-22.50861000	-14.25320000
128.49999255	0.00000000	-21.71506000	-14.21014000
128.69999254	0.00000000	-20.50935000	-14.21014000
128.89999252	0.00000000	-19.01451000	-14.21014000
129.09999251	0.00000000	-17.90108000	-14.21014000
129.29999250	0.00000000	-17.85802000	-14.25320000
129.49999249	0.00000000	-18.59621000	-14.67150000
129.69999248	0.00000000	-19.38976000	-15.74188000
129.89999246	0.00000000	-20.59547000	-16.48007000
130.09999245	0.00000000	-22.04109000	-16.16018000
130.29999244	0.00000000	-22.82849000	-15.78494000
130.49999243	0.00000000	-22.50861000	-15.36663000
130.69999242	0.00000000	-22.13336000	-14.62844000
130.89999241	0.00000000	-21.71506000	-14.25320000
131.09999239	0.00000000	-20.92766000	-14.21014000
131.29999238	0.00000000	-20.17716000	-14.21014000
131.49999237	0.00000000	-19.38976000	-14.25320000
131.69999236	0.00000000	-19.06373000	-14.62844000
131.89999235	0.00000000	-19.38976000	-15.36663000
132.09999233	0.00000000	-20.13410000	-15.74188000
132.29999232	0.00000000	-20.55241000	-15.78494000
132.49999231	0.00000000	-20.97072000	-15.78494000
132.69999230	0.00000000	-21.71506000	-15.74188000
132.89999229	0.00000000	-22.09030000	-15.36663000
133.09999227	0.00000000	-22.09030000	-14.58538000
133.29999226	0.00000000	-21.71506000	-13.83489000
133.49999225	0.00000000	-20.97072000	-13.04749000
133.69999224	0.00000000	-20.59547000	-12.67224000
133.89999223	0.00000000	-20.55241000	-12.67224000
134.09999222	0.00000000	-20.55241000	-13.04749000
134.29999220	0.00000000	-20.55241000	-13.83489000
134.49999219	0.00000000	-20.55241000	-14.58538000
134.69999218	0.00000000	-20.55241000	-15.36663000
134.89999217	0.00000000	-20.55241000	-15.74188000
135.09999216	0.00000000	-20.55241000	-15.78494000
135.29999214	0.00000000	-20.55241000	-15.74188000
135.49999213	0.00000000	-20.55241000	-15.36663000
135.69999212	0.00000000	-20.55241000	-14.62844000
135.89999211	0.00000000	-20.59547000	-14.21014000
136.09999210	0.00000000	-20.97072000	-13.79183000
136.29999208	0.00000000	-21.71506000	-13.04749000
136.49999207	0.00000000	-22.09030000	-12.67224000
136.69999206	0.00000000	-22.13336000	-12.67224000
136.89999205	0.00000000	-22.09030000	-13.04749000
137.09999204	0.00000000	-21.71506000	-13.79183000
137.29999203	0.00000000	-20.92766000	-14.21014000
137.49999201	0.00000000	-20.17716000	-14.62844000
137.69999200	0.00000000	-19.38976000	-15.36663000
137.89999199	0.00000000	-19.06373000	-15.74188000
138.09999198	0.00000000	-19.38976000	-15.78494000
138.29999197	0.00000000	-20.17716000	-15.78494000
138.49999195	0.00000000	-20.92766000	-15.74188000
138.69999194	0.00000000	-21.71506000	-15.36663000
138.89999193	0.00000000	-22.09030000	-14.58538000
139.09999192	0.00000000	-22.13336000	-13.83489000
139.29999191	0.00000000	-22.13336000	-13.04749000
139.49999189	0.00000000	-22.09030000	-12.67224000
139.69999188	0.00000000	-21.71506000	-12.62918000
139.89999187	0.00000000	-20.97072000	-12.67224000
140.09999186	0.00000000	-20.59547000	-13.09670000
140.29999185	0.00000000	-20.55241000	-14.21014000
140.49999184	0.00000000	-20.55241000	-15.32357000
140.69999182	0.00000000	-20.55241000	-15.78494000
140.89999181	0.00000000	-20.59547000	-16.16018000
141.09999180	0.00000000	-20.97072000	-16.52928000
141.29999179	0.00000000	-21.71506000	-16.16018000
141.49999178	0.00000000	-22.09030000	-15.78494000
141.69999176	0.00000000	-22.09030000	-15.36663000
141.89999175	0.00000000	-21.75812000	-14.58538000
142.09999174	0.00000000	-21.34596000	-13.83489000
142.29999173	0.00000000	-21.33981000	-13.04749000
142.49999172	0.00000000	-20.92766000	-12.72146000
142.69999170	0.00000000	-20.59547000	-13.04749000
142.89999169	0.00000000	-20.59547000	-13.83489000
143.09999168	0.00000000	-20.97072000	-14.58538000
143.29999167	0.00000000	-21.71506000	-15.36663000
143.49999166	0.00000000	-22.09030000	-15.78494000
143.69999165	0.00000000	-22.13336000	-16.16018000
143.89999163	0.00000000	-22.13336000	-16.52928000
144.09999162	0.00000000	-22.13336000	-16.16018000
144.29999161	0.00000000	-22.09030000	-15.78494000
144.49999160	0.00000000	-21.71506000	-15.36663000
144.69999159	0.00000000	-20.97072000	-14.62844000
144.89999157	0.00000000	-20.64468000	-14.21014000
145.09999156	0.00000000	-20.97072000	-13.83489000
145.29999155	0.00000000	-21.71506000	-13.46580000
145.49999154	0.00000000	-22.09030000	-13.83489000
145.69999153	0.00000000	-22.13336000	-14.21014000
145.89999151	0.00000000	-22.13336000	-14.67150000
146.09999150	0.00000000	-22.13336000	-15.74188000
146.29999149	0.00000000	-22.13336000	-16.48007000
146.49999148	0.00000000	-22.13336000	-16.16018000
146.69999147	0.00000000	-22.13336000	-15.82800000
146.89999146	0.00000000	-22.09030000	-15.74188000
147.09999144	0.00000000	-21.75812000	-15.36663000
147.29999143	0.00000000	-21.38902000	-14.62844000
147.49999142	0.00000000	-21.75812000	-14.25320000
147.69999141	0.00000000	-22.09030000	-14.21014000
147.89999140	0.00000000	-22.13336000	-14.21014000
148.09999138	0.00000000	-22.13336000	-14.21014000
148.29999137	0.00000000	-22.13336000	-14.21014000
148.49999136	0.00000000	-22.13336000	-14.21014000
148.69999135	0.00000000	-22.13336000	-14.25320000
148.89999134	0.00000000	-22.13336000	-14.62844000
149.09999132	0.00000000	-22.13336000	-15.36663000
149.29999131	0.00000000	-22.13336000	-15.74188000
149.49999130	0.00000000	-22.09030000	-15.78494000
149.69999129	0.00000000	-21.71506000	-15.74188000
149.89999128	0.00000000	-20.97072000	-15.36663000
150.09999127	0.00000000	-20.64468000	-14.58538000
150.29999125	0.00000000	-20.92766000	-13.87795000
150.49999124	0.00000000	-21.33981000	-13.46580000
150.69999123	0.00000000	-21.34596000	-13.83489000
150.89999122	0.00000000	-21.75812000	-14.16708000
151.09999121	0.00000000	-22.09030000	-14.21014000
151.29999119	0.00000000	-22.13336000	-14.21014000
151.49999118	0.00000000	-22.13336000	-14.21014000
151.69999117	0.00000000	-22.13336000	-14.25320000
151.89999116	0.00000000	-22.13336000	-14.62844000
152.09999115	0.00000000	-22.13336000	-15.36663000
152.29999113	0.00000000	-22.09030000	-15.69267000
152.49999112	0.00000000	-21.75812000	-15.36663000
152.69999111	0.00000000	-21.34596000	-14.62844000
152.89999110	0.00000000	-21.33981000	-14.25320000
153.09999109	0.00000000	-20.97072000	-14.21014000
153.29999108	0.00000000	-21.01993000	-14.21014000
153.49999106	0.00000000	-21.71506000	-14.21014000
153.69999105	0.00000000	-22.09030000	-14.21014000
153.89999104	0.00000000	-22.17643000	-14.21014000
154.09999103	0.00000000	-22.55167000	-14.21014000
154.29999102	0.00000000	-23.29601000	-14.21014000
154.49999100	0.00000000	-23.62205000	-14.21014000
154.69999099	0.00000000	-23.29601000	-14.21014000
154.89999098	0.00000000	-22.55167000	-14.25320000
155.09999097	0.00000000	-22.17643000	-14.62844000
155.29999096	0.00000000	-22.09030000	-15.36663000
155.49999094	0.00000000	-21.71506000	-15.74188000
155.69999093	0.00000000	-20.97072000	-15.78494000
155.89999092	0.00000000	-20.64468000	-15.74188000
156.09999091	0.00000000	-20.97072000	-15.36663000
156.29999090	0.00000000	-21.71506000	-14.62844000
156.49999089	0.00000000	-22.13336000	-14.25320000
156.69999087	0.00000000	-22.55167000	-14.21014000
156.89999086	0.00000000	-23.29601000	-14.21014000
157.09999085	0.00000000	-23.67126000	-14.21014000
157.29999084	0.00000000	-23.71432000	-14.21014000
157.49999083	0.00000000	-23.67126000	-14.25320000
157.69999081	0.00000000	-23.29601000	-14.62844000
157.89999080	0.00000000	-22.55167000	-15.36663000
158.09999079	0.00000000	-22.17643000	-15.74188000
158.29999078	0.00000000	-22.13336000	-15.78494000
158.49999077	0.00000000	-22.13336000	-15.78494000
158.69999075	0.00000000	-22.13336000	-15.78494000
158.89999074	0.00000000	-22.13336000	-15.78494000
159.09999073	0.00000000	-22.13336000	-15.74188000
159.29999072	0.00000000	-22.13336000	-15.36663000
159.49999071	0.00000000	-22.17643000	-14.62844000
159.69999070	0.00000000	-22.55167000	-14.25320000
159.89999068	0.00000000	-23.29601000	-14.21014000
160.09999067	0.00000000	-23.67126000	-14.21014000
160.29999066	0.00000000	-23.71432000	-14.21014000
160.49999065	0.00000000	-23.67126000	-14.25320000
160.69999064	0.00000000	-23.33907000	-14.62844000
160.89999062	0.00000000	-22.96998000	-15.36663000
161.09999061	0.00000000	-23.29601000	-15.74188000
161.29999060	0.00000000	-23.24680000	-15.78494000
161.49999059	0.00000000	-22.55167000	-15.78494000
161.69999058	0.00000000	-22.17643000	-15.78494000
161.89999056	0.00000000	-22.13336000	-15.78494000
162.09999055	0.00000000	-22.13336000	-15.74188000
162.29999054	0.00000000	-22.13336000	-15.36663000
162.49999053	0.00000000	-22.13336000	-14.62844000
162.69999052	0.00000000	-22.17643000	-14.30241000
162.89999051	0.00000000	-22.55167000	-14.62844000
163.09999049	0.00000000	-23.29601000	-15.36663000
163.29999048	0.00000000	-23.67126000	-15.74188000
163.49999047	0.00000000	-23.71432000	-15.78494000
163.69999046	0.00000000	-23.71432000	-15.78494000
163.89999045	0.00000000	-23.71432000	-15.78494000
164.09999043	0.00000000	-23.71432000	-15.78494000
164.29999042	0.00000000	-23.67126000	-15.78494000
164.49999041	0.00000000	-23.29601000	-15.78494000
164.69999040	0.00000000	-22.55167000	-15.78494000
164.89999039	0.00000000	-22.17643000	-15.78494000
165.09999037	0.00000000	-22.13336000	-15.78494000
165.29999036	0.00000000	-22.13336000	-15.78494000
165.49999035	0.00000000	-22.17643000	-15.78494000
165.69999034	0.00000000	-22.55167000	-15.78494000
165.89999033	0.00000000	-23.29601000	-15.78494000
166.09999032	0.00000000	-23.67126000	-15.78494000
166.29999030	0.00000000	-23.67126000	-15.74188000
166.49999029	0.00000000	-23.33907000	-15.36663000
166.69999028	0.00000000	-22.96998000	-14.67150000
166.89999027	0.00000000	-23.33907000	-14.67150000
167.09999026	0.00000000	-23.67126000	-15.36663000
167.29999024	0.00000000	-23.67126000	-15.74188000
167.49999023	0.00000000	-23.29601000	-15.78494000
167.69999022	0.00000000	-22.55167000	-15.74188000
167.89999021	0.00000000	-22.17643000	-15.36663000
168.09999020	0.00000000	-22.13336000	-14.62844000
168.29999018	0.00000000	-22.13336000	-14.30241000
168.49999017	0.00000000	-22.17643000	-14.58538000
168.69999016	0.00000000	-22.50861000	-14.94833000
168.89999015	0.00000000	-22.92076000	-14.62844000
169.09999014	0.00000000	-22.92692000	-14.67150000
169.29999013	0.00000000	-23.33907000	-15.36663000
169.49999011	0.00000000	-23.67126000	-15.74188000
169.69999010	0.00000000	-23.71432000	-15.78494000
169.89999009	0.00000000	-23.71432000	-15.78494000
170.09999008	0.00000000	-23.71432000	-15.78494000
170.29999007	0.00000000	-23.71432000	-15.78494000
170.49999005	0.00000000	-23.71432000	-15.78494000
170.69999004	0.00000000	-23.71432000	-15.78494000
170.89999003	0.00000000	-23.71432000	-15.78494000
171.09999002	0.00000000	-23.71432000	-15.78494000
171.29999001	0.00000000	-23.71432000	-15.78494000
171.49998999	0.00000000	-23.71432000	-15.78494000
171.69998998	0.00000000	-23.71432000	-15.78494000
171.89998997	0.00000000	-23.71432000	-15.78494000
172.09998996	0.00000000	-23.71432000	-15.78494000
172.29998995	0.00000000	-23.71432000	-15.78494000
172.49998994	0.00000000	-23.71432000	-15.78494000
172.69998992	0.00000000	-23.71432000	-15.78494000
172.89998991	0.00000000	-23.71432000	-15.78494000
173.09998990	0.00000000	-23.71432000	-15.78494000
173.29998989	0.00000000	-23.71432000	-15.78494000
173.49998988	0.00000000	-23.71432000	-15.78494000
173.69998986	0.00000000	-23.71432000	-15.78494000
173.89998985	0.00000000	-23.71432000	-15.78494000
174.09998984	0.00000000	-23.71432000	-15.78494000
174.29998983	0.00000000	-23.71432000	-15.78494000
174.49998982	0.00000000	-23.71432000	-15.78494000
174.69998980	0.00000000	-23.71432000	-15.78494000
174.89998979	0.00000000	-23.71432000	-15.78494000
175.09998978	0.00000000	-23.71432000	-15.78494000
175.29998977	0.00000000	-23.71432000	-15.78494000
175.49998976	0.00000000	-23.71432000	-15.78494000
175.69998975	0.00000000	-23.71432000	-15.78494000
175.89998973	0.00000000	-23.71432000	-15.78494000
176.09998972	0.00000000	-23.71432000	-15.78494000
176.29998971	0.00000000	-23.71432000	-15.78494000
176.49998970	0.00000000	-23.71432000	-15.78494000
176.69998969	0.00000000	-23.71432000	-15.78494000
176.89998967	0.00000000	-23.71432000	-15.78494000
177.09998966	0.00000000	-23.71432000	-15.78494000
177.29998965	0.00000000	-23.71432000	-15.78494000
177.49998964	0.00000000	-23.71432000	-15.78494000
177.69998963	0.00000000	-23.71432000	-15.78494000
177.89998961	0.00000000	-23.71432000	-15.78494000
178.09998960	0.00000000	-23.67126000	-15.78494000
178.29998959	0.00000000	-23.33907000	-15.78494000
178.49998958	0.00000000	-22.96998000	-15.78494000
178.69998957	0.00000000	-23.33907000	-15.78494000
178.89998956	0.00000000	-23.67126000	-15.78494000
179.09998954	0.00000000	-23.71432000	-15.78494000
179.29998953	0.00000000	-23.71432000	-15.78494000
179.49998952	0.00000000	-23.71432000	-15.78494000
179.69998951	0.00000000	-23.71432000	-15.78494000
179.89998950	0.00000000	-23.71432000	-15.78494000
180.09998948	0.00000000	-23.71432000	-15.78494000
180.29998947	0.00000000	-23.71432000	-15.78494000
180.49998946	0.00000000	-23.71432000	-15.78494000
180.69998945	0.00000000	-23.71432000	-15.78494000
180.89998944	0.00000000	-23.71432000	-15.78494000
181.09998942	0.00000000	-23.71432000	-15.78494000
181.29998941	0.00000000	-23.71432000	-15.78494000
181.49998940	0.00000000	-23.71432000	-15.78494000
181.69998939	0.00000000	-23.71432000	-15.78494000
181.89998938	0.00000000	-23.71432000	-15.78494000
182.09998937	0.00000000	-23.71432000	-15.78494000
182.29998935	0.00000000	-23.71432000	-15.78494000
182.49998934	0.00000000	-23.71432000	-15.78494000
182.69998933	0.00000000	-23.71432000	-15.78494000
182.89998932	0.00000000	-23.71432000	-15.78494000
183.09998931	0.00000000	-23.71432000	-15.78494000
183.29998929	0.00000000	-23.71432000	-15.78494000
183.49998928	0.00000000	-23.71432000	-15.78494000
183.69998927	0.00000000	-23.71432000	-15.78494000
183.89998926	0.00000000	-23.71432000	-15.78494000
184.09998925	0.00000000	-23.71432000	-15.74188000
184.29998923	0.00000000	-23.71432000	-15.36663000
184.49998922	0.00000000	-23.71432000	-14.62844000
184.69998921	0.00000000	-23.71432000	-14.25320000
184.89998920	0.00000000	-23.71432000	-14.21014000
185.09998919	0.00000000	-23.71432000	-14.25320000
185.29998918	0.00000000	-23.71432000	-14.62844000
185.49998916	0.00000000	-23.71432000	-15.36663000
185.69998915	0.00000000	-23.71432000	-15.74188000
185.89998914	0.00000000	-23.71432000	-15.78494000
186.09998913	0.00000000	-23.71432000	-15.78494000
186.29998912	0.00000000	-23.71432000	-15.78494000
186.49998910	0.00000000	-23.71432000	-15.78494000
186.69998909	0.00000000	-23.71432000	-15.78494000
186.89998908	0.00000000	-23.71432000	-15.78494000
187.09998907	0.00000000	-23.71432000	-15.74188000
187.29998906	0.00000000	-23.75738000	-15.36663000
187.49998904	0.00000000	-24.08957000	-14.62844000
187.69998903	0.00000000	-24.45866000	-14.30241000
187.89998902	0.00000000	-24.08957000	-14.62844000
188.09998901	0.00000000	-23.75738000	-15.36663000
188.29998900	0.00000000	-23.71432000	-15.74188000
188.49998899	0.00000000	-23.71432000	-15.78494000
188.69998897	0.00000000	-23.71432000	-15.82800000
188.89998896	0.00000000	-23.71432000	-16.20325000
189.09998895	0.00000000	-23.71432000	-16.94759000
189.29998894	0.00000000	-23.75738000	-17.27362000
189.49998893	0.00000000	-24.08957000	-16.94759000
189.69998891	0.00000000	-24.50172000	-16.20325000
189.89998890	0.00000000	-24.50787000	-15.82800000
190.09998889	0.00000000	-24.92003000	-15.78494000
190.29998888	0.00000000	-25.25221000	-15.78494000
190.49998887	0.00000000	-25.29527000	-15.78494000
190.69998885	0.00000000	-25.25221000	-15.78494000
190.89998884	0.00000000	-24.92003000	-15.78494000
191.09998883	0.00000000	-24.50787000	-15.78494000
191.29998882	0.00000000	-24.50172000	-15.78494000
191.49998881	0.00000000	-24.08957000	-15.78494000
191.69998880	0.00000000	-23.75738000	-15.78494000
191.89998878	0.00000000	-23.71432000	-15.82800000
192.09998877	0.00000000	-23.71432000	-16.16018000
192.29998876	0.00000000	-23.71432000	-16.57234000
192.49998875	0.00000000	-23.75738000	-16.57849000
192.69998874	0.00000000	-24.13263000	-16.94759000
192.89998872	0.00000000	-24.87697000	-16.89837000
193.09998871	0.00000000	-25.25221000	-16.20325000
193.29998870	0.00000000	-25.29527000	-15.82800000
193.49998869	0.00000000	-25.29527000	-15.78494000
193.69998868	0.00000000	-25.29527000	-15.78494000
193.89998866	0.00000000	-25.29527000	-15.78494000
194.09998865	0.00000000	-25.25221000	-15.82800000
194.29998864	0.00000000	-24.92003000	-16.16018000
194.49998863	0.00000000	-24.55093000	-16.52928000
194.69998862	0.00000000	-24.87697000	-16.16018000
194.89998861	0.00000000	-24.87697000	-15.82800000
195.09998859	0.00000000	-24.55093000	-15.78494000
195.29998858	0.00000000	-24.87697000	-15.78494000
195.49998857	0.00000000	-24.87697000	-15.78494000
195.69998856	0.00000000	-24.55093000	-15.78494000
195.89998855	0.00000000	-24.92003000	-15.78494000
196.09998853	0.00000000	-25.25221000	-15.82800000
