Time	Channel A	Channel B	Channel C
(us)	(V)	(mV)	(mV)

-4.49999956	0.00000000	28.45718000	17.36589000
-4.29999957	0.00000000	28.45718000	17.36589000
-4.09999958	0.00000000	28.45718000	17.36589000
-3.89999959	0.00000000	28.45718000	17.36589000
-3.69999960	0.00000000	28.45718000	17.36589000
-3.49999962	0.00000000	28.45718000	17.36589000
-3.29999963	0.00000000	28.45718000	17.36589000
-3.09999964	0.00000000	28.50024000	17.36589000
-2.89999965	0.00000000	28.83243000	17.36589000
-2.69999966	0.00000000	29.20152000	17.36589000
-2.49999968	0.00000000	28.87549000	17.36589000
-2.29999969	0.00000000	28.87549000	17.36589000
-2.09999970	0.00000000	29.20152000	17.36589000
-1.89999971	0.00000000	28.83243000	17.36589000
-1.69999972	0.00000000	28.50024000	17.36589000
-1.49999973	0.00000000	28.50024000	17.36589000
-1.29999975	0.00000000	28.83243000	17.36589000
-1.09999976	0.00000000	29.20152000	17.36589000
-0.89999977	0.00000000	28.83243000	17.36589000
-0.69999978	0.00000000	28.50024000	17.36589000
-0.49999979	0.00000000	28.45718000	17.36589000
-0.29999981	0.31803640	28.45718000	17.36589000
-0.09999982	0.63668800	28.45718000	17.36589000
0.10000017	0.95533960	28.45718000	17.36589000
0.30000016	0.95533960	28.45718000	17.36589000
0.50000015	0.79601380	28.45718000	17.36589000
0.70000013	0.31803640	28.45718000	17.36589000
0.90000012	-0.47736220	28.45718000	17.36589000
1.10000011	-1.59264300	28.45718000	17.36589000
1.30000010	-2.38927200	28.45718000	17.36589000
1.50000009	-2.86724900	28.45718000	17.40895000
1.70000008	-2.38927200	28.45718000	17.74114000
1.90000006	-1.27399100	28.45718000	18.11024000
2.10000005	0.63668800	28.45718000	17.74114000
2.30000004	2.70792300	28.45718000	17.40895000
2.50000003	4.61921700	28.45718000	17.36589000
2.70000002	5.41584600	28.45718000	17.36589000
2.90000000	4.77854300	28.45718000	17.32283000
3.09999999	2.70792300	28.45718000	16.94759000
3.29999998	-0.31803640	28.45718000	16.25246000
3.49999997	-3.66326300	28.45718000	16.25246000
3.69999996	-6.53112700	28.45718000	16.94759000
3.89999994	-7.96444400	28.45718000	17.36589000
4.09999993	-7.32714100	28.50024000	17.74114000
4.29999992	-4.77854300	28.83243000	18.11024000
4.49999991	-0.79601380	29.20152000	17.74114000
4.69999990	3.66326300	28.83243000	17.40895000
4.89999989	7.32714100	28.50024000	17.32283000
5.09999987	9.23905000	28.45718000	16.94759000
5.29999986	8.92039900	28.45718000	16.20325000
5.49999985	6.37180100	28.45718000	15.82800000
5.69999984	2.22994600	28.45718000	15.82800000
5.89999983	-2.54859700	28.45718000	16.20325000
6.09999981	-6.69045300	28.45718000	16.94759000
6.29999980	-9.23905000	28.45718000	17.32283000
6.49999979	-9.23905000	28.50024000	17.36589000
6.69999978	-7.00848900	28.83243000	17.36589000
6.89999977	-3.18590100	29.24459000	17.36589000
7.09999975	1.27399100	29.25074000	17.36589000
7.29999974	4.93786900	29.61983000	17.36589000
7.49999973	7.32714100	29.57062000	17.36589000
7.69999972	7.64579200	28.87549000	17.36589000
7.89999971	6.05315000	28.50024000	17.36589000
8.09999970	3.34522600	28.45718000	17.36589000
8.29999968	-0.15871060	28.45718000	17.36589000
8.49999967	-3.02657500	28.45718000	17.36589000
8.69999966	-4.77854300	28.45718000	17.36589000
8.89999965	-5.09719500	28.45718000	17.36589000
9.09999964	-4.30056600	28.50024000	17.36589000
9.29999962	-2.54859700	28.87549000	17.36589000
9.49999961	-0.47736220	29.61983000	17.36589000
9.69999960	1.11466500	29.94586000	17.36589000
9.89999959	2.22994600	29.61983000	17.36589000
10.09999958	2.54859700	28.92470000	17.36589000
10.29999956	2.22994600	28.92470000	17.36589000
10.49999955	1.43331700	29.61983000	17.36589000
10.69999954	0.47736220	29.99508000	17.36589000
10.89999953	-0.15871060	29.99508000	17.36589000
11.09999952	-0.79601380	29.66289000	17.36589000
11.29999951	-0.95533960	29.29380000	17.40895000
11.49999949	-0.95533960	29.61983000	17.74114000
11.69999948	-0.63668800	29.61983000	18.15330000
11.89999947	-0.47736220	29.29380000	18.11639000
12.09999946	-0.15871060	29.66289000	18.15330000
12.29999945	-0.15871060	29.99508000	17.74114000
12.49999943	0.00000000	30.03814000	17.45817000
12.69999942	0.00000000	29.99508000	17.74114000
12.89999941	0.00000000	29.61983000	18.11024000
13.09999940	0.00000000	28.92470000	17.78420000
13.29999939	0.00000000	28.92470000	17.83341000
13.49999937	0.00000000	29.61983000	18.47933000
13.69999936	0.00000000	29.99508000	18.47933000
13.89999935	-0.15871060	30.03814000	17.83341000
14.09999934	-0.15871060	30.03814000	17.78420000
14.29999933	-0.15871060	30.03814000	18.11024000
14.49999932	-0.15871060	30.03814000	17.78420000
14.69999930	0.00000000	30.03814000	17.78420000
14.89999929	0.00000000	30.03814000	18.11024000
15.09999928	0.00000000	30.03814000	17.74114000
15.29999927	0.00000000	29.99508000	17.40895000
15.49999926	0.00000000	29.66289000	17.36589000
15.69999924	0.00000000	29.29380000	17.40895000
15.89999923	0.00000000	29.66289000	17.78420000
16.09999922	0.00000000	29.99508000	18.52854000
16.29999921	0.00000000	30.03814000	18.90379000
16.49999920	-0.15871060	30.03814000	18.94685000
16.69999919	-0.15871060	30.08120000	18.90379000
16.89999917	0.00000000	30.45644000	18.52854000
17.09999916	-0.15871060	31.20078000	17.78420000
17.29999915	0.00000000	31.57603000	17.40895000
17.49999914	0.00000000	31.61909000	17.36589000
17.69999913	0.00000000	31.57603000	17.36589000
17.89999911	0.00000000	31.15157000	17.36589000
18.09999910	0.00000000	29.99508000	17.36589000
18.29999909	0.00000000	28.45718000	17.36589000
18.49999908	0.00000000	26.87623000	17.36589000
18.69999907	0.00000000	25.38755000	17.36589000
18.89999905	0.00000000	24.60015000	17.36589000
19.09999904	0.00000000	25.01230000	17.36589000
19.29999903	0.00000000	26.18110000	17.36589000
19.49999902	0.00000000	28.59252000	17.36589000
19.69999901	0.00000000	32.03740000	17.36589000
19.89999900	0.00000000	35.90059000	17.36589000
20.09999898	0.00000000	38.97638000	17.36589000
20.29999897	0.00000000	40.51427000	17.36589000
20.49999896	0.00000000	40.04675000	17.36589000
20.69999895	0.00000000	36.88484000	17.36589000
20.89999894	0.00000000	31.06545000	17.36589000
21.09999892	0.00000000	23.71432000	17.36589000
21.29999891	0.00000000	16.40625000	17.36589000
21.49999890	0.00000000	11.06053000	17.36589000
21.69999889	0.00000000	9.56569900	17.36589000
21.89999888	0.00000000	12.72761000	17.36589000
22.09999886	0.00000000	20.50320000	17.36589000
22.29999885	0.00000000	31.75443000	17.36589000
22.49999884	0.00000000	44.09449000	17.36589000
22.69999883	0.00000000	54.88435000	17.36589000
22.89999882	0.00000000	60.98056000	17.40895000
23.09999881	0.00000000	60.51919000	17.78420000
23.29999879	0.00000000	52.70054000	18.52854000
23.49999878	0.00000000	38.37352000	18.94685000
23.69999877	0.00000000	20.64468000	19.36516000
23.89999876	0.00000000	3.66633800	20.06029000
24.09999875	0.00000000	-8.24926100	20.06029000
24.29999873	0.00000000	-12.06324000	19.32210000
24.49999872	0.00000000	-6.15772600	18.52854000
24.69999871	0.00000000	8.91978400	17.32283000
24.89999870	0.00000000	30.13041000	15.78494000
25.09999869	0.00000000	52.14074000	14.25320000
25.29999867	0.00000000	69.91879000	13.09670000
25.49999866	0.00000000	79.54601000	12.76452000
25.69999865	0.00000000	78.29724000	13.60113000
25.89999864	0.00000000	65.91412000	16.29552000
26.09999863	0.00000000	44.69734000	20.15256000
26.29999862	0.00000000	19.99262000	24.01575000
26.49999860	0.00000000	-2.43602300	27.49138000
26.69999859	0.00000000	-17.87647000	29.35531000
26.89999858	0.00000000	-22.48400000	28.98007000
27.09999857	0.00000000	-15.13287000	26.19955000
27.29999856	0.00000000	2.59596400	21.08760000
27.49999854	0.00000000	26.50098000	13.74262000
27.69999853	0.00000000	50.46752000	5.70866100
27.89999852	0.00000000	69.45128000	-0.42445860
28.09999851	0.00000000	79.50295000	-3.07578700
28.29999850	0.00000000	78.38336000	-1.11958700
28.49999848	0.00000000	66.84301000	5.51796200
28.69999847	0.00000000	47.95152000	15.55733000
28.89999846	0.00000000	26.27337000	27.58366000
29.09999845	0.00000000	6.53912400	38.69341000
29.29999844	0.00000000	-7.41264700	46.40133000
29.49999843	0.00000000	-12.48154000	48.26525000
29.69999841	0.00000000	-8.29232200	43.62082000
29.89999840	0.00000000	3.66633800	33.12008000
30.09999839	0.00000000	20.64468000	18.43627000
30.29999838	0.00000000	38.41658000	2.63902500
30.49999837	0.00000000	53.21112000	-10.46383000
30.69999835	0.00000000	62.51845000	-17.80266000
30.89999834	0.00000000	64.88680000	-17.75960000
31.09999833	0.00000000	59.91018000	-9.99630800
31.29999832	0.00000000	49.48942000	4.31225400
31.49999831	0.00000000	35.94980000	22.05955000
31.69999829	0.00000000	22.03494000	39.43774000
31.89999828	0.00000000	11.14665000	52.58366000
32.09999827	0.00000000	4.91510800	58.72293000
32.29999826	0.00000000	4.12770700	56.39148000
32.49999825	0.00000000	9.10433000	45.62008000
32.69999824	0.00000000	17.98720000	29.39837000
32.89999822	0.00000000	28.83243000	11.18356000
33.09999821	0.00000000	39.67150000	-5.77017700
33.29999820	0.00000000	47.77313000	-17.38435000
33.49999819	0.00000000	51.67323000	-21.29060000
33.69999818	0.00000000	50.51673000	-17.42741000
33.89999816	0.00000000	44.78961000	-6.18848400
34.09999815	0.00000000	36.31890000	9.98400600
34.29999814	0.00000000	27.42987000	27.35605000
34.49999813	0.00000000	20.07874000	42.03986000
34.69999812	0.00000000	15.84646000	50.95964000
34.89999810	0.00000000	15.80339000	52.54060000
35.09999809	0.00000000	19.56816000	46.77657000
35.29999808	0.00000000	25.38755000	35.16240000
35.49999807	0.00000000	31.95128000	20.15256000
35.69999806	0.00000000	38.09055000	5.10580700
35.89999805	0.00000000	41.53543000	-6.05314900
36.09999803	0.00000000	41.58464000	-11.10974000
36.29999802	0.00000000	38.55192000	-8.83366100
36.49999801	0.00000000	33.57529000	-0.42445860
36.69999800	0.00000000	28.54946000	11.51575000
36.89999799	0.00000000	24.26796000	24.20029000
37.09999797	0.00000000	21.61663000	34.19045000
37.29999796	0.00000000	21.61663000	38.88410000
37.49999795	0.00000000	24.26796000	37.77067000
37.69999794	0.00000000	28.50024000	31.58834000
37.89999793	0.00000000	33.15699000	21.64124000
38.09999791	0.00000000	37.34621000	10.95595000
38.29999790	0.00000000	39.67150000	3.28494100
38.49999789	0.00000000	39.35162000	0.54749010
38.69999788	0.00000000	37.43848000	3.24188000
38.89999787	0.00000000	34.27657000	10.48843000
39.09999786	0.00000000	30.08735000	20.06029000
39.29999784	0.00000000	26.22416000	28.84473000
39.49999783	0.00000000	23.84965000	34.23351000
39.69999782	0.00000000	22.64394000	34.60876000
39.89999781	0.00000000	22.68701000	30.00123000
40.09999780	0.00000000	24.26796000	21.54897000
40.29999778	0.00000000	27.34375000	11.60187000
40.49999777	0.00000000	31.20078000	3.19266700
40.69999776	0.00000000	34.69488000	-1.03346500
40.89999775	0.00000000	37.43848000	0.12918310
41.09999774	0.00000000	39.01944000	6.26230300
41.29999772	0.00000000	39.39468000	15.87721000
41.49999771	0.00000000	38.60113000	26.19340000
41.69999770	0.00000000	36.27584000	34.32578000
41.89999769	0.00000000	33.20005000	38.13976000
42.09999768	0.00000000	30.03814000	37.02018000
42.29999767	0.00000000	26.96850000	30.88705000
42.49999765	0.00000000	24.64321000	22.10261000
42.69999764	0.00000000	23.89271000	13.22589000
42.89999763	0.00000000	24.60015000	6.26230300
43.09999762	0.00000000	26.54404000	2.77436000
43.29999761	0.00000000	28.83243000	3.10039400
43.49999759	0.00000000	31.20078000	6.95743000
43.69999758	0.00000000	33.11393000	13.09670000
43.89999757	0.00000000	34.36884000	20.01722000
44.09999756	0.00000000	35.16240000	25.82431000
44.29999755	0.00000000	35.90059000	29.31225000
44.49999753	0.00000000	35.90059000	30.09350000
44.69999752	0.00000000	35.20546000	27.82357000
44.89999751	0.00000000	34.83022000	23.68356000
45.09999750	0.00000000	34.74409000	19.40822000
45.29999749	0.00000000	34.27657000	15.87721000
45.49999748	0.00000000	32.68946000	13.18282000
45.69999746	0.00000000	29.99508000	12.02018000
45.89999745	0.00000000	26.87623000	12.76452000
46.09999744	0.00000000	23.80659000	14.62844000
46.29999743	0.00000000	21.52436000	16.99065000
46.49999742	0.00000000	21.14911000	19.32210000
46.69999740	0.00000000	22.73007000	21.64124000
46.89999739	0.00000000	26.26722000	23.12992000
47.09999738	0.00000000	31.75443000	23.21604000
47.29999737	0.00000000	38.27509000	22.43479000
47.49999736	0.00000000	44.37131000	21.26599000
47.69999734	0.00000000	47.44094000	19.27288000
47.89999733	0.00000000	46.70275000	16.99065000
48.09999732	0.00000000	42.83341000	14.67150000
48.29999731	0.00000000	36.18971000	13.18282000
48.49999730	0.00000000	28.08194000	13.13976000
48.69999729	0.00000000	19.99262000	14.29626000
48.89999727	0.00000000	14.26550000	16.25246000
49.09999726	0.00000000	12.68455000	18.98991000
49.29999725	0.00000000	15.42815000	22.05955000
49.49999724	0.00000000	21.99188000	24.71087000
49.69999723	0.00000000	31.24384000	25.82431000
49.89999721	0.00000000	40.46506000	24.71087000
50.09999720	0.00000000	47.44094000	22.01649000
50.29999719	0.00000000	50.51673000	18.52854000
50.49999718	0.00000000	48.97884000	14.62844000
50.69999717	0.00000000	43.20866000	11.22662000
50.89999715	0.00000000	34.73794000	9.28272600
51.09999714	0.00000000	25.84892000	9.69488100
51.29999713	0.00000000	18.54700000	11.97711000
51.49999712	0.00000000	14.68381000	15.87721000
51.69999711	0.00000000	15.42815000	20.43553000
51.89999710	0.00000000	20.03568000	24.29257000
52.09999708	0.00000000	27.38681000	26.24262000
52.29999707	0.00000000	35.76525000	26.28568000
52.49999706	0.00000000	42.32283000	24.71087000
52.69999705	0.00000000	45.07259000	21.59203000
52.89999704	0.00000000	44.32209000	17.40895000
53.09999702	0.00000000	40.04675000	13.55807000
53.29999701	0.00000000	33.20005000	11.22662000
53.49999700	0.00000000	26.31643000	10.48843000
53.69999699	0.00000000	21.65969000	12.02018000
53.89999698	0.00000000	20.07874000	15.40969000
54.09999696	0.00000000	21.61663000	18.81152000
54.29999695	0.00000000	25.84892000	21.17372000
54.49999694	0.00000000	31.57603000	21.96727000
54.69999693	0.00000000	36.97096000	21.64124000
54.89999692	0.00000000	40.46506000	20.43553000
55.09999691	0.00000000	41.62770000	18.57160000
55.29999689	0.00000000	40.04675000	16.67077000
55.49999688	0.00000000	35.85752000	15.92027000
55.69999687	0.00000000	30.50566000	16.29552000
55.89999686	0.00000000	25.89198000	17.87647000
56.09999685	0.00000000	23.19759000	20.52780000
56.29999683	0.00000000	23.19759000	23.12992000
56.49999682	0.00000000	25.84892000	24.24335000
56.69999681	0.00000000	30.03814000	23.12992000
56.89999680	0.00000000	34.27657000	20.43553000
57.09999679	0.00000000	37.39542000	16.94759000
57.29999677	0.00000000	38.97638000	13.13976000
57.49999676	0.00000000	38.97638000	10.48843000
57.69999675	0.00000000	37.43848000	10.11319000
57.89999674	0.00000000	34.73794000	12.06939000
58.09999673	0.00000000	31.66830000	16.33858000
58.29999672	0.00000000	28.96776000	22.10261000
58.49999670	0.00000000	27.42987000	27.82357000
58.69999669	0.00000000	27.38681000	31.67446000
58.89999668	0.00000000	28.54946000	32.42495000
59.09999667	0.00000000	30.45644000	30.09350000
59.29999666	0.00000000	32.73868000	24.66166000
59.49999664	0.00000000	34.27657000	17.36589000
59.69999663	0.00000000	34.69488000	10.07013000
59.89999662	0.00000000	34.31963000	4.73056000
60.09999661	0.00000000	33.20005000	3.19266700
60.29999660	0.00000000	32.08661000	5.84399600
60.49999658	0.00000000	31.66215000	11.65108000
60.69999657	0.00000000	31.66215000	19.36516000
60.89999656	0.00000000	32.08661000	27.44832000
61.09999655	0.00000000	33.20005000	33.58144000
61.29999654	0.00000000	34.31963000	36.27584000
61.49999653	0.00000000	34.74409000	34.74409000
61.69999651	0.00000000	34.74409000	29.35531000
61.89999650	0.00000000	34.31963000	21.64124000
62.09999649	0.00000000	33.15699000	13.13976000
62.29999648	0.00000000	31.61909000	5.88705700
62.49999647	0.00000000	30.03814000	2.03617100
62.69999645	0.00000000	28.54946000	2.73129900
62.89999644	0.00000000	27.80512000	6.95743000
63.09999643	0.00000000	28.59252000	13.50886000
63.29999642	0.00000000	30.45644000	21.26599000
63.49999641	0.00000000	32.82480000	28.14960000
63.69999639	0.00000000	35.16240000	32.83710000
63.89999638	0.00000000	37.43848000	33.95669000
64.09999637	0.00000000	38.50886000	31.71752000
64.29999636	0.00000000	37.43848000	26.66092000
64.49999635	0.00000000	35.16240000	20.15256000
64.69999634	0.00000000	32.78174000	13.55807000
64.89999632	0.00000000	30.03814000	8.53838500
65.09999631	0.00000000	27.42987000	5.80093500
65.29999630	0.00000000	26.26722000	5.75172200
65.49999629	0.00000000	27.01156000	8.07086500
65.69999628	0.00000000	28.92470000	11.93405000
65.89999626	0.00000000	31.61909000	16.94759000
66.09999625	0.00000000	34.27657000	21.54897000
66.29999624	0.00000000	35.85752000	24.75394000
66.49999623	0.00000000	36.23277000	26.75320000
66.69999622	0.00000000	35.43922000	27.86663000
66.89999620	0.00000000	33.15699000	27.49138000
67.09999619	0.00000000	30.54872000	25.59055000
67.29999618	0.00000000	28.96776000	23.26525000
67.49999617	0.00000000	28.59252000	20.43553000
67.69999616	0.00000000	29.38607000	16.99065000
67.89999615	0.00000000	31.71137000	13.51501000
68.09999613	0.00000000	34.73794000	11.18356000
68.29999612	0.00000000	37.39542000	9.98400600
68.49999611	0.00000000	38.55807000	9.98400600
68.69999610	0.00000000	37.81373000	11.18356000
68.89999609	0.00000000	35.81446000	13.60113000
69.09999607	0.00000000	32.32037000	17.83341000
69.29999606	0.00000000	27.76206000	22.79773000
69.49999605	0.00000000	24.36024000	26.70398000
69.69999604	0.00000000	23.15453000	29.44759000
69.89999603	0.00000000	24.31102000	30.51796000
70.09999601	0.00000000	27.42987000	28.98007000
70.29999600	0.00000000	32.08661000	25.12918000
70.49999599	0.00000000	37.48154000	20.10950000
70.69999598	0.00000000	42.09522000	14.67766000
70.89999597	0.00000000	44.78961000	10.07013000
71.09999596	0.00000000	44.74655000	7.37573800
71.29999594	0.00000000	41.67076000	7.37573800
71.49999593	0.00000000	36.27584000	10.02707000
71.69999592	0.00000000	30.08735000	14.25320000
71.89999591	0.00000000	24.31102000	18.90379000
72.09999590	0.00000000	20.45399000	23.17298000
72.29999588	0.00000000	19.66043000	26.24262000
72.49999587	0.00000000	21.57357000	27.39911000
72.69999586	0.00000000	25.84892000	26.28568000
72.89999585	0.00000000	31.61909000	23.64050000
73.09999584	0.00000000	37.43848000	20.57087000
73.29999582	0.00000000	42.09522000	17.87647000
73.49999581	0.00000000	44.78961000	16.29552000
73.69999580	0.00000000	44.78961000	15.87721000
73.89999579	0.00000000	42.09522000	16.25246000
74.09999578	0.00000000	37.48154000	17.40895000
74.29999577	0.00000000	32.08661000	18.85458000
74.49999575	0.00000000	27.47293000	19.64198000
74.69999574	0.00000000	24.73548000	19.22982000
74.89999573	0.00000000	24.26796000	18.15330000
75.09999572	0.00000000	25.47367000	16.62155000
75.29999571	0.00000000	28.13730000	15.87721000
75.49999569	0.00000000	31.98819000	15.87721000
75.69999568	0.00000000	35.07013000	16.75689000
75.89999567	0.00000000	37.43848000	19.45743000
76.09999566	0.00000000	38.55807000	23.21604000
76.29999565	0.00000000	37.85679000	26.28568000
76.49999563	0.00000000	36.36811000	27.82357000
76.69999562	0.00000000	34.83022000	27.44832000
76.89999561	0.00000000	33.61835000	25.08612000
77.09999560	0.00000000	32.82480000	21.22293000
77.29999559	0.00000000	32.08661000	16.16018000
77.49999558	0.00000000	32.08661000	11.22662000
77.69999556	0.00000000	32.78174000	7.75098400
77.89999555	0.00000000	33.10777000	7.00049200
78.09999554	0.00000000	32.78174000	8.90747900
78.29999553	0.00000000	31.99434000	13.18282000
78.49999552	0.00000000	31.24384000	18.94685000
78.69999550	0.00000000	30.50566000	24.75394000
78.89999549	0.00000000	30.54872000	29.40452000
79.09999548	0.00000000	31.71137000	32.04970000
79.29999547	0.00000000	33.61835000	31.67446000
79.49999546	0.00000000	35.94980000	28.24188000
79.69999544	0.00000000	37.85679000	23.21604000
79.89999543	0.00000000	38.97638000	17.45817000
80.09999542	0.00000000	38.60113000	12.39542000
80.29999541	0.00000000	36.70029000	9.27657400
80.49999540	0.00000000	34.36884000	7.70792300
80.69999539	0.00000000	31.61909000	8.53223400
80.89999537	0.00000000	28.96776000	11.51575000
81.09999536	0.00000000	27.42987000	15.40969000
81.29999535	0.00000000	27.42987000	19.32210000
81.49999534	0.00000000	28.92470000	23.21604000
81.69999533	0.00000000	31.24384000	26.28568000
81.89999531	0.00000000	33.57529000	27.86663000
82.09999530	0.00000000	35.90059000	27.86663000
82.29999529	0.00000000	37.43848000	26.32874000
82.49999528	0.00000000	37.85679000	23.64050000
82.69999527	0.00000000	37.43848000	20.52780000
82.89999525	0.00000000	35.90059000	17.36589000
83.09999524	0.00000000	33.61835000	14.25320000
83.29999523	0.00000000	31.71137000	11.55881000
83.49999522	0.00000000	30.50566000	10.02707000
83.69999521	0.00000000	30.13041000	10.02707000
83.89999520	0.00000000	30.45644000	11.55881000
84.09999518	0.00000000	31.24384000	14.29626000
84.29999517	0.00000000	32.03740000	17.83341000
84.49999516	0.00000000	33.15699000	22.05955000
84.69999515	0.00000000	33.90133000	25.91043000
84.89999514	0.00000000	33.57529000	28.24188000
85.09999512	0.00000000	33.24311000	28.98007000
85.29999511	0.00000000	33.24311000	27.44832000
85.49999510	0.00000000	33.61835000	23.96653000
85.69999509	0.00000000	34.36884000	19.73425000
85.89999508	0.00000000	34.78716000	15.04675000
86.09999506	0.00000000	35.16240000	11.22662000
86.29999505	0.00000000	35.48228000	8.86441900
86.49999504	0.00000000	34.69488000	8.53838500
86.69999503	0.00000000	33.24926000	10.48843000
86.89999502	0.00000000	32.03740000	14.72072000
87.09999501	0.00000000	31.24384000	20.06029000
87.29999499	0.00000000	30.45644000	24.71087000
87.49999498	0.00000000	30.13041000	27.82357000
87.69999497	0.00000000	30.54872000	28.98007000
87.89999496	0.00000000	32.08661000	27.82357000
88.09999495	0.00000000	34.36884000	24.75394000
88.29999493	0.00000000	36.27584000	20.47859000
88.49999492	0.00000000	37.43848000	15.87721000
88.69999491	0.00000000	37.48154000	12.06939000
88.89999490	0.00000000	36.70029000	10.53150000
89.09999489	0.00000000	35.52534000	11.65108000
89.29999487	0.00000000	33.57529000	14.72072000
89.49999486	0.00000000	31.71137000	18.94685000
89.69999485	0.00000000	30.54872000	23.17298000
89.89999484	0.00000000	30.50566000	26.28568000
90.09999483	0.00000000	31.24384000	27.82357000
90.29999482	0.00000000	32.03740000	27.35605000
90.49999480	0.00000000	33.24926000	24.33563000
90.69999479	0.00000000	34.73794000	19.78346000
90.89999478	0.00000000	35.90059000	15.92027000
91.09999477	0.00000000	36.32505000	13.18282000
91.29999476	0.00000000	36.32505000	12.06939000
91.49999474	0.00000000	35.94980000	13.26895000
91.69999473	0.00000000	35.20546000	16.67077000
91.89999472	0.00000000	34.83022000	21.26599000
92.09999471	0.00000000	34.78716000	25.08612000
92.29999470	0.00000000	34.74409000	27.44832000
92.49999468	0.00000000	34.36884000	27.77436000
92.69999467	0.00000000	33.61835000	25.86737000
92.89999466	0.00000000	33.20005000	22.01033000
93.09999465	0.00000000	32.78174000	17.45817000
93.29999464	0.00000000	32.03740000	13.60113000
93.49999463	0.00000000	31.66215000	11.64493000
93.69999461	0.00000000	31.66215000	11.64493000
93.89999460	0.00000000	32.08661000	13.60113000
94.09999459	0.00000000	33.29232000	17.45817000
94.29999458	0.00000000	35.16240000	22.01033000
94.49999457	0.00000000	37.11245000	25.82431000
94.69999455	0.00000000	38.28125000	27.39911000
94.89999454	0.00000000	39.06250000	26.66092000
95.09999453	0.00000000	38.97638000	24.33563000
95.29999452	0.00000000	37.43848000	20.47859000
95.49999451	0.00000000	34.73794000	16.29552000
95.69999449	0.00000000	31.66830000	13.22589000
95.89999448	0.00000000	28.96776000	12.02018000
96.09999447	0.00000000	27.38681000	12.80758000
96.29999446	0.00000000	27.01156000	15.08981000
96.49999445	0.00000000	27.84818000	18.57160000
96.69999444	0.00000000	30.54872000	21.96727000
96.89999442	0.00000000	34.36884000	24.29257000
97.09999441	0.00000000	37.85679000	24.71087000
97.29999440	0.00000000	40.60039000	23.59129000
97.49999439	0.00000000	42.13828000	21.64124000
97.69999438	0.00000000	42.09522000	18.94685000
97.89999436	0.00000000	40.18209000	16.29552000
98.09999435	0.00000000	36.69414000	14.76378000
98.29999434	0.00000000	32.82480000	14.72072000
98.49999433	0.00000000	28.96776000	15.83415000
98.69999432	0.00000000	26.26722000	17.36589000
98.89999430	0.00000000	25.47367000	18.90379000
99.09999429	0.00000000	26.22416000	20.06029000
99.29999428	0.00000000	28.59252000	20.48474000
99.49999427	0.00000000	32.03740000	20.48474000
99.69999426	0.00000000	35.90059000	20.15256000
99.89999425	0.00000000	39.01944000	19.78346000
100.09999423	0.00000000	40.97564000	20.15256000
100.29999422	0.00000000	41.76304000	20.52780000
100.49999421	0.00000000	40.97564000	20.94611000
100.69999420	0.00000000	39.06250000	21.64124000
100.89999419	0.00000000	36.31890000	21.59203000
101.09999417	0.00000000	33.24926000	20.47859000
101.29999416	0.00000000	30.50566000	18.94685000
101.49999415	0.00000000	28.59252000	17.40895000
101.69999414	0.00000000	27.80512000	16.25246000
101.89999413	0.00000000	28.59252000	15.82800000
102.09999411	0.00000000	30.45644000	15.87721000
102.29999410	0.00000000	32.82480000	16.71383000
102.49999409	0.00000000	35.16240000	19.03297000
102.69999408	0.00000000	37.48154000	22.05955000
102.89999407	0.00000000	39.01944000	24.75394000
103.09999406	0.00000000	39.43774000	26.28568000
103.29999404	0.00000000	39.06250000	26.28568000
103.49999403	0.00000000	37.85679000	24.75394000
103.69999402	0.00000000	35.94980000	22.05955000
103.89999401	0.00000000	33.61835000	18.94685000
104.09999400	0.00000000	31.71137000	15.92027000
104.29999398	0.00000000	30.54872000	13.97638000
104.49999397	0.00000000	30.54872000	13.97023000
104.69999396	0.00000000	31.66215000	15.08981000
104.89999395	0.00000000	33.20005000	17.45817000
105.09999394	0.00000000	34.78716000	20.47859000
105.29999392	0.00000000	36.32505000	23.17298000
105.49999391	0.00000000	37.43848000	24.75394000
105.69999390	0.00000000	37.48154000	25.12918000
105.89999389	0.00000000	36.74335000	24.37869000
106.09999388	0.00000000	35.94980000	22.43479000
106.29999387	0.00000000	34.78716000	20.15256000
106.49999385	0.00000000	33.66756000	17.83341000
106.69999384	0.00000000	33.24311000	16.33858000
106.89999383	0.00000000	33.24311000	16.29552000
107.09999382	0.00000000	33.66756000	17.45817000
107.29999381	0.00000000	34.78716000	19.32210000
107.49999379	0.00000000	35.94980000	21.26599000
107.69999378	0.00000000	36.70029000	22.38558000
107.89999377	0.00000000	37.06324000	22.84695000
108.09999376	0.00000000	36.32505000	22.43479000
108.29999375	0.00000000	35.20546000	21.68430000
108.49999374	0.00000000	34.36884000	20.47859000
108.69999372	0.00000000	33.20005000	18.94685000
108.89999371	0.00000000	32.12967000	17.45817000
109.09999370	0.00000000	32.12967000	16.71383000
109.29999369	0.00000000	33.24926000	17.45817000
109.49999368	0.00000000	34.78716000	18.94685000
109.69999366	0.00000000	36.32505000	20.47859000
109.89999365	0.00000000	37.48154000	21.68430000
110.09999364	0.00000000	37.85679000	22.43479000
110.29999363	0.00000000	37.53075000	22.79773000
110.49999362	0.00000000	36.74335000	22.01649000
110.69999360	0.00000000	35.94980000	20.52780000
110.89999359	0.00000000	34.73794000	18.94685000
111.09999358	0.00000000	33.24926000	17.40895000
111.29999357	0.00000000	32.08661000	16.25246000
111.49999356	0.00000000	31.71137000	15.92027000
111.69999355	0.00000000	32.08661000	16.62155000
111.89999353	0.00000000	33.24926000	18.15330000
112.09999352	0.00000000	34.73794000	19.27903000
112.29999351	0.00000000	35.94980000	20.15256000
112.49999350	0.00000000	36.70029000	20.90305000
112.69999349	0.00000000	37.06324000	21.64124000
112.89999347	0.00000000	36.32505000	21.64124000
113.09999346	0.00000000	35.25467000	20.94611000
113.29999345	0.00000000	34.83022000	20.57087000
113.49999344	0.00000000	34.74409000	20.48474000
113.69999343	0.00000000	34.41191000	20.10950000
113.89999341	0.00000000	34.04282000	19.36516000
114.09999340	0.00000000	34.41191000	18.98991000
114.29999339	0.00000000	34.74409000	18.94685000
114.49999338	0.00000000	34.83022000	18.94685000
114.69999337	0.00000000	35.20546000	18.94685000
114.89999336	0.00000000	35.94980000	18.94685000
115.09999334	0.00000000	36.32505000	18.94685000
115.29999333	0.00000000	36.36811000	18.94685000
115.49999332	0.00000000	36.32505000	18.98991000
115.69999331	0.00000000	35.99286000	19.36516000
115.89999330	0.00000000	35.58071000	20.10950000
116.09999328	0.00000000	35.53149000	20.48474000
116.29999327	0.00000000	34.73794000	20.57087000
116.49999326	0.00000000	33.71063000	20.94611000
116.69999325	0.00000000	33.66756000	21.64124000
116.89999324	0.00000000	34.36884000	21.64124000
117.09999322	0.00000000	34.78716000	20.90305000
117.29999321	0.00000000	35.20546000	20.15256000
117.49999320	0.00000000	35.99286000	19.32210000
117.69999319	0.00000000	36.74335000	18.57160000
117.89999318	0.00000000	37.53075000	17.78420000
118.09999317	0.00000000	37.85679000	17.45817000
118.29999315	0.00000000	37.48154000	17.78420000
118.49999314	0.00000000	36.36811000	18.52854000
118.69999313	0.00000000	35.20546000	18.94685000
118.89999312	0.00000000	34.41191000	19.36516000
119.09999311	0.00000000	33.57529000	20.15256000
119.29999309	0.00000000	32.86786000	20.90305000
119.49999308	0.00000000	32.50492000	21.68430000
119.69999307	0.00000000	33.24926000	22.05955000
119.89999306	0.00000000	34.41191000	22.05955000
120.09999305	0.00000000	35.62377000	21.68430000
120.29999303	0.00000000	37.53075000	20.94611000
120.49999302	0.00000000	39.01944000	20.52780000
120.69999301	0.00000000	39.43774000	20.10950000
120.89999300	0.00000000	39.06250000	19.36516000
121.09999299	0.00000000	37.94907000	18.98991000
121.29999298	0.00000000	36.78642000	18.94685000
121.49999296	0.00000000	35.94980000	18.94685000
121.69999295	0.00000000	34.78716000	18.94685000
121.89999294	0.00000000	33.66756000	18.98991000
122.09999293	0.00000000	33.24311000	19.36516000
122.29999292	0.00000000	33.24311000	20.15256000
122.49999290	0.00000000	33.61835000	20.90305000
122.69999289	0.00000000	34.45497000	21.68430000
122.89999288	0.00000000	35.58071000	22.05955000
123.09999287	0.00000000	37.11245000	22.05955000
123.29999286	0.00000000	37.85679000	21.68430000
123.49999284	0.00000000	37.94907000	20.94611000
123.69999283	0.00000000	37.94907000	20.52780000
123.89999282	0.00000000	37.90600000	20.10950000
124.09999281	0.00000000	37.53075000	19.36516000
124.29999280	0.00000000	36.74335000	18.98991000
124.49999279	0.00000000	35.99286000	18.94685000
124.69999277	0.00000000	35.20546000	18.98991000
124.89999276	0.00000000	34.78716000	19.36516000
125.09999275	0.00000000	34.41191000	20.10950000
125.29999274	0.00000000	34.04282000	20.52780000
125.49999273	0.00000000	34.41191000	20.94611000
125.69999271	0.00000000	34.78716000	21.68430000
125.89999270	0.00000000	35.25467000	22.01033000
126.09999269	0.00000000	36.36811000	21.68430000
126.29999268	0.00000000	37.48154000	20.94611000
126.49999267	0.00000000	37.90600000	20.57087000
126.69999265	0.00000000	37.94907000	20.48474000
126.89999264	0.00000000	37.90600000	20.10950000
127.09999263	0.00000000	37.48154000	19.36516000
127.29999262	0.00000000	36.36811000	18.98991000
127.49999261	0.00000000	35.20546000	18.94685000
127.69999260	0.00000000	34.41191000	18.94685000
127.89999258	0.00000000	33.61835000	18.98991000
128.09999257	0.00000000	33.29232000	19.36516000
128.29999256	0.00000000	33.66756000	20.10950000
128.49999255	0.00000000	34.83022000	20.48474000
128.69999254	0.00000000	36.32505000	20.52780000
128.89999252	0.00000000	37.48154000	20.52780000
129.09999251	0.00000000	37.90600000	20.48474000
129.29999250	0.00000000	37.90600000	20.10950000
129.49999249	0.00000000	37.48154000	19.36516000
129.69999248	0.00000000	36.36811000	18.98991000
129.89999246	0.00000000	35.20546000	18.94685000
130.09999245	0.00000000	34.41191000	18.94685000
130.29999244	0.00000000	33.66756000	18.98991000
130.49999243	0.00000000	33.66756000	19.36516000
130.69999242	0.00000000	34.41191000	20.10950000
130.89999241	0.00000000	35.20546000	20.48474000
131.09999239	0.00000000	36.36811000	20.52780000
131.29999238	0.00000000	37.48154000	20.52780000
131.49999237	0.00000000	37.90600000	20.48474000
131.69999236	0.00000000	37.90600000	20.10950000
131.89999235	0.00000000	37.53075000	19.32210000
132.09999233	0.00000000	36.74335000	18.61466000
132.29999232	0.00000000	35.99286000	18.20251000
132.49999231	0.00000000	35.20546000	18.57160000
132.69999230	0.00000000	34.83022000	18.94685000
132.89999229	0.00000000	34.78716000	19.36516000
133.09999227	0.00000000	34.83022000	20.15256000
133.29999226	0.00000000	35.20546000	20.90305000
133.49999225	0.00000000	35.94980000	21.68430000
133.69999224	0.00000000	36.32505000	22.05955000
133.89999223	0.00000000	36.36811000	22.05955000
134.09999222	0.00000000	36.36811000	21.68430000
134.29999220	0.00000000	36.36811000	20.90305000
134.49999219	0.00000000	36.36811000	20.15256000
134.69999218	0.00000000	36.36811000	19.36516000
134.89999217	0.00000000	36.36811000	18.98991000
135.09999216	0.00000000	36.41117000	18.94685000
135.29999214	0.00000000	36.78642000	18.98991000
135.49999213	0.00000000	37.53075000	19.36516000
135.69999212	0.00000000	37.85679000	20.15256000
135.89999211	0.00000000	37.53075000	20.90305000
136.09999210	0.00000000	36.74335000	21.68430000
136.29999208	0.00000000	35.99286000	22.05955000
136.49999207	0.00000000	35.20546000	22.10261000
136.69999206	0.00000000	34.83022000	22.10261000
136.89999205	0.00000000	34.83022000	22.05955000
137.09999204	0.00000000	35.20546000	21.68430000
137.29999203	0.00000000	35.99286000	20.94611000
137.49999201	0.00000000	36.74335000	20.52780000
137.69999200	0.00000000	37.53075000	20.10950000
137.89999199	0.00000000	37.90600000	19.36516000
138.09999198	0.00000000	37.94907000	18.98991000
138.29999197	0.00000000	37.90600000	18.98991000
138.49999195	0.00000000	37.53075000	19.36516000
138.69999194	0.00000000	36.74335000	20.10950000
138.89999193	0.00000000	36.03592000	20.52780000
139.09999192	0.00000000	35.58071000	20.94611000
139.29999191	0.00000000	35.57455000	21.68430000
139.49999189	0.00000000	35.20546000	22.05955000
139.69999188	0.00000000	35.29773000	22.10261000
139.89999187	0.00000000	36.36811000	22.10261000
140.09999186	0.00000000	37.48154000	22.05955000
140.29999185	0.00000000	37.90600000	21.64124000
140.49999184	0.00000000	37.94907000	20.52780000
140.69999182	0.00000000	37.90600000	19.36516000
140.89999181	0.00000000	37.53075000	18.57160000
141.09999180	0.00000000	36.78642000	17.78420000
141.29999179	0.00000000	36.41117000	17.45817000
141.49999178	0.00000000	36.36811000	17.83341000
141.69999176	0.00000000	36.36811000	18.98991000
141.89999175	0.00000000	36.36811000	20.47859000
142.09999174	0.00000000	36.41117000	21.64124000
142.29999173	0.00000000	36.78642000	22.05955000
142.49999172	0.00000000	37.53075000	22.10261000
142.69999170	0.00000000	37.90600000	22.05955000
142.89999169	0.00000000	37.90600000	21.64124000
143.09999168	0.00000000	37.53075000	20.52780000
143.29999167	0.00000000	36.78642000	19.36516000
143.49999166	0.00000000	36.41117000	18.57160000
143.69999165	0.00000000	36.36811000	17.83341000
143.89999163	0.00000000	36.36811000	17.83341000
144.09999162	0.00000000	36.36811000	18.52854000
144.29999161	0.00000000	36.36811000	18.94685000
144.49999160	0.00000000	36.41117000	19.36516000
144.69999159	0.00000000	36.78642000	20.15256000
144.89999157	0.00000000	37.53075000	20.90305000
145.09999156	0.00000000	37.85679000	21.64124000
145.29999155	0.00000000	37.53075000	21.64124000
145.49999154	0.00000000	36.78642000	20.94611000
145.69999153	0.00000000	36.41117000	20.52780000
145.89999151	0.00000000	36.36811000	20.10950000
146.09999150	0.00000000	36.32505000	19.36516000
146.29999149	0.00000000	35.99286000	18.98991000
146.49999148	0.00000000	35.62377000	18.98991000
146.69999147	0.00000000	36.03592000	19.32210000
146.89999146	0.00000000	36.74335000	19.73425000
147.09999144	0.00000000	37.53075000	19.74040000
147.29999143	0.00000000	37.90600000	20.15256000
147.49999142	0.00000000	37.90600000	20.48474000
147.69999141	0.00000000	37.53075000	20.52780000
147.89999140	0.00000000	36.78642000	20.57087000
148.09999138	0.00000000	36.41117000	20.94611000
148.29999137	0.00000000	36.36811000	21.64124000
148.49999136	0.00000000	36.36811000	21.64124000
148.69999135	0.00000000	36.36811000	20.94611000
148.89999134	0.00000000	36.41117000	20.57087000
149.09999132	0.00000000	36.78642000	20.52780000
149.29999131	0.00000000	37.53075000	20.52780000
149.49999130	0.00000000	37.90600000	20.52780000
149.69999129	0.00000000	37.94907000	20.52780000
149.89999128	0.00000000	37.94907000	20.52780000
150.09999127	0.00000000	37.94907000	20.52780000
150.29999125	0.00000000	37.94907000	20.57087000
150.49999124	0.00000000	37.94907000	20.94611000
150.69999123	0.00000000	37.90600000	21.68430000
150.89999122	0.00000000	37.53075000	22.05955000
151.09999121	0.00000000	36.78642000	22.10261000
151.29999119	0.00000000	36.41117000	22.10261000
151.49999118	0.00000000	36.41117000	22.05955000
151.69999117	0.00000000	36.78642000	21.68430000
151.89999116	0.00000000	37.53075000	20.94611000
152.09999115	0.00000000	37.90600000	20.57087000
152.29999113	0.00000000	37.94907000	20.52780000
152.49999112	0.00000000	37.94907000	20.52780000
152.69999111	0.00000000	37.94907000	20.52780000
152.89999110	0.00000000	37.94907000	20.52780000
153.09999109	0.00000000	37.94907000	20.52780000
153.29999108	0.00000000	37.94907000	20.57087000
153.49999106	0.00000000	37.94907000	20.94611000
153.69999105	0.00000000	37.90600000	21.68430000
153.89999104	0.00000000	37.53075000	22.05955000
154.09999103	0.00000000	36.78642000	22.10261000
154.29999102	0.00000000	36.41117000	22.05955000
154.49999100	0.00000000	36.41117000	21.72736000
154.69999099	0.00000000	36.78642000	21.36442000
154.89999098	0.00000000	37.53075000	21.68430000
155.09999097	0.00000000	37.90600000	21.64124000
155.29999096	0.00000000	37.94907000	20.94611000
155.49999094	0.00000000	37.94907000	20.57087000
155.69999093	0.00000000	37.94907000	20.52780000
155.89999092	0.00000000	37.94907000	20.52780000
156.09999091	0.00000000	37.94907000	20.52780000
156.29999090	0.00000000	37.90600000	20.52780000
156.49999089	0.00000000	37.57381000	20.57087000
156.69999087	0.00000000	37.16166000	20.94611000
156.89999086	0.00000000	37.15551000	21.68430000
157.09999085	0.00000000	36.74335000	22.05955000
157.29999084	0.00000000	36.41117000	22.10261000
157.49999083	0.00000000	36.41117000	22.10261000
157.69999081	0.00000000	36.74335000	22.05955000
157.89999080	0.00000000	37.15551000	21.68430000
158.09999079	0.00000000	37.16166000	20.94611000
158.29999078	0.00000000	37.57381000	20.52780000
158.49999077	0.00000000	37.90600000	20.10950000
158.69999075	0.00000000	37.94907000	19.36516000
158.89999074	0.00000000	37.94907000	19.03912000
159.09999073	0.00000000	37.94907000	19.36516000
159.29999072	0.00000000	37.94907000	20.10950000
159.49999071	0.00000000	37.94907000	20.48474000
159.69999070	0.00000000	37.90600000	20.52780000
159.89999068	0.00000000	37.53075000	20.52780000
160.09999067	0.00000000	36.78642000	20.52780000
160.29999066	0.00000000	36.41117000	20.52780000
160.49999065	0.00000000	36.41117000	20.52780000
160.69999064	0.00000000	36.74335000	20.52780000
160.89999062	0.00000000	37.15551000	20.48474000
161.09999061	0.00000000	37.16166000	20.10950000
161.29999060	0.00000000	37.57381000	19.41437000
161.49999059	0.00000000	37.90600000	19.41437000
161.69999058	0.00000000	37.94907000	20.10950000
161.89999056	0.00000000	37.94907000	20.48474000
162.09999055	0.00000000	37.94907000	20.52780000
162.29999054	0.00000000	37.94907000	20.57087000
162.49999053	0.00000000	37.94907000	20.94611000
162.69999052	0.00000000	37.94907000	21.68430000
162.89999051	0.00000000	37.94907000	22.05955000
163.09999049	0.00000000	37.94907000	22.05955000
163.29999048	0.00000000	37.90600000	21.72736000
163.49999047	0.00000000	37.57381000	21.36442000
163.69999046	0.00000000	37.20472000	21.72736000
163.89999045	0.00000000	37.53075000	22.01033000
164.09999043	0.00000000	37.53075000	21.68430000
164.29999042	0.00000000	37.20472000	20.94611000
164.49999041	0.00000000	37.57381000	20.57087000
164.69999040	0.00000000	37.94907000	20.57087000
164.89999039	0.00000000	38.36737000	20.90305000
165.09999037	0.00000000	39.11171000	21.26599000
165.29999036	0.00000000	39.48696000	20.94611000
165.49999035	0.00000000	39.53002000	20.98917000
165.69999034	0.00000000	39.48696000	21.68430000
165.89999033	0.00000000	39.11171000	22.05955000
166.09999032	0.00000000	38.36737000	22.10261000
166.29999030	0.00000000	37.99213000	22.10261000
166.49999029	0.00000000	37.94907000	22.10261000
166.69999028	0.00000000	37.94907000	22.10261000
166.89999027	0.00000000	37.94907000	22.05955000
167.09999026	0.00000000	37.94907000	21.68430000
167.29999024	0.00000000	37.94907000	20.98917000
167.49999023	0.00000000	37.99213000	20.98917000
167.69999022	0.00000000	38.36737000	21.64124000
167.89999021	0.00000000	39.11171000	21.68430000
168.09999020	0.00000000	39.48696000	21.36442000
168.29999018	0.00000000	39.53002000	21.68430000
168.49999017	0.00000000	39.53002000	21.64124000
168.69999016	0.00000000	39.48696000	20.98917000
168.89999015	0.00000000	39.11171000	20.94611000
169.09999014	0.00000000	38.36737000	21.26599000
169.29999013	0.00000000	37.94907000	20.90305000
169.49999011	0.00000000	37.57381000	20.57087000
169.69999010	0.00000000	37.20472000	20.52780000
169.89999009	0.00000000	37.57381000	20.52780000
170.09999008	0.00000000	37.90600000	20.52780000
170.29999007	0.00000000	37.94907000	20.52780000
170.49999005	0.00000000	37.94907000	20.52780000
170.69999004	0.00000000	37.99213000	20.52780000
170.89999003	0.00000000	38.32431000	20.52780000
171.09999002	0.00000000	38.69341000	20.52780000
171.29999001	0.00000000	38.36737000	20.52780000
171.49998999	0.00000000	38.36737000	20.52780000
171.69998998	0.00000000	38.69341000	20.52780000
171.89998997	0.00000000	38.32431000	20.52780000
172.09998996	0.00000000	38.04134000	20.52780000
172.29998995	0.00000000	38.32431000	20.52780000
172.49998994	0.00000000	38.69341000	20.52780000
172.69998992	0.00000000	38.32431000	20.52780000
172.89998991	0.00000000	37.99213000	20.52780000
173.09998990	0.00000000	37.94907000	20.52780000
173.29998989	0.00000000	37.94907000	20.52780000
173.49998988	0.00000000	37.94907000	20.52780000
173.69998986	0.00000000	37.94907000	20.52780000
173.89998985	0.00000000	37.94907000	20.52780000
174.09998984	0.00000000	37.99213000	20.52780000
174.29998983	0.00000000	38.32431000	20.52780000
174.49998982	0.00000000	38.69341000	20.52780000
174.69998980	0.00000000	38.32431000	20.52780000
174.89998979	0.00000000	37.99213000	20.52780000
175.09998978	0.00000000	37.94907000	20.52780000
175.29998977	0.00000000	37.94907000	20.52780000
175.49998976	0.00000000	37.94907000	20.52780000
175.69998975	0.00000000	37.94907000	20.52780000
175.89998973	0.00000000	37.94907000	20.52780000
176.09998972	0.00000000	37.94907000	20.52780000
176.29998971	0.00000000	37.99213000	20.52780000
176.49998970	0.00000000	38.36737000	20.57087000
176.69998969	0.00000000	39.06250000	20.90305000
176.89998967	0.00000000	39.06250000	21.26599000
177.09998966	0.00000000	38.36737000	20.90305000
177.29998965	0.00000000	37.99213000	20.57087000
177.49998964	0.00000000	37.94907000	20.52780000
177.69998963	0.00000000	37.94907000	20.52780000
177.89998961	0.00000000	37.94907000	20.52780000
178.09998960	0.00000000	37.94907000	20.52780000
178.29998959	0.00000000	37.94907000	20.57087000
178.49998958	0.00000000	37.94907000	20.90305000
178.69998957	0.00000000	37.94907000	21.30905000
178.89998956	0.00000000	37.99213000	21.32136000
179.09998954	0.00000000	38.36737000	21.72736000
179.29998953	0.00000000	39.11171000	22.01033000
179.49998952	0.00000000	39.48696000	21.68430000
179.69998951	0.00000000	39.53002000	20.94611000
179.89998950	0.00000000	39.53002000	20.57087000
180.09998948	0.00000000	39.53002000	20.52780000
180.29998947	0.00000000	39.48696000	20.52780000
180.49998946	0.00000000	39.11171000	20.52780000
180.69998945	0.00000000	38.36737000	20.52780000
180.89998944	0.00000000	37.99213000	20.52780000
181.09998942	0.00000000	37.99213000	20.57087000
181.29998941	0.00000000	38.36737000	20.94611000
181.49998940	0.00000000	39.11171000	21.68430000
181.69998939	0.00000000	39.48696000	22.05955000
181.89998938	0.00000000	39.53002000	22.10261000
182.09998937	0.00000000	39.53002000	22.10261000
182.29998935	0.00000000	39.53002000	22.10261000
182.49998934	0.00000000	39.53002000	22.10261000
182.69998933	0.00000000	39.53002000	22.05955000
182.89998932	0.00000000	39.53002000	21.68430000
183.09998931	0.00000000	39.53002000	20.94611000
183.29998929	0.00000000	39.53002000	20.57087000
183.49998928	0.00000000	39.53002000	20.52780000
183.69998927	0.00000000	39.53002000	20.57087000
183.89998926	0.00000000	39.53002000	20.94611000
184.09998925	0.00000000	39.53002000	21.68430000
184.29998923	0.00000000	39.53002000	22.05955000
184.49998922	0.00000000	39.53002000	22.10261000
184.69998921	0.00000000	39.53002000	22.10261000
184.89998920	0.00000000	39.53002000	22.10261000
185.09998919	0.00000000	39.53002000	22.10261000
185.29998918	0.00000000	39.53002000	22.10261000
185.49998916	0.00000000	39.53002000	22.10261000
185.69998915	0.00000000	39.53002000	22.05955000
185.89998914	0.00000000	39.53002000	21.68430000
186.09998913	0.00000000	39.53002000	20.94611000
186.29998912	0.00000000	39.53002000	20.57087000
186.49998910	0.00000000	39.53002000	20.52780000
186.69998909	0.00000000	39.53002000	20.52780000
186.89998908	0.00000000	39.53002000	20.57087000
187.09998907	0.00000000	39.53002000	20.94611000
187.29998906	0.00000000	39.53002000	21.68430000
187.49998904	0.00000000	39.53002000	22.05955000
187.69998903	0.00000000	39.53002000	22.10261000
187.89998902	0.00000000	39.53002000	22.10261000
188.09998901	0.00000000	39.53002000	22.10261000
188.29998900	0.00000000	39.53002000	22.05955000
188.49998899	0.00000000	39.53002000	21.68430000
188.69998897	0.00000000	39.53002000	20.94611000
188.89998896	0.00000000	39.53002000	20.57087000
189.09998895	0.00000000	39.53002000	20.52780000
189.29998894	0.00000000	39.53002000	20.52780000
189.49998893	0.00000000	39.53002000	20.52780000
189.69998891	0.00000000	39.53002000	20.52780000
189.89998890	0.00000000	39.53002000	20.52780000
190.09998889	0.00000000	39.53002000	20.52780000
190.29998888	0.00000000	39.53002000	20.52780000
190.49998887	0.00000000	39.53002000	20.57087000
190.69998885	0.00000000	39.53002000	20.90305000
190.89998884	0.00000000	39.53002000	21.30905000
191.09998883	0.00000000	39.53002000	21.32136000
191.29998882	0.00000000	39.53002000	21.68430000
191.49998881	0.00000000	39.53002000	21.64124000
191.69998880	0.00000000	39.53002000	20.94611000
191.89998878	0.00000000	39.53002000	20.57087000
192.09998877	0.00000000	39.53002000	20.52780000
192.29998876	0.00000000	39.53002000	20.52780000
192.49998875	0.00000000	39.53002000	20.52780000
192.69998874	0.00000000	39.53002000	20.52780000
192.89998872	0.00000000	39.53002000	20.52780000
193.09998871	0.00000000	39.53002000	20.52780000
193.29998870	0.00000000	39.53002000	20.52780000
193.49998869	0.00000000	39.53002000	20.57087000
193.69998868	0.00000000	39.48696000	20.90305000
193.89998866	0.00000000	39.15477000	21.30905000
194.09998865	0.00000000	38.78568000	21.32136000
194.29998864	0.00000000	39.15477000	21.72736000
194.49998863	0.00000000	39.48696000	22.05955000
194.69998862	0.00000000	39.53002000	22.10261000
194.89998861	0.00000000	39.53002000	22.10261000
195.09998859	0.00000000	39.53002000	22.10261000
195.29998858	0.00000000	39.53002000	22.05955000
195.49998857	0.00000000	39.53002000	21.72736000
195.69998856	0.00000000	39.53002000	21.36442000
195.89998855	0.00000000	39.53002000	21.72736000
196.09998853	0.00000000	39.53002000	22.01033000
