Time	Channel A	Channel B	Channel C
(us)	(V)	(mV)	(mV)

-4.49999956	0.00000000	-18.97145000	0.37524600
-4.29999957	0.00000000	-18.97145000	0.04306102
-4.09999958	0.00000000	-18.97145000	0.00000000
-3.89999959	0.00000000	-18.97145000	0.00000000
-3.69999960	0.00000000	-18.97145000	0.00000000
-3.49999962	0.00000000	-18.97145000	0.00000000
-3.29999963	0.00000000	-18.97145000	0.00000000
-3.09999964	0.00000000	-18.97145000	0.00000000
-2.89999965	0.00000000	-18.97145000	0.00000000
-2.69999966	0.00000000	-18.97145000	0.00000000
-2.49999968	0.00000000	-18.97145000	0.00000000
-2.29999969	0.00000000	-18.97145000	0.00000000
-2.09999970	0.00000000	-18.97145000	0.00000000
-1.89999971	0.00000000	-18.97145000	0.00000000
-1.69999972	0.00000000	-18.97145000	0.00000000
-1.49999973	0.00000000	-18.97145000	0.00000000
-1.29999975	0.00000000	-18.97145000	0.00000000
-1.09999976	0.00000000	-18.97145000	0.00000000
-0.89999977	0.00000000	-18.97145000	0.00000000
-0.69999978	0.00000000	-18.97145000	0.00000000
-0.49999979	0.00000000	-18.97145000	0.00000000
-0.29999981	0.31803640	-18.97145000	0.00000000
-0.09999982	0.63668800	-18.97145000	0.04306102
0.10000017	0.95533960	-18.97145000	0.37524600
0.30000016	0.95533960	-18.97145000	0.73818890
0.50000015	0.95533960	-18.97145000	0.37524600
0.70000013	0.31803640	-18.97145000	0.04306102
0.90000012	-0.31803640	-18.97145000	0.04306102
1.10000011	-1.27399100	-18.97145000	0.41830710
1.30000010	-2.22994600	-19.01451000	1.11343500
1.50000009	-2.70792300	-19.34670000	1.11343500
1.70000008	-2.54859700	-19.71580000	0.46136810
1.90000006	-1.59264300	-19.34670000	0.41830710
2.10000005	0.15871060	-19.01451000	0.73818890
2.30000004	2.38927200	-19.01451000	0.37524600
2.50000003	4.14124000	-19.34670000	0.04306102
2.70000002	5.25652100	-19.71580000	0.00000000
2.90000000	5.09719500	-19.38976000	0.00000000
3.09999999	3.34522600	-19.38976000	0.00000000
3.29999998	0.47736220	-19.71580000	0.00000000
3.49999997	-3.02657500	-19.34670000	0.00000000
3.69999996	-6.05315000	-19.01451000	0.04306102
3.89999994	-7.80511800	-18.97145000	0.41830710
4.09999993	-7.64579200	-18.97145000	1.15649600
4.29999992	-5.57517200	-18.97145000	1.53174200
4.49999991	-1.75196900	-18.97145000	1.57480300
4.69999990	2.70792300	-18.97145000	1.53174200
4.89999989	6.69045300	-18.97145000	1.15649600
5.09999987	9.07972400	-18.97145000	0.41830710
5.29999986	9.23905000	-18.97145000	0.04306102
5.49999985	7.00848900	-18.97145000	0.00000000
5.69999984	3.02657500	-18.97145000	0.00000000
5.89999983	-1.59264300	-18.97145000	0.00000000
6.09999981	-6.05315000	-18.97145000	0.04306102
6.29999980	-8.92039900	-18.97145000	0.41830710
6.49999979	-9.39837600	-18.97145000	1.11343500
6.69999978	-7.48646600	-18.97145000	1.15649600
6.89999977	-3.98191400	-18.97145000	0.83661410
7.09999975	0.31803640	-18.97145000	1.19955700
7.29999974	4.30056600	-18.97145000	1.48253000
7.49999973	7.00848900	-18.97145000	1.15649600
7.69999972	7.80511800	-19.01451000	0.41830710
7.89999971	6.53112700	-19.34670000	0.04306102
8.09999970	3.98191400	-19.71580000	0.00000000
8.29999968	0.63668800	-19.34670000	0.00000000
8.49999967	-2.38927200	-19.01451000	0.00000000
8.69999966	-4.45989200	-18.97145000	0.00000000
8.89999965	-5.25652100	-18.97145000	0.00000000
9.09999964	-4.61921700	-18.97145000	0.00000000
9.29999962	-3.02657500	-18.97145000	0.00000000
9.49999961	-0.95533960	-18.97145000	0.00000000
9.69999960	0.79601380	-18.97145000	0.00000000
9.89999959	2.07062000	-18.97145000	0.00000000
10.09999958	2.54859700	-18.97145000	0.00000000
10.29999956	2.22994600	-18.97145000	0.00000000
10.49999955	1.59264300	-18.97145000	0.04306102
10.69999954	0.63668800	-18.97145000	0.37524600
10.89999953	-0.15871060	-18.97145000	0.73818890
11.09999952	-0.63668800	-18.97145000	0.37524600
11.29999951	-0.95533960	-18.97145000	0.04306102
11.49999949	-0.95533960	-18.97145000	0.00000000
11.69999948	-0.79601380	-18.97145000	0.00000000
11.89999947	-0.47736220	-18.97145000	0.00000000
12.09999946	-0.15871060	-18.97145000	0.00000000
12.29999945	-0.15871060	-18.97145000	0.00000000
12.49999943	-0.15871060	-18.97145000	0.00000000
12.69999942	0.00000000	-18.97145000	0.00000000
12.89999941	0.00000000	-18.97145000	0.04306102
13.09999940	0.00000000	-18.97145000	0.37524600
13.29999939	0.00000000	-18.97145000	0.73818890
13.49999937	0.00000000	-18.97145000	0.37524600
13.69999936	0.00000000	-18.97145000	0.04306102
13.89999935	0.00000000	-18.97145000	0.00000000
14.09999934	-0.15871060	-18.97145000	0.00000000
14.29999933	-0.15871060	-18.97145000	0.00000000
14.49999932	-0.15871060	-18.97145000	0.04306102
14.69999930	-0.15871060	-18.97145000	0.37524600
14.89999929	0.00000000	-18.97145000	0.78124990
15.09999928	0.00000000	-18.97145000	0.74434050
15.29999927	0.00000000	-18.97145000	0.78124990
15.49999926	0.00000000	-18.97145000	0.37524600
15.69999924	0.00000000	-18.97145000	0.09227362
15.89999923	0.00000000	-18.97145000	0.37524600
16.09999922	0.00000000	-18.97145000	0.73818890
16.29999921	0.00000000	-18.97145000	0.37524600
16.49999920	-0.15871060	-18.97145000	0.09227362
16.69999919	0.00000000	-18.97145000	0.37524600
16.89999917	0.00000000	-18.92839000	0.73818890
17.09999916	0.00000000	-18.55315000	0.37524600
17.29999915	0.00000000	-17.80881000	0.04306102
17.49999914	0.00000000	-17.43356000	0.00000000
17.69999913	0.00000000	-17.43356000	0.00000000
17.89999911	0.00000000	-17.80881000	0.00000000
18.09999910	0.00000000	-18.63927000	0.00000000
18.29999909	0.00000000	-19.80807000	0.00000000
18.49999908	0.00000000	-21.71506000	0.00000000
18.69999907	0.00000000	-23.24680000	0.04306102
18.89999905	0.00000000	-24.04650000	0.37524600
19.09999904	-0.15871060	-24.36639000	0.73818890
19.29999903	0.00000000	-23.16068000	0.41830710
19.49999902	0.00000000	-20.46014000	0.41830710
19.69999901	0.00000000	-16.97219000	0.73818890
19.89999900	0.00000000	-13.06594000	0.37524600
20.09999898	0.00000000	-9.62106200	0.04306102
20.29999897	0.00000000	-7.34498000	0.00000000
20.49999896	0.00000000	-7.43110200	0.00000000
20.69999895	0.00000000	-10.54995000	0.00000000
20.89999894	0.00000000	-16.36319000	0.00000000
21.09999892	0.00000000	-23.71432000	0.00000000
21.29999891	0.00000000	-31.06545000	0.00000000
21.49999890	0.00000000	-36.83563000	0.00000000
21.69999889	0.00000000	-39.45005000	0.00000000
21.89999888	0.00000000	-37.44463000	0.00000000
22.09999886	0.00000000	-30.41954000	0.00000000
22.29999885	0.00000000	-19.58046000	0.00000000
22.49999884	0.00000000	-6.83439900	0.00000000
22.69999883	0.00000000	4.70595500	0.00000000
22.89999882	0.00000000	11.96481000	0.04306102
23.09999881	0.00000000	12.65994000	0.41830710
23.29999879	0.00000000	5.64099400	1.15649600
23.49999878	0.00000000	-7.89862200	1.57480300
23.69999877	0.00000000	-25.29527000	1.99311000
23.89999876	0.00000000	-42.69808000	2.68823800
24.09999875	0.00000000	-56.14542000	2.68823800
24.29999873	0.00000000	-62.24163000	1.95004900
24.49999872	0.00000000	-58.29232000	1.15649600
24.69999871	0.00000000	-44.75270000	-0.04306102
24.89999870	0.00000000	-24.28026000	-1.57480300
25.09999869	0.00000000	-1.53174200	-3.11269700
25.29999867	0.00000000	17.77805000	-4.26919300
25.49999866	0.00000000	29.36762000	-4.60137700
25.69999865	0.00000000	30.48105000	-3.80782500
25.89999864	0.00000000	20.38632000	-1.44562000
26.09999863	0.00000000	1.03346500	1.99311000
26.29999862	0.00000000	-23.62820000	5.89320800
26.49999860	0.00000000	-47.53936000	9.33809000
26.69999859	0.00000000	-64.57307000	11.65723000
26.89999858	0.00000000	-71.54897000	11.98327000
27.09999857	0.00000000	-66.84916000	9.94094400
27.29999856	0.00000000	-51.07652000	4.92125900
27.49999854	0.00000000	-28.27879000	-2.41141700
27.69999853	0.00000000	-3.94315900	-9.71333600
27.89999852	0.00000000	16.89837000	-15.93258000
28.09999851	0.00000000	28.90010000	-19.32825000
28.29999850	0.00000000	29.78592000	-18.86688000
28.49999848	0.00000000	20.52165000	-13.75492000
28.69999847	0.00000000	3.12500000	-4.09079700
28.89999846	0.00000000	-18.46087000	7.84940900
29.09999845	0.00000000	-38.98253000	19.42052000
29.29999844	0.00000000	-54.10310000	27.87278000
29.49999843	0.00000000	-61.12204000	30.94242000
29.69999841	0.00000000	-58.84596000	27.73745000
29.89999840	0.00000000	-48.46825000	18.07332000
30.09999839	0.00000000	-32.60334000	3.44488200
30.29999838	0.00000000	-14.82529000	-12.03248000
30.49999837	0.00000000	1.03346500	-25.59670000
30.69999835	0.00000000	11.54650000	-34.75024000
30.89999834	0.00000000	15.12672000	-36.23893000
31.09999833	0.00000000	12.05709000	-29.36146000
31.29999832	0.00000000	3.12500000	-16.16634000
31.49999831	0.00000000	-9.99630800	0.83661410
31.69999829	0.00000000	-24.28026000	18.62697000
31.89999828	0.00000000	-36.28199000	32.84941000
32.09999827	0.00000000	-43.72539000	40.60039000
32.29999826	0.00000000	-45.68159000	39.81914000
32.49999825	0.00000000	-42.23671000	30.94242000
32.69999824	0.00000000	-34.09818000	15.84030000
32.89999822	0.00000000	-23.29601000	-2.69439000
33.09999821	0.00000000	-12.08784000	-20.39862000
33.29999820	0.00000000	-3.19881900	-33.21850000
33.49999819	0.00000000	1.50098400	-38.65649000
33.69999818	0.00000000	1.54404500	-36.33120000
33.89999816	0.00000000	-2.73745100	-26.24877000
34.09999815	0.00000000	-10.41462000	-10.49459000
34.29999814	0.00000000	-19.66658000	6.87746000
34.49999813	0.00000000	-27.76821000	21.97957000
34.69999812	0.00000000	-33.21235000	32.05585000
34.89999810	0.00000000	-34.75024000	35.16855000
35.09999809	0.00000000	-32.09276000	30.89936000
35.29999808	0.00000000	-26.36565000	20.11565000
35.49999807	0.00000000	-19.38976000	5.11195900
35.69999806	0.00000000	-12.87525000	-9.89788300
35.89999805	0.00000000	-8.27386800	-21.55512000
36.09999803	0.00000000	-7.48031400	-27.73745000
36.29999802	0.00000000	-10.08243000	-27.36835000
36.49999801	0.00000000	-14.69611000	-20.44168000
36.69999800	0.00000000	-20.08489000	-8.91978400
36.89999799	0.00000000	-24.69857000	4.14000900
37.09999797	0.00000000	-27.43602000	15.28666000
37.29999796	0.00000000	-27.81127000	21.46899000
37.49999795	0.00000000	-25.90428000	21.51206000
37.69999794	0.00000000	-22.04109000	15.79724000
37.89999793	0.00000000	-17.43356000	6.22539300
38.09999791	0.00000000	-13.15822000	-4.14000900
38.29999790	0.00000000	-10.13164000	-12.54921000
38.49999789	0.00000000	-9.34424200	-16.40010000
38.69999788	0.00000000	-11.24508000	-14.49926000
38.89999787	0.00000000	-14.64690000	-8.03395600
39.09999786	0.00000000	-18.55315000	1.19955700
39.29999784	0.00000000	-22.09030000	10.35925000
39.49999783	0.00000000	-25.15994000	16.86762000
39.69999782	0.00000000	-27.06078000	18.35630000
39.89999781	0.00000000	-26.74089000	14.16708000
40.09999780	0.00000000	-25.20300000	5.75787400
40.29999778	0.00000000	-22.82849000	-4.22613100
40.49999777	0.00000000	-19.34670000	-13.05979000
40.69999776	0.00000000	-15.85261000	-18.39936000
40.89999775	0.00000000	-12.73991000	-18.39936000
41.09999774	0.00000000	-10.45768000	-13.01058000
41.29999772	0.00000000	-10.03937000	-3.85703700
41.49999771	0.00000000	-11.15896000	6.54527500
41.69999770	0.00000000	-13.15822000	15.00984000
41.89999769	0.00000000	-16.27707000	20.02337000
42.09999768	0.00000000	-20.08489000	19.97416000
42.29999767	0.00000000	-23.20374000	14.67766000
42.49999765	0.00000000	-25.20300000	6.26845500
42.69999764	0.00000000	-26.32259000	-2.64517700
42.89999763	0.00000000	-25.90428000	-10.35925000
43.09999762	0.00000000	-23.67126000	-15.37278000
43.29999761	0.00000000	-21.01993000	-16.12328000
43.49999759	0.00000000	-19.01451000	-12.72761000
43.69999758	0.00000000	-17.39050000	-6.22539300
43.89999757	0.00000000	-15.85261000	1.07037400
44.09999756	0.00000000	-14.73917000	7.24655500
44.29999755	0.00000000	-14.64690000	11.14665000
44.49999753	0.00000000	-14.97293000	11.98327000
44.69999752	0.00000000	-14.64690000	10.49459000
44.89999751	0.00000000	-14.69611000	7.38188900
45.09999750	0.00000000	-15.43430000	3.15575800
45.29999749	0.00000000	-16.22785000	-1.07037400
45.49999748	0.00000000	-17.48277000	-4.18307100
45.69999746	0.00000000	-19.43897000	-5.75787400
45.89999745	0.00000000	-22.17643000	-5.75787400
46.09999744	0.00000000	-25.25221000	-4.22613100
46.29999743	0.00000000	-27.90354000	-1.58095500
46.49999742	0.00000000	-29.01698000	1.11343500
46.69999740	0.00000000	-27.81127000	3.11269700
46.89999739	0.00000000	-24.32333000	4.68750000
47.09999738	0.00000000	-18.87918000	5.80093500
47.29999737	0.00000000	-12.69070000	5.75787400
47.49999736	0.00000000	-6.92052100	4.26919300
47.69999734	0.00000000	-3.11269700	1.99311000
47.89999733	0.00000000	-2.73745100	0.04306102
48.09999732	0.00000000	-5.85014700	-1.57480300
48.29999731	0.00000000	-12.03863000	-3.06348400
48.49999730	0.00000000	-20.17716000	-3.80782500
48.69999729	0.00000000	-28.27879000	-3.02042300
48.89999727	0.00000000	-34.83636000	-1.11343500
49.09999726	0.00000000	-37.86909000	1.58095500
49.29999725	0.00000000	-36.33120000	4.26919300
49.49999724	0.00000000	-30.51181000	6.22539300
49.69999723	0.00000000	-21.66585000	7.38188900
49.89999721	0.00000000	-12.03863000	7.29576700
50.09999720	0.00000000	-4.31840500	5.33956700
50.29999719	0.00000000	-0.03690945	1.53174200
50.49999718	0.00000000	-0.07997046	-2.69439000
50.69999717	0.00000000	-4.73671200	-6.13312000
50.89999715	0.00000000	-13.15822000	-8.07701800
51.09999714	0.00000000	-22.74237000	-7.66486200
51.29999713	0.00000000	-30.46875000	-5.38262700
51.49999712	0.00000000	-34.75024000	-1.53174200
51.69999711	0.00000000	-34.75024000	2.69439000
51.89999710	0.00000000	-30.55487000	6.22539300
52.09999708	0.00000000	-23.62205000	8.91978400
52.29999707	0.00000000	-15.90182000	9.99015700
52.49999706	0.00000000	-9.01205700	8.45226300
52.69999705	0.00000000	-5.15501900	4.69365100
52.89999704	0.00000000	-5.52411400	0.46751960
53.09999702	0.00000000	-9.30118100	-3.06348400
53.29999701	0.00000000	-15.47736000	-5.75787400
53.49999700	0.00000000	-21.99803000	-6.87130900
53.69999699	0.00000000	-27.39296000	-5.75787400
53.89999698	0.00000000	-30.04429000	-3.11269700
54.09999696	0.00000000	-28.93085000	-0.04306102
54.29999695	0.00000000	-24.74163000	2.64517700
54.49999694	0.00000000	-19.01451000	4.18307100
54.69999693	0.00000000	-13.61959000	4.22613100
54.89999692	0.00000000	-10.13164000	3.06348400
55.09999691	0.00000000	-8.96899500	1.15649600
55.29999689	0.00000000	-10.50689000	-1.07037400
55.49999688	0.00000000	-14.32087000	-2.18380900
55.69999687	0.00000000	-18.92839000	-1.43946800
55.89999686	0.00000000	-23.20374000	0.41830710
56.09999685	0.00000000	-26.23031000	2.73745100
56.29999683	0.00000000	-27.01772000	4.64443900
56.49999682	0.00000000	-25.11688000	5.75787400
56.69999681	0.00000000	-21.66585000	5.33956700
56.89999680	0.00000000	-17.43356000	3.02042300
57.09999679	0.00000000	-13.61959000	-0.41830710
57.29999677	0.00000000	-11.66339000	-4.26919300
57.49999676	0.00000000	-11.62032000	-7.29576700
57.69999675	0.00000000	-13.15822000	-8.40920300
57.89999674	0.00000000	-15.85261000	-6.87746000
58.09999673	0.00000000	-18.92839000	-2.97736200
58.29999672	0.00000000	-21.62278000	2.41756900
58.49999670	0.00000000	-23.16068000	8.54453700
58.69999669	0.00000000	-23.20374000	13.05364000
58.89999668	0.00000000	-22.04109000	14.25935000
59.09999667	0.00000000	-20.13410000	11.94021000
59.29999666	0.00000000	-17.85802000	6.92052100
59.49999664	0.00000000	-16.32013000	-0.04306102
59.69999663	0.00000000	-15.90182000	-7.29576700
59.89999662	0.00000000	-16.27707000	-12.68455000
60.09999661	0.00000000	-17.39050000	-14.63459000
60.29999660	0.00000000	-18.55315000	-13.05364000
60.49999658	0.00000000	-19.30364000	-8.03395600
60.69999657	0.00000000	-19.71580000	-0.33218500
60.89999656	0.00000000	-19.30364000	7.71407400
61.09999655	0.00000000	-18.55315000	14.30241000
61.29999654	0.00000000	-17.39050000	17.74729000
61.49999653	0.00000000	-16.27707000	17.32899000
61.69999651	0.00000000	-15.90182000	12.68455000
61.89999650	0.00000000	-16.27707000	4.64443900
62.09999649	0.00000000	-17.43356000	-4.18307100
62.29999648	0.00000000	-18.97145000	-11.52190000
62.49999647	0.00000000	-20.55241000	-15.79724000
62.69999645	0.00000000	-22.09030000	-16.16634000
62.89999644	0.00000000	-23.16068000	-12.72761000
63.09999643	0.00000000	-22.78543000	-6.18233200
63.29999642	0.00000000	-20.88459000	1.53174200
63.49999641	0.00000000	-18.55315000	8.87057000
63.69999639	0.00000000	-15.85261000	14.25935000
63.89999638	0.00000000	-13.57652000	16.20940000
64.09999637	0.00000000	-12.78297000	14.72072000
64.29999636	0.00000000	-13.15822000	10.45152000
64.49999635	0.00000000	-14.73917000	4.26919300
64.69999634	0.00000000	-17.39050000	-2.64517700
64.89999632	0.00000000	-20.08489000	-8.40920300
65.09999631	0.00000000	-22.04109000	-11.56496000
65.29999630	0.00000000	-23.20374000	-11.98327000
65.49999629	0.00000000	-23.16068000	-10.07628000
65.69999628	0.00000000	-21.66585000	-6.21924200
65.89999626	0.00000000	-19.34670000	-1.62401600
66.09999625	0.00000000	-17.05832000	2.69439000
66.29999624	0.00000000	-15.11442000	6.22539300
66.49999623	0.00000000	-14.40699000	8.91978400
66.69999622	0.00000000	-15.11442000	10.07628000
66.89999620	0.00000000	-17.05832000	9.38115100
67.09999619	0.00000000	-19.30364000	7.84940900
67.29999618	0.00000000	-21.24754000	5.85014700
67.49999617	0.00000000	-21.95497000	3.11269700
67.69999616	0.00000000	-21.20448000	0.00000000
67.89999615	0.00000000	-18.92839000	-3.11269700
68.09999613	0.00000000	-16.27707000	-5.85014700
68.29999612	0.00000000	-14.27165000	-7.75713500
68.49999611	0.00000000	-12.78297000	-8.50147600
68.69999610	0.00000000	-12.46309000	-7.33882900
68.89999609	0.00000000	-14.40699000	-4.60137700
69.09999607	0.00000000	-17.85802000	-0.73818890
69.29999606	0.00000000	-22.09030000	3.94315900
69.49999605	0.00000000	-25.90428000	8.17544300
69.69999604	0.00000000	-27.81127000	11.65723000
69.89999603	0.00000000	-27.43602000	13.14591000
70.09999601	0.00000000	-24.69857000	11.98942000
70.29999600	0.00000000	-20.08489000	8.50147600
70.49999599	0.00000000	-14.69611000	3.11269700
70.69999598	0.00000000	-10.03937000	-2.64517700
70.89999597	0.00000000	-6.96973400	-7.29576700
71.09999596	0.00000000	-6.22539300	-10.03322000
71.29999594	0.00000000	-8.55068800	-10.40846000
71.49999593	0.00000000	-13.15822000	-8.50147600
71.69999592	0.00000000	-18.97145000	-4.64443900
71.89999591	0.00000000	-24.74163000	-0.04306102
72.09999590	0.00000000	-29.01698000	4.22613100
72.29999588	0.00000000	-30.93012000	7.33882900
72.49999587	0.00000000	-30.13656000	8.87672100
72.69999586	0.00000000	-26.27953000	8.50147600
72.89999585	0.00000000	-20.55241000	6.22539300
73.09999584	0.00000000	-14.69611000	3.19881900
73.29999582	0.00000000	-9.66412400	0.46751960
73.49999581	0.00000000	-6.22539300	-1.43946800
73.69999580	0.00000000	-5.85014700	-2.22687000
73.89999579	0.00000000	-8.50147600	-1.53174200
74.09999578	0.00000000	-13.06594000	-0.41830710
74.29999577	0.00000000	-18.08563000	0.37524600
74.49999575	0.00000000	-22.04109000	1.11343500
74.69999574	0.00000000	-25.15994000	1.11343500
74.89999573	0.00000000	-27.01772000	0.32603340
75.09999572	0.00000000	-26.27953000	-0.79355310
75.29999571	0.00000000	-23.67126000	-2.31914400
75.49999569	0.00000000	-20.55241000	-2.97736200
75.69999568	0.00000000	-17.43356000	-2.22687000
75.89999567	0.00000000	-14.73917000	0.13533460
76.09999566	0.00000000	-13.20128000	3.53100400
76.29999565	0.00000000	-13.15822000	7.01279500
76.49999563	0.00000000	-14.27165000	9.24581600
76.69999562	0.00000000	-15.80955000	9.65797200
76.89999561	0.00000000	-17.34744000	7.71407400
77.09999560	0.00000000	-18.50394000	4.22613100
77.29999559	0.00000000	-18.92839000	-0.46136810
77.49999558	0.00000000	-18.97145000	-5.80093500
77.69999556	0.00000000	-18.97145000	-9.98400600
77.89999555	0.00000000	-18.97145000	-11.52190000
78.09999554	0.00000000	-19.01451000	-9.98400600
78.29999553	0.00000000	-19.38976000	-5.75787400
78.49999552	0.00000000	-20.13410000	0.00000000
78.69999550	0.00000000	-20.50935000	5.80093500
78.89999549	0.00000000	-20.50935000	10.45152000
79.09999548	0.00000000	-20.04183000	13.14591000
79.29999547	0.00000000	-18.50394000	13.14591000
79.49999546	0.00000000	-16.22785000	10.45152000
79.69999544	0.00000000	-14.32087000	5.85014700
79.89999543	0.00000000	-13.15822000	0.46136810
80.09999542	0.00000000	-13.15822000	-4.22613100
80.29999541	0.00000000	-14.32087000	-7.75713500
80.49999540	0.00000000	-16.27707000	-10.03322000
80.69999539	0.00000000	-18.97145000	-10.03322000
80.89999537	0.00000000	-21.66585000	-7.75713500
81.09999536	0.00000000	-23.57899000	-4.26919300
81.29999535	0.00000000	-24.32333000	0.00000000
81.49999534	0.00000000	-23.16068000	4.22613100
81.69999533	0.00000000	-20.55241000	7.33882900
81.89999531	0.00000000	-17.80881000	8.96284400
82.09999530	0.00000000	-15.47736000	9.33809000
82.29999529	0.00000000	-13.57652000	8.58759800
82.49999528	0.00000000	-13.15822000	6.60063900
82.69999527	0.00000000	-13.89641000	3.90009800
82.89999525	0.00000000	-15.06521000	0.37524600
83.09999524	0.00000000	-17.01525000	-3.06348400
83.29999523	0.00000000	-18.92839000	-5.80093500
83.49999522	0.00000000	-20.46014000	-7.38188900
83.69999521	0.00000000	-21.24754000	-7.75713500
83.89999520	0.00000000	-20.88459000	-6.96358300
84.09999518	0.00000000	-20.17716000	-4.60137700
84.29999517	0.00000000	-19.34670000	-1.15649600
84.49999516	0.00000000	-18.59621000	2.78051200
84.69999515	0.00000000	-17.80881000	6.59448800
84.89999514	0.00000000	-17.43356000	9.70103300
85.09999512	0.00000000	-17.39050000	10.82677000
85.29999511	0.00000000	-17.39050000	10.07628000
85.49999510	0.00000000	-17.39050000	7.33882900
85.69999509	0.00000000	-17.34744000	3.11269700
85.89999508	0.00000000	-16.97219000	-1.53174200
86.09999506	0.00000000	-16.22785000	-5.75787400
86.29999505	0.00000000	-15.90182000	-8.45226300
86.49999504	0.00000000	-16.27707000	-8.87672100
86.69999503	0.00000000	-17.43356000	-7.33882900
86.89999502	0.00000000	-18.97145000	-4.18307100
87.09999501	0.00000000	-20.50935000	0.41830710
87.29999499	0.00000000	-21.62278000	5.38262700
87.49999498	0.00000000	-21.62278000	8.82750900
87.69999497	0.00000000	-20.50935000	10.07628000
87.89999496	0.00000000	-18.97145000	9.29502900
88.09999495	0.00000000	-17.39050000	6.92052100
88.29999493	0.00000000	-15.85261000	2.69439000
88.49999492	0.00000000	-14.69611000	-2.22687000
88.69999491	0.00000000	-14.32087000	-5.71481200
88.89999490	0.00000000	-14.69611000	-7.29576700
89.09999489	0.00000000	-15.85261000	-6.87746000
89.29999487	0.00000000	-17.39050000	-4.18307100
89.49999486	0.00000000	-18.97145000	0.00000000
89.69999485	0.00000000	-20.46014000	4.22613100
89.89999484	0.00000000	-21.24754000	7.33882900
90.09999483	0.00000000	-20.88459000	8.87672100
90.29999482	0.00000000	-20.13410000	8.45226300
90.49999480	0.00000000	-18.97145000	5.75787400
90.69999479	0.00000000	-17.80881000	1.57480300
90.89999478	0.00000000	-17.01525000	-2.64517700
91.09999477	0.00000000	-16.22785000	-5.71481200
91.29999476	0.00000000	-15.85261000	-6.87130900
91.49999474	0.00000000	-15.85261000	-5.71481200
91.69999473	0.00000000	-16.22785000	-2.64517700
91.89999472	0.00000000	-16.97219000	1.57480300
92.09999471	0.00000000	-17.34744000	5.80093500
92.29999470	0.00000000	-17.39050000	8.82750900
92.49999468	0.00000000	-17.39050000	9.61491000
92.69999467	0.00000000	-17.43356000	7.71407400
92.89999466	0.00000000	-17.80881000	4.26919300
93.09999465	0.00000000	-18.59621000	0.00000000
93.29999464	0.00000000	-19.34670000	-4.18307100
93.49999463	0.00000000	-20.13410000	-6.87746000
93.69999461	0.00000000	-20.46014000	-7.24655500
93.89999460	0.00000000	-20.08489000	-5.33956700
94.09999459	0.00000000	-18.92839000	-1.48868100
94.29999458	0.00000000	-17.39050000	3.06963600
94.49999457	0.00000000	-15.80955000	6.92052100
94.69999455	0.00000000	-14.27165000	8.82750900
94.89999454	0.00000000	-13.15822000	8.50147600
95.09999453	0.00000000	-13.15822000	6.17618100
95.29999452	0.00000000	-14.32087000	2.69439000
95.49999451	0.00000000	-16.27707000	-1.53174200
95.69999449	0.00000000	-19.01451000	-5.29650500
95.89999448	0.00000000	-22.04109000	-6.82824800
96.09999447	0.00000000	-24.36639000	-5.75787400
96.29999446	0.00000000	-25.11688000	-3.11269700
96.49999445	0.00000000	-24.32333000	0.00000000
96.69999444	0.00000000	-21.62278000	3.11269700
96.89999442	0.00000000	-17.80881000	5.75787400
97.09999441	0.00000000	-14.32087000	6.92052100
97.29999440	0.00000000	-11.57726000	6.13312000
97.49999439	0.00000000	-10.03937000	3.90009800
97.69999438	0.00000000	-9.99630800	0.83661410
97.89999436	0.00000000	-11.20202000	-1.43946800
98.09999435	0.00000000	-13.57652000	-2.68823800
98.29999434	0.00000000	-17.43356000	-3.06348400
98.49999433	0.00000000	-21.62278000	-2.64517700
98.69999432	0.00000000	-24.74163000	-1.15649600
98.89999430	0.00000000	-26.27953000	0.73818890
99.09999429	0.00000000	-25.90428000	1.90698800
99.29999428	0.00000000	-23.62205000	2.68823800
99.49999427	0.00000000	-20.50935000	2.68823800
99.69999426	0.00000000	-17.01525000	1.99311000
99.89999425	0.00000000	-13.53346000	1.61786400
100.09999423	0.00000000	-11.20202000	1.61786400
100.29999422	0.00000000	-9.99630800	1.99311000
100.49999421	0.00000000	-10.03937000	2.73745100
100.69999420	0.00000000	-11.62032000	3.11269700
100.89999419	0.00000000	-14.69611000	3.11269700
101.09999417	0.00000000	-18.50394000	2.68823800
101.29999416	0.00000000	-21.62278000	1.53174200
101.49999415	0.00000000	-23.57899000	0.00000000
101.69999414	0.00000000	-24.36639000	-1.53174200
101.89999413	0.00000000	-23.62205000	-2.68823800
102.09999411	0.00000000	-22.09030000	-3.02042300
102.29999410	0.00000000	-20.08489000	-2.22687000
102.49999409	0.00000000	-17.39050000	0.04306102
102.69999408	0.00000000	-14.73917000	2.73745100
102.89999407	0.00000000	-13.15822000	5.06274600
103.09999406	0.00000000	-12.73991000	6.96358300
103.29999404	0.00000000	-13.11516000	7.33882900
103.49999403	0.00000000	-14.32087000	6.17618100
103.69999402	0.00000000	-16.22785000	3.85088600
103.89999401	0.00000000	-18.55315000	0.41830710
104.09999400	0.00000000	-20.46014000	-2.64517700
104.29999398	0.00000000	-21.66585000	-4.60137700
104.49999397	0.00000000	-22.04109000	-5.38262700
104.69999396	0.00000000	-21.66585000	-4.60137700
104.89999395	0.00000000	-20.50935000	-2.69439000
105.09999394	0.00000000	-18.97145000	0.04306102
105.29999392	0.00000000	-17.39050000	3.06348400
105.49999391	0.00000000	-15.90182000	5.38262700
105.69999390	0.00000000	-15.11442000	6.13312000
105.89999389	0.00000000	-15.47736000	5.43184000
106.09999388	0.00000000	-16.22785000	3.53100400
106.29999387	0.00000000	-17.43356000	1.57480300
106.49999385	0.00000000	-18.87918000	-0.33218500
106.69999384	0.00000000	-19.66658000	-1.85162400
106.89999383	0.00000000	-19.30364000	-1.85777500
107.09999382	0.00000000	-18.55315000	-1.15649600
107.29999381	0.00000000	-17.39050000	0.04306102
107.49999379	0.00000000	-16.27707000	1.57480300
107.69999378	0.00000000	-15.85261000	3.11269700
107.89999377	0.00000000	-15.85261000	4.22613100
108.09999376	0.00000000	-16.27707000	4.22613100
108.29999375	0.00000000	-17.43356000	3.06348400
108.49999374	0.00000000	-18.92839000	1.20570900
108.69999372	0.00000000	-20.08489000	-0.73818890
108.89999371	0.00000000	-20.46014000	-1.85777500
109.09999370	0.00000000	-20.13410000	-2.26993100
109.29999369	0.00000000	-19.34670000	-1.48868100
109.49999368	0.00000000	-18.55315000	0.00000000
109.69999366	0.00000000	-17.34744000	1.57480300
109.89999365	0.00000000	-15.85261000	3.11269700
110.09999364	0.00000000	-14.73917000	4.22613100
110.29999363	0.00000000	-14.69611000	4.22613100
110.49999362	0.00000000	-15.47736000	3.11269700
110.69999360	0.00000000	-16.60310000	1.57480300
110.89999359	0.00000000	-18.17790000	0.04306102
111.09999358	0.00000000	-19.30364000	-1.15649600
111.29999357	0.00000000	-20.13410000	-1.90698800
111.49999356	0.00000000	-20.46014000	-2.31914400
111.69999355	0.00000000	-20.08489000	-1.90698800
111.89999353	0.00000000	-18.92839000	-1.15649600
112.09999352	0.00000000	-17.43356000	0.00000000
112.29999351	0.00000000	-16.27707000	1.15649600
112.49999350	0.00000000	-15.85261000	1.95004900
112.69999349	0.00000000	-15.80955000	2.68823800
112.89999347	0.00000000	-15.85261000	2.68823800
113.09999346	0.00000000	-16.22785000	1.99311000
113.29999345	0.00000000	-17.01525000	1.61786400
113.49999344	0.00000000	-17.76575000	1.53174200
113.69999343	0.00000000	-18.55315000	1.15649600
113.89999341	0.00000000	-18.92839000	0.41830710
114.09999340	0.00000000	-18.97145000	0.04306102
114.29999339	0.00000000	-18.92839000	0.00000000
114.49999338	0.00000000	-18.55315000	0.00000000
114.69999337	0.00000000	-17.76575000	0.00000000
114.89999336	0.00000000	-17.01525000	0.00000000
115.09999334	0.00000000	-16.22785000	0.00000000
115.29999333	0.00000000	-15.90182000	0.00000000
115.49999332	0.00000000	-16.22785000	0.04306102
115.69999331	0.00000000	-16.97219000	0.41830710
115.89999330	0.00000000	-17.39050000	1.15649600
116.09999328	0.00000000	-17.80881000	1.57480300
116.29999327	0.00000000	-18.55315000	1.99311000
116.49999326	0.00000000	-18.92839000	2.73745100
116.69999325	0.00000000	-18.97145000	3.11269700
116.89999324	0.00000000	-18.92839000	3.11269700
117.09999322	0.00000000	-18.55315000	2.73745100
117.29999321	0.00000000	-17.76575000	1.95004900
117.49999320	0.00000000	-17.01525000	1.19955700
117.69999319	0.00000000	-16.18479000	0.37524600
117.89999318	0.00000000	-15.43430000	-0.32603340
118.09999317	0.00000000	-14.69611000	-0.73818890
118.29999315	0.00000000	-14.73917000	-0.37524600
118.49999314	0.00000000	-15.85261000	-0.04306102
118.69999313	0.00000000	-17.34744000	0.04306102
118.89999312	0.00000000	-18.55315000	0.46136810
119.09999311	0.00000000	-19.34670000	1.53174200
119.29999309	0.00000000	-20.13410000	2.31914400
119.49999308	0.00000000	-20.46014000	2.36835600
119.69999307	0.00000000	-20.08489000	2.78051200
119.89999306	0.00000000	-18.92839000	3.11269700
120.09999305	0.00000000	-17.39050000	3.11269700
120.29999303	0.00000000	-15.85261000	2.73745100
120.49999302	0.00000000	-14.69611000	1.95004900
120.69999301	0.00000000	-14.27165000	1.19955700
120.89999300	0.00000000	-14.27165000	0.41830710
121.09999299	0.00000000	-14.69611000	0.04306102
121.29999298	0.00000000	-15.85261000	0.00000000
121.49999296	0.00000000	-17.34744000	0.00000000
121.69999295	0.00000000	-18.55315000	0.00000000
121.89999294	0.00000000	-19.34670000	0.04306102
122.09999293	0.00000000	-20.13410000	0.41830710
122.29999292	0.00000000	-20.46014000	1.19955700
122.49999290	0.00000000	-20.08489000	1.95004900
122.69999289	0.00000000	-18.97145000	2.73745100
122.89999288	0.00000000	-17.80881000	3.11269700
123.09999287	0.00000000	-17.01525000	3.11269700
123.29999286	0.00000000	-16.22785000	2.73745100
123.49999284	0.00000000	-15.85261000	1.95004900
123.69999283	0.00000000	-15.80955000	1.19955700
123.89999282	0.00000000	-15.80955000	0.41830710
124.09999281	0.00000000	-15.85261000	0.04306102
124.29999280	0.00000000	-16.22785000	0.00000000
124.49999279	0.00000000	-17.01525000	0.00000000
124.69999277	0.00000000	-17.76575000	0.00000000
124.89999276	0.00000000	-18.55315000	0.04306102
125.09999275	0.00000000	-18.92839000	0.41830710
125.29999274	0.00000000	-18.97145000	1.15649600
125.49999273	0.00000000	-18.97145000	1.53174200
125.69999271	0.00000000	-18.92839000	1.57480300
125.89999270	0.00000000	-18.50394000	1.57480300
126.09999269	0.00000000	-17.39050000	1.57480300
126.29999268	0.00000000	-16.27707000	1.57480300
126.49999267	0.00000000	-15.85261000	1.57480300
126.69999265	0.00000000	-15.80955000	1.57480300
126.89999264	0.00000000	-15.80955000	1.57480300
127.09999263	0.00000000	-15.85261000	1.53174200
127.29999262	0.00000000	-16.27707000	1.15649600
127.49999261	0.00000000	-17.39050000	0.41830710
127.69999260	0.00000000	-18.50394000	0.09227362
127.89999258	0.00000000	-18.92839000	0.37524600
128.09999257	0.00000000	-18.97145000	0.78124990
128.29999256	0.00000000	-18.92839000	0.79355310
128.49999255	0.00000000	-18.50394000	1.19955700
128.69999254	0.00000000	-17.39050000	1.53174200
128.89999252	0.00000000	-16.27707000	1.57480300
129.09999251	0.00000000	-15.85261000	1.57480300
129.29999250	0.00000000	-15.85261000	1.53174200
129.49999249	0.00000000	-16.22785000	1.15649600
129.69999248	0.00000000	-17.01525000	0.41830710
129.89999246	0.00000000	-17.76575000	0.04306102
130.09999245	0.00000000	-18.55315000	0.00000000
130.29999244	0.00000000	-18.92839000	0.04306102
130.49999243	0.00000000	-18.97145000	0.41830710
130.69999242	0.00000000	-18.92839000	1.15649600
130.89999241	0.00000000	-18.55315000	1.53174200
131.09999239	0.00000000	-17.76575000	1.57480300
131.29999238	0.00000000	-17.01525000	1.57480300
131.49999237	0.00000000	-16.22785000	1.53174200
131.69999236	0.00000000	-15.85261000	1.15649600
131.89999235	0.00000000	-15.85261000	0.41830710
132.09999233	0.00000000	-16.27707000	0.04306102
132.29999232	0.00000000	-17.39050000	0.00000000
132.49999231	0.00000000	-18.50394000	0.00000000
132.69999230	0.00000000	-18.92839000	0.04306102
132.89999229	0.00000000	-18.97145000	0.41830710
133.09999227	0.00000000	-18.92839000	1.19955700
133.29999226	0.00000000	-18.55315000	1.95004900
133.49999225	0.00000000	-17.80881000	2.73745100
133.69999224	0.00000000	-17.43356000	3.06348400
133.89999223	0.00000000	-17.39050000	2.73745100
134.09999222	0.00000000	-17.39050000	1.99311000
134.29999220	0.00000000	-17.39050000	1.57480300
134.49999219	0.00000000	-17.39050000	1.15649600
134.69999218	0.00000000	-17.39050000	0.41830710
134.89999217	0.00000000	-17.39050000	0.00000000
135.09999216	0.00000000	-17.39050000	-0.37524600
135.29999214	0.00000000	-17.34744000	-0.73818890
135.49999213	0.00000000	-16.97219000	-0.32603340
135.69999212	0.00000000	-16.27707000	0.37524600
135.89999211	0.00000000	-16.27707000	1.15649600
136.09999210	0.00000000	-16.97219000	1.57480300
136.29999208	0.00000000	-17.39050000	1.99311000
136.49999207	0.00000000	-17.80881000	2.68823800
136.69999206	0.00000000	-18.55315000	2.68823800
136.89999205	0.00000000	-18.92839000	1.99311000
137.09999204	0.00000000	-18.92839000	1.61786400
137.29999203	0.00000000	-18.50394000	1.53174200
137.49999201	0.00000000	-17.39050000	1.15649600
137.69999200	0.00000000	-16.27707000	0.41830710
137.89999199	0.00000000	-15.85261000	0.04306102
138.09999198	0.00000000	-15.80955000	-0.04306102
138.29999197	0.00000000	-15.85261000	-0.37524600
138.49999195	0.00000000	-16.22785000	-0.73818890
138.69999194	0.00000000	-17.01525000	-0.32603340
138.89999193	0.00000000	-17.76575000	0.37524600
139.09999192	0.00000000	-18.55315000	1.19955700
139.29999191	0.00000000	-18.92839000	1.95004900
139.49999189	0.00000000	-18.92839000	2.73745100
139.69999188	0.00000000	-18.55315000	3.11269700
139.89999187	0.00000000	-17.80881000	3.11269700
140.09999186	0.00000000	-17.39050000	2.73745100
140.29999185	0.00000000	-16.97219000	1.95004900
140.49999184	0.00000000	-16.22785000	1.19955700
140.69999182	0.00000000	-15.90182000	0.37524600
140.89999181	0.00000000	-16.22785000	-0.37524600
141.09999180	0.00000000	-17.01525000	-1.15649600
141.29999179	0.00000000	-17.72268000	-1.48253000
141.49999178	0.00000000	-18.13484000	-1.11343500
141.69999176	0.00000000	-17.76575000	0.00000000
141.89999175	0.00000000	-17.43356000	1.15649600
142.09999174	0.00000000	-17.39050000	1.95004900
142.29999173	0.00000000	-17.34744000	2.73745100
142.49999172	0.00000000	-16.97219000	3.11269700
142.69999170	0.00000000	-16.22785000	3.11269700
142.89999169	0.00000000	-15.90182000	2.73745100
143.09999168	0.00000000	-16.22785000	1.95004900
143.29999167	0.00000000	-16.97219000	1.19955700
143.49999166	0.00000000	-17.34744000	0.37524600
143.69999165	0.00000000	-17.43356000	-0.37524600
143.89999163	0.00000000	-17.76575000	-1.11343500
144.09999162	0.00000000	-18.13484000	-1.06422200
144.29999161	0.00000000	-17.72268000	0.00000000
144.49999160	0.00000000	-17.01525000	1.11343500
144.69999159	0.00000000	-16.22785000	1.57480300
144.89999157	0.00000000	-15.85261000	1.99311000
145.09999156	0.00000000	-15.80955000	2.73745100
145.29999155	0.00000000	-15.85261000	3.06348400
145.49999154	0.00000000	-16.22785000	2.73745100
145.69999153	0.00000000	-16.97219000	1.95004900
145.89999151	0.00000000	-17.34744000	1.19955700
146.09999150	0.00000000	-17.39050000	0.41830710
146.29999149	0.00000000	-17.39050000	0.04306102
146.49999148	0.00000000	-17.39050000	0.00000000
146.69999147	0.00000000	-17.34744000	0.00000000
146.89999146	0.00000000	-16.97219000	0.04306102
147.09999144	0.00000000	-16.22785000	0.41830710
147.29999143	0.00000000	-15.85261000	1.15649600
147.49999142	0.00000000	-15.85261000	1.53174200
147.69999141	0.00000000	-16.22785000	1.57480300
147.89999140	0.00000000	-16.97219000	1.57480300
148.09999138	0.00000000	-17.34744000	1.57480300
148.29999137	0.00000000	-17.39050000	1.57480300
148.49999136	0.00000000	-17.39050000	1.57480300
148.69999135	0.00000000	-17.39050000	1.57480300
148.89999134	0.00000000	-17.39050000	1.57480300
149.09999132	0.00000000	-17.39050000	1.53174200
149.29999131	0.00000000	-17.34744000	1.15649600
149.49999130	0.00000000	-16.97219000	0.41830710
149.69999129	0.00000000	-16.22785000	0.09227362
149.89999128	0.00000000	-15.85261000	0.37524600
150.09999127	0.00000000	-15.85261000	0.78124990
150.29999125	0.00000000	-16.22785000	0.79355310
150.49999124	0.00000000	-16.97219000	1.19955700
150.69999123	0.00000000	-17.34744000	1.53174200
150.89999122	0.00000000	-17.39050000	1.57480300
151.09999121	0.00000000	-17.39050000	1.57480300
151.29999119	0.00000000	-17.39050000	1.57480300
151.49999118	0.00000000	-17.39050000	1.57480300
151.69999117	0.00000000	-17.39050000	1.53174200
151.89999116	0.00000000	-17.39050000	1.15649600
152.09999115	0.00000000	-17.34744000	0.46136810
152.29999113	0.00000000	-16.97219000	0.46136810
152.49999112	0.00000000	-16.22785000	1.15649600
152.69999111	0.00000000	-15.85261000	1.53174200
152.89999110	0.00000000	-15.80955000	1.57480300
153.09999109	0.00000000	-15.80955000	1.57480300
153.29999108	0.00000000	-15.85261000	1.57480300
153.49999106	0.00000000	-16.22785000	1.57480300
153.69999105	0.00000000	-16.97219000	1.57480300
153.89999104	0.00000000	-17.34744000	1.57480300
154.09999103	0.00000000	-17.43356000	1.57480300
154.29999102	0.00000000	-17.76575000	1.57480300
154.49999100	0.00000000	-18.13484000	1.57480300
154.69999099	0.00000000	-17.76575000	1.57480300
154.89999098	0.00000000	-17.43356000	1.57480300
155.09999097	0.00000000	-17.34744000	1.57480300
155.29999096	0.00000000	-16.97219000	1.57480300
155.49999094	0.00000000	-16.22785000	1.53174200
155.69999093	0.00000000	-15.85261000	1.15649600
155.89999092	0.00000000	-15.80955000	0.41830710
156.09999091	0.00000000	-15.85261000	0.09227362
156.29999090	0.00000000	-16.22785000	0.41830710
156.49999089	0.00000000	-16.97219000	1.15649600
156.69999087	0.00000000	-17.34744000	1.57480300
156.89999086	0.00000000	-17.39050000	1.99311000
157.09999085	0.00000000	-17.39050000	2.68823800
157.29999084	0.00000000	-17.39050000	2.68823800
157.49999083	0.00000000	-17.39050000	1.99311000
157.69999081	0.00000000	-17.39050000	1.61786400
157.89999080	0.00000000	-17.39050000	1.53174200
158.09999079	0.00000000	-17.34744000	1.15649600
158.29999078	0.00000000	-16.97219000	0.41830710
158.49999077	0.00000000	-16.22785000	0.04306102
158.69999075	0.00000000	-15.85261000	0.00000000
158.89999074	0.00000000	-15.80955000	0.00000000
159.09999073	0.00000000	-15.80955000	0.04306102
159.29999072	0.00000000	-15.85261000	0.41830710
159.49999071	0.00000000	-16.22785000	1.15649600
159.69999070	0.00000000	-16.97219000	1.57480300
159.89999068	0.00000000	-17.34744000	1.99311000
160.09999067	0.00000000	-17.39050000	2.68823800
160.29999066	0.00000000	-17.39050000	2.68823800
160.49999065	0.00000000	-17.39050000	1.99311000
160.69999064	0.00000000	-17.39050000	1.61786400
160.89999062	0.00000000	-17.39050000	1.53174200
161.09999061	0.00000000	-17.39050000	1.15649600
161.29999060	0.00000000	-17.34744000	0.41830710
161.49999059	0.00000000	-16.97219000	0.04306102
161.69999058	0.00000000	-16.22785000	0.00000000
161.89999056	0.00000000	-15.85261000	0.04306102
162.09999055	0.00000000	-15.80955000	0.41830710
162.29999054	0.00000000	-15.80955000	1.15649600
162.49999053	0.00000000	-15.80955000	1.53174200
162.69999052	0.00000000	-15.85261000	1.57480300
162.89999051	0.00000000	-16.22785000	1.57480300
163.09999049	0.00000000	-16.97219000	1.57480300
163.29999048	0.00000000	-17.34744000	1.57480300
163.49999047	0.00000000	-17.39050000	1.57480300
163.69999046	0.00000000	-17.39050000	1.57480300
163.89999045	0.00000000	-17.39050000	1.57480300
164.09999043	0.00000000	-17.39050000	1.57480300
164.29999042	0.00000000	-17.39050000	1.57480300
164.49999041	0.00000000	-17.34744000	1.53174200
164.69999040	0.00000000	-16.97219000	1.19955700
164.89999039	0.00000000	-16.22785000	0.83661410
165.09999037	0.00000000	-15.85261000	1.19955700
165.29999036	0.00000000	-15.80955000	1.53174200
165.49999035	0.00000000	-15.80955000	1.57480300
165.69999034	0.00000000	-15.80955000	1.57480300
165.89999033	0.00000000	-15.85261000	1.57480300
166.09999032	0.00000000	-16.22785000	1.57480300
166.29999030	0.00000000	-16.97219000	1.57480300
166.49999029	0.00000000	-17.34744000	1.57480300
166.69999028	0.00000000	-17.39050000	1.57480300
166.89999027	0.00000000	-17.39050000	1.57480300
167.09999026	0.00000000	-17.39050000	1.57480300
167.29999024	0.00000000	-17.34744000	1.57480300
167.49999023	0.00000000	-16.97219000	1.57480300
167.69999022	0.00000000	-16.22785000	1.57480300
167.89999021	0.00000000	-15.85261000	1.57480300
168.09999020	0.00000000	-15.80955000	1.57480300
168.29999018	0.00000000	-15.80955000	1.53174200
168.49999017	0.00000000	-15.80955000	1.19955700
168.69999016	0.00000000	-15.80955000	0.83661410
168.89999015	0.00000000	-15.85261000	1.19955700
169.09999014	0.00000000	-16.22785000	1.53174200
169.29999013	0.00000000	-16.92298000	1.57480300
169.49999011	0.00000000	-16.97219000	1.53174200
169.69999010	0.00000000	-16.64616000	1.19955700
169.89999009	0.00000000	-17.01525000	0.83661410
170.09999008	0.00000000	-17.34744000	1.19955700
170.29999007	0.00000000	-17.39050000	1.53174200
170.49999005	0.00000000	-17.34744000	1.57480300
170.69999004	0.00000000	-16.97219000	1.57480300
170.89999003	0.00000000	-16.22785000	1.57480300
171.09999002	0.00000000	-15.85261000	1.57480300
171.29999001	0.00000000	-15.80955000	1.57480300
171.49998999	0.00000000	-15.85261000	1.57480300
171.69998998	0.00000000	-16.22785000	1.53174200
171.89998997	0.00000000	-16.97219000	1.19955700
172.09998996	0.00000000	-17.34744000	0.79355310
172.29998995	0.00000000	-17.39050000	0.83046260
172.49998994	0.00000000	-17.39050000	0.79355310
172.69998992	0.00000000	-17.39050000	1.19955700
172.89998991	0.00000000	-17.39050000	1.53174200
173.09998990	0.00000000	-17.39050000	1.57480300
173.29998989	0.00000000	-17.39050000	1.57480300
173.49998988	0.00000000	-17.34744000	1.57480300
173.69998986	0.00000000	-17.01525000	1.57480300
173.89998985	0.00000000	-16.60310000	1.57480300
174.09998984	0.00000000	-16.64001000	1.57480300
174.29998983	0.00000000	-16.60310000	1.57480300
174.49998982	0.00000000	-16.97219000	1.57480300
174.69998980	0.00000000	-16.92298000	1.57480300
174.89998979	0.00000000	-16.27707000	1.57480300
175.09998978	0.00000000	-16.27707000	1.57480300
175.29998977	0.00000000	-16.97219000	1.57480300
175.49998976	0.00000000	-17.34744000	1.57480300
175.69998975	0.00000000	-17.39050000	1.57480300
175.89998973	0.00000000	-17.34744000	1.57480300
176.09998972	0.00000000	-17.01525000	1.57480300
176.29998971	0.00000000	-16.60310000	1.57480300
176.49998970	0.00000000	-16.59695000	1.57480300
176.69998969	0.00000000	-16.18479000	1.57480300
176.89998967	0.00000000	-15.85261000	1.57480300
177.09998966	0.00000000	-15.80955000	1.57480300
177.29998965	0.00000000	-15.85261000	1.57480300
177.49998964	0.00000000	-16.22785000	1.57480300
177.69998963	0.00000000	-16.97219000	1.53174200
177.89998961	0.00000000	-17.34744000	1.19955700
178.09998960	0.00000000	-17.39050000	0.83661410
178.29998959	0.00000000	-17.39050000	1.19955700
178.49998958	0.00000000	-17.39050000	1.53174200
178.69998957	0.00000000	-17.39050000	1.57480300
178.89998956	0.00000000	-17.34744000	1.57480300
179.09998954	0.00000000	-16.97219000	1.57480300
179.29998953	0.00000000	-16.22785000	1.57480300
179.49998952	0.00000000	-15.85261000	1.57480300
179.69998951	0.00000000	-15.80955000	1.57480300
179.89998950	0.00000000	-15.80955000	1.57480300
180.09998948	0.00000000	-15.85261000	1.53174200
180.29998947	0.00000000	-16.18479000	1.19955700
180.49998946	0.00000000	-16.59695000	0.83661410
180.69998945	0.00000000	-16.60310000	1.19955700
180.89998944	0.00000000	-17.01525000	1.53174200
181.09998942	0.00000000	-17.34744000	1.57480300
181.29998941	0.00000000	-17.34744000	1.61786400
181.49998940	0.00000000	-16.97219000	1.95004900
181.69998939	0.00000000	-16.22785000	2.31914400
181.89998938	0.00000000	-15.85261000	1.95004900
182.09998937	0.00000000	-15.80955000	1.61786400
182.29998935	0.00000000	-15.80955000	1.57480300
182.49998934	0.00000000	-15.80955000	1.57480300
182.69998933	0.00000000	-15.85261000	1.53174200
182.89998932	0.00000000	-16.18479000	1.15649600
183.09998931	0.00000000	-16.55389000	0.41830710
183.29998929	0.00000000	-16.22785000	0.09227362
183.49998928	0.00000000	-16.22785000	0.41830710
183.69998927	0.00000000	-16.59695000	1.11343500
183.89998926	0.00000000	-16.56004000	1.15649600
184.09998925	0.00000000	-16.59695000	0.83661410
184.29998923	0.00000000	-16.22785000	1.19955700
184.49998922	0.00000000	-16.22785000	1.53174200
184.69998921	0.00000000	-16.59695000	1.57480300
184.89998920	0.00000000	-16.56004000	1.57480300
185.09998919	0.00000000	-16.64001000	1.57480300
185.29998918	0.00000000	-16.56004000	1.61786400
185.49998916	0.00000000	-16.59695000	1.95004900
185.69998915	0.00000000	-16.18479000	2.31914400
185.89998914	0.00000000	-15.85261000	1.90698800
186.09998913	0.00000000	-15.80955000	1.19955700
186.29998912	0.00000000	-15.80955000	0.41830710
186.49998910	0.00000000	-15.80955000	0.04306102
186.69998909	0.00000000	-15.80955000	0.00000000
186.89998908	0.00000000	-15.85261000	0.04306102
187.09998907	0.00000000	-16.22785000	0.41830710
187.29998906	0.00000000	-16.92298000	1.15649600
187.49998904	0.00000000	-16.97219000	1.57480300
187.69998903	0.00000000	-16.64616000	1.99311000
187.89998902	0.00000000	-16.97219000	2.68823800
188.09998901	0.00000000	-16.92298000	2.68823800
188.29998900	0.00000000	-16.22785000	1.99311000
188.49998899	0.00000000	-15.85261000	1.61786400
188.69998897	0.00000000	-15.80955000	1.53174200
188.89998896	0.00000000	-15.80955000	1.15649600
189.09998895	0.00000000	-15.80955000	0.41830710
189.29998894	0.00000000	-15.80955000	0.04306102
189.49998893	0.00000000	-15.80955000	0.04306102
189.69998891	0.00000000	-15.85261000	0.41830710
189.89998890	0.00000000	-16.18479000	1.15649600
190.09998889	0.00000000	-16.55389000	1.53174200
190.29998888	0.00000000	-16.22785000	1.57480300
190.49998887	0.00000000	-16.27707000	1.57480300
190.69998885	0.00000000	-16.92298000	1.57480300
190.89998884	0.00000000	-16.97219000	1.57480300
191.09998883	0.00000000	-16.60310000	1.57480300
191.29998882	0.00000000	-16.59695000	1.57480300
191.49998881	0.00000000	-16.18479000	1.57480300
191.69998880	0.00000000	-15.85261000	1.57480300
191.89998878	0.00000000	-15.80955000	1.57480300
192.09998877	0.00000000	-15.80955000	1.57480300
192.29998876	0.00000000	-15.80955000	1.57480300
192.49998875	0.00000000	-15.80955000	1.57480300
192.69998874	0.00000000	-15.80955000	1.57480300
192.89998872	0.00000000	-15.85261000	1.57480300
193.09998871	0.00000000	-16.22785000	1.57480300
193.29998870	0.00000000	-16.97219000	1.57480300
193.49998869	0.00000000	-17.34744000	1.53174200
193.69998868	0.00000000	-17.34744000	1.19955700
193.89998866	0.00000000	-16.97219000	0.83661410
194.09998865	0.00000000	-16.27707000	1.19955700
194.29998864	0.00000000	-16.22785000	1.53174200
194.49998863	0.00000000	-16.55389000	1.57480300
194.69998862	0.00000000	-16.18479000	1.57480300
194.89998861	0.00000000	-15.85261000	1.57480300
195.09998859	0.00000000	-15.80955000	1.57480300
195.29998858	0.00000000	-15.80955000	1.57480300
195.49998857	0.00000000	-15.85261000	1.57480300
195.69998856	0.00000000	-16.22785000	1.57480300
195.89998855	0.00000000	-16.92298000	1.57480300
196.09998853	0.00000000	-16.97219000	1.57480300
