Time	Channel A	Channel B	Channel C
(us)	(V)	(mV)	(mV)

-4.49999956	0.00000000	19.01451000	-0.37524600
-4.29999957	0.00000000	18.97145000	-0.04306102
-4.09999958	0.00000000	18.97145000	0.00000000
-3.89999959	0.00000000	18.97145000	-0.04306102
-3.69999960	0.00000000	18.97145000	-0.37524600
-3.49999962	0.00000000	18.97145000	-0.73818890
-3.29999963	0.00000000	18.97145000	-0.37524600
-3.09999964	0.00000000	18.97145000	-0.04306102
-2.89999965	0.00000000	18.97145000	0.00000000
-2.69999966	0.00000000	18.97145000	0.00000000
-2.49999968	0.00000000	18.97145000	0.00000000
-2.29999969	0.00000000	18.97145000	-0.04306102
-2.09999970	0.00000000	18.97145000	-0.37524600
-1.89999971	0.00000000	18.97145000	-0.73818890
-1.69999972	0.00000000	18.97145000	-0.37524600
-1.49999973	0.00000000	18.97145000	-0.04306102
-1.29999975	0.00000000	18.97145000	0.00000000
-1.09999976	0.00000000	18.97145000	0.00000000
-0.89999977	0.00000000	18.97145000	-0.04306102
-0.69999978	0.00000000	18.97145000	-0.37524600
-0.49999979	0.00000000	18.97145000	-0.73818890
-0.29999981	0.31803640	18.97145000	-0.37524600
-0.09999982	0.63668800	18.97145000	-0.09227362
0.10000017	0.95533960	18.97145000	-0.41830710
0.30000016	0.95533960	18.97145000	-1.15649600
0.50000015	0.79601380	18.97145000	-1.53174200
0.70000013	0.31803640	18.97145000	-1.57480300
0.90000012	-0.47736220	18.97145000	-1.53174200
1.10000011	-1.59264300	18.97145000	-1.15649600
1.30000010	-2.38927200	18.97145000	-0.41830710
1.50000009	-2.86724900	18.97145000	-0.04306102
1.70000008	-2.38927200	18.97145000	0.00000000
1.90000006	-1.27399100	18.97145000	0.00000000
2.10000005	0.63668800	18.97145000	0.00000000
2.30000004	2.70792300	18.97145000	-0.04306102
2.50000003	4.45989200	18.97145000	-0.41830710
2.70000002	5.25652100	18.97145000	-1.15649600
2.90000000	4.77854300	18.97145000	-1.53174200
3.09999999	2.86724900	18.97145000	-1.57480300
3.29999998	-0.15871060	18.97145000	-1.57480300
3.49999997	-3.66326300	18.97145000	-1.53174200
3.69999996	-6.53112700	18.97145000	-1.15649600
3.89999994	-7.96444400	18.97145000	-0.41830710
4.09999993	-7.48646600	18.97145000	-0.04306102
4.29999992	-4.93786900	18.97145000	0.00000000
4.49999991	-0.95533960	18.97145000	0.00000000
4.69999990	3.50393700	18.97145000	0.00000000
4.89999989	7.32714100	18.97145000	-0.04306102
5.09999987	9.23905000	18.97145000	-0.41830710
5.29999986	9.07972400	18.92839000	-1.15649600
5.49999985	6.53112700	18.59621000	-1.53174200
5.69999984	2.22994600	18.22711000	-1.57480300
5.89999983	-2.54859700	18.59621000	-1.57480300
6.09999981	-6.69045300	18.92839000	-1.53174200
6.29999980	-9.07972400	18.97145000	-1.15649600
6.49999979	-9.23905000	18.97145000	-0.41830710
6.69999978	-7.00848900	18.97145000	-0.04306102
6.89999977	-3.18590100	18.97145000	0.00000000
7.09999975	1.11466500	18.97145000	0.00000000
7.29999974	4.93786900	18.97145000	-0.04306102
7.49999973	7.32714100	18.97145000	-0.41830710
7.69999972	7.64579200	18.97145000	-1.15649600
7.89999971	6.05315000	18.97145000	-1.53174200
8.09999970	3.34522600	18.97145000	-1.57480300
8.29999968	0.00000000	18.97145000	-1.53174200
8.49999967	-2.86724900	18.97145000	-1.15649600
8.69999966	-4.77854300	18.97145000	-0.41830710
8.89999965	-5.09719500	18.97145000	-0.04306102
9.09999964	-4.30056600	18.97145000	0.00000000
9.29999962	-2.54859700	18.97145000	0.00000000
9.49999961	-0.63668800	18.97145000	0.00000000
9.69999960	1.11466500	18.97145000	0.00000000
9.89999959	2.22994600	18.97145000	0.00000000
10.09999958	2.54859700	18.97145000	0.00000000
10.29999956	2.22994600	18.97145000	-0.04306102
10.49999955	1.43331700	18.97145000	-0.37524600
10.69999954	0.47736220	18.97145000	-0.73818890
10.89999953	-0.15871060	18.97145000	-0.41830710
11.09999952	-0.79601380	18.97145000	-0.46136810
11.29999951	-0.95533960	18.97145000	-1.15649600
11.49999949	-0.95533960	18.97145000	-1.48253000
11.69999948	-0.63668800	18.97145000	-1.15649600
11.89999947	-0.47736220	18.97145000	-0.46136810
12.09999946	-0.15871060	18.97145000	-0.41830710
12.29999945	-0.15871060	18.97145000	-0.78124990
12.49999943	0.00000000	18.97145000	-0.74434050
12.69999942	0.00000000	18.97145000	-0.83046260
12.89999941	0.00000000	18.97145000	-0.74434050
13.09999940	0.00000000	18.97145000	-0.83046260
13.29999939	0.00000000	18.97145000	-0.79355310
13.49999937	0.00000000	18.97145000	-1.15649600
13.69999936	0.00000000	18.97145000	-1.11343500
13.89999935	0.00000000	18.97145000	-0.41830710
14.09999934	-0.15871060	18.97145000	-0.04306102
14.29999933	-0.15871060	18.92839000	-0.04306102
14.49999932	-0.15871060	18.59621000	-0.41830710
14.69999930	0.00000000	18.22711000	-1.11343500
14.89999929	0.00000000	18.59621000	-1.11343500
15.09999928	0.00000000	18.92839000	-0.46136810
15.29999927	0.00000000	18.92839000	-0.41830710
15.49999926	0.00000000	18.55315000	-0.73818890
15.69999924	0.15871060	17.85802000	-0.37524600
15.89999923	0.00000000	17.85802000	-0.04306102
16.09999922	0.00000000	18.55315000	-0.04306102
16.29999921	0.00000000	18.92839000	-0.37524600
16.49999920	0.00000000	18.97145000	-0.73818890
16.69999919	-0.15871060	18.97145000	-0.41830710
16.89999917	0.00000000	19.01451000	-0.46136810
17.09999916	0.00000000	19.38976000	-1.15649600
17.29999915	0.00000000	20.13410000	-1.48253000
17.49999914	0.00000000	20.50935000	-1.15649600
17.69999913	0.00000000	20.50935000	-0.41830710
17.89999911	0.00000000	20.08489000	-0.09227362
18.09999910	0.00000000	18.97145000	-0.41830710
18.29999909	0.00000000	17.76575000	-1.11343500
18.49999908	0.00000000	16.55389000	-1.15649600
18.69999907	0.00000000	14.64690000	-0.83661410
18.89999905	0.00000000	13.20128000	-1.19955700
19.09999904	-0.15871060	13.20128000	-1.48253000
19.29999903	0.00000000	14.73917000	-1.19955700
19.49999902	0.00000000	17.48277000	-0.83661410
19.69999901	0.00000000	20.97072000	-1.15649600
19.89999900	0.00000000	24.87697000	-1.11343500
20.09999898	0.00000000	28.32185000	-0.41830710
20.29999897	0.00000000	30.55487000	-0.04306102
20.49999896	0.00000000	30.08735000	0.00000000
20.69999895	0.00000000	26.23031000	-0.04306102
20.89999894	0.00000000	20.04183000	-0.41830710
21.09999892	0.00000000	12.64764000	-1.15649600
21.29999891	0.00000000	5.29650500	-1.53174200
21.49999890	0.00000000	-0.42445860	-1.57480300
21.69999889	0.00000000	-2.61441900	-1.57480300
21.89999888	0.00000000	0.50442900	-1.57480300
22.09999886	0.00000000	8.63681000	-1.57480300
22.29999885	0.00000000	19.90034000	-1.57480300
22.49999884	0.00000000	32.64640000	-1.57480300
22.69999883	0.00000000	43.76845000	-1.53174200
22.89999882	0.00000000	49.87081000	-1.15649600
23.09999881	0.00000000	49.07726000	-0.41830710
23.29999879	0.00000000	40.88951000	-0.04306102
23.49999878	0.00000000	26.93159000	0.04306102
23.69999877	0.00000000	9.52879000	0.41830710
23.89999876	0.00000000	-7.44955700	1.11343500
24.09999875	0.00000000	-19.73425000	1.11343500
24.29999873	0.00000000	-24.29257000	0.37524600
24.49999872	0.00000000	-18.76230000	-0.41830710
24.69999871	0.00000000	-3.72785400	-1.62401600
24.89999870	0.00000000	17.52584000	-3.15575800
25.09999869	0.00000000	39.91141000	-4.68750000
25.29999867	0.00000000	58.42765000	-5.85014700
25.49999866	0.00000000	68.38705000	-6.17618100
25.69999865	0.00000000	66.84916000	-5.33956700
25.89999864	0.00000000	54.10310000	-2.64517700
26.09999863	0.00000000	33.21235000	1.20570900
26.29999862	0.00000000	8.50762700	5.06274600
26.49999860	0.00000000	-14.24089000	8.54453700
26.69999859	0.00000000	-29.36762000	10.45152000
26.89999858	0.00000000	-33.97514000	10.40846000
27.09999857	0.00000000	-27.03617000	7.99089500
27.29999856	0.00000000	-9.64566800	2.55905500
27.49999854	0.00000000	13.49040000	-4.77977300
27.69999853	0.00000000	37.48769000	-12.49385000
27.89999852	0.00000000	56.80363000	-19.00221000
28.09999851	0.00000000	67.22440000	-22.02264000
28.29999850	0.00000000	66.52312000	-20.44168000
28.49999848	0.00000000	54.98893000	-14.21629000
28.69999847	0.00000000	36.46653000	-4.14000900
28.89999846	0.00000000	14.78223000	7.80634800
29.09999845	0.00000000	-5.26574800	19.00221000
29.29999844	0.00000000	-18.89764000	26.66708000
29.49999843	0.00000000	-24.01575000	28.94316000
29.69999841	0.00000000	-20.52165000	24.62475000
29.89999840	0.00000000	-8.93823700	14.16708000
30.09999839	0.00000000	7.99704600	-0.51058070
30.29999838	0.00000000	25.81201000	-16.30167000
30.49999837	0.00000000	40.93873000	-29.40452000
30.69999835	0.00000000	50.65821000	-36.74950000
30.89999834	0.00000000	53.03272000	-36.70644000
31.09999833	0.00000000	48.42519000	-28.94316000
31.29999832	0.00000000	37.99828000	-14.63459000
31.49999831	0.00000000	24.08957000	3.11269700
31.69999829	0.00000000	10.17470000	20.48474000
31.89999828	0.00000000	-1.07652500	33.58760000
32.09999827	0.00000000	-7.31422200	39.39468000
32.29999826	0.00000000	-7.77559000	36.70644000
32.49999825	0.00000000	-3.16806100	26.29183000
32.69999824	0.00000000	5.38877900	10.40846000
32.89999822	0.00000000	16.18479000	-7.75713500
33.09999821	0.00000000	27.01772000	-24.71703000
33.29999820	0.00000000	35.12549000	-36.33120000
33.49999819	0.00000000	39.02559000	-40.23745000
33.69999818	0.00000000	37.91216000	-36.37426000
33.89999816	0.00000000	32.56028000	-25.13533000
34.09999815	0.00000000	24.78469000	-8.96284400
34.29999814	0.00000000	15.90182000	8.40920300
34.49999813	0.00000000	7.85556000	23.09301000
34.69999812	0.00000000	3.24188000	32.01279000
34.89999810	0.00000000	3.15575800	33.58760000
35.09999809	0.00000000	6.96973400	27.82972000
35.29999808	0.00000000	13.11516000	16.21555000
35.49999807	0.00000000	20.04183000	1.20570900
35.69999806	0.00000000	25.81201000	-13.79798000
35.89999805	0.00000000	28.93085000	-24.62475000
36.09999803	0.00000000	28.97392000	-29.31840000
36.29999802	0.00000000	26.27953000	-27.41142000
36.49999801	0.00000000	21.66585000	-19.32825000
36.69999800	0.00000000	16.27707000	-7.43110200
36.89999799	0.00000000	11.66339000	5.25344500
37.09999797	0.00000000	8.96899500	15.23745000
37.29999796	0.00000000	8.96899500	19.93110000
37.49999795	0.00000000	11.62032000	18.81767000
37.69999794	0.00000000	15.85261000	12.68455000
37.89999793	0.00000000	20.50935000	3.06963600
38.09999791	0.00000000	24.74163000	-7.25270600
38.29999790	0.00000000	27.39296000	-15.28666000
38.49999789	0.00000000	27.43602000	-18.35630000
38.69999788	0.00000000	25.15994000	-15.70497000
38.89999787	0.00000000	21.66585000	-8.45841400
39.09999786	0.00000000	17.43356000	1.11343500
39.29999784	0.00000000	13.57652000	9.89788300
39.49999783	0.00000000	11.20202000	15.28666000
39.69999782	0.00000000	9.99630800	15.66191000
39.89999781	0.00000000	10.03937000	11.06053000
40.09999780	0.00000000	11.62032000	2.60211600
40.29999778	0.00000000	14.69611000	-7.33882900
40.49999777	0.00000000	18.55315000	-15.79724000
40.69999776	0.00000000	22.04109000	-20.34941000
40.89999775	0.00000000	24.78469000	-19.55585000
41.09999774	0.00000000	26.32259000	-13.05364000
41.29999772	0.00000000	26.36565000	-3.15575800
41.49999771	0.00000000	25.15994000	6.87746000
41.69999770	0.00000000	22.82849000	14.59153000
41.89999769	0.00000000	19.34670000	18.44242000
42.09999768	0.00000000	15.90182000	17.28592000
42.29999767	0.00000000	13.15822000	11.56496000
42.49999765	0.00000000	11.57726000	3.11269700
42.69999764	0.00000000	11.15896000	-5.75787400
42.89999763	0.00000000	11.57726000	-13.05364000
43.09999762	0.00000000	13.15822000	-16.91068000
43.29999761	0.00000000	15.80955000	-16.21555000
43.49999759	0.00000000	18.50394000	-12.03248000
43.69999758	0.00000000	20.46014000	-5.85014700
43.89999757	0.00000000	21.66585000	1.07037400
44.09999756	0.00000000	22.09030000	6.82824800
44.29999755	0.00000000	22.13336000	9.94094400
44.49999753	0.00000000	22.13336000	10.03322000
44.69999752	0.00000000	22.13336000	7.75713500
44.89999751	0.00000000	22.09030000	4.26919300
45.09999750	0.00000000	21.66585000	0.04306102
45.29999749	0.00000000	20.50935000	-3.80782500
45.49999748	0.00000000	18.92839000	-6.17618100
45.69999746	0.00000000	16.87992000	-7.38188900
45.89999745	0.00000000	13.81028000	-7.33882900
46.09999744	0.00000000	10.37155000	-5.80093500
46.29999743	0.00000000	8.08316900	-3.15575800
46.49999742	0.00000000	7.34498000	-0.46751960
46.69999740	0.00000000	8.92593500	1.53174200
46.89999739	0.00000000	12.82603000	3.06348400
47.09999738	0.00000000	18.27633000	3.85088600
47.29999737	0.00000000	24.82775000	3.43873000
47.49999736	0.00000000	30.55487000	2.27608300
47.69999734	0.00000000	33.67372000	-0.04306102
47.89999733	0.00000000	33.63066000	-2.69439000
48.09999732	0.00000000	30.09350000	-4.64443900
48.29999731	0.00000000	23.16068000	-5.85014700
48.49999730	0.00000000	14.69611000	-6.17618100
48.69999729	0.00000000	6.92052100	-5.38262700
48.89999727	0.00000000	1.15649600	-3.06348400
49.09999726	0.00000000	-1.12573800	0.00000000
49.29999725	0.00000000	1.24261800	3.06348400
49.49999724	0.00000000	7.76328700	5.38262700
49.69999723	0.00000000	17.01525000	6.13312000
49.89999721	0.00000000	26.27953000	5.33956700
50.09999720	0.00000000	33.58760000	2.64517700
50.29999719	0.00000000	37.06939000	-1.20570900
50.49999718	0.00000000	35.54380000	-5.01968500
50.69999717	0.00000000	30.13656000	-8.16929100
50.89999715	0.00000000	21.62278000	-9.66412400
51.09999714	0.00000000	12.08784000	-9.65797200
51.29999713	0.00000000	4.73671200	-7.29576700
51.49999712	0.00000000	1.24261800	-3.11269700
51.69999711	0.00000000	1.99311000	1.48868100
51.89999710	0.00000000	6.96973400	5.33956700
52.09999708	0.00000000	14.27165000	7.29576700
52.29999707	0.00000000	21.99803000	7.33882900
52.49999706	0.00000000	28.50640000	5.75787400
52.69999705	0.00000000	31.58218000	2.64517700
52.89999704	0.00000000	30.51181000	-1.53174200
53.09999702	0.00000000	26.27953000	-5.38262700
53.29999701	0.00000000	20.13410000	-7.71407400
53.49999700	0.00000000	13.57652000	-8.50147600
53.69999699	0.00000000	8.59375000	-7.29576700
53.89999698	0.00000000	6.27460600	-4.31840500
54.09999696	0.00000000	7.43110200	-0.88582670
54.29999695	0.00000000	11.62032000	1.43946800
54.49999694	0.00000000	17.39050000	2.64517700
54.69999693	0.00000000	23.11762000	2.60211600
54.89999692	0.00000000	26.97465000	1.11343500
55.09999691	0.00000000	27.76821000	-1.15649600
55.29999689	0.00000000	25.90428000	-3.02042300
55.49999688	0.00000000	21.99803000	-3.80782500
55.69999687	0.00000000	17.05832000	-3.02042300
55.89999686	0.00000000	12.41388000	-1.15649600
56.09999685	0.00000000	9.75639700	1.15649600
56.29999683	0.00000000	9.34424200	3.02042300
56.49999682	0.00000000	11.66339000	3.80782500
56.69999681	0.00000000	15.80955000	2.97736200
56.89999680	0.00000000	20.04183000	0.64591530
57.09999679	0.00000000	23.16068000	-3.20497000
57.29999677	0.00000000	24.74163000	-7.33882900
57.49999676	0.00000000	24.74163000	-10.03322000
57.69999675	0.00000000	23.20374000	-10.40846000
57.89999674	0.00000000	20.50935000	-8.45226300
58.09999673	0.00000000	17.43356000	-4.18307100
58.29999672	0.00000000	14.73917000	1.57480300
58.49999670	0.00000000	13.20128000	7.29576700
58.69999669	0.00000000	13.20128000	11.14665000
58.89999668	0.00000000	14.69611000	11.89715000
59.09999667	0.00000000	16.97219000	9.56569900
59.29999666	0.00000000	18.87918000	4.14000900
59.49999664	0.00000000	20.08489000	-3.11269700
59.69999663	0.00000000	20.46014000	-10.03322000
59.89999662	0.00000000	20.08489000	-14.67766000
60.09999661	0.00000000	18.97145000	-16.20940000
60.29999660	0.00000000	17.80881000	-14.25935000
60.49999658	0.00000000	17.05832000	-8.82750900
60.69999657	0.00000000	16.64616000	-1.15649600
60.89999656	0.00000000	17.05832000	6.92052100
61.09999655	0.00000000	17.80881000	13.05364000
61.29999654	0.00000000	18.97145000	15.74803000
61.49999653	0.00000000	20.08489000	14.21629000
61.69999651	0.00000000	20.46014000	8.82750900
61.89999650	0.00000000	20.08489000	1.15649600
62.09999649	0.00000000	18.92839000	-6.96358300
62.29999648	0.00000000	17.34744000	-13.52116000
62.49999647	0.00000000	15.43430000	-17.37205000
62.69999645	0.00000000	13.57652000	-17.32899000
62.89999644	0.00000000	13.20128000	-13.14591000
63.09999643	0.00000000	14.32087000	-6.22539300
63.29999642	0.00000000	16.22785000	1.48868100
63.49999641	0.00000000	18.55315000	8.45226300
63.69999639	0.00000000	20.50935000	13.05364000
63.89999638	0.00000000	22.09030000	14.25935000
64.09999637	0.00000000	23.20374000	11.98327000
64.29999636	0.00000000	23.16068000	7.38188900
64.49999635	0.00000000	21.62278000	1.53174200
64.69999634	0.00000000	18.92839000	-4.64443900
64.89999632	0.00000000	15.90182000	-10.03322000
65.09999631	0.00000000	13.57652000	-13.14591000
65.29999630	0.00000000	12.78297000	-13.56422000
65.49999629	0.00000000	13.15822000	-11.61417000
65.69999628	0.00000000	14.73917000	-7.43110200
65.89999626	0.00000000	17.39050000	-2.41756900
66.09999625	0.00000000	20.04183000	1.86392700
66.29999624	0.00000000	21.57972000	5.43184000
66.49999623	0.00000000	21.62278000	7.71407400
66.69999622	0.00000000	20.46014000	8.54453700
66.89999620	0.00000000	18.55315000	7.75713500
67.09999619	0.00000000	16.27707000	5.85014700
67.29999618	0.00000000	14.73917000	3.11269700
67.49999617	0.00000000	14.32087000	0.00000000
67.69999616	0.00000000	14.78223000	-3.15575800
67.89999615	0.00000000	16.69537000	-6.26845500
68.09999613	0.00000000	19.71580000	-8.96284400
68.29999612	0.00000000	21.99803000	-10.49459000
68.49999611	0.00000000	23.20374000	-10.49459000
68.69999610	0.00000000	23.11762000	-8.91978400
68.89999609	0.00000000	21.16142000	-5.80093500
69.09999607	0.00000000	17.34744000	-1.53174200
69.29999606	0.00000000	13.15822000	3.11269700
69.49999605	0.00000000	10.03937000	7.33882900
69.69999604	0.00000000	8.50147600	10.03322000
69.89999603	0.00000000	8.96899500	10.40846000
70.09999601	0.00000000	12.03863000	8.50147600
70.29999600	0.00000000	17.01525000	4.64443900
70.49999599	0.00000000	22.04109000	-0.04306102
70.69999598	0.00000000	26.32259000	-5.06274600
70.89999597	0.00000000	29.01698000	-9.65797200
71.09999596	0.00000000	29.34916000	-11.94021000
71.29999594	0.00000000	26.97465000	-11.65723000
71.49999593	0.00000000	21.62278000	-9.29502900
71.69999592	0.00000000	15.11442000	-5.43184000
71.89999591	0.00000000	9.66412400	-0.41830710
72.09999590	0.00000000	5.76402500	4.14000900
72.29999588	0.00000000	4.26919300	6.87746000
72.49999587	0.00000000	5.80708600	7.29576700
72.69999586	0.00000000	10.08243000	5.80093500
72.89999585	0.00000000	16.18479000	3.11269700
73.09999584	0.00000000	22.36712000	0.04306102
73.29999582	0.00000000	26.64862000	-2.64517700
73.49999581	0.00000000	29.01698000	-4.22613100
73.69999580	0.00000000	28.97392000	-4.60137700
73.89999579	0.00000000	26.32259000	-3.85088600
74.09999578	0.00000000	22.04109000	-1.99311000
74.29999577	0.00000000	17.05832000	-0.55364170
74.49999575	0.00000000	12.41388000	-0.46136810
74.69999574	0.00000000	9.71333600	-1.24877000
74.89999573	0.00000000	8.87672100	-2.36835600
75.09999572	0.00000000	10.03937000	-3.90009800
75.29999571	0.00000000	12.73991000	-4.60137700
75.49999569	0.00000000	16.18479000	-4.26919300
75.69999568	0.00000000	19.66658000	-3.02042300
75.89999567	0.00000000	21.95497000	-0.69512790
76.09999566	0.00000000	22.82849000	2.73745100
76.29999565	0.00000000	22.46555000	5.75787400
76.49999563	0.00000000	21.66585000	7.33882900
76.69999562	0.00000000	20.13410000	7.29576700
76.89999561	0.00000000	18.27633000	5.29650500
77.09999560	0.00000000	17.48277000	1.06422200
77.29999559	0.00000000	17.39050000	-4.27534400
77.49999558	0.00000000	17.39050000	-8.91978400
77.69999556	0.00000000	17.34744000	-12.03248000
77.89999555	0.00000000	16.97219000	-13.14591000
78.09999554	0.00000000	16.22785000	-11.56496000
78.29999553	0.00000000	15.80955000	-7.33882900
78.49999552	0.00000000	15.39124000	-1.57480300
78.69999550	0.00000000	14.69611000	4.22613100
78.89999549	0.00000000	14.73917000	8.87672100
79.09999548	0.00000000	15.90182000	11.56496000
79.29999547	0.00000000	17.80881000	11.52190000
79.49999546	0.00000000	20.13410000	8.45226300
79.69999544	0.00000000	22.04109000	3.11269700
79.89999543	0.00000000	23.20374000	-2.64517700
80.09999542	0.00000000	23.16068000	-7.33882900
80.29999541	0.00000000	21.62278000	-10.49459000
80.49999540	0.00000000	18.92839000	-12.03248000
80.69999539	0.00000000	15.85261000	-11.61417000
80.89999537	0.00000000	13.15822000	-8.91978400
81.09999536	0.00000000	11.62032000	-4.73671200
81.29999535	0.00000000	11.62032000	-0.46751960
81.49999534	0.00000000	13.11516000	3.06348400
81.69999533	0.00000000	15.43430000	5.80093500
81.89999531	0.00000000	17.76575000	7.33882900
82.09999530	0.00000000	20.13410000	7.33882900
82.29999529	0.00000000	21.99803000	5.85014700
82.49999528	0.00000000	22.78543000	3.53100400
82.69999527	0.00000000	21.99803000	1.15649600
82.89999525	0.00000000	20.13410000	-1.62401600
83.09999524	0.00000000	17.80881000	-4.68750000
83.29999523	0.00000000	15.90182000	-7.43110200
83.49999522	0.00000000	14.69611000	-9.29502900
83.69999521	0.00000000	14.32087000	-9.70103300
83.89999520	0.00000000	14.69611000	-8.13238100
84.09999518	0.00000000	15.80955000	-5.47490100
84.29999517	0.00000000	16.92298000	-1.90698800
84.49999516	0.00000000	17.34744000	1.90698800
84.69999515	0.00000000	17.39050000	5.43184000
84.89999514	0.00000000	17.39050000	7.71407400
85.09999512	0.00000000	17.39050000	8.50147600
85.29999511	0.00000000	17.43356000	7.29576700
85.49999510	0.00000000	17.80881000	4.22613100
85.69999509	0.00000000	18.55315000	-0.04306102
85.89999508	0.00000000	18.92839000	-4.64443900
86.09999506	0.00000000	18.97145000	-8.54453700
86.29999505	0.00000000	18.92839000	-10.82677000
86.49999504	0.00000000	18.50394000	-11.23893000
86.69999503	0.00000000	17.34744000	-9.24581600
86.89999502	0.00000000	15.85261000	-5.43184000
87.09999501	0.00000000	14.69611000	-0.41830710
87.29999499	0.00000000	14.27165000	4.18307100
87.49999498	0.00000000	14.27165000	7.29576700
87.69999497	0.00000000	14.69611000	8.45226300
87.89999496	0.00000000	15.90182000	7.29576700
88.09999495	0.00000000	17.76575000	4.22613100
88.29999493	0.00000000	19.71580000	-0.04306102
88.49999492	0.00000000	20.83538000	-4.64443900
88.69999491	0.00000000	21.24754000	-8.45226300
88.89999490	0.00000000	20.46014000	-9.99015700
89.09999489	0.00000000	18.97145000	-8.87057000
89.29999487	0.00000000	17.39050000	-5.80093500
89.49999486	0.00000000	15.85261000	-1.57480300
89.69999485	0.00000000	14.69611000	2.64517700
89.89999484	0.00000000	14.27165000	5.71481200
90.09999483	0.00000000	14.32087000	6.87130900
90.29999482	0.00000000	15.11442000	5.71481200
90.49999480	0.00000000	16.97219000	2.64517700
90.69999479	0.00000000	18.46087000	-1.57480300
90.89999478	0.00000000	18.92839000	-5.80093500
91.09999477	0.00000000	18.97145000	-8.87057000
91.29999476	0.00000000	18.97145000	-9.99015700
91.49999474	0.00000000	18.92839000	-8.45226300
91.69999473	0.00000000	18.55315000	-4.64443900
91.89999472	0.00000000	17.80881000	-0.04306102
92.09999471	0.00000000	17.43356000	4.18307100
92.29999470	0.00000000	17.39050000	6.87746000
92.49999468	0.00000000	17.34744000	7.24655500
92.69999467	0.00000000	16.97219000	5.33956700
92.89999466	0.00000000	16.22785000	1.48868100
93.09999465	0.00000000	15.80955000	-3.06963600
93.29999464	0.00000000	15.39124000	-6.92052100
93.49999463	0.00000000	14.69611000	-8.87672100
93.69999461	0.00000000	14.73917000	-8.87672100
93.89999460	0.00000000	15.85261000	-6.87746000
94.09999459	0.00000000	17.39050000	-2.69439000
94.29999458	0.00000000	18.97145000	2.22687000
94.49999457	0.00000000	20.50935000	5.67175200
94.69999455	0.00000000	21.66585000	6.87130900
94.89999454	0.00000000	22.04109000	5.71481200
95.09999453	0.00000000	21.66585000	2.69439000
95.29999452	0.00000000	20.41708000	-1.15649600
95.49999451	0.00000000	18.13484000	-4.64443900
95.69999449	0.00000000	15.02214000	-7.33882900
95.89999448	0.00000000	12.36466000	-8.45226300
96.09999447	0.00000000	10.41462000	-7.33882900
96.29999446	0.00000000	10.03937000	-4.68750000
96.49999445	0.00000000	11.20202000	-1.58095500
96.69999444	0.00000000	13.57652000	1.48868100
96.89999442	0.00000000	17.43356000	3.80782500
97.09999441	0.00000000	21.62278000	4.55831700
97.29999440	0.00000000	24.74163000	3.80782500
97.49999439	0.00000000	26.27953000	1.48868100
97.69999438	0.00000000	25.90428000	-1.48868100
97.89999436	0.00000000	23.57899000	-3.85088600
98.09999435	0.00000000	20.13410000	-5.01968500
98.29999434	0.00000000	16.18479000	-5.43184000
98.49999433	0.00000000	12.36466000	-4.64443900
98.69999432	0.00000000	9.25196800	-3.15575800
98.89999430	0.00000000	8.13238100	-1.62401600
99.09999429	0.00000000	8.83366100	-0.46136810
99.29999428	0.00000000	11.20202000	-0.04306102
99.49999427	0.00000000	14.64690000	0.00000000
99.69999426	0.00000000	18.55315000	0.00000000
99.89999425	0.00000000	21.99803000	0.00000000
100.09999423	0.00000000	24.36639000	0.00000000
100.29999422	0.00000000	25.11688000	0.00000000
100.49999421	0.00000000	24.36639000	0.04306102
100.69999420	0.00000000	22.04109000	0.37524600
100.89999419	0.00000000	18.97145000	0.69512790
101.09999417	0.00000000	15.85261000	-0.09227362
101.29999416	0.00000000	13.15822000	-1.57480300
101.49999415	0.00000000	11.57726000	-3.11269700
101.69999414	0.00000000	11.15896000	-4.31840500
101.89999413	0.00000000	11.57726000	-5.06274600
102.09999411	0.00000000	13.11516000	-5.38262700
102.29999410	0.00000000	15.43430000	-4.22613100
102.49999409	0.00000000	17.76575000	-1.95004900
102.69999408	0.00000000	20.08489000	0.37524600
102.89999407	0.00000000	21.62278000	2.69439000
103.09999406	0.00000000	22.04109000	4.18307100
103.29999404	0.00000000	21.66585000	4.22613100
103.49999403	0.00000000	20.50935000	3.06348400
103.69999402	0.00000000	18.92839000	1.11343500
103.89999401	0.00000000	16.97219000	-1.62401600
104.09999400	0.00000000	14.69611000	-4.64443900
104.29999398	0.00000000	13.15822000	-6.92052100
104.49999397	0.00000000	12.78297000	-7.29576700
104.69999396	0.00000000	13.53346000	-5.80093500
104.89999395	0.00000000	15.43430000	-3.15575800
105.09999394	0.00000000	17.34744000	-0.41830710
105.29999392	0.00000000	18.92839000	1.90698800
105.49999391	0.00000000	20.04183000	3.80782500
105.69999390	0.00000000	20.08489000	4.18307100
105.89999389	0.00000000	19.34670000	3.06348400
106.09999388	0.00000000	18.55315000	1.15649600
106.29999387	0.00000000	17.39050000	-1.15649600
106.49999385	0.00000000	16.27707000	-3.06348400
106.69999384	0.00000000	15.85261000	-4.26919300
106.89999383	0.00000000	15.85261000	-4.60137700
107.09999382	0.00000000	16.27707000	-3.85088600
107.29999381	0.00000000	17.39050000	-1.95004900
107.49999379	0.00000000	18.50394000	-0.09227362
107.69999378	0.00000000	18.92839000	1.11343500
107.89999377	0.00000000	18.92839000	1.48253000
108.09999376	0.00000000	18.50394000	1.11343500
108.29999375	0.00000000	17.34744000	-0.04306102
108.49999374	0.00000000	15.85261000	-1.57480300
108.69999372	0.00000000	14.69611000	-3.11269700
108.89999371	0.00000000	14.27165000	-4.22613100
109.09999370	0.00000000	14.32087000	-4.22613100
109.29999369	0.00000000	15.11442000	-3.11269700
109.49999368	0.00000000	17.01525000	-1.57480300
109.69999366	0.00000000	18.87918000	-0.04306102
109.89999365	0.00000000	20.08489000	1.15649600
110.09999364	0.00000000	20.46014000	1.90698800
110.29999363	0.00000000	20.08489000	2.26993100
110.49999362	0.00000000	18.97145000	1.48868100
110.69999360	0.00000000	17.76575000	0.00000000
110.89999359	0.00000000	16.59695000	-1.57480300
111.09999358	0.00000000	15.06521000	-3.11269700
111.29999357	0.00000000	14.32087000	-4.22613100
111.49999356	0.00000000	14.27165000	-4.26919300
111.69999355	0.00000000	14.69611000	-3.53100400
111.89999353	0.00000000	15.85261000	-2.73745100
112.09999352	0.00000000	17.34744000	-1.57480300
112.29999351	0.00000000	18.50394000	-0.46136810
112.49999350	0.00000000	18.92839000	-0.04306102
112.69999349	0.00000000	18.97145000	0.00000000
112.89999347	0.00000000	18.92839000	-0.04306102
113.09999346	0.00000000	18.50394000	-0.41830710
113.29999345	0.00000000	17.39050000	-1.15649600
113.49999344	0.00000000	16.27707000	-1.53174200
113.69999343	0.00000000	15.85261000	-1.57480300
113.89999341	0.00000000	15.80955000	-1.57480300
114.09999340	0.00000000	15.85261000	-1.57480300
114.29999339	0.00000000	16.22785000	-1.57480300
114.49999338	0.00000000	16.97219000	-1.57480300
114.69999337	0.00000000	17.39050000	-1.61786400
114.89999336	0.00000000	17.80881000	-1.99311000
115.09999334	0.00000000	18.55315000	-2.73745100
115.29999333	0.00000000	18.87918000	-3.06348400
115.49999332	0.00000000	18.55315000	-2.73745100
115.69999331	0.00000000	17.80881000	-1.99311000
115.89999330	0.00000000	17.43356000	-1.57480300
116.09999328	0.00000000	17.34744000	-1.15649600
116.29999327	0.00000000	16.97219000	-0.41830710
116.49999326	0.00000000	16.22785000	-0.04306102
116.69999325	0.00000000	15.85261000	0.00000000
116.89999324	0.00000000	15.80955000	0.00000000
117.09999322	0.00000000	15.85261000	-0.04306102
117.29999321	0.00000000	16.27707000	-0.46136810
117.49999320	0.00000000	17.39050000	-1.57480300
117.69999319	0.00000000	18.50394000	-2.68823800
117.89999318	0.00000000	18.92839000	-3.11269700
118.09999317	0.00000000	18.97145000	-3.15575800
118.29999315	0.00000000	18.92839000	-3.11269700
118.49999314	0.00000000	18.50394000	-2.73745100
118.69999313	0.00000000	17.34744000	-1.99311000
118.89999312	0.00000000	15.85261000	-1.57480300
119.09999311	0.00000000	14.69611000	-1.15649600
119.29999309	0.00000000	14.27165000	-0.41830710
119.49999308	0.00000000	14.22859000	-0.04306102
119.69999307	0.00000000	14.32087000	-0.04306102
119.89999306	0.00000000	15.06521000	-0.37524600
120.09999305	0.00000000	16.64001000	-0.73818890
120.29999303	0.00000000	18.14099000	-0.41830710
120.49999302	0.00000000	19.71580000	-0.46136810
120.69999301	0.00000000	20.41708000	-1.15649600
120.89999300	0.00000000	20.13410000	-1.53174200
121.09999299	0.00000000	19.34670000	-1.61786400
121.29999298	0.00000000	18.55315000	-1.99311000
121.49999296	0.00000000	17.34744000	-2.73745100
121.69999295	0.00000000	15.85261000	-3.06348400
121.89999294	0.00000000	14.69611000	-2.73745100
122.09999293	0.00000000	14.27165000	-1.95004900
122.29999292	0.00000000	14.27165000	-1.19955700
122.49999290	0.00000000	14.69611000	-0.41830710
122.69999289	0.00000000	15.80955000	-0.04306102
122.89999288	0.00000000	16.97219000	0.00000000
123.09999287	0.00000000	17.76575000	0.00000000
123.29999286	0.00000000	18.55315000	-0.04306102
123.49999284	0.00000000	18.92839000	-0.41830710
123.69999283	0.00000000	18.97145000	-1.15649600
123.89999282	0.00000000	18.92839000	-1.57480300
124.09999281	0.00000000	18.55315000	-1.99311000
124.29999280	0.00000000	17.76575000	-2.73745100
124.49999279	0.00000000	17.01525000	-3.06348400
124.69999277	0.00000000	16.22785000	-2.73745100
124.89999276	0.00000000	15.85261000	-1.99311000
125.09999275	0.00000000	15.76649000	-1.57480300
125.29999274	0.00000000	15.43430000	-1.15649600
125.49999273	0.00000000	15.06521000	-0.41830710
125.69999271	0.00000000	15.47736000	-0.04306102
125.89999270	0.00000000	16.18479000	0.00000000
126.09999269	0.00000000	17.01525000	0.00000000
126.29999268	0.00000000	17.76575000	0.00000000
126.49999267	0.00000000	18.55315000	-0.04306102
126.69999265	0.00000000	18.87918000	-0.41830710
126.89999264	0.00000000	18.55315000	-1.15649600
127.09999263	0.00000000	17.76575000	-1.53174200
127.29999262	0.00000000	16.97219000	-1.57480300
127.49999261	0.00000000	15.80955000	-1.57480300
127.69999260	0.00000000	14.69611000	-1.57480300
127.89999258	0.00000000	14.32087000	-1.57480300
128.09999257	0.00000000	14.64690000	-1.57480300
128.29999256	0.00000000	15.43430000	-1.57480300
128.49999255	0.00000000	16.22785000	-1.53174200
128.69999254	0.00000000	17.39050000	-1.19955700
128.89999252	0.00000000	18.50394000	-0.83661410
129.09999251	0.00000000	18.92839000	-1.19955700
129.29999250	0.00000000	18.92839000	-1.53174200
129.49999249	0.00000000	18.50394000	-1.57480300
129.69999248	0.00000000	17.34744000	-1.57480300
129.89999246	0.00000000	15.85261000	-1.57480300
130.09999245	0.00000000	14.69611000	-1.57480300
130.29999244	0.00000000	14.27165000	-1.57480300
130.49999243	0.00000000	14.27165000	-1.57480300
130.69999242	0.00000000	14.69611000	-1.53174200
130.89999241	0.00000000	15.80955000	-1.19955700
131.09999239	0.00000000	16.97219000	-0.79355310
131.29999238	0.00000000	17.76575000	-0.83046260
131.49999237	0.00000000	18.50394000	-0.79355310
131.69999236	0.00000000	18.50394000	-1.24877000
131.89999235	0.00000000	17.80881000	-1.95004900
132.09999233	0.00000000	17.39050000	-2.73745100
132.29999232	0.00000000	16.97219000	-3.11269700
132.49999231	0.00000000	16.22785000	-3.11269700
132.69999230	0.00000000	15.85261000	-2.73745100
132.89999229	0.00000000	15.80955000	-1.95004900
133.09999227	0.00000000	15.85261000	-1.19955700
133.29999226	0.00000000	16.22785000	-0.41830710
133.49999225	0.00000000	16.97219000	-0.04306102
133.69999224	0.00000000	17.34744000	0.00000000
133.89999223	0.00000000	17.39050000	-0.04306102
134.09999222	0.00000000	17.39050000	-0.41830710
134.29999220	0.00000000	17.34744000	-1.19955700
134.49999219	0.00000000	16.97219000	-1.95004900
134.69999218	0.00000000	16.27707000	-2.73745100
134.89999217	0.00000000	16.27707000	-3.11269700
135.09999216	0.00000000	16.97219000	-3.15575800
135.29999214	0.00000000	17.34744000	-3.11269700
135.49999213	0.00000000	17.39050000	-2.73745100
135.69999212	0.00000000	17.39050000	-1.95004900
135.89999211	0.00000000	17.39050000	-1.19955700
136.09999210	0.00000000	17.34744000	-0.41830710
136.29999208	0.00000000	16.97219000	-0.04306102
136.49999207	0.00000000	16.22785000	0.00000000
136.69999206	0.00000000	15.85261000	-0.04306102
136.89999205	0.00000000	15.80955000	-0.41830710
137.09999204	0.00000000	15.80955000	-1.15649600
137.29999203	0.00000000	15.85261000	-1.53174200
137.49999201	0.00000000	16.22785000	-1.61786400
137.69999200	0.00000000	17.01525000	-1.99311000
137.89999199	0.00000000	17.76575000	-2.73745100
138.09999198	0.00000000	18.50394000	-3.11269700
138.29999197	0.00000000	18.50394000	-3.15575800
138.49999195	0.00000000	17.76575000	-3.11269700
138.69999194	0.00000000	17.01525000	-2.73745100
138.89999193	0.00000000	16.22785000	-1.95004900
139.09999192	0.00000000	15.85261000	-1.19955700
139.29999191	0.00000000	15.80955000	-0.41830710
139.49999189	0.00000000	15.80955000	-0.04306102
139.69999188	0.00000000	15.85261000	0.00000000
139.89999187	0.00000000	16.22785000	0.00000000
140.09999186	0.00000000	16.97219000	-0.04306102
140.29999185	0.00000000	17.34744000	-0.41830710
140.49999184	0.00000000	17.39050000	-1.19955700
140.69999182	0.00000000	17.39050000	-1.95004900
140.89999181	0.00000000	17.34744000	-2.73745100
141.09999180	0.00000000	16.97219000	-3.11269700
141.29999179	0.00000000	16.22785000	-3.11269700
141.49999178	0.00000000	15.85261000	-2.73745100
141.69999176	0.00000000	15.80955000	-1.95004900
141.89999175	0.00000000	15.80955000	-1.19955700
142.09999174	0.00000000	15.85261000	-0.37524600
142.29999173	0.00000000	16.22785000	0.37524600
142.49999172	0.00000000	16.97219000	1.11343500
142.69999170	0.00000000	17.34744000	1.11343500
142.89999169	0.00000000	17.39050000	0.37524600
143.09999168	0.00000000	17.34744000	-0.41830710
143.29999167	0.00000000	16.97219000	-1.57480300
143.49999166	0.00000000	16.22785000	-2.68823800
143.69999165	0.00000000	15.85261000	-3.11269700
143.89999163	0.00000000	15.85261000	-3.15575800
144.09999162	0.00000000	16.22785000	-3.11269700
144.29999161	0.00000000	16.97219000	-2.68823800
144.49999160	0.00000000	17.34744000	-1.57480300
144.69999159	0.00000000	17.39050000	-0.46136810
144.89999157	0.00000000	17.39050000	-0.04306102
145.09999156	0.00000000	17.39050000	0.00000000
145.29999155	0.00000000	17.34744000	-0.04306102
145.49999154	0.00000000	16.97219000	-0.41830710
145.69999153	0.00000000	16.22785000	-1.15649600
145.89999151	0.00000000	15.85261000	-1.57480300
146.09999150	0.00000000	15.80955000	-1.99311000
146.29999149	0.00000000	15.80955000	-2.73745100
146.49999148	0.00000000	15.85261000	-3.06348400
146.69999147	0.00000000	16.22785000	-2.73745100
146.89999146	0.00000000	16.97219000	-1.99311000
147.09999144	0.00000000	17.34744000	-1.61786400
147.29999143	0.00000000	17.39050000	-1.57480300
147.49999142	0.00000000	17.39050000	-1.53174200
147.69999141	0.00000000	17.34744000	-1.15649600
147.89999140	0.00000000	16.97219000	-0.46136810
148.09999138	0.00000000	16.22785000	-0.41830710
148.29999137	0.00000000	15.85261000	-0.78124990
148.49999136	0.00000000	15.80955000	-0.79355310
148.69999135	0.00000000	15.80955000	-1.19955700
148.89999134	0.00000000	15.80955000	-1.53174200
149.09999132	0.00000000	15.85261000	-1.57480300
149.29999131	0.00000000	16.22785000	-1.57480300
149.49999130	0.00000000	16.97219000	-1.57480300
149.69999129	0.00000000	17.34744000	-1.57480300
149.89999128	0.00000000	17.39050000	-1.57480300
150.09999127	0.00000000	17.39050000	-1.57480300
150.29999125	0.00000000	17.34744000	-1.57480300
150.49999124	0.00000000	16.97219000	-1.53174200
150.69999123	0.00000000	16.22785000	-1.19955700
150.89999122	0.00000000	15.85261000	-0.83661410
151.09999121	0.00000000	15.80955000	-1.19955700
151.29999119	0.00000000	15.80955000	-1.53174200
151.49999118	0.00000000	15.80955000	-1.53174200
151.69999117	0.00000000	15.85261000	-1.15649600
151.89999116	0.00000000	16.22785000	-0.46136810
152.09999115	0.00000000	16.97219000	-0.46136810
152.29999113	0.00000000	17.34744000	-1.15649600
152.49999112	0.00000000	17.39050000	-1.53174200
152.69999111	0.00000000	17.39050000	-1.57480300
152.89999110	0.00000000	17.39050000	-1.57480300
153.09999109	0.00000000	17.34744000	-1.57480300
153.29999108	0.00000000	16.97219000	-1.57480300
153.49999106	0.00000000	16.22785000	-1.57480300
153.69999105	0.00000000	15.85261000	-1.57480300
153.89999104	0.00000000	15.80955000	-1.53174200
154.09999103	0.00000000	15.80955000	-1.19955700
154.29999102	0.00000000	15.80955000	-0.83661410
154.49999100	0.00000000	15.80955000	-1.15649600
154.69999099	0.00000000	15.80955000	-1.15649600
154.89999098	0.00000000	15.80955000	-0.83661410
155.09999097	0.00000000	15.85261000	-1.19955700
155.29999096	0.00000000	16.22785000	-1.53174200
155.49999094	0.00000000	16.97219000	-1.57480300
155.69999093	0.00000000	17.34744000	-1.57480300
155.89999092	0.00000000	17.39050000	-1.57480300
156.09999091	0.00000000	17.34744000	-1.57480300
156.29999090	0.00000000	16.97219000	-1.57480300
156.49999089	0.00000000	16.22785000	-1.57480300
156.69999087	0.00000000	15.85261000	-1.53174200
156.89999086	0.00000000	15.80955000	-1.15649600
157.09999085	0.00000000	15.80955000	-0.41830710
157.29999084	0.00000000	15.80955000	-0.04306102
157.49999083	0.00000000	15.80955000	-0.04306102
157.69999081	0.00000000	15.80955000	-0.41830710
157.89999080	0.00000000	15.85261000	-1.15649600
158.09999079	0.00000000	16.22785000	-1.57480300
158.29999078	0.00000000	16.97219000	-1.95004900
158.49999077	0.00000000	17.34744000	-2.36220500
158.69999075	0.00000000	17.39050000	-2.32529500
158.89999074	0.00000000	17.34744000	-2.36220500
159.09999073	0.00000000	16.97219000	-1.95004900
159.29999072	0.00000000	16.27707000	-1.61786400
159.49999071	0.00000000	16.22785000	-1.53174200
159.69999070	0.00000000	16.55389000	-1.15649600
159.89999068	0.00000000	16.18479000	-0.41830710
160.09999067	0.00000000	15.85261000	-0.04306102
160.29999066	0.00000000	15.80955000	0.00000000
160.49999065	0.00000000	15.80955000	-0.04306102
160.69999064	0.00000000	15.80955000	-0.41830710
160.89999062	0.00000000	15.80955000	-1.15649600
161.09999061	0.00000000	15.80955000	-1.57480300
161.29999060	0.00000000	15.80955000	-1.99311000
161.49999059	0.00000000	15.85261000	-2.68823800
161.69999058	0.00000000	16.22785000	-2.68823800
161.89999056	0.00000000	16.97219000	-1.99311000
162.09999055	0.00000000	17.34744000	-1.61786400
162.29999054	0.00000000	17.39050000	-1.53174200
162.49999053	0.00000000	17.34744000	-1.15649600
162.69999052	0.00000000	16.97219000	-0.46136810
162.89999051	0.00000000	16.22785000	-0.41830710
163.09999049	0.00000000	15.85261000	-0.78124990
163.29999048	0.00000000	15.80955000	-0.79355310
163.49999047	0.00000000	15.80955000	-1.19955700
163.69999046	0.00000000	15.80955000	-1.53174200
163.89999045	0.00000000	15.80955000	-1.57480300
164.09999043	0.00000000	15.80955000	-1.57480300
164.29999042	0.00000000	15.85261000	-1.57480300
164.49999041	0.00000000	16.22785000	-1.57480300
164.69999040	0.00000000	16.97219000	-1.57480300
164.89999039	0.00000000	17.34744000	-1.57480300
165.09999037	0.00000000	17.39050000	-1.57480300
165.29999036	0.00000000	17.39050000	-1.57480300
165.49999035	0.00000000	17.39050000	-1.57480300
165.69999034	0.00000000	17.34744000	-1.57480300
165.89999033	0.00000000	16.97219000	-1.57480300
166.09999032	0.00000000	16.22785000	-1.57480300
166.29999030	0.00000000	15.85261000	-1.57480300
166.49999029	0.00000000	15.80955000	-1.53174200
166.69999028	0.00000000	15.80955000	-1.19955700
166.89999027	0.00000000	15.80955000	-0.83661410
167.09999026	0.00000000	15.80955000	-1.19955700
167.29999024	0.00000000	15.85261000	-1.53174200
167.49999023	0.00000000	16.22785000	-1.57480300
167.69999022	0.00000000	16.97219000	-1.57480300
167.89999021	0.00000000	17.34744000	-1.57480300
168.09999020	0.00000000	17.39050000	-1.57480300
168.29999018	0.00000000	17.39050000	-1.57480300
168.49999017	0.00000000	17.39050000	-1.57480300
168.69999016	0.00000000	17.39050000	-1.57480300
168.89999015	0.00000000	17.39050000	-1.57480300
169.09999014	0.00000000	17.34744000	-1.57480300
169.29999013	0.00000000	16.97219000	-1.57480300
169.49999011	0.00000000	16.22785000	-1.57480300
169.69999010	0.00000000	15.85261000	-1.57480300
169.89999009	0.00000000	15.80955000	-1.57480300
170.09999008	0.00000000	15.80955000	-1.57480300
170.29999007	0.00000000	15.80955000	-1.57480300
170.49999005	0.00000000	15.80955000	-1.57480300
170.69999004	0.00000000	15.85261000	-1.57480300
170.89999003	0.00000000	16.22785000	-1.57480300
171.09999002	0.00000000	16.97219000	-1.57480300
171.29999001	0.00000000	17.34744000	-1.57480300
171.49998999	0.00000000	17.39050000	-1.57480300
171.69998998	0.00000000	17.34744000	-1.57480300
171.89998997	0.00000000	16.97219000	-1.57480300
172.09998996	0.00000000	16.22785000	-1.57480300
172.29998995	0.00000000	15.85261000	-1.57480300
172.49998994	0.00000000	15.80955000	-1.57480300
172.69998992	0.00000000	15.80955000	-1.57480300
172.89998991	0.00000000	15.80955000	-1.57480300
173.09998990	0.00000000	15.80955000	-1.57480300
173.29998989	0.00000000	15.85261000	-1.53174200
173.49998988	0.00000000	16.22785000	-1.19955700
173.69998986	0.00000000	16.92298000	-0.83661410
173.89998985	0.00000000	16.97219000	-1.19955700
174.09998984	0.00000000	16.64616000	-1.53174200
174.29998983	0.00000000	16.97219000	-1.57480300
174.49998982	0.00000000	16.92298000	-1.57480300
174.69998980	0.00000000	16.22785000	-1.57480300
174.89998979	0.00000000	15.85261000	-1.57480300
175.09998978	0.00000000	15.80955000	-1.57480300
175.29998977	0.00000000	15.80955000	-1.57480300
175.49998976	0.00000000	15.80955000	-1.57480300
175.69998975	0.00000000	15.80955000	-1.57480300
175.89998973	0.00000000	15.80955000	-1.57480300
176.09998972	0.00000000	15.80955000	-1.57480300
176.29998971	0.00000000	15.85261000	-1.57480300
176.49998970	0.00000000	16.18479000	-1.57480300
176.69998969	0.00000000	16.55389000	-1.57480300
176.89998967	0.00000000	16.18479000	-1.57480300
177.09998966	0.00000000	15.85261000	-1.57480300
177.29998965	0.00000000	15.80955000	-1.57480300
177.49998964	0.00000000	15.80955000	-1.57480300
177.69998963	0.00000000	15.80955000	-1.57480300
177.89998961	0.00000000	15.80955000	-1.57480300
178.09998960	0.00000000	15.80955000	-1.57480300
178.29998959	0.00000000	15.80955000	-1.57480300
178.49998958	0.00000000	15.80955000	-1.57480300
178.69998957	0.00000000	15.80955000	-1.57480300
178.89998956	0.00000000	15.80955000	-1.57480300
179.09998954	0.00000000	15.80955000	-1.57480300
179.29998953	0.00000000	15.85261000	-1.57480300
179.49998952	0.00000000	16.18479000	-1.57480300
179.69998951	0.00000000	16.55389000	-1.57480300
179.89998950	0.00000000	16.18479000	-1.57480300
180.09998948	0.00000000	15.85261000	-1.57480300
180.29998947	0.00000000	15.80955000	-1.57480300
180.49998946	0.00000000	15.80955000	-1.57480300
180.69998945	0.00000000	15.80955000	-1.57480300
180.89998944	0.00000000	15.80955000	-1.57480300
181.09998942	0.00000000	15.80955000	-1.57480300
181.29998941	0.00000000	15.80955000	-1.57480300
181.49998940	0.00000000	15.80955000	-1.57480300
181.69998939	0.00000000	15.80955000	-1.53174200
181.89998938	0.00000000	15.85261000	-1.19955700
182.09998937	0.00000000	16.18479000	-0.83661410
182.29998935	0.00000000	16.55389000	-1.19955700
182.49998934	0.00000000	16.22785000	-1.53174200
182.69998933	0.00000000	16.22785000	-1.57480300
182.89998932	0.00000000	16.55389000	-1.57480300
183.09998931	0.00000000	16.18479000	-1.61786400
183.29998929	0.00000000	15.85261000	-1.95004900
183.49998928	0.00000000	15.80955000	-2.31914400
183.69998927	0.00000000	15.80955000	-1.95004900
183.89998926	0.00000000	15.80955000	-1.61786400
184.09998925	0.00000000	15.80955000	-1.57480300
184.29998923	0.00000000	15.80955000	-1.57480300
184.49998922	0.00000000	15.80955000	-1.53174200
184.69998921	0.00000000	15.80955000	-1.15649600
184.89998920	0.00000000	15.80955000	-0.41830710
185.09998919	0.00000000	15.80955000	-0.04306102
185.29998918	0.00000000	15.80955000	-0.04306102
185.49998916	0.00000000	15.85261000	-0.41830710
185.69998915	0.00000000	16.18479000	-1.15649600
185.89998914	0.00000000	16.59695000	-1.57480300
186.09998913	0.00000000	16.56004000	-1.99311000
186.29998912	0.00000000	16.59695000	-2.68823800
186.49998910	0.00000000	16.18479000	-2.68823800
186.69998909	0.00000000	15.85261000	-1.99311000
186.89998908	0.00000000	15.80955000	-1.61786400
187.09998907	0.00000000	15.85261000	-1.53174200
187.29998906	0.00000000	16.18479000	-1.19955700
187.49998904	0.00000000	16.55389000	-0.79355310
187.69998903	0.00000000	16.18479000	-0.78124990
187.89998902	0.00000000	15.85261000	-0.41830710
188.09998901	0.00000000	15.80955000	-0.46136810
188.29998900	0.00000000	15.80955000	-1.15649600
188.49998899	0.00000000	15.80955000	-1.53174200
188.69998897	0.00000000	15.80955000	-1.57480300
188.89998896	0.00000000	15.80955000	-1.61786400
189.09998895	0.00000000	15.80955000	-1.99311000
189.29998894	0.00000000	15.85261000	-2.68823800
189.49998893	0.00000000	16.18479000	-2.68823800
189.69998891	0.00000000	16.55389000	-1.99311000
189.89998890	0.00000000	16.18479000	-1.61786400
190.09998889	0.00000000	15.85261000	-1.57480300
190.29998888	0.00000000	15.80955000	-1.57480300
190.49998887	0.00000000	15.80955000	-1.57480300
190.69998885	0.00000000	15.80955000	-1.57480300
190.89998884	0.00000000	15.80955000	-1.57480300
191.09998883	0.00000000	15.80955000	-1.57480300
191.29998882	0.00000000	15.80955000	-1.57480300
191.49998881	0.00000000	15.85261000	-1.57480300
191.69998880	0.00000000	16.18479000	-1.57480300
191.89998878	0.00000000	16.55389000	-1.57480300
192.09998877	0.00000000	16.18479000	-1.57480300
192.29998876	0.00000000	15.85261000	-1.57480300
192.49998875	0.00000000	15.80955000	-1.57480300
192.69998874	0.00000000	15.80955000	-1.57480300
192.89998872	0.00000000	15.80955000	-1.57480300
193.09998871	0.00000000	15.80955000	-1.57480300
193.29998870	0.00000000	15.80955000	-1.57480300
193.49998869	0.00000000	15.80955000	-1.57480300
193.69998868	0.00000000	15.80955000	-1.57480300
193.89998866	0.00000000	15.80955000	-1.57480300
194.09998865	0.00000000	15.80955000	-1.57480300
194.29998864	0.00000000	15.80955000	-1.57480300
194.49998863	0.00000000	15.85261000	-1.57480300
194.69998862	0.00000000	16.18479000	-1.57480300
194.89998861	0.00000000	16.55389000	-1.57480300
195.09998859	0.00000000	16.18479000	-1.57480300
195.29998858	0.00000000	15.85261000	-1.57480300
195.49998857	0.00000000	15.80955000	-1.57480300
195.69998856	0.00000000	15.80955000	-1.57480300
195.89998855	0.00000000	15.80955000	-1.57480300
196.09998853	0.00000000	15.80955000	-1.57480300
