Time	Channel A	Channel B	Channel C
(us)	(V)	(mV)	(mV)

-4.49999956	0.00000000	42.69193000	7.89247000
-4.29999957	0.00000000	42.69193000	7.89247000
-4.09999958	0.00000000	42.69193000	7.89247000
-3.89999959	0.00000000	42.69193000	7.89247000
-3.69999960	0.00000000	42.69193000	7.89247000
-3.49999962	0.00000000	42.73499000	7.93553100
-3.29999963	0.00000000	43.11023000	8.26771600
-3.09999964	0.00000000	43.80536000	8.63681000
-2.89999965	0.00000000	43.80536000	8.31077700
-2.69999966	0.00000000	43.11023000	8.31077700
-2.49999968	0.00000000	42.73499000	8.63681000
-2.29999969	0.00000000	42.69193000	8.26771600
-2.09999970	0.00000000	42.69193000	7.93553100
-1.89999971	0.00000000	42.69193000	7.89247000
-1.69999972	0.00000000	42.69193000	7.89247000
-1.49999973	0.00000000	42.69193000	7.89247000
-1.29999975	0.00000000	42.69193000	7.89247000
-1.09999976	0.00000000	42.69193000	7.93553100
-0.89999977	0.00000000	42.69193000	8.26771600
-0.69999978	0.00000000	42.69193000	8.63681000
-0.49999979	0.00000000	42.69193000	8.26771600
-0.29999981	0.31803640	42.69193000	7.93553100
-0.09999982	0.63668800	42.69193000	7.89247000
0.10000017	0.95533960	42.69193000	7.89247000
0.30000016	0.95533960	42.64886000	7.89247000
0.50000015	0.95533960	42.31668000	7.89247000
0.70000013	0.47736220	41.94759000	7.89247000
0.90000012	-0.47736220	42.31668000	7.89247000
1.10000011	-1.43331700	42.64886000	7.93553100
1.30000010	-2.22994600	42.69193000	8.31077700
1.50000009	-2.70792300	42.69193000	9.05511800
1.70000008	-2.54859700	42.69193000	9.43036400
1.90000006	-1.43331700	42.69193000	9.47342500
2.10000005	0.31803640	42.69193000	9.43036400
2.30000004	2.38927200	42.69193000	9.05511800
2.50000003	4.30056600	42.69193000	8.31077700
2.70000002	5.25652100	42.69193000	7.93553100
2.90000000	4.93786900	42.69193000	7.89247000
3.09999999	3.18590100	42.69193000	7.89247000
3.29999998	0.31803640	42.69193000	7.89247000
3.49999997	-3.02657500	42.69193000	7.89247000
3.69999996	-6.05315000	42.69193000	7.93553100
3.89999994	-7.80511800	42.69193000	8.31077700
4.09999993	-7.64579200	42.69193000	9.05511800
4.29999992	-5.41584600	42.69193000	9.43036400
4.49999991	-1.59264300	42.69193000	9.47342500
4.69999990	2.70792300	42.69193000	9.43036400
4.89999989	6.69045300	42.69193000	9.05511800
5.09999987	9.23905000	42.69193000	8.31077700
5.29999986	9.23905000	42.69193000	7.93553100
5.49999985	7.00848900	42.69193000	7.89247000
5.69999984	3.02657500	42.69193000	7.89247000
5.89999983	-1.75196900	42.69193000	7.89247000
6.09999981	-6.21247500	42.69193000	7.89247000
6.29999980	-8.92039900	42.69193000	7.93553100
6.49999979	-9.39837600	42.69193000	8.31077700
6.69999978	-7.64579200	42.69193000	9.05511800
6.89999977	-3.98191400	42.69193000	9.43036400
7.09999975	0.47736220	42.69193000	9.43036400
7.29999974	4.45989200	42.69193000	9.05511800
7.49999973	7.00848900	42.69193000	8.31077700
7.69999972	7.80511800	42.69193000	7.93553100
7.89999971	6.53112700	42.69193000	7.89247000
8.09999970	3.82258900	42.69193000	7.89247000
8.29999968	0.47736220	42.69193000	7.89247000
8.49999967	-2.54859700	42.69193000	7.89247000
8.69999966	-4.45989200	42.69193000	7.89247000
8.89999965	-5.25652100	42.69193000	7.89247000
9.09999964	-4.45989200	42.69193000	7.93553100
9.29999962	-2.86724900	42.69193000	8.26771600
9.49999961	-0.95533960	42.69193000	8.63681000
9.69999960	0.79601380	42.69193000	8.26771600
9.89999959	2.07062000	42.69193000	7.93553100
10.09999958	2.54859700	42.69193000	7.89247000
10.29999956	2.22994600	42.69193000	7.89247000
10.49999955	1.59264300	42.69193000	7.89247000
10.69999954	0.63668800	42.69193000	7.93553100
10.89999953	-0.15871060	42.69193000	8.26771600
11.09999952	-0.63668800	42.69193000	8.63681000
11.29999951	-0.95533960	42.69193000	8.26771600
11.49999949	-0.95533960	42.69193000	7.93553100
11.69999948	-0.79601380	42.69193000	7.89247000
11.89999947	-0.47736220	42.69193000	7.89247000
12.09999946	-0.15871060	42.69193000	7.89247000
12.29999945	-0.15871060	42.69193000	7.89247000
12.49999943	-0.15871060	42.69193000	7.89247000
12.69999942	0.00000000	42.69193000	7.89247000
12.89999941	0.00000000	42.69193000	7.89247000
13.09999940	0.00000000	42.69193000	7.89247000
13.29999939	0.15871060	42.69193000	7.89247000
13.49999937	0.00000000	42.69193000	7.89247000
13.69999936	0.00000000	42.69193000	7.89247000
13.89999935	0.00000000	42.69193000	7.89247000
14.09999934	-0.15871060	42.69193000	7.89247000
14.29999933	-0.15871060	42.69193000	7.89247000
14.49999932	-0.15871060	42.69193000	7.89247000
14.69999930	0.00000000	42.69193000	7.89247000
14.89999929	0.00000000	42.69193000	7.89247000
15.09999928	0.00000000	42.69193000	7.89247000
15.29999927	0.00000000	42.64886000	7.89247000
15.49999926	0.00000000	42.31668000	7.89247000
15.69999924	0.00000000	41.94759000	7.93553100
15.89999923	0.00000000	42.31668000	8.31077700
16.09999922	0.00000000	42.64886000	9.00590400
16.29999921	0.00000000	42.69193000	9.00590400
16.49999920	-0.15871060	42.69193000	8.31077700
16.69999919	0.00000000	42.69193000	7.93553100
16.89999917	0.00000000	42.73499000	7.89247000
17.09999916	0.00000000	43.11023000	7.89247000
17.29999915	0.00000000	43.85457000	7.89247000
17.49999914	0.00000000	44.22982000	7.89247000
17.69999913	0.00000000	44.22982000	7.89247000
17.89999911	0.00000000	43.80536000	7.89247000
18.09999910	0.00000000	42.69193000	7.89247000
18.29999909	0.00000000	41.48622000	7.89247000
18.49999908	0.00000000	40.27436000	7.89247000
18.69999907	0.00000000	38.41658000	7.89247000
18.89999905	0.00000000	37.25394000	7.89247000
19.09999904	0.00000000	37.24163000	7.89247000
19.29999903	0.00000000	37.71530000	7.89247000
19.49999902	0.00000000	40.08366000	7.89247000
19.69999901	0.00000000	43.89763000	7.89247000
19.89999900	0.00000000	47.76698000	7.89247000
20.09999898	0.00000000	51.24877000	7.89247000
20.29999897	0.00000000	53.11269000	7.89247000
20.49999896	0.00000000	52.73745000	7.89247000
20.69999895	0.00000000	49.95078000	7.89247000
20.89999894	0.00000000	44.88189000	7.89247000
21.09999892	0.00000000	37.85679000	7.89247000
21.29999891	0.00000000	30.21653000	7.89247000
21.49999890	0.00000000	24.08341000	7.89247000
21.69999889	0.00000000	21.84424000	7.89247000
21.89999888	0.00000000	24.16954000	7.89247000
22.09999886	0.00000000	31.23770000	7.89247000
22.29999885	0.00000000	42.08292000	7.89247000
22.49999884	0.00000000	54.82898000	7.89247000
22.69999883	0.00000000	66.32628000	7.89247000
22.89999882	0.00000000	73.25910000	7.93553100
23.09999881	0.00000000	73.59129000	8.31077700
23.29999879	0.00000000	66.93528000	9.05511800
23.49999878	0.00000000	53.72170000	9.43036400
23.69999877	-0.15871060	36.36811000	9.51648500
23.89999876	0.00000000	18.96531000	9.84867000
24.09999875	0.00000000	5.51796200	10.21161000
24.29999873	0.00000000	-0.57824800	9.79945900
24.49999872	0.00000000	3.37106300	9.05511800
24.69999871	0.00000000	16.91068000	7.84940900
24.89999870	0.00000000	37.38312000	6.31151500
25.09999869	0.00000000	60.13779000	4.77977300
25.29999867	0.00000000	79.44759000	3.62327700
25.49999866	0.00000000	90.98794000	3.29109200
25.69999865	0.00000000	91.68306000	4.08464600
25.89999864	0.00000000	80.51796000	6.40378900
26.09999863	0.00000000	60.46383000	9.51648500
26.29999862	0.00000000	36.45423000	13.04749000
26.49999860	0.00000000	13.28740000	16.85531000
26.69999859	0.00000000	-3.69094500	19.50664000
26.89999858	0.00000000	-10.25467000	19.83883000
27.09999857	0.00000000	-5.22883800	17.50738000
27.29999856	0.00000000	10.58686000	12.40773000
27.49999854	0.00000000	33.33538000	5.43184000
27.69999853	0.00000000	57.34498000	-2.64517700
27.89999852	0.00000000	77.82357000	-9.52263600
28.09999851	0.00000000	90.15132000	-12.96752000
28.29999850	0.00000000	90.98794000	-12.13091000
28.49999848	0.00000000	81.02854000	-6.27460600
28.69999847	0.00000000	63.25048000	3.75246000
28.89999846	0.00000000	41.62155000	15.74188000
29.09999845	0.00000000	21.09990000	27.31299000
29.29999844	0.00000000	5.97933100	35.77140000
29.49999843	0.00000000	-0.99655500	38.79183000
29.69999841	0.00000000	1.65477300	35.30389000
29.89999840	0.00000000	12.77682000	25.55364000
30.09999839	0.00000000	29.01082000	11.28199000
30.29999838	0.00000000	46.83194000	-4.92125900
30.49999837	0.00000000	62.69685000	-18.77460000
30.69999835	0.00000000	73.21604000	-27.31914000
30.89999834	0.00000000	76.75320000	-28.76476000
31.09999833	0.00000000	73.30216000	-22.16412000
31.29999832	0.00000000	63.67495000	-8.27386800
31.49999831	0.00000000	50.50443000	9.47342500
31.69999829	0.00000000	36.54650000	27.22072000
31.89999828	0.00000000	24.17569000	41.16019000
32.09999827	0.00000000	16.44931000	48.13607000
32.29999826	0.00000000	14.81914000	47.34252000
32.49999825	0.00000000	19.00837000	38.37352000
32.69999824	0.00000000	27.52214000	22.61934000
32.89999822	0.00000000	38.32431000	4.08464600
33.09999821	0.00000000	49.20029000	-12.96752000
33.29999820	0.00000000	57.67716000	-25.74434000
33.49999819	0.00000000	62.36466000	-31.50221000
33.69999818	0.00000000	62.00172000	-28.80782000
33.89999816	0.00000000	57.43725000	-18.39936000
34.09999815	0.00000000	50.04306000	-2.60211600
34.29999814	0.00000000	41.19709000	14.76993000
34.49999813	0.00000000	33.10162000	29.87205000
34.69999812	0.00000000	28.07579000	39.95448000
34.89999810	0.00000000	26.87008000	43.02411000
35.09999809	0.00000000	29.57062000	38.42273000
35.29999808	0.00000000	35.29773000	27.26993000
35.49999807	0.00000000	42.22441000	12.58612000
35.69999806	0.00000000	48.36983000	-2.46678100
35.89999805	0.00000000	52.22687000	-14.77608000
36.09999803	0.00000000	52.65133000	-20.95841000
36.29999802	0.00000000	50.00000000	-19.84498000
36.49999801	0.00000000	45.38631000	-12.21703000
36.69999800	0.00000000	39.99754000	-0.28297240
36.89999799	0.00000000	35.38385000	12.40773000
37.09999797	0.00000000	32.68332000	23.22835000
37.29999796	0.00000000	32.68332000	29.36146000
37.49999795	0.00000000	35.34079000	29.36146000
37.69999794	0.00000000	39.53002000	23.27141000
37.89999793	0.00000000	43.80536000	12.96137000
38.09999791	0.00000000	47.34252000	2.26377900
38.29999790	0.00000000	50.04306000	-5.85629900
38.49999789	0.00000000	51.11343000	-9.30118100
38.69999788	0.00000000	49.57554000	-7.43725300
38.89999787	0.00000000	45.81078000	-0.88582670
39.09999786	0.00000000	41.57849000	8.26771600
39.29999784	0.00000000	38.04134000	17.46432000
39.49999783	0.00000000	35.29773000	23.55438000
39.69999782	0.00000000	33.75369000	24.76009000
39.89999781	0.00000000	33.75369000	20.85999000
40.09999780	0.00000000	35.29773000	12.81373000
40.29999778	0.00000000	37.99213000	2.50369100
40.49999777	0.00000000	41.11097000	-6.27460600
40.69999776	0.00000000	44.27288000	-10.92520000
40.89999775	0.00000000	47.34252000	-10.54995000
41.09999774	0.00000000	49.62475000	-5.16117100
41.29999772	0.00000000	50.04306000	3.66633800
41.49999771	0.00000000	48.92347000	13.69956000
41.69999770	0.00000000	46.96727000	22.48400000
41.89999769	0.00000000	44.18061000	27.49754000
42.09999768	0.00000000	40.73573000	27.13459000
42.29999767	0.00000000	37.29700000	22.20103000
42.49999765	0.00000000	35.34079000	14.07480000
42.69999764	0.00000000	34.87943000	4.87204700
42.89999763	0.00000000	35.25467000	-3.21112200
43.09999762	0.00000000	36.46038000	-7.85556000
43.29999761	0.00000000	38.41658000	-8.27386800
43.49999759	0.00000000	41.06791000	-4.83513700
43.69999758	0.00000000	43.38705000	1.66707700
43.89999757	0.00000000	44.60506000	8.91978400
44.09999756	0.00000000	45.43553000	14.76993000
44.29999755	0.00000000	45.81078000	18.30093000
44.49999753	0.00000000	45.85384000	19.46358000
44.69999752	0.00000000	45.85384000	17.93184000
44.89999751	0.00000000	45.81078000	14.11786000
45.09999750	0.00000000	45.38631000	9.51648500
45.29999749	0.00000000	44.22982000	5.24729300
45.49999748	0.00000000	42.64886000	2.17765700
45.69999746	0.00000000	40.64345000	0.92888770
45.89999745	0.00000000	37.90600000	1.29183100
46.09999744	0.00000000	34.83022000	2.46063000
46.29999743	0.00000000	32.17273000	4.82283400
46.49999742	0.00000000	31.05930000	7.84940900
46.69999740	0.00000000	32.26501000	10.53765000
46.89999739	0.00000000	35.75910000	12.11860000
47.09999738	0.00000000	41.15403000	12.53691000
47.29999737	0.00000000	47.01648000	12.16166000
47.49999736	0.00000000	52.41756000	10.96211000
47.69999734	0.00000000	56.60064000	9.05511800
47.89999733	0.00000000	57.30192000	6.72982200
48.09999732	0.00000000	54.23228000	4.77977300
48.29999731	0.00000000	47.99458000	3.24803100
48.49999730	0.00000000	39.53002000	2.50369100
48.69999729	0.00000000	31.05930000	3.29109200
48.89999727	0.00000000	24.87082000	5.24729300
49.09999726	0.00000000	22.21334000	8.31077700
49.29999725	0.00000000	24.16954000	11.74951000
49.49999724	0.00000000	30.68405000	14.07480000
49.69999723	0.00000000	39.57308000	15.23130000
49.89999721	0.00000000	48.83735000	14.81299000
50.09999720	0.00000000	56.55142000	12.49385000
50.29999719	0.00000000	60.42076000	9.00590400
50.49999718	0.00000000	60.04552000	4.77977300
50.69999717	0.00000000	55.38877000	1.02116100
50.89999715	0.00000000	47.25640000	-0.55979330
51.09999714	0.00000000	37.70915000	0.13533460
51.29999713	0.00000000	29.24459000	2.12844500
51.49999712	0.00000000	25.00615000	5.61638700
51.69999711	0.00000000	25.28912000	10.21161000
51.89999710	0.00000000	29.57062000	14.03174000
52.09999708	0.00000000	36.82948000	16.39395000
52.29999707	0.00000000	44.92495000	16.76919000
52.49999706	0.00000000	51.44561000	15.23130000
52.69999705	0.00000000	54.97047000	12.11860000
52.89999704	0.00000000	54.60752000	7.93553100
53.09999702	0.00000000	51.11343000	4.08464600
53.29999701	0.00000000	44.96801000	1.75319900
53.49999700	0.00000000	37.71530000	0.97194880
53.69999699	0.00000000	32.35728000	2.12844500
53.89999698	0.00000000	29.98893000	4.77977300
54.09999696	0.00000000	31.15157000	7.84940900
54.29999695	0.00000000	35.34079000	10.49459000
54.49999694	0.00000000	41.06791000	11.70029000
54.69999693	0.00000000	46.46284000	11.33120000
54.89999692	0.00000000	49.95078000	10.21161000
55.09999691	0.00000000	51.11343000	8.26771600
55.29999689	0.00000000	49.57554000	6.40378900
55.49999688	0.00000000	45.76156000	5.24729300
55.69999687	0.00000000	41.15403000	5.29035400
55.89999686	0.00000000	36.87869000	6.82209600
56.09999685	0.00000000	33.80290000	9.47342500
56.29999683	0.00000000	32.68332000	12.07554000
56.49999682	0.00000000	34.22121000	13.23819000
56.69999681	0.00000000	37.99213000	12.45079000
56.89999680	0.00000000	42.22441000	10.11934000
57.09999679	0.00000000	45.71850000	6.26845500
57.29999677	0.00000000	48.04380000	2.08538400
57.49999676	0.00000000	48.41904000	-0.97810030
57.69999675	0.00000000	46.92421000	-2.09153500
57.89999674	0.00000000	44.22982000	-0.51673230
58.09999673	0.00000000	41.15403000	3.70939900
58.29999672	0.00000000	38.45964000	9.47342500
58.49999670	0.00000000	36.92175000	15.23130000
58.69999669	0.00000000	36.87869000	19.46358000
58.89999668	0.00000000	37.99213000	20.95226000
59.09999667	0.00000000	39.53002000	19.04527000
59.29999666	0.00000000	41.11097000	14.03174000
59.49999664	0.00000000	42.64886000	7.47416300
59.69999663	0.00000000	43.76230000	0.51058070
59.89999662	0.00000000	43.80536000	-5.20423200
60.09999661	0.00000000	43.02411000	-7.85556000
60.29999660	0.00000000	41.89838000	-6.32381900
60.49999658	0.00000000	40.41584000	-0.93503930
60.69999657	0.00000000	40.04060000	6.72982200
60.89999656	0.00000000	40.73573000	14.81299000
61.09999655	0.00000000	41.48622000	20.99532000
61.29999654	0.00000000	42.31668000	24.10802000
61.49999653	0.00000000	43.06717000	23.64665000
61.69999651	0.00000000	43.80536000	19.00221000
61.89999650	0.00000000	43.76230000	10.96211000
62.09999649	0.00000000	42.64886000	2.17765700
62.29999648	0.00000000	41.06791000	-4.83513700
62.49999647	0.00000000	39.15477000	-8.69217500
62.69999645	0.00000000	37.25394000	-9.10433000
62.89999644	0.00000000	36.50344000	-5.62253900
63.09999643	0.00000000	36.87869000	0.55364170
63.29999642	0.00000000	38.41658000	8.26771600
63.49999641	0.00000000	40.73573000	15.97564000
63.69999639	0.00000000	43.06717000	21.32751000
63.89999638	0.00000000	45.34325000	23.31447000
64.09999637	0.00000000	46.46284000	21.41363000
64.29999636	0.00000000	45.71850000	16.81225000
64.49999635	0.00000000	43.85457000	10.62992000
64.69999634	0.00000000	41.48622000	4.08464600
64.89999632	0.00000000	39.15477000	-0.97810030
65.09999631	0.00000000	36.83563000	-4.09079700
65.29999630	0.00000000	35.38385000	-4.87819900
65.49999629	0.00000000	35.71604000	-2.97736200
65.69999628	0.00000000	37.61687000	0.46751960
65.89999626	0.00000000	39.90526000	4.77977300
66.09999625	0.00000000	42.27362000	9.43036400
66.29999624	0.00000000	44.13755000	13.65650000
66.49999623	0.00000000	44.92495000	16.39395000
66.69999622	0.00000000	44.13755000	17.23056000
66.89999620	0.00000000	42.27362000	16.85531000
67.09999619	0.00000000	39.94832000	15.27436000
67.29999618	0.00000000	38.08440000	12.58612000
67.49999617	0.00000000	37.29700000	9.47342500
67.69999616	0.00000000	38.08440000	6.31151500
67.89999615	0.00000000	39.99754000	3.19881900
68.09999613	0.00000000	42.69193000	0.46751960
68.29999612	0.00000000	45.34325000	-1.43946800
68.49999611	0.00000000	46.83809000	-2.18380900
68.69999610	0.00000000	46.46284000	-1.02116100
68.89999609	0.00000000	44.18061000	1.71013800
69.09999607	0.00000000	41.06791000	5.61638700
69.29999606	0.00000000	37.57381000	10.62992000
69.49999605	0.00000000	34.12894000	15.23130000
69.69999604	0.00000000	32.21579000	18.35015000
69.89999603	0.00000000	32.26501000	19.50664000
70.09999601	0.00000000	34.59645000	18.30093000
70.29999600	0.00000000	39.19783000	14.85605000
70.49999599	0.00000000	44.22982000	9.84867000
70.69999598	0.00000000	48.88041000	4.77977300
70.89999597	0.00000000	52.27608000	0.13533460
71.09999596	0.00000000	52.65133000	-3.25418300
71.29999594	0.00000000	50.00000000	-3.67249000
71.49999593	0.00000000	45.34325000	-1.39640700
71.69999592	0.00000000	39.53002000	2.46063000
71.89999591	0.00000000	33.75369000	7.43110200
72.09999590	0.00000000	29.52141000	11.70029000
72.29999588	0.00000000	27.94045000	14.45005000
72.49999587	0.00000000	29.10310000	15.97564000
72.69999586	0.00000000	32.59719000	15.18824000
72.89999585	0.00000000	38.03519000	12.58612000
73.09999584	0.00000000	44.18061000	9.51648500
73.29999582	0.00000000	49.57554000	6.77903500
73.49999581	0.00000000	52.65133000	4.87204700
73.69999580	0.00000000	52.69439000	4.08464600
73.89999579	0.00000000	50.04306000	4.82283400
74.09999578	0.00000000	45.76156000	6.26845500
74.29999577	0.00000000	40.73573000	7.42495000
74.49999575	0.00000000	35.71604000	7.80019600
74.69999574	0.00000000	32.26501000	7.42495000
74.89999573	0.00000000	31.10236000	6.26845500
75.09999572	0.00000000	32.54798000	4.77977300
75.29999571	0.00000000	35.61762000	3.66633800
75.49999569	0.00000000	38.69955000	3.66633800
75.69999568	0.00000000	41.85531000	4.87204700
75.89999567	0.00000000	44.13755000	7.19734200
76.09999566	0.00000000	45.34325000	10.62992000
76.29999565	0.00000000	45.34325000	13.69956000
76.49999563	0.00000000	44.22982000	15.60654000
76.69999562	0.00000000	42.69193000	15.97564000
76.89999561	0.00000000	41.15403000	14.03174000
77.09999560	0.00000000	39.99754000	10.53765000
77.29999559	0.00000000	39.57308000	5.85014700
77.49999558	0.00000000	39.57308000	0.51058070
77.69999556	0.00000000	39.90526000	-3.67249000
77.89999555	0.00000000	40.27436000	-5.20423200
78.09999554	0.00000000	39.86220000	-3.67249000
78.29999553	0.00000000	39.15477000	0.55364170
78.49999552	0.00000000	38.36737000	6.31151500
78.69999550	0.00000000	37.99213000	12.16166000
78.89999549	0.00000000	38.04134000	17.14444000
79.09999548	0.00000000	38.83489000	20.20177000
79.29999547	0.00000000	40.73573000	19.83883000
79.49999546	0.00000000	42.64886000	16.81225000
79.69999544	0.00000000	44.22982000	12.16166000
79.89999543	0.00000000	45.34325000	6.77903500
80.09999542	0.00000000	45.34325000	2.08538400
80.29999541	0.00000000	44.18061000	-1.39640700
80.49999540	0.00000000	42.22441000	-3.34030500
80.69999539	0.00000000	39.53002000	-2.93430100
80.89999537	0.00000000	36.87869000	-0.64591530
81.09999536	0.00000000	35.29773000	3.20497000
81.29999535	0.00000000	34.92249000	7.43110200
81.49999534	0.00000000	35.71604000	10.96211000
81.69999533	0.00000000	37.99213000	13.74262000
81.89999531	0.00000000	40.64345000	15.64960000
82.09999530	0.00000000	42.64886000	16.43701000
82.29999529	0.00000000	44.22982000	15.64960000
82.49999528	0.00000000	45.34325000	13.69956000
82.69999527	0.00000000	45.30019000	10.58686000
82.89999525	0.00000000	43.80536000	6.72982200
83.09999524	0.00000000	41.52928000	3.24803100
83.29999523	0.00000000	39.62229000	0.51058070
83.49999522	0.00000000	38.41658000	-1.06422200
83.69999521	0.00000000	37.99213000	-1.43946800
83.89999520	0.00000000	37.99213000	-0.60285430
84.09999518	0.00000000	38.41658000	2.08538400
84.29999517	0.00000000	39.53002000	5.93626900
84.49999516	0.00000000	40.64345000	9.84867000
84.69999515	0.00000000	41.06791000	13.74262000
84.89999514	0.00000000	41.06791000	16.76919000
85.09999512	0.00000000	40.73573000	17.92569000
85.29999511	0.00000000	40.36663000	16.76919000
85.49999510	0.00000000	40.73573000	13.69956000
85.69999509	0.00000000	41.11097000	9.43036400
85.89999508	0.00000000	41.52928000	4.77977300
86.09999506	0.00000000	42.27362000	0.55364170
86.29999505	0.00000000	42.59965000	-2.14074800
86.49999504	0.00000000	42.22441000	-2.50984200
86.69999503	0.00000000	41.06791000	-0.60285430
86.89999502	0.00000000	39.53002000	3.24803100
87.09999501	0.00000000	37.99213000	7.84940900
87.29999499	0.00000000	36.83563000	12.16166000
87.49999498	0.00000000	36.50344000	15.60654000
87.69999497	0.00000000	37.20472000	17.46432000
87.89999496	0.00000000	38.77953000	16.35089000
88.09999495	0.00000000	40.32357000	12.91215000
88.29999493	0.00000000	42.27362000	8.67987200
88.49999492	0.00000000	43.76230000	3.99237200
88.69999491	0.00000000	44.18061000	0.22760820
88.89999490	0.00000000	43.80536000	-1.71628900
89.09999489	0.00000000	42.59965000	-0.93503930
89.29999487	0.00000000	40.73573000	2.08538400
89.49999486	0.00000000	38.78568000	6.31151500
89.69999485	0.00000000	37.61687000	10.53765000
89.89999484	0.00000000	36.83563000	13.65650000
90.09999483	0.00000000	36.87869000	15.18824000
90.29999482	0.00000000	37.99213000	14.76993000
90.49999480	0.00000000	39.48696000	12.07554000
90.69999479	0.00000000	40.69267000	7.89247000
90.89999478	0.00000000	41.48622000	3.66633800
91.09999477	0.00000000	42.27362000	0.59670270
91.29999476	0.00000000	42.59965000	-0.55979330
91.49999474	0.00000000	42.27362000	0.59670270
91.69999473	0.00000000	41.48622000	3.66633800
91.89999472	0.00000000	40.77879000	7.89247000
92.09999471	0.00000000	40.36663000	12.11860000
92.29999470	0.00000000	40.69267000	15.18824000
92.49999468	0.00000000	40.64345000	16.30167000
92.69999467	0.00000000	39.94832000	14.76993000
92.89999466	0.00000000	39.53002000	10.95595000
93.09999465	0.00000000	39.11171000	6.35457700
93.29999464	0.00000000	38.36737000	2.12844500
93.49999463	0.00000000	37.99213000	-0.55979330
93.69999461	0.00000000	37.99213000	-0.93503930
93.89999460	0.00000000	38.41658000	0.97194880
94.09999459	0.00000000	39.57308000	4.82898600
94.29999458	0.00000000	41.11097000	9.38115100
94.49999457	0.00000000	42.69193000	13.23819000
94.69999455	0.00000000	44.22982000	15.14518000
94.89999454	0.00000000	45.34325000	14.76993000
95.09999453	0.00000000	45.30019000	12.07554000
95.29999452	0.00000000	43.76230000	7.89247000
95.49999451	0.00000000	41.06791000	3.66633800
95.69999449	0.00000000	37.99213000	0.59670270
95.89999448	0.00000000	35.24852000	-0.55979330
96.09999447	0.00000000	33.33538000	0.55364170
96.29999446	0.00000000	32.54798000	3.24803100
96.49999445	0.00000000	33.37844000	6.68676100
96.69999444	0.00000000	35.71604000	10.16855000
96.89999442	0.00000000	39.57308000	12.45079000
97.09999441	0.00000000	43.76230000	13.28125000
97.29999440	0.00000000	46.88115000	12.49385000
97.49999439	0.00000000	48.46210000	10.58686000
97.69999438	0.00000000	48.46210000	7.89247000
97.89999436	0.00000000	46.88115000	5.24729300
98.09999435	0.00000000	43.76230000	3.66633800
98.29999434	0.00000000	39.53002000	3.24803100
98.49999433	0.00000000	35.34079000	3.66633800
98.69999432	0.00000000	32.59719000	5.15501900
98.89999430	0.00000000	31.75443000	7.05585600
99.09999429	0.00000000	32.17273000	8.22465500
99.29999428	0.00000000	34.12894000	9.00590400
99.49999427	0.00000000	37.57381000	9.00590400
99.69999426	0.00000000	41.06791000	8.31077700
99.89999425	0.00000000	44.22982000	7.93553100
100.09999423	0.00000000	46.88115000	7.89247000
100.29999422	0.00000000	48.04380000	7.93553100
100.49999421	0.00000000	47.29946000	8.35998900
100.69999420	0.00000000	45.34325000	9.42421200
100.89999419	0.00000000	42.27362000	10.07628000
101.09999417	0.00000000	38.78568000	8.96284400
101.29999416	0.00000000	36.07898000	6.77903500
101.49999415	0.00000000	34.08588000	5.19808000
101.69999414	0.00000000	33.33538000	4.36146600
101.89999413	0.00000000	33.71063000	3.57406500
102.09999411	0.00000000	35.24852000	3.24803100
102.29999410	0.00000000	37.57381000	3.66633800
102.49999409	0.00000000	39.90526000	5.24729300
102.69999408	0.00000000	42.27362000	7.89247000
102.89999407	0.00000000	44.18061000	10.58686000
103.09999406	0.00000000	45.34325000	12.49385000
103.29999404	0.00000000	45.30019000	13.23819000
103.49999403	0.00000000	43.80536000	12.07554000
103.69999402	0.00000000	41.52928000	9.42421200
103.89999401	0.00000000	39.57308000	6.36072800
104.09999400	0.00000000	37.94907000	3.61712600
104.29999398	0.00000000	36.46038000	1.71013800
104.49999397	0.00000000	35.71604000	0.92888770
104.69999396	0.00000000	36.46038000	1.71013800
104.89999395	0.00000000	37.94907000	3.61712600
105.09999394	0.00000000	39.48696000	6.36072800
105.29999392	0.00000000	40.69267000	9.38115100
105.49999391	0.00000000	41.48622000	11.70029000
105.69999390	0.00000000	42.22441000	12.49385000
105.89999389	0.00000000	42.22441000	12.11860000
106.09999388	0.00000000	41.44316000	10.53765000
106.29999387	0.00000000	40.31742000	7.89247000
106.49999385	0.00000000	38.78568000	5.24729300
106.69999384	0.00000000	38.08440000	3.70939900
106.89999383	0.00000000	38.36737000	3.62327700
107.09999382	0.00000000	39.15477000	4.40452700
107.29999381	0.00000000	39.90526000	5.57332700
107.49999379	0.00000000	40.69267000	7.47416300
107.69999378	0.00000000	41.06791000	8.96284400
107.89999377	0.00000000	41.06791000	9.43036400
108.09999376	0.00000000	40.69267000	9.43036400
108.29999375	0.00000000	39.90526000	9.00590400
108.49999374	0.00000000	39.11171000	7.84940900
108.69999372	0.00000000	37.94907000	6.31151500
108.89999371	0.00000000	36.87869000	4.82283400
109.09999370	0.00000000	36.87869000	4.08464600
109.29999369	0.00000000	37.99213000	4.82283400
109.49999368	0.00000000	39.53002000	6.31151500
109.69999366	0.00000000	41.06791000	7.89247000
109.89999365	0.00000000	42.22441000	9.42421200
110.09999364	0.00000000	42.64886000	10.53765000
110.29999363	0.00000000	42.64886000	10.58686000
110.49999362	0.00000000	42.22441000	9.84867000
110.69999360	0.00000000	41.06791000	9.00590400
110.89999359	0.00000000	39.53002000	7.47416300
111.09999358	0.00000000	37.99213000	5.57332700
111.29999357	0.00000000	36.87869000	4.45374000
111.49999356	0.00000000	36.83563000	3.99237200
111.69999355	0.00000000	37.57381000	4.40452700
111.89999353	0.00000000	38.36737000	5.15501900
112.09999352	0.00000000	39.53002000	6.36072800
112.29999351	0.00000000	40.69267000	7.84940900
112.49999350	0.00000000	41.44316000	9.00590400
112.69999349	0.00000000	41.85531000	9.38115100
112.89999347	0.00000000	41.44316000	9.05511800
113.09999346	0.00000000	40.73573000	8.31077700
113.29999345	0.00000000	39.90526000	7.89247000
113.49999344	0.00000000	39.15477000	7.47416300
113.69999343	0.00000000	38.36737000	6.72982200
113.89999341	0.00000000	37.99213000	6.35457700
114.09999340	0.00000000	37.99213000	6.31151500
114.29999339	0.00000000	38.36737000	6.31151500
114.49999338	0.00000000	39.11171000	6.31151500
114.69999337	0.00000000	39.53002000	6.31151500
114.89999336	0.00000000	39.94832000	6.31151500
115.09999334	0.00000000	40.64345000	6.31151500
115.29999333	0.00000000	40.69267000	6.31151500
115.49999332	0.00000000	40.32357000	6.31151500
115.69999331	0.00000000	40.31742000	6.35457700
115.89999330	0.00000000	39.90526000	6.72982200
116.09999328	0.00000000	39.53002000	7.51722400
116.29999327	0.00000000	39.11171000	8.26771600
116.49999326	0.00000000	38.36737000	9.05511800
116.69999325	0.00000000	37.99213000	9.38115100
116.89999324	0.00000000	37.99213000	9.05511800
117.09999322	0.00000000	38.36737000	8.26771600
117.29999321	0.00000000	39.15477000	7.47416300
117.49999320	0.00000000	39.90526000	6.36072800
117.69999319	0.00000000	40.69267000	5.57332700
117.89999318	0.00000000	41.06791000	5.51796200
118.09999317	0.00000000	41.11097000	5.15501900
118.29999315	0.00000000	41.06791000	5.19808000
118.49999314	0.00000000	40.69267000	5.89320800
118.69999313	0.00000000	39.90526000	6.31151500
118.89999312	0.00000000	39.11171000	6.72982200
119.09999311	0.00000000	37.94907000	7.47416300
119.29999309	0.00000000	36.83563000	7.89247000
119.49999308	0.00000000	36.46038000	8.26771600
119.69999307	0.00000000	36.78642000	8.63681000
119.89999306	0.00000000	37.61687000	8.26771600
120.09999305	0.00000000	38.78568000	7.93553100
120.29999303	0.00000000	40.69267000	7.84940900
120.49999302	0.00000000	42.18134000	7.47416300
120.69999301	0.00000000	42.64886000	6.72982200
120.89999300	0.00000000	42.64886000	6.31151500
121.09999299	0.00000000	42.22441000	5.89320800
121.29999298	0.00000000	41.06791000	5.19808000
121.49999296	0.00000000	39.53002000	5.19808000
121.69999295	0.00000000	37.99213000	5.89320800
121.89999294	0.00000000	36.83563000	6.26845500
122.09999293	0.00000000	36.41117000	6.35457700
122.29999292	0.00000000	36.41117000	6.72982200
122.49999290	0.00000000	36.83563000	7.47416300
122.69999289	0.00000000	37.94907000	7.84940900
122.89999288	0.00000000	39.11171000	7.93553100
123.09999287	0.00000000	39.90526000	8.26771600
123.29999286	0.00000000	40.69267000	8.63681000
123.49999284	0.00000000	41.06791000	8.22465500
123.69999283	0.00000000	41.11097000	7.51722400
123.89999282	0.00000000	41.06791000	6.72982200
124.09999281	0.00000000	40.69267000	6.35457700
124.29999280	0.00000000	39.94832000	6.31151500
124.49999279	0.00000000	39.53002000	6.31151500
124.69999277	0.00000000	39.11171000	6.31151500
124.89999276	0.00000000	38.36737000	6.35457700
125.09999275	0.00000000	37.99213000	6.72982200
125.29999274	0.00000000	37.94907000	7.47416300
125.49999273	0.00000000	37.94907000	7.84940900
125.69999271	0.00000000	37.99213000	7.89247000
125.89999270	0.00000000	38.36737000	7.89247000
126.09999269	0.00000000	39.15477000	7.89247000
126.29999268	0.00000000	39.94832000	7.84940900
126.49999267	0.00000000	41.06791000	7.47416300
126.69999265	0.00000000	41.80610000	6.72982200
126.89999264	0.00000000	41.44316000	6.35457700
127.09999263	0.00000000	40.69267000	6.31151500
127.29999262	0.00000000	39.53002000	6.31151500
127.49999261	0.00000000	38.36737000	6.31151500
127.69999260	0.00000000	37.57381000	6.31151500
127.89999258	0.00000000	36.78642000	6.31151500
128.09999257	0.00000000	36.46038000	6.35457700
128.29999256	0.00000000	36.83563000	6.72982200
128.49999255	0.00000000	37.94907000	7.47416300
128.69999254	0.00000000	39.11171000	7.84940900
128.89999252	0.00000000	39.90526000	7.89247000
129.09999251	0.00000000	40.69267000	7.84940900
129.29999250	0.00000000	41.01870000	7.47416300
129.49999249	0.00000000	40.64345000	6.72982200
129.69999248	0.00000000	39.53002000	6.35457700
129.89999246	0.00000000	38.41658000	6.31151500
130.09999245	0.00000000	37.94907000	6.31151500
130.29999244	0.00000000	37.53075000	6.31151500
130.49999243	0.00000000	36.83563000	6.35457700
130.69999242	0.00000000	36.87869000	6.72982200
130.89999241	0.00000000	37.94907000	7.47416300
131.09999239	0.00000000	39.11171000	7.84940900
131.29999238	0.00000000	39.90526000	7.84940900
131.49999237	0.00000000	40.69267000	7.47416300
131.69999236	0.00000000	41.01870000	6.72982200
131.89999235	0.00000000	40.69267000	6.31151500
132.09999233	0.00000000	39.90526000	5.89320800
132.29999232	0.00000000	39.15477000	5.15501900
132.49999231	0.00000000	38.36737000	4.82898600
132.69999230	0.00000000	37.99213000	5.15501900
132.89999229	0.00000000	37.94907000	5.93626900
133.09999227	0.00000000	37.99213000	6.68676100
133.29999226	0.00000000	38.36737000	7.47416300
133.49999225	0.00000000	39.11171000	7.89247000
133.69999224	0.00000000	39.48696000	8.26771600
133.89999223	0.00000000	39.53002000	8.63681000
134.09999222	0.00000000	39.53002000	8.22465500
134.29999220	0.00000000	39.48696000	7.51722400
134.49999219	0.00000000	39.11171000	6.68676100
134.69999218	0.00000000	38.41658000	5.93626900
134.89999217	0.00000000	38.41658000	5.15501900
135.09999216	0.00000000	39.11171000	4.77977300
135.29999214	0.00000000	39.48696000	4.77977300
135.49999213	0.00000000	39.53002000	5.15501900
135.69999212	0.00000000	39.53002000	5.93626900
135.89999211	0.00000000	39.53002000	6.68676100
136.09999210	0.00000000	39.48696000	7.47416300
136.29999208	0.00000000	39.11171000	7.89247000
136.49999207	0.00000000	38.36737000	8.31077700
136.69999206	0.00000000	37.99213000	9.00590400
136.89999205	0.00000000	37.94907000	9.00590400
137.09999204	0.00000000	37.99213000	8.26771600
137.29999203	0.00000000	38.36737000	7.51722400
137.49999201	0.00000000	39.15477000	6.72982200
137.69999200	0.00000000	39.90526000	6.31151500
137.89999199	0.00000000	40.64345000	5.89320800
138.09999198	0.00000000	40.64345000	5.15501900
138.29999197	0.00000000	39.94832000	4.77977300
138.49999195	0.00000000	39.53002000	4.77977300
138.69999194	0.00000000	39.11171000	5.15501900
138.89999193	0.00000000	38.36737000	5.93626900
139.09999192	0.00000000	37.99213000	6.68676100
139.29999191	0.00000000	37.94907000	7.47416300
139.49999189	0.00000000	37.94907000	7.84940900
139.69999188	0.00000000	37.99213000	7.89247000
139.89999187	0.00000000	38.36737000	7.89247000
140.09999186	0.00000000	39.11171000	7.89247000
140.29999185	0.00000000	39.48696000	7.84940900
140.49999184	0.00000000	39.53002000	7.42495000
140.69999182	0.00000000	39.53002000	6.31151500
140.89999181	0.00000000	39.48696000	5.19808000
141.09999180	0.00000000	39.11171000	4.77977300
141.29999179	0.00000000	38.36737000	4.73671200
141.49999178	0.00000000	37.99213000	4.77977300
141.69999176	0.00000000	37.94907000	5.19808000
141.89999175	0.00000000	37.99213000	6.31151500
142.09999174	0.00000000	38.36737000	7.47416300
142.29999173	0.00000000	39.11171000	8.26771600
142.49999172	0.00000000	39.48696000	9.00590400
142.69999170	0.00000000	39.53002000	9.00590400
142.89999169	0.00000000	39.53002000	8.26771600
143.09999168	0.00000000	39.48696000	7.47416300
143.29999167	0.00000000	39.11171000	6.31151500
143.49999166	0.00000000	38.36737000	5.19808000
143.69999165	0.00000000	37.99213000	4.77977300
143.89999163	0.00000000	37.94907000	4.73671200
144.09999162	0.00000000	37.94907000	4.77977300
144.29999161	0.00000000	37.99213000	5.15501900
144.49999160	0.00000000	38.36737000	5.93626900
144.69999159	0.00000000	39.11171000	6.68676100
144.89999157	0.00000000	39.48696000	7.47416300
145.09999156	0.00000000	39.53002000	7.84940900
145.29999155	0.00000000	39.48696000	7.89247000
145.49999154	0.00000000	39.11171000	7.84940900
145.69999153	0.00000000	38.36737000	7.47416300
145.89999151	0.00000000	37.99213000	6.72982200
146.09999150	0.00000000	37.94907000	6.31151500
146.29999149	0.00000000	37.94907000	5.93626900
146.49999148	0.00000000	37.99213000	5.57332700
146.69999147	0.00000000	38.36737000	5.93626900
146.89999146	0.00000000	39.15477000	6.31151500
147.09999144	0.00000000	39.81299000	6.68676100
147.29999143	0.00000000	39.89911000	7.05585600
147.49999142	0.00000000	39.16092000	6.72982200
147.69999141	0.00000000	39.15477000	6.77903500
147.89999140	0.00000000	39.06250000	7.47416300
148.09999138	0.00000000	38.36737000	7.84940900
148.29999137	0.00000000	37.99213000	7.84940900
148.49999136	0.00000000	37.94907000	7.47416300
148.69999135	0.00000000	37.94907000	6.72982200
148.89999134	0.00000000	37.94907000	6.35457700
149.09999132	0.00000000	37.99213000	6.31151500
149.29999131	0.00000000	38.36737000	6.31151500
149.49999130	0.00000000	39.11171000	6.31151500
149.69999129	0.00000000	39.48696000	6.31151500
149.89999128	0.00000000	39.53002000	6.31151500
150.09999127	0.00000000	39.53002000	6.31151500
150.29999125	0.00000000	39.48696000	6.35457700
150.49999124	0.00000000	39.11171000	6.72982200
150.69999123	0.00000000	38.36737000	7.47416300
150.89999122	0.00000000	37.99213000	7.84940900
151.09999121	0.00000000	37.94907000	7.89247000
151.29999119	0.00000000	37.94907000	7.80019600
151.49999118	0.00000000	37.99213000	7.14197800
151.69999117	0.00000000	38.32431000	6.36687900
151.89999116	0.00000000	38.69341000	6.72367100
152.09999115	0.00000000	38.36737000	6.64370100
152.29999113	0.00000000	38.41658000	6.35457700
152.49999112	0.00000000	39.11171000	6.31151500
152.69999111	0.00000000	39.48696000	6.31151500
152.89999110	0.00000000	39.53002000	6.31151500
153.09999109	0.00000000	39.53002000	6.31151500
153.29999108	0.00000000	39.48696000	6.35457700
153.49999106	0.00000000	39.11171000	6.72982200
153.69999105	0.00000000	38.36737000	7.47416300
153.89999104	0.00000000	37.99213000	7.84940900
154.09999103	0.00000000	37.94907000	7.89247000
154.29999102	0.00000000	37.94907000	7.84940900
154.49999100	0.00000000	37.94907000	7.47416300
154.69999099	0.00000000	37.94907000	6.77903500
154.89999098	0.00000000	37.94907000	6.72982200
155.09999097	0.00000000	37.94907000	7.05585600
155.29999096	0.00000000	37.99213000	6.68676100
155.49999094	0.00000000	38.36737000	6.35457700
155.69999093	0.00000000	39.11171000	6.31151500
155.89999092	0.00000000	39.43774000	6.31151500
156.09999091	0.00000000	39.15477000	6.31151500
156.29999090	0.00000000	38.74261000	6.31151500
156.49999089	0.00000000	38.73647000	6.31151500
156.69999087	0.00000000	38.32431000	6.31151500
156.89999086	0.00000000	37.99213000	6.35457700
157.09999085	0.00000000	37.90600000	6.72982200
157.29999084	0.00000000	37.57381000	7.47416300
157.49999083	0.00000000	37.20472000	7.84940900
157.69999081	0.00000000	37.57381000	7.84940900
157.89999080	0.00000000	37.90600000	7.47416300
158.09999079	0.00000000	37.99213000	6.72982200
158.29999078	0.00000000	38.36737000	6.35457700
158.49999077	0.00000000	39.11171000	6.31151500
158.69999075	0.00000000	39.48696000	6.31151500
158.89999074	0.00000000	39.48696000	6.31151500
159.09999073	0.00000000	39.11171000	6.31151500
159.29999072	0.00000000	38.36737000	6.35457700
159.49999071	0.00000000	37.99213000	6.72982200
159.69999070	0.00000000	37.94907000	7.47416300
159.89999068	0.00000000	37.94907000	7.84940900
160.09999067	0.00000000	37.94907000	7.89247000
160.29999066	0.00000000	37.94907000	7.89247000
160.49999065	0.00000000	37.94907000	7.84940900
160.69999064	0.00000000	37.94907000	7.47416300
160.89999062	0.00000000	37.94907000	6.72982200
161.09999061	0.00000000	37.94907000	6.31151500
161.29999060	0.00000000	37.94907000	5.93626900
161.49999059	0.00000000	37.99213000	5.57332700
161.69999058	0.00000000	38.36737000	5.93626900
161.89999056	0.00000000	39.11171000	6.26845500
162.09999055	0.00000000	39.48696000	6.31151500
162.29999054	0.00000000	39.53002000	6.35457700
162.49999053	0.00000000	39.53002000	6.72982200
162.69999052	0.00000000	39.48696000	7.42495000
162.89999051	0.00000000	39.11171000	7.42495000
163.09999049	0.00000000	38.36737000	6.72982200
163.29999048	0.00000000	37.99213000	6.35457700
163.49999047	0.00000000	37.94907000	6.31151500
163.69999046	0.00000000	37.94907000	6.31151500
163.89999045	0.00000000	37.94907000	6.31151500
164.09999043	0.00000000	37.94907000	6.31151500
164.29999042	0.00000000	37.94907000	6.31151500
164.49999041	0.00000000	37.94907000	6.31151500
164.69999040	0.00000000	37.94907000	6.31151500
164.89999039	0.00000000	37.99213000	6.31151500
165.09999037	0.00000000	38.36737000	6.31151500
165.29999036	0.00000000	39.11171000	6.31151500
165.49999035	0.00000000	39.43774000	6.31151500
165.69999034	0.00000000	39.11171000	6.31151500
165.89999033	0.00000000	38.36737000	6.31151500
166.09999032	0.00000000	37.99213000	6.31151500
166.29999030	0.00000000	37.94907000	6.31151500
166.49999029	0.00000000	37.94907000	6.35457700
166.69999028	0.00000000	37.94907000	6.68676100
166.89999027	0.00000000	37.94907000	7.05585600
167.09999026	0.00000000	37.94907000	6.68676100
167.29999024	0.00000000	37.94907000	6.35457700
167.49999023	0.00000000	37.99213000	6.31151500
167.69999022	0.00000000	38.32431000	6.31151500
167.89999021	0.00000000	38.73647000	6.31151500
168.09999020	0.00000000	38.69955000	6.31151500
168.29999018	0.00000000	38.73647000	6.31151500
168.49999017	0.00000000	38.32431000	6.31151500
168.69999016	0.00000000	37.99213000	6.31151500
168.89999015	0.00000000	37.94907000	6.31151500
169.09999014	0.00000000	37.94907000	6.31151500
169.29999013	0.00000000	37.94907000	6.31151500
169.49999011	0.00000000	37.94907000	6.31151500
169.69999010	0.00000000	37.94907000	6.31151500
169.89999009	0.00000000	37.94907000	6.31151500
170.09999008	0.00000000	37.94907000	6.31151500
170.29999007	0.00000000	37.94907000	6.31151500
170.49999005	0.00000000	37.94907000	6.31151500
170.69999004	0.00000000	37.94907000	6.31151500
170.89999003	0.00000000	37.94907000	6.31151500
171.09999002	0.00000000	37.94907000	6.31151500
171.29999001	0.00000000	37.94907000	6.31151500
171.49998999	0.00000000	37.94907000	6.31151500
171.69998998	0.00000000	37.94907000	6.31151500
171.89998997	0.00000000	37.94907000	6.31151500
172.09998996	0.00000000	37.94907000	6.31151500
172.29998995	0.00000000	37.94907000	6.31151500
172.49998994	0.00000000	37.94907000	6.31151500
172.69998992	0.00000000	37.94907000	6.31151500
172.89998991	0.00000000	37.94907000	6.31151500
173.09998990	0.00000000	37.94907000	6.35457700
173.29998989	0.00000000	37.94907000	6.68676100
173.49998988	0.00000000	37.94907000	7.05585600
173.69998986	0.00000000	37.94907000	6.68676100
173.89998985	0.00000000	37.94907000	6.35457700
174.09998984	0.00000000	37.94907000	6.31151500
174.29998983	0.00000000	37.94907000	6.31151500
174.49998982	0.00000000	37.94907000	6.31151500
174.69998980	0.00000000	37.94907000	6.31151500
174.89998979	0.00000000	37.94907000	6.31151500
175.09998978	0.00000000	37.94907000	6.31151500
175.29998977	0.00000000	37.94907000	6.31151500
175.49998976	0.00000000	37.94907000	6.31151500
175.69998975	0.00000000	37.94907000	6.31151500
175.89998973	0.00000000	37.94907000	6.31151500
176.09998972	0.00000000	37.94907000	6.31151500
176.29998971	0.00000000	37.94907000	6.31151500
176.49998970	0.00000000	37.94907000	6.31151500
176.69998969	0.00000000	37.94907000	6.31151500
176.89998967	0.00000000	37.94907000	6.31151500
177.09998966	0.00000000	37.94907000	6.31151500
177.29998965	0.00000000	37.94907000	6.31151500
177.49998964	0.00000000	37.94907000	6.31151500
177.69998963	0.00000000	37.94907000	6.31151500
177.89998961	0.00000000	37.94907000	6.31151500
178.09998960	0.00000000	37.94907000	6.31151500
178.29998959	0.00000000	37.94907000	6.31151500
178.49998958	0.00000000	37.94907000	6.31151500
178.69998957	0.00000000	37.94907000	6.31151500
178.89998956	0.00000000	37.94907000	6.35457700
179.09998954	0.00000000	37.94907000	6.72982200
179.29998953	0.00000000	37.90600000	7.42495000
179.49998952	0.00000000	37.57381000	7.42495000
179.69998951	0.00000000	37.20472000	6.72982200
179.89998950	0.00000000	37.57381000	6.35457700
180.09998948	0.00000000	37.90600000	6.31151500
180.29998947	0.00000000	37.94907000	6.31151500
180.49998946	0.00000000	37.94907000	6.31151500
180.69998945	0.00000000	37.94907000	6.31151500
180.89998944	0.00000000	37.94907000	6.31151500
181.09998942	0.00000000	37.94907000	6.31151500
181.29998941	0.00000000	37.94907000	6.31151500
181.49998940	0.00000000	37.90600000	6.35457700
181.69998939	0.00000000	37.57381000	6.68676100
181.89998938	0.00000000	37.20472000	7.05585600
182.09998937	0.00000000	37.57381000	6.68676100
182.29998935	0.00000000	37.90600000	6.35457700
182.49998934	0.00000000	37.94907000	6.31151500
182.69998933	0.00000000	37.94907000	6.31151500
182.89998932	0.00000000	37.94907000	6.31151500
183.09998931	0.00000000	37.94907000	6.31151500
183.29998929	0.00000000	37.94907000	6.31151500
183.49998928	0.00000000	37.94907000	6.31151500
183.69998927	0.00000000	37.94907000	6.31151500
183.89998926	0.00000000	37.94907000	6.31151500
184.09998925	0.00000000	37.94907000	6.31151500
184.29998923	0.00000000	37.94907000	6.35457700
184.49998922	0.00000000	37.94907000	6.72982200
184.69998921	0.00000000	37.94907000	7.47416300
184.89998920	0.00000000	37.94907000	7.84940900
185.09998919	0.00000000	37.94907000	7.89247000
185.29998918	0.00000000	37.94907000	7.84940900
185.49998916	0.00000000	37.94907000	7.47416300
185.69998915	0.00000000	37.94907000	6.68676100
185.89998914	0.00000000	37.94907000	5.93626900
186.09998913	0.00000000	37.94907000	5.15501900
186.29998912	0.00000000	37.94907000	4.77977300
186.49998910	0.00000000	37.94907000	4.73671200
186.69998909	0.00000000	37.94907000	4.77977300
186.89998908	0.00000000	37.94907000	5.15501900
187.09998907	0.00000000	37.94907000	5.89320800
187.29998906	0.00000000	37.90600000	6.26845500
187.49998904	0.00000000	37.53075000	6.35457700
187.69998903	0.00000000	36.78642000	6.72982200
187.89998902	0.00000000	36.41117000	7.42495000
188.09998901	0.00000000	36.36811000	7.42495000
188.29998900	0.00000000	36.46038000	6.72982200
188.49998899	0.00000000	37.16166000	6.35457700
188.69998897	0.00000000	38.26894000	6.31151500
188.89998896	0.00000000	38.28125000	6.26845500
189.09998895	0.00000000	37.99213000	5.89320800
189.29998894	0.00000000	37.90600000	5.15501900
189.49998893	0.00000000	37.57381000	4.82898600
189.69998891	0.00000000	37.20472000	5.15501900
189.89998890	0.00000000	37.53075000	5.89320800
190.09998889	0.00000000	37.48154000	6.26845500
190.29998888	0.00000000	36.78642000	6.31151500
190.49998887	0.00000000	36.41117000	6.31151500
190.69998885	0.00000000	36.36811000	6.31151500
190.89998884	0.00000000	36.41117000	6.31151500
191.09998883	0.00000000	36.74335000	6.31151500
191.29998882	0.00000000	37.15551000	6.31151500
191.49998881	0.00000000	37.16166000	6.31151500
191.69998880	0.00000000	37.57381000	6.31151500
191.89998878	0.00000000	37.90600000	6.31151500
192.09998877	0.00000000	37.94907000	6.31151500
192.29998876	0.00000000	37.94907000	6.31151500
192.49998875	0.00000000	37.94907000	6.31151500
192.69998874	0.00000000	37.94907000	6.31151500
192.89998872	0.00000000	37.90600000	6.31151500
193.09998871	0.00000000	37.53075000	6.31151500
193.29998870	0.00000000	36.83563000	6.31151500
193.49998869	0.00000000	36.78642000	6.31151500
193.69998868	0.00000000	37.15551000	6.31151500
193.89998866	0.00000000	37.16166000	6.31151500
194.09998865	0.00000000	37.57381000	6.31151500
194.29998864	0.00000000	37.90600000	6.31151500
194.49998863	0.00000000	37.94907000	6.31151500
194.69998862	0.00000000	37.94907000	6.31151500
194.89998861	0.00000000	37.94907000	6.31151500
195.09998859	0.00000000	37.94907000	6.31151500
195.29998858	0.00000000	37.94907000	6.31151500
195.49998857	0.00000000	37.90600000	6.31151500
195.69998856	0.00000000	37.53075000	6.31151500
195.89998855	0.00000000	36.78642000	6.31151500
196.09998853	0.00000000	36.41117000	6.31151500
