Time	Channel A	Channel B	Channel C
(us)	(V)	(mV)	(mV)

-4.59999956	0.00000000	41.11097000	15.78494000
-4.39999957	0.00000000	41.11097000	15.78494000
-4.19999958	0.00000000	41.11097000	15.78494000
-3.99999959	0.00000000	41.11097000	15.78494000
-3.79999960	0.00000000	41.11097000	15.78494000
-3.59999962	0.00000000	41.11097000	15.78494000
-3.39999963	0.00000000	41.11097000	15.78494000
-3.19999964	0.00000000	41.11097000	15.78494000
-2.99999965	0.00000000	41.11097000	15.78494000
-2.79999966	0.00000000	41.11097000	15.78494000
-2.59999968	0.00000000	41.11097000	15.78494000
-2.39999969	0.00000000	41.11097000	15.78494000
-2.19999970	0.00000000	41.11097000	15.78494000
-1.99999971	0.00000000	41.11097000	15.78494000
-1.79999972	0.00000000	41.11097000	15.78494000
-1.59999973	0.00000000	41.11097000	15.78494000
-1.39999975	0.00000000	41.11097000	15.78494000
-1.19999976	0.00000000	41.11097000	15.78494000
-0.99999977	0.00000000	41.11097000	15.78494000
-0.79999978	0.00000000	41.11097000	15.78494000
-0.59999979	0.00000000	41.11097000	15.78494000
-0.39999981	0.15871060	41.11097000	15.78494000
-0.19999982	0.47736220	41.11097000	15.78494000
0.00000017	0.79601380	41.11097000	15.78494000
0.20000016	1.11466500	41.11097000	15.78494000
0.40000015	0.95533960	41.11097000	15.78494000
0.60000013	0.47736220	41.06791000	15.78494000
0.80000012	-0.15871060	40.73573000	15.78494000
1.00000011	-1.11466500	40.36663000	15.78494000
1.20000010	-2.07062000	40.73573000	15.78494000
1.40000009	-2.70792300	41.06791000	15.78494000
1.60000008	-2.70792300	41.06791000	15.78494000
1.80000006	-1.75196900	40.73573000	15.78494000
2.00000005	-0.15871060	40.36663000	15.78494000
2.20000004	1.91129400	40.73573000	15.78494000
2.40000003	3.82258900	41.06791000	15.78494000
2.60000002	5.25652100	41.11097000	15.74188000
2.80000000	5.09719500	41.11097000	15.36663000
2.99999999	3.82258900	41.06791000	14.67150000
3.19999998	1.11466500	40.73573000	14.67150000
3.39999997	-2.38927200	40.36663000	15.36663000
3.59999996	-5.57517200	40.73573000	15.74188000
3.79999994	-7.64579200	41.06791000	15.78494000
3.99999993	-7.96444400	41.11097000	15.78494000
4.19999992	-6.05315000	41.11097000	15.78494000
4.39999991	-2.54859700	41.11097000	15.78494000
4.59999990	1.91129400	41.11097000	15.78494000
4.79999989	5.89382400	41.11097000	15.78494000
4.99999987	8.76107300	41.11097000	15.74188000
5.19999986	9.39837600	41.11097000	15.36663000
5.39999985	7.64579200	41.11097000	14.62844000
5.59999984	3.98191400	41.11097000	14.25320000
5.79999983	-0.63668800	41.11097000	14.25320000
5.99999981	-5.25652100	41.11097000	14.62844000
6.19999980	-8.44242100	41.11097000	15.36663000
6.39999979	-9.55770200	41.11097000	15.74188000
6.59999978	-8.12377000	41.11097000	15.78494000
6.79999977	-4.93786900	41.11097000	15.78494000
6.99999975	-0.63668800	41.11097000	15.78494000
7.19999974	3.50393700	41.11097000	15.78494000
7.39999973	6.53112700	41.11097000	15.78494000
7.59999972	7.80511800	41.11097000	15.78494000
7.79999971	7.00848900	41.11097000	15.74188000
7.99999970	4.61921700	41.06791000	15.40969000
8.19999968	1.27399100	40.69267000	15.04675000
8.39999967	-1.91129400	39.99754000	15.40969000
8.59999966	-4.14124000	39.99754000	15.74188000
8.79999965	-5.25652100	40.69267000	15.74188000
8.99999964	-4.77854300	41.06791000	15.40969000
9.19999962	-3.34522600	41.11097000	15.04675000
9.39999961	-1.27399100	41.11097000	15.40969000
9.59999960	0.47736220	41.11097000	15.74188000
9.79999959	1.91129400	41.11097000	15.78494000
9.99999958	2.54859700	41.11097000	15.78494000
10.19999956	2.38927200	41.11097000	15.78494000
10.39999955	1.75196900	41.06791000	15.78494000
10.59999954	0.79601380	40.73573000	15.78494000
10.79999953	0.00000000	40.36663000	15.78494000
10.99999952	-0.63668800	40.73573000	15.78494000
11.19999951	-0.95533960	41.06791000	15.78494000
11.39999949	-0.95533960	41.11097000	15.78494000
11.59999948	-0.79601380	41.11097000	15.78494000
11.79999947	-0.47736220	41.06791000	15.78494000
11.99999946	-0.31803640	40.73573000	15.78494000
12.19999945	-0.15871060	40.36663000	15.78494000
12.39999943	-0.15871060	40.73573000	15.74188000
12.59999942	0.00000000	41.06791000	15.40969000
12.79999941	0.00000000	41.11097000	15.04675000
12.99999940	0.00000000	41.11097000	15.40969000
13.19999939	0.00000000	41.11097000	15.74188000
13.39999937	0.00000000	41.11097000	15.78494000
13.59999936	0.00000000	41.11097000	15.78494000
13.79999935	0.00000000	41.11097000	15.78494000
13.99999934	-0.15871060	41.11097000	15.78494000
14.19999933	-0.15871060	41.11097000	15.78494000
14.39999932	-0.15871060	41.11097000	15.78494000
14.59999930	-0.15871060	41.11097000	15.78494000
14.79999929	0.00000000	41.06791000	15.78494000
14.99999928	0.00000000	40.73573000	15.78494000
15.19999927	0.00000000	40.36663000	15.78494000
15.39999926	0.00000000	40.69267000	15.78494000
15.59999924	0.00000000	40.64345000	15.78494000
15.79999923	0.00000000	39.99754000	15.74188000
15.99999922	0.00000000	39.94832000	15.40969000
16.19999921	0.00000000	40.31742000	15.04675000
16.39999920	-0.15871060	40.32357000	15.40969000
16.59999919	-0.15871060	40.73573000	15.74188000
16.79999917	0.00000000	41.06791000	15.78494000
16.99999916	0.00000000	41.15403000	15.78494000
17.19999915	0.00000000	41.52928000	15.78494000
17.39999914	0.00000000	42.27362000	15.78494000
17.59999913	0.00000000	42.59965000	15.78494000
17.79999911	0.00000000	42.22441000	15.78494000
17.99999910	0.00000000	41.06791000	15.78494000
18.19999909	0.00000000	39.53002000	15.78494000
18.39999908	0.00000000	37.99213000	15.78494000
18.59999907	0.00000000	36.78642000	15.78494000
18.79999905	-0.15871060	35.99286000	15.78494000
18.99999904	0.00000000	35.25467000	15.78494000
19.19999903	0.00000000	35.38385000	15.78494000
19.39999902	0.00000000	37.29700000	15.78494000
19.59999901	0.00000000	40.77879000	15.74188000
19.79999900	0.00000000	44.64813000	15.40969000
19.99999898	0.00000000	48.50517000	15.04675000
20.19999897	0.00000000	51.15649000	15.40969000
20.39999896	0.00000000	51.53174000	15.74188000
20.59999895	0.00000000	49.53248000	15.78494000
20.79999894	0.00000000	44.83267000	15.78494000
20.99999892	0.00000000	37.85679000	15.78494000
21.19999891	-0.15871060	30.17347000	15.78494000
21.39999890	0.00000000	23.61589000	15.78494000
21.59999889	0.00000000	20.17101000	15.78494000
21.79999888	0.00000000	20.63238000	15.78494000
21.99999886	0.00000000	25.75664000	15.78494000
22.19999885	0.00000000	35.42692000	15.78494000
22.39999884	0.00000000	47.43479000	15.78494000
22.59999883	0.00000000	59.44266000	15.78494000
22.79999882	0.00000000	68.97761000	15.78494000
22.99999881	0.00000000	72.70546000	15.78494000
23.19999879	0.00000000	68.42396000	15.82800000
23.39999878	0.00000000	56.84055000	16.20325000
23.59999877	0.00000000	40.55733000	16.94759000
23.79999876	0.00000000	22.77928000	17.32283000
23.99999875	0.00000000	7.38188900	17.36589000
24.19999873	0.00000000	-1.41486200	17.32283000
24.39999872	0.00000000	-0.99655500	16.89837000
24.59999871	0.00000000	9.14124000	15.74188000
24.79999870	0.00000000	27.28839000	14.21014000
24.99999869	0.00000000	49.71087000	12.62918000
25.19999867	0.00000000	70.93381000	11.09744000
25.39999866	0.00000000	86.33734000	10.02707000
25.59999865	0.00000000	91.68306000	10.40231000
25.79999864	0.00000000	85.08243000	12.34621000
25.99999863	0.00000000	68.09793000	15.08981000
26.19999862	0.00000000	44.13755000	18.98991000
26.39999860	0.00000000	19.05758000	23.17298000
26.59999859	0.00000000	-1.41486200	26.24262000
26.79999858	0.00000000	-12.57997000	27.35605000
26.99999857	0.00000000	-11.41732000	25.77510000
27.19999856	0.00000000	1.65477300	21.45669000
27.39999854	0.00000000	23.28986000	14.85605000
27.59999853	0.00000000	48.41904000	6.77903500
27.79999852	0.00000000	71.58588000	-0.46751960
27.99999851	0.00000000	87.45078000	-4.69365100
28.19999850	0.00000000	92.47662000	-4.69365100
28.39999848	0.00000000	85.96210000	-0.42445860
28.59999847	0.00000000	69.35285000	7.42495000
28.79999846	0.00000000	47.01648000	18.29478000
28.99999845	0.00000000	24.17569000	30.60408000
29.19999844	0.00000000	5.97933100	40.92643000
29.39999843	0.00000000	-4.11540300	46.26599000
29.59999841	0.00000000	-4.15846400	44.69119000
29.79999840	0.00000000	5.42568800	36.18971000
29.99999839	0.00000000	21.61663000	22.61934000
30.19999838	0.00000000	40.60039000	6.40378900
30.39999837	0.00000000	58.42150000	-9.01205700
30.59999835	0.00000000	71.58588000	-19.75271000
30.79999834	0.00000000	77.44832000	-23.23450000
30.99999833	0.00000000	75.17224000	-18.22096000
31.19999832	0.00000000	65.90797000	-6.23154500
31.39999831	0.00000000	51.58095000	10.44537000
31.59999829	0.00000000	35.43307000	28.98007000
31.79999828	0.00000000	21.47515000	45.15256000
31.99999827	0.00000000	12.91215000	55.18577000
32.19999826	0.00000000	10.54380000	56.72367000
32.39999825	0.00000000	14.77608000	49.42790000
32.59999824	0.00000000	24.40330000	35.11319000
32.79999822	0.00000000	36.74335000	16.94759000
32.99999821	0.00000000	49.11417000	-1.58710600
33.19999820	0.00000000	58.37229000	-16.26476000
33.39999819	0.00000000	62.69685000	-23.97884000
33.59999818	0.00000000	61.53420000	-23.27756000
33.79999816	0.00000000	55.48105000	-14.40699000
33.99999815	0.00000000	46.60433000	-0.09227362
34.19999814	0.00000000	37.70915000	17.32283000
34.39999813	0.00000000	29.93971000	34.23351000
34.59999812	0.00000000	25.37524000	46.26599000
34.79999810	0.00000000	25.28912000	51.33489000
34.99999809	0.00000000	29.10310000	49.00959000
35.19999808	0.00000000	35.24852000	39.34547000
35.39999807	0.00000000	42.22441000	24.75394000
35.59999806	0.00000000	48.32677000	8.95669300
35.79999805	0.00000000	51.76550000	-4.18922200
35.99999803	0.00000000	51.07037000	-11.94636000
36.19999802	0.00000000	47.25640000	-13.15207000
36.39999801	0.00000000	41.85531000	-7.72022600
36.59999800	0.00000000	35.71604000	3.01427100
36.79999799	0.00000000	31.15157000	16.43701000
36.99999797	0.00000000	29.56447000	28.34030000
37.19999796	0.00000000	31.05930000	35.72219000
37.39999795	0.00000000	34.87328000	37.26009000
37.59999794	0.00000000	39.53002000	32.70177000
37.79999793	0.00000000	44.18061000	23.50517000
37.99999791	0.00000000	48.04380000	12.80758000
38.19999790	0.00000000	49.95078000	3.56791300
38.39999789	0.00000000	49.57554000	-1.40871000
38.59999788	0.00000000	46.88115000	-1.07652500
38.79999787	0.00000000	42.64886000	4.31225400
38.99999786	0.00000000	38.03519000	13.09670000
39.19999784	0.00000000	34.17815000	22.66240000
39.39999783	0.00000000	32.17273000	29.91511000
39.59999782	0.00000000	31.75443000	32.56643000
39.79999781	0.00000000	32.54798000	29.49680000
39.99999780	0.00000000	34.87328000	21.50590000
40.19999778	0.00000000	37.90600000	11.51575000
40.39999777	0.00000000	40.69267000	2.31299200
40.59999776	0.00000000	43.06717000	-3.81397600
40.79999775	0.00000000	45.38631000	-4.55831700
40.99999774	0.00000000	46.88115000	-0.00615157
41.19999772	0.00000000	46.92421000	8.49532500
41.39999771	0.00000000	45.81078000	18.85458000
41.59999770	0.00000000	44.22982000	28.47564000
41.79999769	0.00000000	42.22441000	34.56570000
41.99999768	0.00000000	39.53002000	35.34695000
42.19999767	0.00000000	36.83563000	30.42569000
42.39999765	0.00000000	34.87328000	21.96727000
42.59999764	0.00000000	33.66756000	12.34621000
42.79999763	0.00000000	33.29232000	3.52485200
42.99999762	0.00000000	33.71063000	-1.49483300
43.19999761	0.00000000	35.24852000	-2.00541300
43.39999759	0.00000000	37.57381000	1.06422200
43.59999758	0.00000000	39.90526000	6.86515700
43.79999757	0.00000000	42.22441000	14.16092000
43.99999756	0.00000000	43.80536000	21.08760000
44.19999755	0.00000000	44.64813000	25.73203000
44.39999753	0.00000000	45.38631000	27.35605000
44.59999752	0.00000000	45.38631000	26.24262000
44.79999751	0.00000000	44.64813000	23.12992000
44.99999750	0.00000000	43.85457000	18.52854000
45.19999749	0.00000000	42.64886000	13.55807000
45.39999748	0.00000000	41.06791000	10.07013000
45.59999746	0.00000000	39.06250000	8.44611200
45.79999745	0.00000000	36.27584000	8.44611200
45.99999744	0.00000000	32.87401000	9.93479300
46.19999743	0.00000000	29.85359000	12.30315000
46.39999742	0.00000000	29.10310000	15.00369000
46.59999740	0.00000000	30.59178000	18.06717000
46.79999739	0.00000000	33.75369000	19.97416000
46.99999738	0.00000000	38.45964000	20.48474000
47.19999737	0.00000000	44.27288000	20.43553000
47.39999736	0.00000000	50.08612000	19.59892000
47.59999734	0.00000000	54.65059000	17.27977000
47.79999733	0.00000000	56.50836000	14.25320000
47.99999732	0.00000000	54.18307000	11.55881000
48.19999731	0.00000000	48.41904000	9.98400600
48.39999730	0.00000000	40.60039000	9.56569900
48.59999729	0.00000000	31.75443000	9.98400600
48.79999727	0.00000000	24.08341000	11.60187000
48.99999726	0.00000000	20.21407000	14.62844000
49.19999725	0.00000000	20.63238000	18.11024000
49.39999724	0.00000000	25.66437000	20.81078000
49.59999723	0.00000000	34.54724000	22.71161000
49.79999721	0.00000000	44.55585000	22.66855000
49.99999720	0.00000000	53.80782000	20.39247000
50.19999719	0.00000000	59.57800000	16.94759000
50.39999718	0.00000000	60.37155000	13.04749000
50.59999717	0.00000000	56.50836000	9.60875900
50.79999715	0.00000000	48.36983000	7.28346400
50.99999714	0.00000000	38.03519000	6.90821800
51.19999713	0.00000000	28.40797000	8.44611200
51.39999712	0.00000000	22.26255000	11.55881000
51.59999711	0.00000000	21.05684000	15.78494000
51.79999710	0.00000000	24.87082000	20.01722000
51.99999708	0.00000000	32.17273000	23.08686000
52.19999707	0.00000000	41.01870000	24.24335000
52.39999706	0.00000000	49.06496000	23.08686000
52.59999705	0.00000000	53.72170000	20.01722000
52.79999704	0.00000000	54.14001000	15.78494000
52.99999702	0.00000000	50.69513000	11.60187000
53.19999701	0.00000000	44.18061000	8.86441900
53.39999700	0.00000000	36.87869000	8.07086500
53.59999699	0.00000000	30.72711000	8.82135800
53.79999698	0.00000000	27.28839000	11.14050000
53.99999696	0.00000000	28.03272000	14.16092000
54.19999695	0.00000000	32.22195000	16.85531000
54.39999694	0.00000000	38.36737000	18.39321000
54.59999693	0.00000000	44.88189000	18.43627000
54.79999692	0.00000000	49.48942000	17.27362000
54.99999691	0.00000000	51.02116000	15.40969000
55.19999689	0.00000000	49.11417000	13.46580000
55.39999688	0.00000000	44.13755000	12.38927000
55.59999687	0.00000000	38.03519000	12.39542000
55.79999686	0.00000000	32.64025000	14.29626000
55.99999685	0.00000000	29.52141000	16.90453000
56.19999683	0.00000000	29.14616000	18.85458000
56.39999682	0.00000000	31.47761000	20.01722000
56.59999681	0.00000000	36.41117000	19.97416000
56.79999680	0.00000000	41.80610000	18.39321000
56.99999679	0.00000000	46.09375000	15.27436000
57.19999677	0.00000000	49.15723000	11.09129000
57.39999676	0.00000000	49.48942000	7.33267600
57.59999675	0.00000000	46.88115000	5.79478300
57.79999674	0.00000000	42.64886000	6.95743000
57.99999673	0.00000000	38.03519000	10.44537000
58.19999672	0.00000000	34.17815000	15.83415000
58.39999670	0.00000000	32.21579000	21.54897000
58.59999669	0.00000000	32.17273000	25.82431000
58.79999668	0.00000000	33.75369000	27.73130000
58.99999667	0.00000000	36.82948000	26.93774000
59.19999666	0.00000000	40.64345000	23.03765000
59.39999664	0.00000000	43.71924000	16.90453000
59.59999663	0.00000000	45.30019000	9.98400600
59.79999662	0.00000000	45.30019000	4.17691900
59.99999661	0.00000000	43.76230000	0.78124990
60.19999660	0.00000000	41.11097000	0.83046260
60.39999658	0.00000000	38.41658000	5.42568800
60.59999657	0.00000000	36.46038000	12.67840000
60.79999656	0.00000000	35.29773000	20.39247000
60.99999655	0.00000000	35.34079000	26.93774000
61.19999654	0.00000000	36.87869000	30.42569000
61.39999653	0.00000000	39.48696000	30.42569000
61.59999651	0.00000000	41.80610000	26.89468000
61.79999650	0.00000000	42.97490000	19.97416000
61.99999649	0.00000000	43.38705000	11.55881000
62.19999648	0.00000000	42.55659000	4.26304100
62.39999647	0.00000000	40.69267000	-0.04921259
62.59999645	0.00000000	38.36737000	-0.84276570
62.79999644	0.00000000	36.46038000	1.52559000
62.99999643	0.00000000	35.29773000	7.33267600
63.19999642	0.00000000	35.34079000	15.32357000
63.39999641	0.00000000	36.83563000	22.61934000
63.59999639	0.00000000	39.15477000	27.31299000
63.79999638	0.00000000	41.44316000	28.93701000
63.99999637	0.00000000	43.38705000	27.78051000
64.19999636	0.00000000	44.13755000	24.29257000
64.39999635	0.00000000	43.76230000	18.85458000
64.59999634	0.00000000	42.18134000	12.72146000
64.79999632	0.00000000	39.53002000	7.33267600
64.99999631	0.00000000	36.87869000	4.21998000
65.19999630	0.00000000	35.34079000	3.75246000
65.39999629	0.00000000	35.29773000	5.29035400
65.59999628	0.00000000	36.41117000	8.35998900
65.79999626	0.00000000	37.99213000	12.21087000
65.99999625	0.00000000	39.90526000	15.74188000
66.19999624	0.00000000	41.80610000	18.89764000
66.39999623	0.00000000	42.55659000	21.59203000
66.59999622	0.00000000	42.18134000	23.12992000
66.79999620	0.00000000	40.64345000	23.17298000
66.99999619	0.00000000	38.36737000	22.05955000
67.19999618	0.00000000	36.50344000	20.52780000
67.39999617	0.00000000	35.71604000	18.85458000
67.59999616	0.00000000	36.50344000	16.48622000
67.79999615	0.00000000	38.41658000	13.00443000
67.99999613	0.00000000	41.11097000	9.55954600
68.19999612	0.00000000	43.76230000	6.82209600
68.39999611	0.00000000	45.30019000	5.29035400
68.59999610	0.00000000	45.30019000	5.33341500
68.79999609	0.00000000	43.71924000	7.28346400
68.99999607	0.00000000	40.60039000	11.18356000
69.19999606	0.00000000	36.41117000	16.20325000
69.39999605	0.00000000	32.54798000	21.63509000
69.59999604	0.00000000	30.26575000	26.19955000
69.79999603	0.00000000	29.89665000	28.51870000
69.99999601	0.00000000	32.22195000	27.73130000
70.19999600	0.00000000	36.45423000	24.29257000
70.39999599	0.00000000	41.52928000	18.85458000
70.59999598	0.00000000	46.92421000	12.67224000
70.79999597	0.00000000	51.11343000	6.86515700
70.99999596	0.00000000	52.60211000	2.68208600
71.19999594	0.00000000	50.69513000	1.48253000
71.39999593	0.00000000	45.67544000	3.37721400
71.59999592	0.00000000	39.15477000	7.24040300
71.79999591	0.00000000	32.54798000	12.67224000
71.99999590	0.00000000	27.52214000	18.39321000
72.19999588	0.00000000	24.82160000	22.61934000
72.39999587	0.00000000	25.24606000	24.24335000
72.59999586	0.00000000	29.10310000	23.50517000
72.79999585	0.00000000	35.24852000	21.22293000
72.99999584	0.00000000	42.22441000	17.74114000
73.19999582	0.00000000	48.36983000	14.34547000
73.39999581	0.00000000	52.27608000	11.97711000
73.59999580	0.00000000	53.02657000	11.18356000
73.79999579	0.00000000	50.73819000	11.55881000
73.99999578	0.00000000	45.71850000	13.04749000
74.19999577	0.00000000	39.57308000	14.90526000
74.39999575	0.00000000	33.75369000	15.64960000
74.59999574	0.00000000	29.52141000	15.32357000
74.79999573	0.00000000	27.94045000	14.16092000
74.99999572	0.00000000	29.05389000	12.62918000
75.19999571	0.00000000	32.12967000	11.14050000
75.39999569	0.00000000	36.36811000	10.44537000
75.59999568	0.00000000	40.64345000	11.60187000
75.79999567	0.00000000	44.13755000	14.29626000
75.99999566	0.00000000	46.41363000	17.74114000
76.19999565	0.00000000	46.46284000	21.22293000
76.39999563	0.00000000	44.60506000	23.50517000
76.59999562	0.00000000	42.31668000	24.24335000
76.79999561	0.00000000	39.94832000	22.61934000
76.99999560	0.00000000	38.04134000	18.43627000
77.19999559	0.00000000	36.87869000	13.04749000
77.39999558	0.00000000	36.83563000	8.02780400
77.59999556	0.00000000	37.57381000	4.17076700
77.79999555	0.00000000	38.32431000	2.63902500
77.99999554	0.00000000	39.06250000	3.79552100
78.19999553	0.00000000	39.06250000	7.33267600
78.39999552	0.00000000	38.36737000	13.09670000
78.59999550	0.00000000	37.99213000	19.59892000
78.79999549	0.00000000	37.94907000	24.61860000
78.99999548	0.00000000	38.04134000	27.35605000
79.19999547	0.00000000	38.83489000	27.35605000
79.39999546	0.00000000	40.73573000	24.66781000
79.59999544	0.00000000	42.59965000	20.01722000
79.79999543	0.00000000	43.80536000	14.25320000
79.99999542	0.00000000	44.13755000	8.86441900
80.19999541	0.00000000	43.34399000	5.37647600
80.39999540	0.00000000	41.06791000	4.12770700
80.59999539	0.00000000	38.36737000	4.91510800
80.79999537	0.00000000	36.03592000	7.24040300
80.99999536	0.00000000	34.08588000	11.09129000
81.19999535	0.00000000	33.37844000	15.27436000
81.39999534	0.00000000	34.08588000	18.43627000
81.59999533	0.00000000	36.03592000	20.43553000
81.79999531	0.00000000	38.36737000	21.64124000
81.99999530	0.00000000	41.06791000	21.96727000
82.19999529	0.00000000	43.34399000	21.22293000
82.39999528	0.00000000	44.13755000	19.32210000
82.59999527	0.00000000	43.80536000	17.36589000
82.79999525	0.00000000	42.59965000	15.32357000
82.99999524	0.00000000	40.69267000	12.62918000
83.19999523	0.00000000	38.36737000	9.93479300
83.39999522	0.00000000	36.50344000	8.02780400
83.59999521	0.00000000	35.67298000	7.19734200
83.79999520	0.00000000	36.03592000	7.60949800
83.99999518	0.00000000	36.78642000	8.82135800
84.19999517	0.00000000	37.94907000	11.55881000
84.39999516	0.00000000	39.06250000	15.36663000
84.59999515	0.00000000	39.48696000	18.85458000
84.79999514	0.00000000	39.53002000	21.59203000
84.99999512	0.00000000	39.53002000	23.12992000
85.19999511	0.00000000	39.53002000	23.08686000
85.39999510	0.00000000	39.53002000	21.13066000
85.59999509	0.00000000	39.57308000	17.32283000
85.79999508	0.00000000	39.94832000	13.09670000
85.99999506	0.00000000	40.69267000	9.55954600
86.19999505	0.00000000	41.01870000	6.82209600
86.39999504	0.00000000	40.64345000	5.37647600
86.59999503	0.00000000	39.53002000	6.17618100
86.79999502	0.00000000	38.36737000	9.60875900
86.99999501	0.00000000	37.53075000	14.21014000
87.19999499	0.00000000	36.36811000	18.81152000
87.39999498	0.00000000	35.29773000	22.29331000
87.59999497	0.00000000	35.34079000	23.46210000
87.79999496	0.00000000	36.83563000	22.71161000
87.99999495	0.00000000	39.11171000	20.01722000
88.19999493	0.00000000	41.01870000	16.16018000
88.39999492	0.00000000	42.22441000	12.29700000
88.59999491	0.00000000	42.59965000	8.82135800
88.79999490	0.00000000	42.22441000	6.95743000
88.99999489	0.00000000	41.06791000	7.33267600
89.19999487	0.00000000	39.53002000	10.02707000
89.39999486	0.00000000	37.94907000	14.21014000
89.59999485	0.00000000	36.41117000	18.43627000
89.79999484	0.00000000	35.29773000	21.50590000
89.99999483	0.00000000	35.29773000	22.66240000
90.19999482	0.00000000	36.41117000	21.50590000
90.39999480	0.00000000	37.94907000	18.43627000
90.59999479	0.00000000	39.48696000	14.21014000
90.79999478	0.00000000	40.64345000	9.98400600
90.99999477	0.00000000	41.06791000	6.95743000
91.19999476	0.00000000	41.06791000	6.17002900
91.39999474	0.00000000	40.69267000	8.07086500
91.59999473	0.00000000	39.94832000	11.51575000
91.79999472	0.00000000	39.57308000	15.78494000
91.99999471	0.00000000	39.53002000	19.97416000
92.19999470	0.00000000	39.53002000	22.66855000
92.39999468	0.00000000	39.48696000	23.08686000
92.59999467	0.00000000	39.11171000	21.46284000
92.79999466	0.00000000	38.36737000	17.64272000
92.99999465	0.00000000	37.94907000	12.30930000
93.19999464	0.00000000	37.53075000	8.12007800
93.39999463	0.00000000	36.78642000	5.75172200
93.59999461	0.00000000	36.41117000	5.80093500
93.79999460	0.00000000	36.46038000	8.44611200
93.99999459	0.00000000	37.25394000	12.67224000
94.19999458	0.00000000	39.15477000	17.27362000
94.39999457	0.00000000	41.06791000	21.13066000
94.59999455	0.00000000	42.64886000	23.03765000
94.79999454	0.00000000	43.80536000	22.66855000
94.99999453	0.00000000	44.13755000	19.97416000
95.19999452	0.00000000	43.34399000	15.78494000
95.39999451	0.00000000	41.01870000	11.55881000
95.59999449	0.00000000	37.94907000	8.44611200
95.79999448	0.00000000	34.83022000	6.90821800
95.99999447	0.00000000	32.12967000	7.28346400
96.19999446	0.00000000	30.63484000	9.60875900
96.39999445	0.00000000	31.01009000	13.04749000
96.59999444	0.00000000	33.33538000	16.90453000
96.79999442	0.00000000	36.82948000	19.92495000
96.99999441	0.00000000	41.06791000	21.13066000
97.19999440	0.00000000	44.92495000	20.39247000
97.39999439	0.00000000	47.25640000	18.52854000
97.59999438	0.00000000	47.99458000	16.16018000
97.79999436	0.00000000	46.46284000	13.87795000
97.99999435	0.00000000	43.02411000	11.93405000
98.19999434	0.00000000	39.15477000	11.18356000
98.39999433	0.00000000	35.24852000	11.51575000
98.59999432	0.00000000	32.17273000	12.67224000
98.79999430	0.00000000	30.59178000	14.16092000
98.99999429	0.00000000	30.59178000	15.32357000
99.19999428	0.00000000	32.17273000	15.74188000
99.39999427	0.00000000	35.24852000	15.78494000
99.59999426	0.00000000	39.11171000	15.78494000
99.79999425	0.00000000	42.59965000	15.78494000
99.99999423	0.00000000	45.34325000	15.82800000
100.19999422	0.00000000	46.88115000	16.20325000
100.39999421	0.00000000	46.88115000	16.94759000
100.59999420	0.00000000	45.30019000	17.27362000
100.79999419	0.00000000	42.27362000	16.89837000
100.99999417	0.00000000	38.78568000	15.74188000
101.19999416	0.00000000	36.03592000	14.21014000
101.39999415	0.00000000	33.66756000	12.67224000
101.59999414	0.00000000	32.17273000	11.46653000
101.79999413	0.00000000	32.17273000	10.72219000
101.99999411	0.00000000	33.66756000	10.40231000
102.19999410	0.00000000	35.99286000	11.55881000
102.39999409	0.00000000	38.32431000	13.83489000
102.59999408	0.00000000	40.69267000	16.20325000
102.79999407	0.00000000	42.55659000	18.85458000
102.99999406	0.00000000	43.38705000	20.75541000
103.19999404	0.00000000	43.02411000	20.76772000
103.39999403	0.00000000	42.27362000	19.64198000
103.59999402	0.00000000	41.01870000	17.27977000
103.79999401	0.00000000	39.11171000	14.21014000
103.99999400	0.00000000	36.83563000	11.14050000
104.19999398	0.00000000	35.29773000	8.86441900
104.39999397	0.00000000	34.83022000	8.44611200
104.59999396	0.00000000	34.83022000	9.55954600
104.79999395	0.00000000	35.25467000	11.51575000
104.99999394	0.00000000	36.41117000	14.21014000
105.19999392	0.00000000	37.94907000	16.90453000
105.39999391	0.00000000	39.48696000	18.81152000
105.59999390	0.00000000	40.64345000	19.59892000
105.79999389	0.00000000	41.01870000	18.81152000
105.99999388	0.00000000	40.64345000	16.94759000
106.19999387	0.00000000	39.53002000	14.62844000
106.39999385	0.00000000	38.36737000	12.72146000
106.59999384	0.00000000	37.61687000	11.51575000
106.79999383	0.00000000	37.20472000	11.14050000
106.99999382	0.00000000	37.61687000	11.55881000
107.19999381	0.00000000	38.32431000	13.09055000
107.39999379	0.00000000	39.15477000	15.32357000
107.59999378	0.00000000	39.86220000	16.85531000
107.79999377	0.00000000	40.27436000	17.27362000
107.99999376	0.00000000	39.86220000	16.89837000
108.19999375	0.00000000	39.15477000	15.74188000
108.39999374	0.00000000	38.32431000	14.25320000
108.59999372	0.00000000	37.57381000	13.04749000
108.79999371	0.00000000	36.78642000	12.25394000
108.99999370	0.00000000	36.46038000	11.51575000
109.19999369	0.00000000	36.78642000	11.55881000
109.39999368	0.00000000	37.61687000	12.72146000
109.59999366	0.00000000	38.74261000	14.58538000
109.79999365	0.00000000	40.27436000	16.48622000
109.99999364	0.00000000	41.01870000	17.27362000
110.19999363	0.00000000	41.06791000	17.32283000
110.39999362	0.00000000	40.64345000	16.89837000
110.59999360	0.00000000	39.48696000	15.74188000
110.79999359	0.00000000	37.99213000	14.21014000
110.99999358	0.00000000	36.83563000	12.67224000
111.19999357	0.00000000	36.41117000	11.55881000
111.39999356	0.00000000	36.36811000	11.51575000
111.59999355	0.00000000	36.41117000	12.25394000
111.79999353	0.00000000	36.83563000	13.00443000
111.99999352	0.00000000	37.94907000	13.83489000
112.19999351	0.00000000	39.11171000	14.58538000
112.39999350	0.00000000	39.90526000	15.40969000
112.59999349	0.00000000	40.64345000	16.11712000
112.79999347	0.00000000	40.64345000	16.52928000
112.99999346	0.00000000	39.90526000	16.16018000
113.19999345	0.00000000	39.15477000	15.78494000
113.39999344	0.00000000	38.36737000	15.36663000
113.59999343	0.00000000	37.99213000	14.62844000
113.79999341	0.00000000	37.90600000	14.25320000
113.99999340	0.00000000	37.57381000	14.21014000
114.19999339	0.00000000	37.20472000	14.16708000
114.39999338	0.00000000	37.61687000	13.79183000
114.59999337	0.00000000	38.32431000	13.04749000
114.79999336	0.00000000	39.11171000	12.67224000
114.99999334	0.00000000	39.48696000	12.62918000
115.19999333	0.00000000	39.53002000	12.67224000
115.39999332	0.00000000	39.53002000	13.04749000
115.59999331	0.00000000	39.48696000	13.83489000
115.79999330	0.00000000	39.11171000	14.58538000
115.99999328	0.00000000	38.36737000	15.40969000
116.19999327	0.00000000	37.94907000	16.16018000
116.39999326	0.00000000	37.57381000	16.94759000
116.59999325	0.00000000	37.20472000	17.27362000
116.79999324	0.00000000	37.57381000	16.89837000
116.99999322	0.00000000	37.94907000	15.78494000
117.19999321	0.00000000	38.36737000	14.62844000
117.39999320	0.00000000	39.11171000	13.83489000
117.59999319	0.00000000	39.53002000	13.04749000
117.79999318	0.00000000	39.94832000	12.67224000
117.99999317	0.00000000	40.69267000	12.62918000
118.19999315	0.00000000	41.01870000	12.67224000
118.39999314	0.00000000	40.64345000	13.09670000
118.59999313	0.00000000	39.48696000	14.21014000
118.79999312	0.00000000	37.99213000	15.32357000
118.99999311	0.00000000	36.78642000	15.74188000
119.19999309	0.00000000	36.03592000	15.78494000
119.39999308	0.00000000	35.62377000	15.78494000
119.59999307	0.00000000	36.03592000	15.78494000
119.79999306	0.00000000	36.78642000	15.78494000
119.99999305	0.00000000	37.94907000	15.74188000
120.19999303	0.00000000	39.11171000	15.36663000
120.39999302	0.00000000	39.90526000	14.62844000
120.59999301	0.00000000	40.64345000	14.21014000
120.79999300	0.00000000	40.69267000	13.83489000
120.99999299	0.00000000	40.32357000	13.46580000
121.19999298	0.00000000	40.27436000	13.83489000
121.39999296	0.00000000	39.43774000	14.16708000
121.59999295	0.00000000	37.99213000	14.21014000
121.79999294	0.00000000	36.78642000	14.21014000
121.99999293	0.00000000	36.03592000	14.25320000
122.19999292	0.00000000	35.62377000	14.62844000
122.39999290	0.00000000	36.03592000	15.36663000
122.59999289	0.00000000	36.74335000	15.74188000
122.79999288	0.00000000	37.53075000	15.78494000
122.99999287	0.00000000	37.94907000	15.74188000
123.19999286	0.00000000	38.41658000	15.40969000
123.39999284	0.00000000	39.48696000	15.00369000
123.59999283	0.00000000	40.22515000	14.99139000
123.79999282	0.00000000	39.90526000	14.58538000
123.99999281	0.00000000	39.53002000	14.25320000
124.19999280	0.00000000	39.11171000	14.16708000
124.39999279	0.00000000	38.36737000	13.83489000
124.59999277	0.00000000	37.94907000	13.46580000
124.79999276	0.00000000	37.53075000	13.83489000
124.99999275	0.00000000	36.78642000	14.16708000
125.19999274	0.00000000	36.41117000	14.25320000
125.39999273	0.00000000	36.36811000	14.62844000
125.59999271	0.00000000	36.41117000	15.36663000
125.79999270	0.00000000	36.83563000	15.74188000
125.99999269	0.00000000	37.94907000	15.78494000
126.19999268	0.00000000	39.11171000	15.78494000
126.39999267	0.00000000	39.90526000	15.78494000
126.59999265	0.00000000	40.64345000	15.74188000
126.79999264	0.00000000	40.64345000	15.36663000
126.99999263	0.00000000	39.90526000	14.62844000
127.19999262	0.00000000	39.15477000	14.25320000
127.39999261	0.00000000	38.32431000	14.21014000
127.59999260	0.00000000	37.53075000	14.16708000
127.79999258	0.00000000	36.41117000	13.83489000
127.99999257	0.00000000	35.67298000	13.46580000
128.19999256	0.00000000	36.03592000	13.83489000
128.39999255	0.00000000	36.78642000	14.16708000
128.59999254	0.00000000	37.94907000	14.21014000
128.79999252	0.00000000	39.11171000	14.21014000
128.99999251	0.00000000	39.86220000	14.21014000
129.19999250	0.00000000	40.27436000	14.21014000
129.39999249	0.00000000	39.86220000	14.21014000
129.59999248	0.00000000	39.15477000	14.21014000
129.79999246	0.00000000	38.28125000	14.21014000
129.99999245	0.00000000	37.19857000	14.21014000
130.19999244	0.00000000	36.04823000	14.21014000
130.39999243	0.00000000	36.03592000	14.25320000
130.59999242	0.00000000	36.36811000	14.58538000
130.79999241	0.00000000	36.83563000	14.99139000
130.99999239	0.00000000	37.94907000	15.00369000
131.19999238	0.00000000	39.06250000	15.36663000
131.39999237	0.00000000	39.48696000	15.32357000
131.59999236	0.00000000	39.53002000	14.62844000
131.79999235	0.00000000	39.48696000	14.21014000
131.99999233	0.00000000	39.11171000	13.83489000
132.19999232	0.00000000	38.36737000	13.46580000
132.39999231	0.00000000	37.94907000	13.83489000
132.59999230	0.00000000	37.57381000	14.16708000
132.79999229	0.00000000	37.20472000	14.21014000
132.99999227	0.00000000	37.57381000	14.25320000
133.19999226	0.00000000	37.90600000	14.62844000
133.39999225	0.00000000	37.99213000	15.40969000
133.59999224	0.00000000	38.36737000	16.11712000
133.79999223	0.00000000	39.06250000	16.52928000
133.99999222	0.00000000	39.06250000	16.11712000
134.19999220	0.00000000	38.36737000	15.40969000
134.39999219	0.00000000	37.99213000	14.58538000
134.59999218	0.00000000	37.94907000	13.83489000
134.79999217	0.00000000	37.99213000	13.04749000
134.99999216	0.00000000	38.36737000	12.67224000
135.19999214	0.00000000	39.11171000	12.67224000
135.39999213	0.00000000	39.48696000	13.04749000
135.59999212	0.00000000	39.48696000	13.79183000
135.79999211	0.00000000	39.11171000	14.21014000
135.99999210	0.00000000	38.36737000	14.62844000
136.19999208	0.00000000	37.94907000	15.36663000
136.39999207	0.00000000	37.53075000	15.74188000
136.59999206	0.00000000	36.78642000	15.74188000
136.79999205	0.00000000	36.41117000	15.36663000
136.99999204	0.00000000	36.41117000	14.62844000
137.19999203	0.00000000	36.78642000	14.25320000
137.39999201	0.00000000	37.57381000	14.16708000
137.59999200	0.00000000	38.32431000	13.79183000
137.79999199	0.00000000	39.11171000	13.04749000
137.99999198	0.00000000	39.48696000	12.67224000
138.19999197	0.00000000	39.48696000	12.67224000
138.39999195	0.00000000	39.06250000	13.04749000
138.59999194	0.00000000	37.94907000	13.79183000
138.79999193	0.00000000	36.83563000	14.16708000
138.99999192	0.00000000	36.41117000	14.21014000
139.19999191	0.00000000	36.36811000	14.25320000
139.39999189	0.00000000	36.41117000	14.62844000
139.59999188	0.00000000	36.78642000	15.36663000
139.79999187	0.00000000	37.53075000	15.69267000
139.99999186	0.00000000	37.94907000	15.36663000
140.19999185	0.00000000	38.36737000	14.62844000
140.39999184	0.00000000	39.06250000	14.21014000
140.59999182	0.00000000	39.06250000	13.79183000
140.79999181	0.00000000	38.36737000	13.04749000
140.99999180	0.00000000	37.94907000	12.67224000
141.19999179	0.00000000	37.53075000	12.62918000
141.39999178	0.00000000	36.78642000	12.67224000
141.59999176	0.00000000	36.46038000	13.09670000
141.79999175	0.00000000	36.78642000	14.21014000
141.99999174	0.00000000	37.53075000	15.32357000
142.19999173	0.00000000	37.90600000	15.74188000
142.39999172	0.00000000	37.99213000	15.78494000
142.59999170	0.00000000	38.32431000	15.78494000
142.79999169	0.00000000	38.69341000	15.74188000
142.99999168	0.00000000	38.32431000	15.32357000
143.19999167	0.00000000	37.99213000	14.21014000
143.39999166	0.00000000	37.94907000	13.09670000
143.59999165	0.00000000	37.94907000	12.67224000
143.79999163	0.00000000	37.94907000	12.62918000
143.99999162	0.00000000	37.94907000	12.67224000
144.19999161	0.00000000	37.94907000	13.04749000
144.39999160	0.00000000	37.99213000	13.83489000
144.59999159	0.00000000	38.36737000	14.58538000
144.79999157	0.00000000	39.06250000	15.36663000
144.99999156	0.00000000	39.06250000	15.74188000
145.19999155	0.00000000	38.36737000	15.78494000
145.39999154	0.00000000	37.99213000	15.74188000
145.59999153	0.00000000	37.94907000	15.36663000
145.79999151	0.00000000	37.94907000	14.62844000
145.99999150	0.00000000	37.94907000	14.21014000
146.19999149	0.00000000	37.94907000	13.79183000
146.39999148	0.00000000	37.94907000	13.09670000
146.59999147	0.00000000	37.94907000	13.09670000
146.79999146	0.00000000	37.99213000	13.79183000
146.99999144	0.00000000	38.32431000	14.16708000
147.19999143	0.00000000	38.69341000	14.25320000
147.39999142	0.00000000	38.32431000	14.62844000
147.59999141	0.00000000	37.99213000	15.32357000
147.79999140	0.00000000	37.94907000	15.32357000
147.99999138	0.00000000	37.94907000	14.62844000
148.19999137	0.00000000	37.90600000	14.25320000
148.39999136	0.00000000	37.57381000	14.21014000
148.59999135	0.00000000	37.20472000	14.21014000
148.79999134	0.00000000	37.53075000	14.16708000
148.99999132	0.00000000	37.53075000	13.79183000
149.19999131	0.00000000	37.20472000	13.04749000
149.39999130	0.00000000	37.61687000	12.72146000
149.59999129	0.00000000	38.28125000	13.00443000
149.79999128	0.00000000	38.69341000	13.41658000
149.99999127	0.00000000	38.32431000	13.42274000
150.19999125	0.00000000	37.99213000	13.83489000
150.39999124	0.00000000	37.94907000	14.16708000
150.59999123	0.00000000	37.90600000	14.21014000
150.79999122	0.00000000	37.53075000	14.25320000
150.99999121	0.00000000	36.78642000	14.58538000
151.19999119	0.00000000	36.46038000	14.94833000
151.39999118	0.00000000	36.78642000	14.58538000
151.59999117	0.00000000	37.53075000	14.25320000
151.79999116	0.00000000	37.90600000	14.16708000
151.99999115	0.00000000	37.94907000	13.83489000
152.19999113	0.00000000	37.94907000	13.46580000
152.39999112	0.00000000	37.94907000	13.83489000
152.59999111	0.00000000	37.99213000	14.16708000
152.79999110	0.00000000	38.32431000	14.21014000
152.99999109	0.00000000	38.69341000	14.21014000
153.19999108	0.00000000	38.28125000	14.21014000
153.39999106	0.00000000	37.61687000	14.21014000
153.59999105	0.00000000	37.16166000	14.21014000
153.79999104	0.00000000	37.15551000	14.21014000
153.99999103	0.00000000	36.74335000	14.21014000
154.19999102	0.00000000	36.41117000	14.21014000
154.39999100	0.00000000	36.36811000	14.21014000
154.59999099	0.00000000	36.36811000	14.21014000
154.79999098	0.00000000	36.41117000	14.21014000
154.99999097	0.00000000	36.78642000	14.16708000
155.19999096	0.00000000	37.53075000	13.83489000
155.39999094	0.00000000	37.94907000	13.46580000
155.59999093	0.00000000	38.32431000	13.83489000
155.79999092	0.00000000	38.69341000	14.16708000
155.99999091	0.00000000	38.32431000	14.21014000
156.19999090	0.00000000	37.99213000	14.21014000
156.39999089	0.00000000	37.90600000	14.25320000
156.59999087	0.00000000	37.53075000	14.62844000
156.79999086	0.00000000	36.78642000	15.36663000
156.99999085	0.00000000	36.41117000	15.74188000
157.19999084	0.00000000	36.32505000	15.69267000
157.39999083	0.00000000	36.03592000	15.03445000
157.59999081	0.00000000	36.04823000	14.25935000
157.79999080	0.00000000	37.15551000	14.61614000
157.99999079	0.00000000	37.85679000	14.49311000
158.19999078	0.00000000	37.94907000	13.83489000
158.39999077	0.00000000	37.94907000	13.09670000
158.59999075	0.00000000	37.94907000	13.04749000
158.79999074	0.00000000	37.94907000	13.41658000
158.99999073	0.00000000	37.94907000	13.42274000
159.19999072	0.00000000	37.94907000	13.83489000
159.39999071	0.00000000	37.94907000	14.21014000
159.59999070	0.00000000	37.90600000	14.62844000
159.79999068	0.00000000	37.53075000	15.36663000
159.99999067	0.00000000	36.78642000	15.74188000
160.19999066	0.00000000	36.46038000	15.78494000
160.39999065	0.00000000	36.78642000	15.74188000
160.59999064	0.00000000	37.53075000	15.36663000
160.79999062	0.00000000	37.90600000	14.62844000
160.99999061	0.00000000	37.94907000	14.21014000
161.19999060	0.00000000	37.94907000	13.83489000
161.39999059	0.00000000	37.94907000	13.46580000
161.59999058	0.00000000	37.99213000	13.83489000
161.79999056	0.00000000	38.32431000	14.16708000
161.99999055	0.00000000	38.64419000	14.21014000
162.19999054	0.00000000	37.94907000	14.21014000
162.39999053	0.00000000	37.25394000	14.25320000
162.59999052	0.00000000	37.57381000	14.58538000
162.79999051	0.00000000	37.90600000	14.94833000
162.99999049	0.00000000	37.90600000	14.58538000
163.19999048	0.00000000	37.53075000	14.25320000
163.39999047	0.00000000	36.78642000	14.21014000
163.59999046	0.00000000	36.41117000	14.21014000
163.79999045	0.00000000	36.36811000	14.21014000
163.99999043	0.00000000	36.41117000	14.21014000
164.19999042	0.00000000	36.78642000	14.16708000
164.39999041	0.00000000	37.53075000	13.83489000
164.59999040	0.00000000	37.90600000	13.46580000
164.79999039	0.00000000	37.94907000	13.83489000
164.99999037	0.00000000	37.94907000	14.16708000
165.19999036	0.00000000	37.94907000	14.21014000
165.39999035	0.00000000	37.94907000	14.21014000
165.59999034	0.00000000	37.94907000	14.21014000
165.79999033	0.00000000	37.90600000	14.21014000
165.99999032	0.00000000	37.57381000	14.21014000
166.19999030	0.00000000	37.20472000	14.21014000
166.39999029	0.00000000	37.53075000	14.21014000
166.59999028	0.00000000	37.48154000	14.21014000
166.79999027	0.00000000	36.78642000	14.21014000
166.99999026	0.00000000	36.46038000	14.21014000
167.19999024	0.00000000	36.74335000	14.21014000
167.39999023	0.00000000	37.15551000	14.21014000
167.59999022	0.00000000	37.16166000	14.21014000
167.79999021	0.00000000	37.57381000	14.21014000
167.99999020	0.00000000	37.90600000	14.16708000
168.19999018	0.00000000	37.94907000	13.83489000
168.39999017	0.00000000	37.94907000	13.46580000
168.59999016	0.00000000	37.94907000	13.83489000
168.79999015	0.00000000	37.94907000	14.16708000
168.99999014	0.00000000	37.90600000	14.21014000
169.19999013	0.00000000	37.53075000	14.21014000
169.39999011	0.00000000	36.78642000	14.21014000
169.59999010	0.00000000	36.41117000	14.21014000
169.79999009	0.00000000	36.41117000	14.21014000
169.99999008	0.00000000	36.74335000	14.21014000
170.19999007	0.00000000	37.11245000	14.21014000
170.39999005	0.00000000	36.78642000	14.21014000
170.59999004	0.00000000	36.83563000	14.21014000
170.79999003	0.00000000	37.53075000	14.21014000
170.99999002	0.00000000	37.90600000	14.21014000
171.19999001	0.00000000	37.94907000	14.21014000
171.39998999	0.00000000	37.94907000	14.21014000
171.59998998	0.00000000	37.94907000	14.21014000
171.79998997	0.00000000	37.94907000	14.21014000
171.99998996	0.00000000	37.94907000	14.21014000
172.19998995	0.00000000	37.94907000	14.21014000
172.39998994	0.00000000	37.90600000	14.21014000
172.59998992	0.00000000	37.57381000	14.21014000
172.79998991	0.00000000	37.20472000	14.21014000
172.99998990	0.00000000	37.53075000	14.21014000
173.19998989	0.00000000	37.53075000	14.21014000
173.39998988	0.00000000	37.20472000	14.21014000
173.59998986	0.00000000	37.57381000	14.21014000
173.79998985	0.00000000	37.94907000	14.21014000
173.99998984	0.00000000	38.28125000	14.21014000
174.19998983	0.00000000	38.31816000	14.21014000
174.39998982	0.00000000	37.57997000	14.21014000
174.59998980	0.00000000	37.57381000	14.21014000
174.79998979	0.00000000	37.48154000	14.21014000
174.99998978	0.00000000	36.78642000	14.21014000
175.19998977	0.00000000	36.41117000	14.21014000
175.39998976	0.00000000	36.41117000	14.21014000
175.59998975	0.00000000	36.74335000	14.21014000
175.79998973	0.00000000	37.15551000	14.21014000
175.99998972	0.00000000	37.11860000	14.21014000
176.19998971	0.00000000	37.15551000	14.21014000
176.39998970	0.00000000	36.74335000	14.21014000
176.59998969	0.00000000	36.46038000	14.21014000
176.79998967	0.00000000	36.78642000	14.21014000
176.99998966	0.00000000	37.53075000	14.21014000
177.19998965	0.00000000	37.90600000	14.21014000
177.39998964	0.00000000	37.90600000	14.21014000
177.59998963	0.00000000	37.53075000	14.21014000
177.79998961	0.00000000	36.78642000	14.16708000
177.99998960	0.00000000	36.41117000	13.83489000
178.19998959	0.00000000	36.41117000	13.42274000
178.39998958	0.00000000	36.78642000	13.45964000
178.59998957	0.00000000	37.48154000	13.42274000
178.79998956	0.00000000	37.53075000	13.87795000
178.99998954	0.00000000	37.20472000	14.53617000
179.19998953	0.00000000	37.57381000	14.94833000
179.39998952	0.00000000	37.90600000	14.58538000
179.59998951	0.00000000	37.94907000	14.25320000
179.79998950	0.00000000	37.94907000	14.21014000
179.99998948	0.00000000	37.94907000	14.21014000
180.19998947	0.00000000	37.90600000	14.21014000
180.39998946	0.00000000	37.57381000	14.21014000
180.59998945	0.00000000	37.20472000	14.21014000
180.79998944	0.00000000	37.53075000	14.21014000
180.99998942	0.00000000	37.48154000	14.21014000
181.19998941	0.00000000	36.78642000	14.21014000
181.39998940	0.00000000	36.46038000	14.21014000
181.59998939	0.00000000	36.74335000	14.21014000
181.79998938	0.00000000	37.15551000	14.21014000
181.99998937	0.00000000	37.11860000	14.21014000
182.19998935	0.00000000	37.15551000	14.21014000
182.39998934	0.00000000	36.78642000	14.21014000
182.59998933	0.00000000	36.78642000	14.21014000
182.79998932	0.00000000	37.15551000	14.21014000
182.99998931	0.00000000	37.16166000	14.21014000
183.19998929	0.00000000	37.57381000	14.16708000
183.39998928	0.00000000	37.85679000	13.83489000
183.59998927	0.00000000	37.53075000	13.46580000
183.79998926	0.00000000	36.78642000	13.83489000
183.99998925	0.00000000	36.41117000	14.16708000
184.19998923	0.00000000	36.36811000	14.21014000
184.39998922	0.00000000	36.36811000	14.21014000
184.59998921	0.00000000	36.36811000	14.21014000
184.79998920	0.00000000	36.32505000	14.21014000
184.99998919	0.00000000	36.03592000	14.21014000
185.19998918	0.00000000	36.04823000	14.21014000
185.39998916	0.00000000	37.11245000	14.16708000
185.59998915	0.00000000	37.48154000	13.79183000
185.79998914	0.00000000	37.20472000	13.04749000
185.99998913	0.00000000	37.57381000	12.67224000
186.19998912	0.00000000	37.90600000	12.62918000
186.39998910	0.00000000	37.94907000	12.67224000
186.59998909	0.00000000	37.90600000	13.00443000
186.79998908	0.00000000	37.53075000	13.41658000
186.99998907	0.00000000	36.78642000	13.42274000
187.19998906	0.00000000	36.41117000	13.83489000
187.39998904	0.00000000	36.36811000	14.21014000
187.59998903	0.00000000	36.36811000	14.58538000
187.79998902	0.00000000	36.36811000	14.94833000
187.99998901	0.00000000	36.36811000	14.58538000
188.19998900	0.00000000	36.41117000	14.25320000
188.39998899	0.00000000	36.78642000	14.21014000
188.59998897	0.00000000	37.53075000	14.21014000
188.79998896	0.00000000	37.90600000	14.16708000
188.99998895	0.00000000	37.94907000	13.79183000
189.19998894	0.00000000	37.90600000	13.09670000
189.39998893	0.00000000	37.57381000	13.09670000
189.59998891	0.00000000	37.16166000	13.79183000
189.79998890	0.00000000	37.15551000	14.16708000
189.99998889	0.00000000	36.74335000	14.21014000
190.19998888	0.00000000	36.41117000	14.21014000
190.39998887	0.00000000	36.36811000	14.25320000
190.59998885	0.00000000	36.36811000	14.58538000
190.79998884	0.00000000	36.36811000	14.99139000
190.99998883	0.00000000	36.41117000	14.95448000
191.19998882	0.00000000	36.78642000	14.99139000
191.39998881	0.00000000	37.53075000	14.58538000
191.59998880	0.00000000	37.90600000	14.25320000
191.79998878	0.00000000	37.94907000	14.21014000
191.99998877	0.00000000	37.94907000	14.21014000
192.19998876	0.00000000	37.94907000	14.21014000
192.39998875	0.00000000	37.94907000	14.21014000
192.59998874	0.00000000	37.90600000	14.21014000
192.79998872	0.00000000	37.53075000	14.21014000
192.99998871	0.00000000	36.78642000	14.21014000
193.19998870	0.00000000	36.41117000	14.21014000
193.39998869	0.00000000	36.36811000	14.21014000
193.59998868	0.00000000	36.36811000	14.21014000
193.79998866	0.00000000	36.36811000	14.25320000
193.99998865	0.00000000	36.36811000	14.58538000
194.19998864	0.00000000	36.41117000	14.94833000
194.39998863	0.00000000	36.78642000	14.58538000
194.59998862	0.00000000	37.53075000	14.25320000
194.79998861	0.00000000	37.90600000	14.21014000
194.99998859	0.00000000	37.90600000	14.21014000
195.19998858	0.00000000	37.57381000	14.16708000
195.39998857	0.00000000	37.16166000	13.83489000
195.59998856	0.00000000	37.15551000	13.42274000
195.79998855	0.00000000	36.74335000	13.41658000
195.99998853	0.00000000	36.41117000	13.00443000
