Time	Channel A	Channel B	Channel C
(us)	(V)	(mV)	(mV)

-4.49999956	0.00000000	-52.17765000	-12.62918000
-4.29999957	0.00000000	-52.17765000	-12.62918000
-4.09999958	0.00000000	-52.17765000	-12.62918000
-3.89999959	0.00000000	-52.17765000	-12.62918000
-3.69999960	0.00000000	-52.17765000	-12.62918000
-3.49999962	0.00000000	-52.17765000	-12.62918000
-3.29999963	0.00000000	-52.17765000	-12.62918000
-3.09999964	0.00000000	-52.17765000	-12.62918000
-2.89999965	0.00000000	-52.17765000	-12.62918000
-2.69999966	0.00000000	-52.17765000	-12.62918000
-2.49999968	0.00000000	-52.17765000	-12.62918000
-2.29999969	0.00000000	-52.17765000	-12.62918000
-2.09999970	0.00000000	-52.17765000	-12.62918000
-1.89999971	0.00000000	-52.17765000	-12.62918000
-1.69999972	0.00000000	-52.17765000	-12.58612000
-1.49999973	0.00000000	-52.17765000	-12.25394000
-1.29999975	0.00000000	-52.17765000	-11.88484000
-1.09999976	0.00000000	-52.17765000	-12.25394000
-0.89999977	0.00000000	-52.17765000	-12.58612000
-0.69999978	0.00000000	-52.17765000	-12.62918000
-0.49999979	0.00000000	-52.17765000	-12.62918000
-0.29999981	0.31803640	-52.17765000	-12.62918000
-0.09999982	0.63668800	-52.17765000	-12.62918000
0.10000017	0.95533960	-52.17765000	-12.62918000
0.30000016	0.95533960	-52.17765000	-12.62918000
0.50000015	0.79601380	-52.17765000	-12.62918000
0.70000013	0.31803640	-52.17765000	-12.62918000
0.90000012	-0.47736220	-52.17765000	-12.62918000
1.10000011	-1.43331700	-52.17765000	-12.62918000
1.30000010	-2.38927200	-52.17765000	-12.62918000
1.50000009	-2.70792300	-52.17765000	-12.62918000
1.70000008	-2.54859700	-52.17765000	-12.62918000
1.90000006	-1.27399100	-52.17765000	-12.62918000
2.10000005	0.47736220	-52.17765000	-12.62918000
2.30000004	2.54859700	-52.17765000	-12.62918000
2.50000003	4.45989200	-52.17765000	-12.62918000
2.70000002	5.25652100	-52.17765000	-12.62918000
2.90000000	4.93786900	-52.17765000	-12.62918000
3.09999999	3.02657500	-52.17765000	-12.62918000
3.29999998	0.00000000	-52.17765000	-12.62918000
3.49999997	-3.34522600	-52.17765000	-12.62918000
3.69999996	-6.37180100	-52.17765000	-12.58612000
3.89999994	-7.80511800	-52.17765000	-12.21087000
4.09999993	-7.48646600	-52.17765000	-11.46653000
4.29999992	-5.09719500	-52.17765000	-11.09129000
4.49999991	-1.11466500	-52.17765000	-11.04823000
4.69999990	3.18590100	-52.17765000	-11.09129000
4.89999989	7.16781500	-52.17765000	-11.46653000
5.09999987	9.23905000	-52.17765000	-12.21087000
5.29999986	9.07972400	-52.17765000	-12.58612000
5.49999985	6.69045300	-52.17765000	-12.62918000
5.69999984	2.54859700	-52.17765000	-12.62918000
5.89999983	-2.22994600	-52.17765000	-12.62918000
6.09999981	-6.53112700	-52.17765000	-12.62918000
6.29999980	-9.07972400	-52.17765000	-12.58612000
6.49999979	-9.23905000	-52.17765000	-12.21087000
6.69999978	-7.16781500	-52.17765000	-11.46653000
6.89999977	-3.50393700	-52.17765000	-11.09129000
7.09999975	0.79601380	-52.17765000	-11.04823000
7.29999974	4.77854300	-52.17765000	-11.09129000
7.49999973	7.16781500	-52.17765000	-11.46653000
7.69999972	7.64579200	-52.17765000	-12.21087000
7.89999971	6.37180100	-52.17765000	-12.58612000
8.09999970	3.50393700	-52.17765000	-12.62918000
8.29999968	0.31803640	-52.17765000	-12.62918000
8.49999967	-2.70792300	-52.17765000	-12.62918000
8.69999966	-4.61921700	-52.17765000	-12.62918000
8.89999965	-5.25652100	-52.17765000	-12.62918000
9.09999964	-4.45989200	-52.17765000	-12.62918000
9.29999962	-2.70792300	-52.17765000	-12.62918000
9.49999961	-0.79601380	-52.17765000	-12.62918000
9.69999960	1.11466500	-52.17765000	-12.62918000
9.89999959	2.22994600	-52.17765000	-12.62918000
10.09999958	2.54859700	-52.17765000	-12.62918000
10.29999956	2.22994600	-52.17765000	-12.62918000
10.49999955	1.43331700	-52.17765000	-12.62918000
10.69999954	0.47736220	-52.17765000	-12.62918000
10.89999953	-0.15871060	-52.17765000	-12.62918000
11.09999952	-0.63668800	-52.17765000	-12.62918000
11.29999951	-0.95533960	-52.17765000	-12.62918000
11.49999949	-0.95533960	-52.17765000	-12.62918000
11.69999948	-0.79601380	-52.17765000	-12.62918000
11.89999947	-0.47736220	-52.17765000	-12.62918000
12.09999946	-0.15871060	-52.17765000	-12.62918000
12.29999945	-0.15871060	-52.17765000	-12.62918000
12.49999943	-0.15871060	-52.17765000	-12.62918000
12.69999942	0.00000000	-52.17765000	-12.62918000
12.89999941	0.00000000	-52.17765000	-12.62918000
13.09999940	0.15871060	-52.17765000	-12.62918000
13.29999939	0.15871060	-52.17765000	-12.62918000
13.49999937	0.00000000	-52.17765000	-12.62918000
13.69999936	0.00000000	-52.17765000	-12.62918000
13.89999935	0.00000000	-52.17765000	-12.62918000
14.09999934	-0.15871060	-52.17765000	-12.62918000
14.29999933	-0.15871060	-52.17765000	-12.62918000
14.49999932	-0.15871060	-52.17765000	-12.62918000
14.69999930	0.00000000	-52.17765000	-12.62918000
14.89999929	0.00000000	-52.17765000	-12.62918000
15.09999928	0.00000000	-52.17765000	-12.58612000
15.29999927	0.00000000	-52.17765000	-12.21087000
15.49999926	0.00000000	-52.17765000	-11.51575000
15.69999924	0.00000000	-52.22071000	-11.55881000
15.89999923	0.00000000	-52.55290000	-12.53691000
16.09999922	0.00000000	-52.92200000	-12.94906000
16.29999921	0.00000000	-52.55290000	-12.21703000
16.49999920	-0.15871060	-52.22071000	-11.92175000
16.69999919	-0.15871060	-52.13459000	-11.84178000
16.89999917	0.00000000	-51.71013000	-12.21087000
17.09999916	0.00000000	-50.59670000	-12.21087000
17.29999915	0.00000000	-49.52633000	-11.84178000
17.49999914	0.00000000	-49.48326000	-11.87869000
17.69999913	0.00000000	-50.17839000	-11.79872000
17.89999911	0.00000000	-50.59670000	-11.83563000
18.09999910	0.00000000	-51.06422000	-11.46653000
18.29999909	0.00000000	-52.26993000	-11.51575000
18.49999908	0.00000000	-54.13385000	-12.21087000
18.69999907	0.00000000	-56.03469000	-12.58612000
18.89999905	0.00000000	-56.78519000	-12.62918000
19.09999904	0.00000000	-56.45300000	-12.62918000
19.29999903	0.00000000	-55.24729000	-12.62918000
19.49999902	0.00000000	-53.24803000	-12.62918000
19.69999901	0.00000000	-50.08612000	-12.62918000
19.89999900	0.00000000	-45.89690000	-12.62918000
20.09999898	0.00000000	-42.08292000	-12.62918000
20.29999897	0.00000000	-40.21899000	-12.62918000
20.49999896	0.00000000	-40.96949000	-12.62918000
20.69999895	0.00000000	-44.54355000	-12.62918000
20.89999894	0.00000000	-50.36294000	-12.62918000
21.09999892	0.00000000	-58.12622000	-12.62918000
21.29999891	0.00000000	-65.76648000	-12.62918000
21.49999890	0.00000000	-71.16142000	-12.62918000
21.69999889	0.00000000	-72.65625000	-12.62918000
21.89999888	0.00000000	-69.48818000	-12.62918000
22.09999886	0.00000000	-61.71875000	-12.62918000
22.29999885	0.00000000	-50.46136000	-12.62918000
22.49999884	0.00000000	-38.08440000	-12.62918000
22.69999883	0.00000000	-26.96235000	-12.62918000
22.89999882	0.00000000	-20.49089000	-12.58612000
23.09999881	0.00000000	-21.27830000	-12.21087000
23.29999879	0.00000000	-29.09695000	-11.46653000
23.49999878	0.00000000	-43.06102000	-11.09129000
23.69999877	0.00000000	-60.82677000	-11.04823000
23.89999876	0.00000000	-77.76820000	-11.04823000
24.09999875	0.00000000	-90.09596000	-11.04823000
24.29999873	0.00000000	-94.28519000	-11.09129000
24.49999872	0.00000000	-88.79797000	-11.51575000
24.69999871	0.00000000	-74.46481000	-12.67224000
24.89999870	0.00000000	-53.58022000	-14.21014000
25.09999869	0.00000000	-31.23770000	-15.78494000
25.29999867	0.00000000	-12.67840000	-17.27362000
25.49999866	0.00000000	-2.34375000	-17.97490000
25.69999865	0.00000000	-3.13730300	-16.81225000
25.89999864	0.00000000	-15.51427000	-14.11786000
26.09999863	0.00000000	-36.31274000	-10.62992000
26.29999862	0.00000000	-60.73450000	-6.72982200
26.49999860	0.00000000	-83.49532000	-3.29109200
26.69999859	0.00000000	-99.68626000	-1.01501000
26.89999858	0.00000000	-104.66900000	-1.06422200
27.09999857	0.00000000	-97.40403000	-3.80167300
27.29999856	0.00000000	-80.05044000	-8.86441900
27.49999854	0.00000000	-56.82825000	-15.83415000
27.69999853	0.00000000	-32.91092000	-23.17298000
27.89999852	0.00000000	-13.56422000	-29.31225000
28.09999851	0.00000000	-3.50639700	-32.70177000
28.29999850	0.00000000	-4.21382900	-31.45300000
28.49999848	0.00000000	-15.42200000	-25.27067000
28.69999847	0.00000000	-34.26427000	-15.18824000
28.89999846	0.00000000	-55.89936000	-3.24803100
29.09999845	0.00000000	-75.30142000	7.94783400
29.29999844	0.00000000	-88.89025000	15.61885000
29.49999843	0.00000000	-94.28519000	17.88878000
29.69999841	0.00000000	-90.09596000	13.61959000
29.89999840	0.00000000	-77.81741000	3.53715500
30.09999839	0.00000000	-61.20201000	-10.40231000
30.29999838	0.00000000	-43.75615000	-25.86737000
30.49999837	0.00000000	-29.05389000	-39.34547000
30.69999835	0.00000000	-20.07259000	-47.80388000
30.89999834	0.00000000	-18.07332000	-48.87426000
31.09999833	0.00000000	-22.68085000	-41.52928000
31.29999832	0.00000000	-32.73252000	-27.26993000
31.49999831	0.00000000	-45.89690000	-9.51648500
31.69999829	0.00000000	-59.43651000	7.89862200
31.89999828	0.00000000	-70.65083000	21.42593000
32.09999827	0.00000000	-76.88853000	28.34645000
32.29999826	0.00000000	-77.34990000	26.76550000
32.49999825	0.00000000	-72.69930000	16.77534000
32.69999824	0.00000000	-63.85334000	0.93503930
32.89999822	0.00000000	-53.01427000	-17.23056000
33.09999821	0.00000000	-42.96260000	-34.27657000
33.29999820	0.00000000	-35.19316000	-46.59818000
33.49999819	0.00000000	-31.69906000	-51.65477000
33.69999818	0.00000000	-32.81865000	-48.17913000
33.89999816	0.00000000	-37.85064000	-37.39542000
34.09999815	0.00000000	-45.94611000	-21.54897000
34.29999814	0.00000000	-54.74286000	-4.17691900
34.49999813	0.00000000	-61.76181000	10.92520000
34.69999812	0.00000000	-65.63115000	20.95841000
34.89999810	0.00000000	-66.04330000	23.65280000
35.09999809	0.00000000	-62.59842000	18.31324000
35.29999808	0.00000000	-56.87746000	6.74212600
35.49999807	0.00000000	-50.68897000	-8.31077700
35.69999806	0.00000000	-45.29404000	-23.73892000
35.89999805	0.00000000	-42.17519000	-35.67913000
36.09999803	0.00000000	-41.75689000	-41.48622000
36.29999802	0.00000000	-43.71309000	-39.99754000
36.49999801	0.00000000	-47.98843000	-31.95743000
36.69999800	0.00000000	-53.66634000	-20.06029000
36.89999799	0.00000000	-58.64296000	-7.33267600
37.09999797	0.00000000	-60.97440000	3.07578700
37.29999796	0.00000000	-60.64222000	8.83366100
37.49999795	0.00000000	-57.94783000	8.45841400
37.69999794	0.00000000	-53.71555000	2.00541300
37.89999793	0.00000000	-49.05881000	-7.89247000
38.09999791	0.00000000	-44.82652000	-17.92569000
38.29999790	0.00000000	-42.17519000	-25.59670000
38.49999789	0.00000000	-42.13213000	-29.07849000
38.69999788	0.00000000	-44.36515000	-27.13459000
38.89999787	0.00000000	-47.52707000	-20.66314000
39.09999786	0.00000000	-51.43332000	-11.42347000
39.29999784	0.00000000	-56.03469000	-2.26377900
39.49999783	0.00000000	-59.48573000	4.18922200
39.69999782	0.00000000	-61.06668000	5.30265700
39.89999781	0.00000000	-60.69144000	0.38139760
40.09999780	0.00000000	-58.36614000	-8.40305000
40.29999778	0.00000000	-54.92125000	-18.39321000
40.49999777	0.00000000	-51.01501000	-26.80241000
40.69999776	0.00000000	-47.52707000	-31.07775000
40.89999775	0.00000000	-44.74040000	-30.29035000
41.09999774	0.00000000	-42.82726000	-24.89542000
41.29999772	0.00000000	-42.08292000	-15.64960000
41.49999771	0.00000000	-43.28863000	-5.33341500
41.69999770	0.00000000	-46.32135000	3.11884800
41.89999769	0.00000000	-50.17839000	7.39419200
42.09999768	0.00000000	-53.66634000	6.64985200
42.29999767	0.00000000	-56.45300000	1.63016700
42.49999765	0.00000000	-58.36614000	-6.82209600
42.69999764	0.00000000	-59.15354000	-16.35089000
42.89999763	0.00000000	-58.36614000	-23.68971000
43.09999762	0.00000000	-56.45300000	-27.26993000
43.29999761	0.00000000	-53.75861000	-27.31299000
43.49999759	0.00000000	-51.06422000	-24.20029000
43.69999758	0.00000000	-49.10802000	-18.43627000
43.89999757	0.00000000	-47.90231000	-11.55881000
44.09999756	0.00000000	-47.47785000	-5.75172200
44.29999755	0.00000000	-47.43479000	-2.26377900
44.49999753	0.00000000	-47.43479000	-1.43331700
44.69999752	0.00000000	-47.43479000	-3.33415300
44.89999751	0.00000000	-47.47785000	-6.72982200
45.09999750	0.00000000	-47.85310000	-10.62992000
45.29999749	0.00000000	-48.68356000	-14.11786000
45.49999748	0.00000000	-49.90157000	-16.85531000
45.69999746	0.00000000	-52.26993000	-18.39321000
45.89999745	0.00000000	-55.33957000	-18.39321000
46.09999744	0.00000000	-58.45841000	-16.85531000
46.29999743	0.00000000	-61.10974000	-14.21014000
46.49999742	0.00000000	-62.22318000	-11.51575000
46.69999740	0.00000000	-61.01746000	-9.51648500
46.89999739	0.00000000	-57.48031000	-7.98474400
47.09999738	0.00000000	-51.66707000	-7.24040300
47.29999737	0.00000000	-44.74040000	-7.98474400
47.49999736	0.00000000	-38.58883000	-9.51648500
47.69999734	0.00000000	-34.77485000	-11.46653000
47.89999733	0.00000000	-34.77485000	-13.79183000
48.09999732	0.00000000	-38.63804000	-15.69882000
48.29999731	0.00000000	-45.24483000	-16.85531000
48.49999730	0.00000000	-53.80167000	-16.85531000
48.69999729	0.00000000	-62.60457000	-15.69882000
48.89999727	0.00000000	-69.11294000	-13.69956000
49.09999726	0.00000000	-71.02608000	-10.62992000
49.29999725	0.00000000	-67.99950000	-7.19734200
49.49999724	0.00000000	-61.02362000	-4.91510800
49.69999723	0.00000000	-51.80241000	-4.12770700
49.89999721	0.00000000	-42.50738000	-5.33341500
50.09999720	0.00000000	-35.56225000	-8.35998900
50.29999719	0.00000000	-32.08046000	-12.25394000
50.49999718	0.00000000	-33.28617000	-16.11712000
50.69999717	0.00000000	-39.01329000	-19.59892000
50.89999715	0.00000000	-47.52707000	-21.46284000
51.09999714	0.00000000	-56.74212000	-21.08760000
51.29999713	0.00000000	-64.46234000	-18.39321000
51.49999712	0.00000000	-68.28247000	-14.21014000
51.69999711	0.00000000	-67.58119000	-9.89173200
51.89999710	0.00000000	-62.55536000	-6.02854300
52.09999708	0.00000000	-54.92125000	-2.96505900
52.29999707	0.00000000	-46.82579000	-2.26377900
52.49999706	0.00000000	-40.63730000	-4.12770700
52.69999705	0.00000000	-37.56767000	-7.93553100
52.89999704	0.00000000	-38.31816000	-12.16166000
53.09999702	0.00000000	-42.91954000	-15.69882000
53.29999701	0.00000000	-49.43405000	-18.39321000
53.49999700	0.00000000	-56.36687000	-19.50664000
53.69999699	0.00000000	-61.66953000	-18.39321000
53.89999698	0.00000000	-63.29355000	-15.74188000
54.09999696	0.00000000	-61.43578000	-12.67224000
54.29999695	0.00000000	-57.57259000	-9.98400600
54.49999694	0.00000000	-52.13459000	-8.40305000
54.69999693	0.00000000	-46.45054000	-8.02780400
54.89999692	0.00000000	-42.59350000	-8.77214500
55.09999691	0.00000000	-41.79995000	-10.67298000
55.29999689	0.00000000	-43.66388000	-12.53691000
55.49999688	0.00000000	-47.52707000	-13.69956000
55.69999687	0.00000000	-52.13459000	-13.69956000
55.89999686	0.00000000	-56.36687000	-12.53691000
56.09999685	0.00000000	-59.06127000	-10.67298000
56.29999683	0.00000000	-59.43651000	-8.77214500
56.49999682	0.00000000	-57.52953000	-8.02780400
56.69999681	0.00000000	-53.71555000	-8.40305000
56.89999680	0.00000000	-49.52633000	-10.02707000
57.09999679	0.00000000	-46.40748000	-13.09670000
57.29999677	0.00000000	-44.82652000	-16.85531000
57.49999676	0.00000000	-44.82652000	-19.50664000
57.69999675	0.00000000	-46.36442000	-19.88189000
57.89999674	0.00000000	-49.05881000	-17.97490000
58.09999673	0.00000000	-52.13459000	-14.07480000
58.29999672	0.00000000	-54.78592000	-9.05511800
58.49999670	0.00000000	-55.99163000	-3.70939900
58.69999669	0.00000000	-55.62254000	0.04921259
58.89999668	0.00000000	-54.50295000	0.46751960
59.09999667	0.00000000	-52.55290000	-2.22071800
59.29999666	0.00000000	-50.63976000	-7.24040300
59.49999664	0.00000000	-49.10802000	-13.83489000
59.69999663	0.00000000	-48.36368000	-20.34941000
59.89999662	0.00000000	-49.10802000	-25.35679000
60.09999661	0.00000000	-50.55364000	-27.22072000
60.29999660	0.00000000	-51.75935000	-25.27067000
60.49999658	0.00000000	-52.50984000	-19.50664000
60.69999657	0.00000000	-52.92200000	-11.46653000
60.89999656	0.00000000	-52.50984000	-3.75246000
61.09999655	0.00000000	-51.75935000	2.04847400
61.29999654	0.00000000	-50.55364000	4.69980300
61.49999653	0.00000000	-49.10802000	3.11884800
61.69999651	0.00000000	-48.32062000	-2.59596400
61.89999650	0.00000000	-48.73277000	-10.67298000
62.09999649	0.00000000	-49.85236000	-18.76845000
62.29999648	0.00000000	-51.80241000	-25.35679000
62.49999647	0.00000000	-53.71555000	-28.80167000
62.69999645	0.00000000	-55.24729000	-28.42643000
62.89999644	0.00000000	-55.99163000	-24.20029000
63.09999643	0.00000000	-55.24729000	-17.27977000
63.29999642	0.00000000	-53.71555000	-9.51648500
63.49999641	0.00000000	-51.75935000	-2.22071800
63.69999639	0.00000000	-49.43405000	2.79281500
63.89999638	0.00000000	-47.52707000	3.95546200
64.09999637	0.00000000	-46.36442000	1.72244100
64.29999636	0.00000000	-46.36442000	-3.33415300
64.49999635	0.00000000	-47.52707000	-9.89173200
64.69999634	0.00000000	-49.48326000	-16.81225000
64.89999632	0.00000000	-52.17765000	-22.20103000
65.09999631	0.00000000	-54.82898000	-24.61860000
65.29999630	0.00000000	-56.36687000	-24.61860000
65.49999629	0.00000000	-56.36687000	-22.29331000
65.69999628	0.00000000	-54.87204000	-17.69808000
65.89999626	0.00000000	-52.59596000	-12.72146000
66.09999625	0.00000000	-50.63976000	-8.35998900
66.29999624	0.00000000	-49.05881000	-4.87204700
66.49999623	0.00000000	-47.98843000	-2.54675200
66.69999622	0.00000000	-48.36368000	-2.12844500
66.89999620	0.00000000	-50.22145000	-3.24803100
67.09999619	0.00000000	-52.08538000	-5.19808000
67.29999618	0.00000000	-53.29109000	-7.93553100
67.49999617	0.00000000	-53.66634000	-11.04823000
67.69999616	0.00000000	-53.24803000	-14.16092000
67.89999615	0.00000000	-51.71013000	-16.94759000
68.09999613	0.00000000	-49.43405000	-19.27288000
68.29999612	0.00000000	-47.52707000	-21.17372000
68.49999611	0.00000000	-46.36442000	-21.50590000
68.69999610	0.00000000	-46.45054000	-19.97416000
68.89999609	0.00000000	-48.36368000	-16.85531000
69.09999607	0.00000000	-51.80241000	-12.58612000
69.29999606	0.00000000	-55.24729000	-7.93553100
69.49999605	0.00000000	-57.99089000	-3.70939900
69.69999604	0.00000000	-59.48573000	-1.01501000
69.89999603	0.00000000	-59.06127000	-0.59670270
70.09999601	0.00000000	-56.36687000	-2.17765700
70.29999600	0.00000000	-52.13459000	-5.66560000
70.49999599	0.00000000	-47.43479000	-10.67298000
70.69999598	0.00000000	-42.87032000	-15.69882000
70.89999597	0.00000000	-39.84990000	-19.97416000
71.09999596	0.00000000	-40.21899000	-22.61934000
71.29999594	0.00000000	-43.20251000	-22.66855000
71.49999593	0.00000000	-47.52707000	-20.34941000
71.69999592	0.00000000	-52.59596000	-16.48622000
71.89999591	0.00000000	-57.99089000	-11.46653000
72.09999590	0.00000000	-62.18011000	-6.90821800
72.29999588	0.00000000	-63.71801000	-4.17076700
72.49999587	0.00000000	-62.22318000	-3.75246000
72.69999586	0.00000000	-58.36614000	-5.24729300
72.89999585	0.00000000	-53.34030000	-7.89247000
73.09999584	0.00000000	-47.90231000	-10.62992000
73.29999582	0.00000000	-43.28863000	-12.95522000
73.49999581	0.00000000	-40.59424000	-14.90526000
73.69999580	0.00000000	-40.55118000	-15.60654000
73.89999579	0.00000000	-42.82726000	-14.90526000
74.09999578	0.00000000	-46.32135000	-13.04749000
74.29999577	0.00000000	-50.59670000	-11.55881000
74.49999575	0.00000000	-54.82898000	-11.14050000
74.69999574	0.00000000	-57.90477000	-11.51575000
74.89999573	0.00000000	-59.06127000	-12.67224000
75.09999572	0.00000000	-57.94783000	-14.16092000
75.29999571	0.00000000	-55.29650000	-15.32357000
75.49999569	0.00000000	-52.22071000	-15.64960000
75.69999568	0.00000000	-49.48326000	-14.81299000
75.89999567	0.00000000	-47.52707000	-12.16166000
76.09999566	0.00000000	-46.36442000	-8.72908400
76.29999565	0.00000000	-46.36442000	-6.02854300
76.49999563	0.00000000	-47.47785000	-4.08464600
76.69999562	0.00000000	-48.97269000	-3.80167300
76.89999561	0.00000000	-50.17839000	-5.70866100
77.09999560	0.00000000	-50.92888000	-9.56569900
77.29999559	0.00000000	-51.34104000	-14.21014000
77.49999558	0.00000000	-50.97194000	-18.85458000
77.69999556	0.00000000	-50.63976000	-22.61934000
77.89999555	0.00000000	-50.63976000	-23.78199000
78.09999554	0.00000000	-51.06422000	-21.88115000
78.29999553	0.00000000	-52.17765000	-18.01796000
78.49999552	0.00000000	-53.29109000	-12.58612000
78.69999550	0.00000000	-53.71555000	-6.82209600
78.89999549	0.00000000	-53.66634000	-2.17765700
79.09999548	0.00000000	-52.87278000	0.51673230
79.29999547	0.00000000	-50.97194000	0.51673230
79.49999546	0.00000000	-49.05881000	-2.17765700
79.69999544	0.00000000	-47.43479000	-6.77903500
79.89999543	0.00000000	-45.94611000	-12.21087000
80.09999542	0.00000000	-45.24483000	-17.23056000
80.29999541	0.00000000	-46.40748000	-21.13066000
80.49999540	0.00000000	-49.01575000	-23.03765000
80.69999539	0.00000000	-51.75935000	-22.71161000
80.89999537	0.00000000	-54.09079000	-20.34941000
81.09999536	0.00000000	-56.03469000	-16.52928000
81.29999535	0.00000000	-56.74212000	-11.88484000
81.49999534	0.00000000	-55.99163000	-7.98474400
81.69999533	0.00000000	-53.66634000	-4.82283400
81.89999531	0.00000000	-50.63976000	-2.54675200
82.09999530	0.00000000	-47.90231000	-2.12844500
82.29999529	0.00000000	-45.98917000	-3.29109200
82.49999528	0.00000000	-45.20177000	-5.61638700
82.69999527	0.00000000	-45.98917000	-9.09817800
82.89999525	0.00000000	-47.85310000	-12.58612000
83.09999524	0.00000000	-50.17839000	-15.78494000
83.29999523	0.00000000	-52.08538000	-18.85458000
83.49999522	0.00000000	-53.29109000	-21.13066000
83.69999521	0.00000000	-53.66634000	-21.50590000
83.89999520	0.00000000	-53.34030000	-19.97416000
84.09999518	0.00000000	-52.55290000	-16.90453000
84.29999517	0.00000000	-51.80241000	-13.00443000
84.49999516	0.00000000	-51.01501000	-9.09817800
84.69999515	0.00000000	-50.63976000	-5.19808000
84.89999514	0.00000000	-50.59670000	-2.17765700
85.09999512	0.00000000	-50.59670000	-1.01501000
85.29999511	0.00000000	-50.55364000	-2.22071800
85.49999510	0.00000000	-50.17839000	-5.66560000
85.69999509	0.00000000	-49.43405000	-10.67298000
85.89999508	0.00000000	-49.05881000	-15.69882000
86.09999506	0.00000000	-49.01575000	-19.97416000
86.29999505	0.00000000	-49.05881000	-22.61934000
86.49999504	0.00000000	-49.48326000	-22.66855000
86.69999503	0.00000000	-50.63976000	-20.34941000
86.89999502	0.00000000	-52.17765000	-16.43701000
87.09999501	0.00000000	-53.71555000	-11.04823000
87.29999499	0.00000000	-54.82898000	-5.70866100
87.49999498	0.00000000	-54.82898000	-2.22071800
87.69999497	0.00000000	-53.71555000	-1.05807100
87.89999496	0.00000000	-52.13459000	-2.59596400
88.09999495	0.00000000	-50.22145000	-6.40378900
88.29999493	0.00000000	-48.27140000	-11.04823000
88.49999492	0.00000000	-47.15182000	-15.69882000
88.69999491	0.00000000	-46.73966000	-19.54970000
88.89999490	0.00000000	-47.52707000	-21.41363000
89.09999489	0.00000000	-49.05881000	-20.66314000
89.29999487	0.00000000	-50.97194000	-17.23056000
89.49999486	0.00000000	-52.87278000	-12.62918000
89.69999485	0.00000000	-53.66634000	-7.98474400
89.89999484	0.00000000	-53.71555000	-4.17076700
90.09999483	0.00000000	-53.29109000	-2.63902500
90.29999482	0.00000000	-52.13459000	-3.75246000
90.49999480	0.00000000	-50.63976000	-6.82209600
90.69999479	0.00000000	-49.48326000	-11.04823000
90.89999478	0.00000000	-49.05881000	-15.32357000
91.09999477	0.00000000	-49.01575000	-18.76845000
91.29999476	0.00000000	-49.05881000	-20.66929000
91.49999474	0.00000000	-49.43405000	-19.83883000
91.69999473	0.00000000	-50.17839000	-16.43701000
91.89999472	0.00000000	-50.55364000	-11.46653000
92.09999471	0.00000000	-50.59670000	-6.86515700
92.29999470	0.00000000	-50.59670000	-3.75246000
92.49999468	0.00000000	-50.59670000	-2.63902500
92.69999467	0.00000000	-50.63976000	-4.17076700
92.89999466	0.00000000	-51.01501000	-7.98474400
93.09999465	0.00000000	-51.80241000	-12.58612000
93.29999464	0.00000000	-52.55290000	-16.81225000
93.49999463	0.00000000	-53.29109000	-19.50664000
93.69999461	0.00000000	-53.24803000	-19.88189000
93.89999460	0.00000000	-52.17765000	-17.97490000
94.09999459	0.00000000	-50.97194000	-14.16708000
94.29999458	0.00000000	-49.76009000	-9.93479300
94.49999457	0.00000000	-47.81004000	-6.44685000
94.69999455	0.00000000	-45.98917000	-4.17076700
94.89999454	0.00000000	-45.15871000	-4.21998000
95.09999453	0.00000000	-45.61392000	-6.82209600
95.29999452	0.00000000	-47.11491000	-10.62992000
95.49999451	0.00000000	-49.84621000	-14.11786000
95.69999449	0.00000000	-52.50984000	-16.85531000
95.89999448	0.00000000	-54.92125000	-18.35015000
96.09999447	0.00000000	-56.78519000	-17.97490000
96.29999446	0.00000000	-57.57259000	-15.69882000
96.49999445	0.00000000	-56.74212000	-12.62918000
96.69999444	0.00000000	-54.45374000	-9.55954600
96.89999442	0.00000000	-50.92888000	-7.24040300
97.09999441	0.00000000	-47.10260000	-6.44685000
97.29999440	0.00000000	-43.62082000	-6.86515700
97.49999439	0.00000000	-41.75689000	-8.77214500
97.69999438	0.00000000	-42.08292000	-11.79257000
97.89999436	0.00000000	-44.40821000	-14.07480000
98.09999435	0.00000000	-47.85310000	-15.27436000
98.29999434	0.00000000	-51.75935000	-15.32357000
98.49999433	0.00000000	-55.24729000	-14.58538000
98.69999432	0.00000000	-57.99089000	-13.79183000
98.89999430	0.00000000	-59.48573000	-12.58612000
99.09999429	0.00000000	-59.11048000	-11.09744000
99.29999428	0.00000000	-56.78519000	-9.93479300
99.49999427	0.00000000	-53.34030000	-9.56569900
99.69999426	0.00000000	-49.43405000	-9.89173200
99.89999425	0.00000000	-45.94611000	-10.62992000
100.09999423	0.00000000	-43.24557000	-10.95595000
100.29999422	0.00000000	-42.13213000	-10.62992000
100.49999421	0.00000000	-43.24557000	-9.89173200
100.69999420	0.00000000	-45.89690000	-9.56569900
100.89999419	0.00000000	-49.01575000	-9.89173200
101.09999417	0.00000000	-52.13459000	-10.72219000
101.29999416	0.00000000	-54.82898000	-11.84178000
101.49999415	0.00000000	-56.40993000	-13.41658000
101.69999414	0.00000000	-56.82825000	-14.53617000
101.89999413	0.00000000	-56.40993000	-15.32357000
102.09999411	0.00000000	-54.82898000	-15.27436000
102.29999410	0.00000000	-52.17765000	-14.11786000
102.49999409	0.00000000	-49.48326000	-12.16781000
102.69999408	0.00000000	-47.52707000	-9.51648500
102.89999407	0.00000000	-46.32135000	-7.19734200
103.09999406	0.00000000	-45.94611000	-6.02854300
103.29999404	0.00000000	-46.32135000	-5.66560000
103.49999403	0.00000000	-47.52707000	-6.86515700
103.69999402	0.00000000	-49.43405000	-9.51648500
103.89999401	0.00000000	-51.75935000	-12.58612000
104.09999400	0.00000000	-53.66634000	-15.27436000
104.29999398	0.00000000	-54.82898000	-16.85531000
104.49999397	0.00000000	-54.82898000	-17.23056000
104.69999396	0.00000000	-53.71555000	-16.43701000
104.89999395	0.00000000	-52.17765000	-14.11786000
105.09999394	0.00000000	-50.59670000	-11.09744000
105.29999392	0.00000000	-49.05881000	-8.40305000
105.49999391	0.00000000	-47.94537000	-6.86515700
105.69999390	0.00000000	-47.90231000	-6.82209600
105.89999389	0.00000000	-48.64050000	-7.93553100
106.09999388	0.00000000	-49.43405000	-9.51648500
106.29999387	0.00000000	-50.59670000	-11.46653000
106.49999385	0.00000000	-51.71013000	-13.74262000
106.69999384	0.00000000	-52.13459000	-15.23130000
106.89999383	0.00000000	-52.13459000	-15.27436000
107.09999382	0.00000000	-51.71013000	-14.16092000
107.29999381	0.00000000	-50.59670000	-12.62918000
107.49999379	0.00000000	-49.43405000	-11.04823000
107.69999378	0.00000000	-48.68356000	-9.51648500
107.89999377	0.00000000	-48.27140000	-8.40305000
108.09999376	0.00000000	-48.68356000	-8.44611200
108.29999375	0.00000000	-49.43405000	-9.93479300
108.49999374	0.00000000	-50.63976000	-12.16781000
108.69999372	0.00000000	-52.13459000	-13.69956000
108.89999371	0.00000000	-53.24803000	-14.21014000
109.09999370	0.00000000	-53.24803000	-14.53617000
109.29999369	0.00000000	-52.13459000	-14.48696000
109.49999368	0.00000000	-50.59670000	-12.95522000
109.69999366	0.00000000	-49.05881000	-11.09744000
109.89999365	0.00000000	-47.90231000	-9.51648500
110.09999364	0.00000000	-47.52707000	-8.40305000
110.29999363	0.00000000	-47.85310000	-8.40305000
110.49999362	0.00000000	-48.64050000	-9.51648500
110.69999360	0.00000000	-49.43405000	-11.04823000
110.89999359	0.00000000	-50.59670000	-12.62918000
111.09999358	0.00000000	-51.75935000	-14.16092000
111.29999357	0.00000000	-52.50984000	-15.27436000
111.49999356	0.00000000	-52.92200000	-15.32357000
111.69999355	0.00000000	-52.50984000	-14.58538000
111.89999353	0.00000000	-51.75935000	-13.79183000
112.09999352	0.00000000	-50.59670000	-12.58612000
112.29999351	0.00000000	-49.48326000	-11.09744000
112.49999350	0.00000000	-49.05881000	-9.93479300
112.69999349	0.00000000	-49.01575000	-9.51648500
112.89999347	0.00000000	-49.05881000	-9.51648500
113.09999346	0.00000000	-49.43405000	-9.89173200
113.29999345	0.00000000	-50.22145000	-10.62992000
113.49999344	0.00000000	-50.92888000	-11.04823000
113.69999343	0.00000000	-51.34104000	-11.46653000
113.89999341	0.00000000	-50.97194000	-12.16166000
114.09999340	0.00000000	-50.63976000	-12.21087000
114.29999339	0.00000000	-50.55364000	-11.88484000
114.49999338	0.00000000	-50.17839000	-12.25394000
114.69999337	0.00000000	-49.43405000	-12.58612000
114.89999336	0.00000000	-49.05881000	-12.62918000
115.09999334	0.00000000	-49.01575000	-12.62918000
115.29999333	0.00000000	-49.01575000	-12.62918000
115.49999332	0.00000000	-49.05881000	-12.58612000
115.69999331	0.00000000	-49.43405000	-12.21087000
115.89999330	0.00000000	-50.17839000	-11.42347000
116.09999328	0.00000000	-50.55364000	-10.67298000
116.29999327	0.00000000	-50.59670000	-9.89173200
116.49999326	0.00000000	-50.59670000	-9.51648500
116.69999325	0.00000000	-50.59670000	-9.51648500
116.89999324	0.00000000	-50.59670000	-9.89173200
117.09999322	0.00000000	-50.55364000	-10.67298000
117.29999321	0.00000000	-50.17839000	-11.42347000
117.49999320	0.00000000	-49.39099000	-12.21087000
117.69999319	0.00000000	-48.64050000	-12.62918000
117.89999318	0.00000000	-47.90231000	-13.00443000
118.09999317	0.00000000	-47.90231000	-13.37352000
118.29999315	0.00000000	-48.59744000	-13.00443000
118.49999314	0.00000000	-49.01575000	-12.62918000
118.69999313	0.00000000	-49.48326000	-12.21087000
118.89999312	0.00000000	-50.59670000	-11.46653000
119.09999311	0.00000000	-51.75935000	-11.09129000
119.29999309	0.00000000	-52.50984000	-11.00517000
119.49999308	0.00000000	-52.92200000	-10.67298000
119.69999307	0.00000000	-52.50984000	-10.31004000
119.89999306	0.00000000	-51.75935000	-10.67298000
120.09999305	0.00000000	-50.55364000	-11.00517000
120.29999303	0.00000000	-49.05881000	-11.04823000
120.49999302	0.00000000	-47.90231000	-11.09129000
120.69999301	0.00000000	-47.47785000	-11.46653000
120.89999300	0.00000000	-47.47785000	-12.21087000
121.09999299	0.00000000	-47.90231000	-12.62918000
121.29999298	0.00000000	-49.05881000	-13.00443000
121.49999296	0.00000000	-50.59670000	-13.41658000
121.69999295	0.00000000	-52.13459000	-13.37967000
121.89999294	0.00000000	-53.29109000	-13.41658000
122.09999293	0.00000000	-53.71555000	-12.96137000
122.29999292	0.00000000	-53.71555000	-12.25394000
122.49999290	0.00000000	-53.29109000	-11.42347000
122.69999289	0.00000000	-52.13459000	-10.67298000
122.89999288	0.00000000	-50.63976000	-9.89173200
123.09999287	0.00000000	-49.43405000	-9.56569900
123.29999286	0.00000000	-48.64050000	-9.89173200
123.49999284	0.00000000	-47.90231000	-10.62992000
123.69999283	0.00000000	-47.90231000	-11.04823000
123.89999282	0.00000000	-48.59744000	-11.46653000
124.09999281	0.00000000	-49.01575000	-12.21087000
124.29999280	0.00000000	-49.43405000	-12.58612000
124.49999279	0.00000000	-50.22145000	-12.62918000
124.69999277	0.00000000	-50.97194000	-12.58612000
124.89999276	0.00000000	-51.75935000	-12.21087000
125.09999275	0.00000000	-52.13459000	-11.46653000
125.29999274	0.00000000	-52.13459000	-11.04823000
125.49999273	0.00000000	-51.75935000	-10.62992000
125.69999271	0.00000000	-50.97194000	-9.89173200
125.89999270	0.00000000	-50.22145000	-9.51648500
126.09999269	0.00000000	-49.39099000	-9.51648500
126.29999268	0.00000000	-48.64050000	-9.89173200
126.49999267	0.00000000	-47.85310000	-10.62992000
126.69999265	0.00000000	-47.52707000	-11.00517000
126.89999264	0.00000000	-47.85310000	-11.04823000
127.09999263	0.00000000	-48.64050000	-11.09129000
127.29999262	0.00000000	-49.43405000	-11.46653000
127.49999261	0.00000000	-50.59670000	-12.16166000
127.69999260	0.00000000	-51.71013000	-12.21087000
127.89999258	0.00000000	-52.13459000	-11.84178000
128.09999257	0.00000000	-52.13459000	-11.83563000
128.29999256	0.00000000	-51.75935000	-11.42347000
128.49999255	0.00000000	-50.97194000	-11.09129000
128.69999254	0.00000000	-50.17839000	-11.00517000
128.89999252	0.00000000	-49.01575000	-10.67298000
129.09999251	0.00000000	-47.90231000	-10.31004000
129.29999250	0.00000000	-47.52707000	-10.72219000
129.49999249	0.00000000	-47.85310000	-11.42347000
129.69999248	0.00000000	-48.64050000	-12.16166000
129.89999246	0.00000000	-49.43405000	-12.21087000
130.09999245	0.00000000	-50.59670000	-11.88484000
130.29999244	0.00000000	-51.71013000	-12.21087000
130.49999243	0.00000000	-52.08538000	-12.16166000
130.69999242	0.00000000	-51.75935000	-11.46653000
130.89999241	0.00000000	-50.97194000	-11.09129000
131.09999239	0.00000000	-50.22145000	-11.04823000
131.29999238	0.00000000	-49.43405000	-11.04823000
131.49999237	0.00000000	-49.05881000	-11.04823000
131.69999236	0.00000000	-49.01575000	-11.09129000
131.89999235	0.00000000	-49.05881000	-11.46653000
132.09999233	0.00000000	-49.43405000	-12.25394000
132.29999232	0.00000000	-50.22145000	-12.96137000
132.49999231	0.00000000	-50.92888000	-13.37352000
132.69999230	0.00000000	-51.34104000	-13.00443000
132.89999229	0.00000000	-50.97194000	-12.62918000
133.09999227	0.00000000	-50.63976000	-12.16166000
133.29999226	0.00000000	-50.59670000	-11.04823000
133.49999225	0.00000000	-50.55364000	-9.93479300
133.69999224	0.00000000	-50.17839000	-9.51648500
133.89999223	0.00000000	-49.43405000	-9.51648500
134.09999222	0.00000000	-49.10802000	-9.89173200
134.29999220	0.00000000	-49.43405000	-10.67298000
134.49999219	0.00000000	-50.12918000	-11.42347000
134.69999218	0.00000000	-50.17839000	-12.25394000
134.89999217	0.00000000	-49.80930000	-12.96137000
135.09999216	0.00000000	-49.80315000	-13.41658000
135.29999214	0.00000000	-49.39099000	-13.37967000
135.49999213	0.00000000	-49.05881000	-13.37352000
135.69999212	0.00000000	-49.01575000	-12.58612000
135.89999211	0.00000000	-49.05881000	-11.46653000
136.09999210	0.00000000	-49.43405000	-10.67298000
136.29999208	0.00000000	-50.17839000	-9.89173200
136.49999207	0.00000000	-50.55364000	-9.51648500
136.69999206	0.00000000	-50.59670000	-9.51648500
136.89999205	0.00000000	-50.59670000	-9.89173200
137.09999204	0.00000000	-50.55364000	-10.62992000
137.29999203	0.00000000	-50.17839000	-11.04823000
137.49999201	0.00000000	-49.43405000	-11.46653000
137.69999200	0.00000000	-49.05881000	-12.21087000
137.89999199	0.00000000	-48.97269000	-12.58612000
138.09999198	0.00000000	-48.64050000	-12.62918000
138.29999197	0.00000000	-48.27140000	-12.62918000
138.49999195	0.00000000	-48.68356000	-12.58612000
138.69999194	0.00000000	-49.39099000	-12.21087000
138.89999193	0.00000000	-50.22145000	-11.46653000
139.09999192	0.00000000	-50.92888000	-11.04823000
139.29999191	0.00000000	-51.34104000	-10.62992000
139.49999189	0.00000000	-50.97194000	-9.89173200
139.69999188	0.00000000	-50.59670000	-9.51648500
139.89999187	0.00000000	-50.12918000	-9.47342500
140.09999186	0.00000000	-49.05881000	-9.51648500
140.29999185	0.00000000	-48.32062000	-9.93479300
140.49999184	0.00000000	-48.64050000	-11.04823000
140.69999182	0.00000000	-48.97269000	-12.21087000
140.89999181	0.00000000	-49.05881000	-13.00443000
141.09999180	0.00000000	-49.43405000	-13.74262000
141.29999179	0.00000000	-50.17839000	-13.74262000
141.49999178	0.00000000	-50.55364000	-13.00443000
141.69999176	0.00000000	-50.59670000	-12.21087000
141.89999175	0.00000000	-50.55364000	-11.04823000
142.09999174	0.00000000	-50.17839000	-9.93479300
142.29999173	0.00000000	-49.43405000	-9.51648500
142.49999172	0.00000000	-49.05881000	-9.47342500
142.69999170	0.00000000	-49.01575000	-9.51648500
142.89999169	0.00000000	-49.01575000	-9.93479300
143.09999168	0.00000000	-49.05881000	-11.04823000
143.29999167	0.00000000	-49.43405000	-12.21087000
143.49999166	0.00000000	-50.17839000	-13.00443000
143.69999165	0.00000000	-50.50443000	-13.79183000
143.89999163	0.00000000	-50.22145000	-14.11786000
144.09999162	0.00000000	-49.80930000	-13.79183000
144.29999161	0.00000000	-49.80315000	-13.00443000
144.49999160	0.00000000	-49.39099000	-12.21087000
144.69999159	0.00000000	-49.05881000	-11.04823000
144.89999157	0.00000000	-49.01575000	-9.93479300
145.09999156	0.00000000	-49.05881000	-9.56569900
145.29999155	0.00000000	-49.43405000	-9.89173200
145.49999154	0.00000000	-50.17839000	-10.62992000
145.69999153	0.00000000	-50.55364000	-11.04823000
145.89999151	0.00000000	-50.59670000	-11.46653000
146.09999150	0.00000000	-50.59670000	-12.21087000
146.29999149	0.00000000	-50.59670000	-12.58612000
146.49999148	0.00000000	-50.55364000	-12.58612000
146.69999147	0.00000000	-50.17839000	-12.25394000
146.89999146	0.00000000	-49.43405000	-11.84178000
147.09999144	0.00000000	-49.05881000	-11.83563000
147.29999143	0.00000000	-49.01575000	-11.42347000
147.49999142	0.00000000	-49.01575000	-11.09129000
147.69999141	0.00000000	-49.05881000	-11.04823000
147.89999140	0.00000000	-49.43405000	-11.04823000
148.09999138	0.00000000	-50.17839000	-11.04823000
148.29999137	0.00000000	-50.55364000	-11.04823000
148.49999136	0.00000000	-50.59670000	-11.04823000
148.69999135	0.00000000	-50.59670000	-11.09129000
148.89999134	0.00000000	-50.55364000	-11.46653000
149.09999132	0.00000000	-50.17839000	-12.21087000
149.29999131	0.00000000	-49.43405000	-12.58612000
149.49999130	0.00000000	-49.05881000	-12.62918000
149.69999129	0.00000000	-49.01575000	-12.58612000
149.89999128	0.00000000	-49.01575000	-12.21087000
150.09999127	0.00000000	-49.01575000	-11.46653000
150.29999125	0.00000000	-49.01575000	-11.09129000
150.49999124	0.00000000	-49.01575000	-11.04823000
150.69999123	0.00000000	-49.05881000	-11.04823000
150.89999122	0.00000000	-49.43405000	-11.04823000
151.09999121	0.00000000	-50.17839000	-11.04823000
151.29999119	0.00000000	-50.55364000	-11.04823000
151.49999118	0.00000000	-50.55364000	-11.04823000
151.69999117	0.00000000	-50.17839000	-11.09129000
151.89999116	0.00000000	-49.43405000	-11.42347000
152.09999115	0.00000000	-49.05881000	-11.79257000
152.29999113	0.00000000	-49.01575000	-11.42347000
152.49999112	0.00000000	-49.01575000	-11.09129000
152.69999111	0.00000000	-49.01575000	-11.04823000
152.89999110	0.00000000	-49.01575000	-11.04823000
153.09999109	0.00000000	-49.01575000	-11.04823000
153.29999108	0.00000000	-49.01575000	-11.04823000
153.49999106	0.00000000	-49.01575000	-11.04823000
153.69999105	0.00000000	-49.05881000	-11.04823000
153.89999104	0.00000000	-49.43405000	-11.04823000
154.09999103	0.00000000	-50.12918000	-11.04823000
154.29999102	0.00000000	-50.17839000	-11.04823000
154.49999100	0.00000000	-49.85236000	-11.04823000
154.69999099	0.00000000	-50.22145000	-11.04823000
154.89999098	0.00000000	-50.50443000	-11.04823000
155.09999097	0.00000000	-50.17839000	-11.04823000
155.29999096	0.00000000	-49.43405000	-11.04823000
155.49999094	0.00000000	-49.05881000	-11.04823000
155.69999093	0.00000000	-49.01575000	-11.04823000
155.89999092	0.00000000	-49.01575000	-11.04823000
156.09999091	0.00000000	-49.01575000	-11.04823000
156.29999090	0.00000000	-49.01575000	-11.04823000
156.49999089	0.00000000	-49.05881000	-11.04823000
156.69999087	0.00000000	-49.43405000	-11.00517000
156.89999086	0.00000000	-50.17839000	-10.67298000
157.09999085	0.00000000	-50.55364000	-10.31004000
157.29999084	0.00000000	-50.59670000	-10.62992000
157.49999083	0.00000000	-50.55364000	-10.62992000
157.69999081	0.00000000	-50.17839000	-10.31004000
157.89999080	0.00000000	-49.43405000	-10.67298000
158.09999079	0.00000000	-49.05881000	-11.00517000
158.29999078	0.00000000	-49.01575000	-11.09129000
158.49999077	0.00000000	-48.97269000	-11.42347000
158.69999075	0.00000000	-48.64050000	-11.83563000
158.89999074	0.00000000	-48.27140000	-11.84178000
159.09999073	0.00000000	-48.64050000	-12.21087000
159.29999072	0.00000000	-48.97269000	-12.16166000
159.49999071	0.00000000	-49.01575000	-11.46653000
159.69999070	0.00000000	-49.05881000	-11.09129000
159.89999068	0.00000000	-49.43405000	-11.04823000
160.09999067	0.00000000	-50.17839000	-11.00517000
160.29999066	0.00000000	-50.50443000	-10.67298000
160.49999065	0.00000000	-50.22145000	-10.35310000
160.69999064	0.00000000	-49.80930000	-11.04823000
160.89999062	0.00000000	-49.80315000	-11.79257000
161.09999061	0.00000000	-49.39099000	-11.84178000
161.29999060	0.00000000	-49.05881000	-12.25394000
161.49999059	0.00000000	-49.01575000	-12.53691000
161.69999058	0.00000000	-49.01575000	-12.21087000
161.89999056	0.00000000	-49.01575000	-11.46653000
162.09999055	0.00000000	-49.01575000	-11.09129000
162.29999054	0.00000000	-49.01575000	-11.04823000
162.49999053	0.00000000	-49.01575000	-11.04823000
162.69999052	0.00000000	-49.01575000	-11.04823000
162.89999051	0.00000000	-49.01575000	-11.04823000
163.09999049	0.00000000	-49.01575000	-11.00517000
163.29999048	0.00000000	-49.05881000	-10.67298000
163.49999047	0.00000000	-49.43405000	-10.31004000
163.69999046	0.00000000	-50.17839000	-10.67298000
163.89999045	0.00000000	-50.50443000	-11.00517000
164.09999043	0.00000000	-50.17839000	-11.04823000
164.29999042	0.00000000	-49.43405000	-11.04823000
164.49999041	0.00000000	-49.05881000	-11.04823000
164.69999040	0.00000000	-48.97269000	-11.04823000
164.89999039	0.00000000	-48.64050000	-11.04823000
165.09999037	0.00000000	-48.27140000	-11.04823000
165.29999036	0.00000000	-48.64050000	-11.04823000
165.49999035	0.00000000	-48.97269000	-11.04823000
165.69999034	0.00000000	-49.01575000	-11.04823000
165.89999033	0.00000000	-49.01575000	-11.00517000
166.09999032	0.00000000	-49.01575000	-10.62992000
166.29999030	0.00000000	-49.05881000	-9.93479300
166.49999029	0.00000000	-49.39099000	-9.93479300
166.69999028	0.00000000	-49.80315000	-10.62992000
166.89999027	0.00000000	-49.76624000	-11.00517000
167.09999026	0.00000000	-49.80315000	-11.04823000
167.29999024	0.00000000	-49.39099000	-11.04823000
167.49999023	0.00000000	-49.05881000	-11.04823000
167.69999022	0.00000000	-49.01575000	-11.04823000
167.89999021	0.00000000	-49.01575000	-11.04823000
168.09999020	0.00000000	-49.01575000	-11.04823000
168.29999018	0.00000000	-49.01575000	-11.04823000
168.49999017	0.00000000	-49.01575000	-11.04823000
168.69999016	0.00000000	-49.01575000	-11.04823000
168.89999015	0.00000000	-49.01575000	-11.04823000
169.09999014	0.00000000	-49.05881000	-11.04823000
169.29999013	0.00000000	-49.43405000	-11.04823000
169.49999011	0.00000000	-50.12918000	-11.04823000
169.69999010	0.00000000	-50.12918000	-11.04823000
169.89999009	0.00000000	-49.43405000	-11.04823000
170.09999008	0.00000000	-49.05881000	-11.04823000
170.29999007	0.00000000	-49.01575000	-11.04823000
170.49999005	0.00000000	-49.01575000	-11.04823000
170.69999004	0.00000000	-49.01575000	-11.04823000
170.89999003	0.00000000	-49.01575000	-11.04823000
171.09999002	0.00000000	-49.01575000	-11.04823000
171.29999001	0.00000000	-49.01575000	-11.09129000
171.49998999	0.00000000	-49.01575000	-11.42347000
171.69998998	0.00000000	-49.01575000	-11.79257000
171.89998997	0.00000000	-49.01575000	-11.42347000
172.09998996	0.00000000	-49.01575000	-11.09129000
172.29998995	0.00000000	-49.01575000	-11.04823000
172.49998994	0.00000000	-49.01575000	-11.04823000
172.69998992	0.00000000	-49.01575000	-11.04823000
172.89998991	0.00000000	-49.01575000	-11.04823000
173.09998990	0.00000000	-49.01575000	-11.04823000
173.29998989	0.00000000	-49.01575000	-11.04823000
173.49998988	0.00000000	-49.01575000	-11.04823000
173.69998986	0.00000000	-49.01575000	-11.04823000
173.89998985	0.00000000	-49.01575000	-11.04823000
174.09998984	0.00000000	-49.01575000	-11.04823000
174.29998983	0.00000000	-49.01575000	-11.04823000
174.49998982	0.00000000	-49.01575000	-11.04823000
174.69998980	0.00000000	-49.01575000	-11.04823000
174.89998979	0.00000000	-49.01575000	-11.04823000
175.09998978	0.00000000	-49.01575000	-11.04823000
175.29998977	0.00000000	-49.01575000	-11.09129000
175.49998976	0.00000000	-49.01575000	-11.38041000
175.69998975	0.00000000	-49.01575000	-11.41732000
175.89998973	0.00000000	-49.01575000	-10.68528000
176.09998972	0.00000000	-49.01575000	-10.72219000
176.29998971	0.00000000	-49.01575000	-11.00517000
176.49998970	0.00000000	-49.01575000	-11.04823000
176.69998969	0.00000000	-49.01575000	-11.04823000
176.89998967	0.00000000	-49.01575000	-11.04823000
177.09998966	0.00000000	-49.01575000	-11.04823000
177.29998965	0.00000000	-49.05881000	-11.04823000
177.49998964	0.00000000	-49.34793000	-11.04823000
177.69998963	0.00000000	-49.38484000	-11.09129000
177.89998961	0.00000000	-48.64665000	-11.42347000
178.09998960	0.00000000	-48.68356000	-11.79257000
178.29998959	0.00000000	-48.97269000	-11.42347000
178.49998958	0.00000000	-49.01575000	-11.09129000
178.69998957	0.00000000	-49.01575000	-11.04823000
178.89998956	0.00000000	-49.01575000	-11.04823000
179.09998954	0.00000000	-49.01575000	-11.04823000
179.29998953	0.00000000	-49.01575000	-11.04823000
179.49998952	0.00000000	-49.01575000	-11.04823000
179.69998951	0.00000000	-49.01575000	-11.04823000
179.89998950	0.00000000	-49.01575000	-11.04823000
180.09998948	0.00000000	-49.01575000	-11.04823000
180.29998947	0.00000000	-49.01575000	-11.09129000
180.49998946	0.00000000	-49.01575000	-11.42347000
180.69998945	0.00000000	-49.01575000	-11.79257000
180.89998944	0.00000000	-49.01575000	-11.42347000
181.09998942	0.00000000	-49.01575000	-11.09129000
181.29998941	0.00000000	-49.01575000	-11.04823000
181.49998940	0.00000000	-49.01575000	-11.04823000
181.69998939	0.00000000	-49.01575000	-11.04823000
181.89998938	0.00000000	-49.01575000	-11.04823000
182.09998937	0.00000000	-49.01575000	-11.04823000
182.29998935	0.00000000	-49.01575000	-11.04823000
182.49998934	0.00000000	-49.01575000	-11.04823000
182.69998933	0.00000000	-49.01575000	-11.04823000
182.89998932	0.00000000	-49.01575000	-11.04823000
183.09998931	0.00000000	-49.01575000	-11.09129000
183.29998929	0.00000000	-49.01575000	-11.42347000
183.49998928	0.00000000	-49.01575000	-11.83563000
183.69998927	0.00000000	-49.01575000	-11.79872000
183.89998926	0.00000000	-49.01575000	-11.83563000
184.09998925	0.00000000	-49.01575000	-11.42347000
184.29998923	0.00000000	-49.01575000	-11.09129000
184.49998922	0.00000000	-49.01575000	-11.04823000
184.69998921	0.00000000	-49.01575000	-11.00517000
184.89998920	0.00000000	-49.01575000	-10.62992000
185.09998919	0.00000000	-49.01575000	-9.93479300
185.29998918	0.00000000	-49.01575000	-9.93479300
185.49998916	0.00000000	-49.01575000	-10.62992000
185.69998915	0.00000000	-49.01575000	-11.00517000
185.89998914	0.00000000	-49.01575000	-11.04823000
186.09998913	0.00000000	-48.97269000	-11.04823000
186.29998912	0.00000000	-48.64050000	-11.09129000
186.49998910	0.00000000	-48.27140000	-11.42347000
186.69998909	0.00000000	-48.64050000	-11.79257000
186.89998908	0.00000000	-48.97269000	-11.42347000
187.09998907	0.00000000	-49.01575000	-11.04823000
187.29998906	0.00000000	-49.01575000	-10.62992000
187.49998904	0.00000000	-49.01575000	-9.89173200
187.69998903	0.00000000	-49.01575000	-9.51648500
187.89998902	0.00000000	-49.01575000	-9.51648500
188.09998901	0.00000000	-49.01575000	-9.89173200
188.29998900	0.00000000	-49.01575000	-10.62992000
188.49998899	0.00000000	-49.01575000	-11.00517000
188.69998897	0.00000000	-49.01575000	-11.04823000
188.89998896	0.00000000	-49.01575000	-11.04823000
189.09998895	0.00000000	-49.01575000	-11.04823000
189.29998894	0.00000000	-49.01575000	-11.09129000
189.49998893	0.00000000	-49.01575000	-11.42347000
189.69998891	0.00000000	-49.01575000	-11.79257000
189.89998890	0.00000000	-49.01575000	-11.42347000
190.09998889	0.00000000	-49.01575000	-11.09129000
190.29998888	0.00000000	-49.01575000	-11.04823000
190.49998887	0.00000000	-49.01575000	-11.04823000
190.69998885	0.00000000	-49.01575000	-11.04823000
190.89998884	0.00000000	-49.01575000	-11.04823000
191.09998883	0.00000000	-49.01575000	-11.04823000
191.29998882	0.00000000	-49.01575000	-11.04823000
191.49998881	0.00000000	-49.01575000	-11.04823000
191.69998880	0.00000000	-49.01575000	-11.04823000
191.89998878	0.00000000	-49.01575000	-11.04823000
192.09998877	0.00000000	-49.01575000	-11.04823000
192.29998876	0.00000000	-49.01575000	-11.04823000
192.49998875	0.00000000	-49.01575000	-11.04823000
192.69998874	0.00000000	-49.01575000	-11.04823000
192.89998872	0.00000000	-49.01575000	-11.04823000
193.09998871	0.00000000	-49.01575000	-11.04823000
193.29998870	0.00000000	-49.01575000	-11.04823000
193.49998869	0.00000000	-49.01575000	-11.04823000
193.69998868	0.00000000	-49.01575000	-11.04823000
193.89998866	0.00000000	-49.01575000	-11.04823000
194.09998865	0.00000000	-49.01575000	-11.04823000
194.29998864	0.00000000	-48.97269000	-11.04823000
194.49998863	0.00000000	-48.64050000	-11.04823000
194.69998862	0.00000000	-48.27140000	-11.04823000
194.89998861	0.00000000	-48.59744000	-11.04823000
195.09998859	0.00000000	-48.59744000	-11.04823000
195.29998858	0.00000000	-48.27140000	-11.04823000
195.49998857	0.00000000	-48.64050000	-11.04823000
195.69998856	0.00000000	-48.97269000	-11.04823000
195.89998855	0.00000000	-49.01575000	-11.04823000
196.09998853	0.00000000	-49.01575000	-11.04823000
