Time	Channel A	Channel B	Channel C
(us)	(V)	(mV)	(mV)

-4.49999956	0.00000000	-17.43356000	1.53174200
-4.29999957	0.00000000	-17.76575000	1.57480300
-4.09999958	0.00000000	-18.17790000	1.53174200
-3.89999959	0.00000000	-18.14099000	1.19955700
-3.69999960	0.00000000	-18.17790000	0.83661410
-3.49999962	0.00000000	-17.76575000	1.15649600
-3.29999963	0.00000000	-17.43356000	1.15649600
-3.09999964	0.00000000	-17.43356000	0.79355310
-2.89999965	0.00000000	-17.76575000	0.83046260
-2.69999966	0.00000000	-18.13484000	0.79355310
-2.49999968	0.00000000	-17.80881000	1.19955700
-2.29999969	0.00000000	-17.80881000	1.53174200
-2.09999970	0.00000000	-18.17790000	1.57480300
-1.89999971	0.00000000	-18.14099000	1.57480300
-1.69999972	0.00000000	-18.17790000	1.57480300
-1.49999973	0.00000000	-17.76575000	1.57480300
-1.29999975	0.00000000	-17.43356000	1.57480300
-1.09999976	0.00000000	-17.39050000	1.57480300
-0.89999977	0.00000000	-17.39050000	1.57480300
-0.69999978	0.00000000	-17.39050000	1.57480300
-0.49999979	0.00000000	-17.39050000	1.57480300
-0.29999981	0.15871060	-17.39050000	1.57480300
-0.09999982	0.63668800	-17.39050000	1.57480300
0.10000017	0.95533960	-17.39050000	1.57480300
0.30000016	1.11466500	-17.43356000	1.53174200
0.50000015	0.95533960	-17.76575000	1.19955700
0.70000013	0.47736220	-18.13484000	0.79355310
0.90000012	-0.31803640	-17.76575000	0.83046260
1.10000011	-1.27399100	-17.43356000	0.79355310
1.30000010	-2.22994600	-17.39050000	1.19955700
1.50000009	-2.70792300	-17.34744000	1.53174200
1.70000008	-2.54859700	-17.01525000	1.57480300
1.90000006	-1.59264300	-16.64616000	1.57480300
2.10000005	0.31803640	-17.01525000	1.57480300
2.30000004	2.38927200	-17.39050000	1.53174200
2.50000003	4.30056600	-17.76575000	1.15649600
2.70000002	5.25652100	-18.13484000	0.41830710
2.90000000	4.93786900	-17.80881000	0.04306102
3.09999999	3.34522600	-17.80881000	0.00000000
3.29999998	0.31803640	-18.17790000	0.00000000
3.49999997	-3.02657500	-18.14099000	0.04306102
3.69999996	-6.05315000	-18.17790000	0.41830710
3.89999994	-7.80511800	-17.76575000	1.11343500
4.09999993	-7.64579200	-17.43356000	1.19955700
4.29999992	-5.41584600	-17.39050000	1.21186000
4.49999991	-1.59264300	-17.39050000	1.94389800
4.69999990	2.70792300	-17.39050000	1.90698800
4.89999989	6.69045300	-17.39050000	1.61786400
5.09999987	9.07972400	-17.43356000	1.53174200
5.29999986	9.23905000	-17.76575000	1.15649600
5.49999985	7.00848900	-18.13484000	0.41830710
5.69999984	3.02657500	-17.76575000	0.04306102
5.89999983	-1.59264300	-17.43356000	0.00000000
6.09999981	-6.05315000	-17.39050000	0.04306102
6.29999980	-8.92039900	-17.39050000	0.41830710
6.49999979	-9.39837600	-17.39050000	1.15649600
6.69999978	-7.48646600	-17.39050000	1.53174200
6.89999977	-3.98191400	-17.39050000	1.57480300
7.09999975	0.31803640	-17.39050000	1.57480300
7.29999974	4.45989200	-17.43356000	1.53174200
7.49999973	7.00848900	-17.76575000	1.19955700
7.69999972	7.80511800	-18.13484000	0.83661410
7.89999971	6.53112700	-17.80881000	1.15649600
8.09999970	3.98191400	-17.80881000	1.11343500
8.29999968	0.47736220	-18.13484000	0.41830710
8.49999967	-2.38927200	-17.76575000	0.09227362
8.69999966	-4.45989200	-17.43356000	0.41830710
8.89999965	-5.25652100	-17.39050000	1.15649600
9.09999964	-4.61921700	-17.39050000	1.53174200
9.29999962	-2.86724900	-17.39050000	1.57480300
9.49999961	-0.95533960	-17.39050000	1.57480300
9.69999960	0.95533960	-17.39050000	1.57480300
9.89999959	2.07062000	-17.39050000	1.57480300
10.09999958	2.54859700	-17.39050000	1.57480300
10.29999956	2.38927200	-17.39050000	1.53174200
10.49999955	1.59264300	-17.39050000	1.15649600
10.69999954	0.63668800	-17.39050000	0.46136810
10.89999953	-0.15871060	-17.39050000	0.46136810
11.09999952	-0.63668800	-17.39050000	1.15649600
11.29999951	-0.95533960	-17.39050000	1.53174200
11.49999949	-0.95533960	-17.39050000	1.57480300
11.69999948	-0.79601380	-17.39050000	1.57480300
11.89999947	-0.47736220	-17.39050000	1.57480300
12.09999946	-0.15871060	-17.39050000	1.57480300
12.29999945	-0.15871060	-17.39050000	1.57480300
12.49999943	0.00000000	-17.39050000	1.57480300
12.69999942	0.00000000	-17.39050000	1.53174200
12.89999941	0.00000000	-17.39050000	1.19955700
13.09999940	0.15871060	-17.39050000	0.83661410
13.29999939	0.00000000	-17.39050000	1.19955700
13.49999937	0.00000000	-17.39050000	1.53174200
13.69999936	0.00000000	-17.39050000	1.57480300
13.89999935	0.00000000	-17.39050000	1.57480300
14.09999934	-0.15871060	-17.39050000	1.57480300
14.29999933	-0.15871060	-17.39050000	1.57480300
14.49999932	-0.15871060	-17.39050000	1.57480300
14.69999930	0.00000000	-17.39050000	1.57480300
14.89999929	0.00000000	-17.39050000	1.57480300
15.09999928	0.00000000	-17.39050000	1.57480300
15.29999927	0.00000000	-17.39050000	1.57480300
15.49999926	0.00000000	-17.39050000	1.53174200
15.69999924	0.00000000	-17.39050000	1.19955700
15.89999923	0.00000000	-17.39050000	0.83661410
16.09999922	0.00000000	-17.43356000	1.19955700
16.29999921	0.00000000	-17.76575000	1.53174200
16.49999920	0.00000000	-18.13484000	1.57480300
16.69999919	0.00000000	-17.76575000	1.57480300
16.89999917	0.00000000	-17.39050000	1.57480300
17.09999916	0.00000000	-16.97219000	1.57480300
17.29999915	0.00000000	-16.22785000	1.57480300
17.49999914	0.00000000	-15.85261000	1.57480300
17.69999913	0.00000000	-15.85261000	1.53174200
17.89999911	0.00000000	-16.27707000	1.19955700
18.09999910	0.00000000	-17.43356000	0.83661410
18.29999909	0.00000000	-18.97145000	1.19955700
18.49999908	0.00000000	-20.55241000	1.53174200
18.69999907	0.00000000	-22.09030000	1.53174200
18.89999905	0.00000000	-23.20374000	1.19955700
19.09999904	0.00000000	-23.16068000	0.79355310
19.29999903	0.00000000	-21.62278000	0.83046260
19.49999902	0.00000000	-18.87918000	0.79355310
19.69999901	0.00000000	-15.39124000	1.19955700
19.89999900	0.00000000	-11.53420000	1.53174200
20.09999898	0.00000000	-8.41535400	1.53174200
20.29999897	0.00000000	-6.55142700	1.19955700
20.49999896	0.00000000	-6.60063900	0.83661410
20.69999895	0.00000000	-9.75639700	1.19955700
20.89999894	0.00000000	-15.20054000	1.48253000
21.09999892	0.00000000	-22.60088000	1.19955700
21.29999891	0.00000000	-30.60408000	0.83661410
21.49999890	0.00000000	-36.37426000	1.19955700
21.69999889	0.00000000	-38.28740000	1.53174200
21.89999888	0.00000000	-35.90674000	1.57480300
22.09999886	0.00000000	-28.83858000	1.57480300
22.29999885	0.00000000	-17.99951000	1.57480300
22.49999884	0.00000000	-5.25344500	1.57480300
22.69999883	0.00000000	6.28690900	1.57480300
22.89999882	0.00000000	13.54577000	1.57480300
23.09999881	0.00000000	14.19783000	1.57480300
23.29999879	0.00000000	6.84670200	1.61786400
23.49999878	0.00000000	-7.05585600	1.99311000
23.69999877	0.00000000	-24.13263000	2.73745100
23.89999876	0.00000000	-41.49237000	3.11269700
24.09999875	0.00000000	-54.93356000	3.11269700
24.29999873	0.00000000	-60.24852000	2.68823800
24.49999872	0.00000000	-56.00393000	1.53174200
24.69999871	0.00000000	-42.38435000	0.00000000
24.89999870	0.00000000	-22.27485000	-1.57480300
25.09999869	0.00000000	0.47367120	-3.11269700
25.29999867	0.00000000	20.10335000	-4.22613100
25.49999866	0.00000000	31.28075000	-4.22613100
25.69999865	0.00000000	31.69291000	-3.06348400
25.89999864	0.00000000	20.81078000	-1.07037400
26.09999863	0.00000000	1.12573800	2.08538400
26.29999862	0.00000000	-23.25295000	6.26845500
26.49999860	0.00000000	-46.75196000	10.11934000
26.69999859	0.00000000	-63.73647000	12.40157000
26.89999858	0.00000000	-69.92495000	12.77067000
27.09999857	0.00000000	-64.15477000	10.35925000
27.29999856	0.00000000	-47.95768000	5.33956700
27.49999854	0.00000000	-25.15994000	-1.66707700
27.69999853	0.00000000	-1.19955700	-9.33809000
27.89999852	0.00000000	18.89764000	-15.88336000
28.09999851	0.00000000	30.48105000	-19.28519000
28.29999850	0.00000000	30.94857000	-18.49163000
28.49999848	0.00000000	20.94611000	-13.01058000
28.69999847	0.00000000	3.16806100	-3.72170300
28.89999846	0.00000000	-18.46087000	7.89247000
29.09999845	0.00000000	-38.93332000	19.42052000
29.29999844	0.00000000	-53.68479000	27.87278000
29.49999843	0.00000000	-59.91634000	30.94242000
29.69999841	0.00000000	-56.88976000	27.78666000
29.89999840	0.00000000	-45.72466000	18.49163000
30.09999839	0.00000000	-29.52756000	4.55831700
30.29999838	0.00000000	-12.08784000	-10.86983000
30.49999837	0.00000000	3.03272600	-24.76009000
30.69999835	0.00000000	13.12746000	-33.58760000
30.89999834	0.00000000	16.24631000	-35.12549000
31.09999833	0.00000000	12.05709000	-28.90010000
31.29999832	0.00000000	2.05462600	-15.74803000
31.49999831	0.00000000	-11.06668000	1.62401600
31.69999829	0.00000000	-24.28026000	19.37131000
31.89999828	0.00000000	-35.16855000	33.67987000
32.09999827	0.00000000	-42.14444000	41.35088000
32.29999826	0.00000000	-43.68233000	40.60039000
32.49999825	0.00000000	-39.49311000	31.36073000
32.69999824	0.00000000	-31.02239000	16.30783000
32.89999822	0.00000000	-20.55241000	-1.53174200
33.09999821	0.00000000	-10.08243000	-18.90994000
33.29999820	0.00000000	-1.61786400	-32.05585000
33.49999819	0.00000000	2.61441900	-38.23819000
33.69999818	0.00000000	1.58710600	-36.28814000
33.89999816	0.00000000	-3.38951800	-26.24877000
34.09999815	0.00000000	-10.41462000	-10.45152000
34.29999814	0.00000000	-18.87918000	7.29576700
34.49999813	0.00000000	-26.55635000	23.13607000
34.69999812	0.00000000	-30.83784000	33.58760000
34.89999810	0.00000000	-31.66830000	36.74950000
35.09999809	0.00000000	-28.93085000	32.47416000
35.29999808	0.00000000	-23.24680000	21.69045000
35.49999807	0.00000000	-16.73843000	6.64370100
35.69999806	0.00000000	-11.66339000	-8.74138700
35.89999805	0.00000000	-8.50147600	-21.13681000
36.09999803	0.00000000	-7.38804100	-27.65133000
36.29999802	0.00000000	-8.96899500	-26.95005000
36.49999801	0.00000000	-13.15822000	-19.32825000
36.69999800	0.00000000	-18.55315000	-7.80634800
36.89999799	0.00000000	-23.53592000	4.60137700
37.09999797	0.00000000	-26.97465000	15.74803000
37.29999796	0.00000000	-27.34990000	22.63164000
37.49999795	0.00000000	-24.74163000	23.04995000
37.69999794	0.00000000	-20.50935000	17.37820000
37.89999793	0.00000000	-15.85261000	7.80634800
38.09999791	0.00000000	-11.62032000	-2.55905500
38.29999790	0.00000000	-8.92593500	-11.01132000
38.49999789	0.00000000	-8.50147600	-15.23745000
38.69999788	0.00000000	-10.03937000	-14.08095000
38.89999787	0.00000000	-13.15822000	-7.94783400
39.09999786	0.00000000	-17.39050000	1.57480300
39.29999784	0.00000000	-21.62278000	11.10359000
39.49999783	0.00000000	-24.74163000	17.24286000
39.69999782	0.00000000	-26.32259000	18.44242000
39.89999781	0.00000000	-26.32259000	14.59153000
40.09999780	0.00000000	-24.74163000	6.87746000
40.29999778	0.00000000	-21.66585000	-3.06963600
40.49999777	0.00000000	-17.80881000	-12.21703000
40.69999776	0.00000000	-14.27165000	-17.24286000
40.89999775	0.00000000	-11.15896000	-17.24286000
41.09999774	0.00000000	-8.87672100	-12.21703000
41.29999772	0.00000000	-8.45841400	-3.02042300
41.49999771	0.00000000	-9.62106200	7.29576700
41.69999770	0.00000000	-11.95251000	15.79724000
41.89999769	0.00000000	-15.43430000	20.44168000
42.09999768	0.00000000	-18.92839000	20.44168000
42.29999767	0.00000000	-22.04109000	15.79724000
42.49999765	0.00000000	-24.32333000	7.38188900
42.69999764	0.00000000	-24.74163000	-2.18380900
42.89999763	0.00000000	-23.67126000	-9.89788300
43.09999762	0.00000000	-22.09030000	-14.21629000
43.29999761	0.00000000	-20.13410000	-14.63459000
43.49999759	0.00000000	-17.80881000	-11.56496000
43.69999758	0.00000000	-15.90182000	-5.80708600
43.89999757	0.00000000	-14.69611000	1.11343500
44.09999756	0.00000000	-14.27165000	7.24655500
44.29999755	0.00000000	-14.22859000	11.14665000
44.49999753	0.00000000	-14.22859000	11.98327000
44.69999752	0.00000000	-14.22859000	10.49459000
44.89999751	0.00000000	-14.22859000	7.38188900
45.09999750	0.00000000	-14.27165000	3.15575800
45.29999749	0.00000000	-14.69611000	-1.07037400
45.49999748	0.00000000	-15.90182000	-4.13385800
45.69999746	0.00000000	-17.85802000	-5.33956700
45.89999745	0.00000000	-20.59547000	-4.60137700
46.09999744	0.00000000	-23.67126000	-2.73745100
46.29999743	0.00000000	-26.36565000	-0.41830710
46.49999742	0.00000000	-27.81127000	1.53174200
46.69999740	0.00000000	-27.01772000	3.15575800
46.89999739	0.00000000	-23.48671000	4.64443900
47.09999738	0.00000000	-18.08563000	5.43184000
47.29999737	0.00000000	-11.48499000	5.01968500
47.49999736	0.00000000	-5.33956700	3.90009800
47.69999734	0.00000000	-1.15649600	1.95004900
47.89999733	0.00000000	-0.41215550	0.00000000
48.09999732	0.00000000	-3.89394600	-1.95004900
48.29999731	0.00000000	-10.45768000	-3.80782500
48.49999730	0.00000000	-19.01451000	-4.18307100
48.69999729	0.00000000	-27.86048000	-3.06348400
48.89999727	0.00000000	-34.75024000	-1.11343500
49.09999726	0.00000000	-37.44463000	1.62401600
49.29999725	0.00000000	-35.12549000	4.68750000
49.49999724	0.00000000	-28.55561000	7.38188900
49.69999723	0.00000000	-18.92839000	8.87672100
49.89999721	0.00000000	-8.92593500	8.45226300
50.09999720	0.00000000	-1.19955700	5.80093500
50.29999719	0.00000000	2.65748000	1.95004900
50.49999718	0.00000000	1.54404500	-1.90698800
50.69999717	0.00000000	-3.85088600	-5.38262700
50.89999715	0.00000000	-11.99557000	-7.29576700
51.09999714	0.00000000	-21.62278000	-7.29576700
51.29999713	0.00000000	-30.00123000	-5.33956700
51.49999712	0.00000000	-34.28272000	-1.43946800
51.69999711	0.00000000	-33.58760000	3.44488200
51.89999710	0.00000000	-28.97392000	7.75098400
52.09999708	0.00000000	-21.66585000	10.03937000
52.29999707	0.00000000	-13.57652000	10.86368000
52.49999706	0.00000000	-7.05585600	9.24581600
52.69999705	0.00000000	-3.53100400	5.85014700
52.89999704	0.00000000	-3.94315900	1.57480300
53.09999702	0.00000000	-7.76328700	-2.60211600
53.29999701	0.00000000	-14.27165000	-5.33956700
53.49999700	0.00000000	-21.16142000	-6.13312000
53.69999699	0.00000000	-26.18725000	-5.38262700
53.89999698	0.00000000	-28.50640000	-3.06348400
54.09999696	0.00000000	-27.34990000	0.00000000
54.29999695	0.00000000	-23.16068000	3.06348400
54.49999694	0.00000000	-17.43356000	5.33956700
54.69999693	0.00000000	-12.03863000	5.75787400
54.89999692	0.00000000	-8.55068800	4.64443900
55.09999691	0.00000000	-7.38804100	2.73745100
55.29999689	0.00000000	-8.92593500	0.46751960
55.49999688	0.00000000	-12.73991000	-1.02116100
55.69999687	0.00000000	-17.34744000	-1.06422200
55.89999686	0.00000000	-21.62278000	0.09227362
56.09999685	0.00000000	-24.64936000	1.99311000
56.29999683	0.00000000	-25.43676000	4.22613100
56.49999682	0.00000000	-23.53592000	5.33956700
56.69999681	0.00000000	-20.13410000	4.60137700
56.89999680	0.00000000	-16.22785000	2.69439000
57.09999679	0.00000000	-12.78297000	-0.04306102
57.29999677	0.00000000	-10.45768000	-3.11269700
57.49999676	0.00000000	-10.08243000	-5.75787400
57.69999675	0.00000000	-11.57726000	-6.82824800
57.89999674	0.00000000	-14.27165000	-5.29650500
58.09999673	0.00000000	-17.34744000	-1.43946800
58.29999672	0.00000000	-19.99877000	3.57406500
58.49999670	0.00000000	-21.20448000	8.91978400
58.69999669	0.00000000	-20.88459000	12.72761000
58.89999668	0.00000000	-20.08489000	13.52116000
59.09999667	0.00000000	-18.50394000	11.56496000
59.29999666	0.00000000	-16.27707000	6.87746000
59.49999664	0.00000000	-14.73917000	0.00000000
59.69999663	0.00000000	-14.32087000	-6.92052100
59.89999662	0.00000000	-14.69611000	-11.89715000
60.09999661	0.00000000	-15.85261000	-13.84104000
60.29999660	0.00000000	-17.34744000	-11.89715000
60.49999658	0.00000000	-18.50394000	-6.87746000
60.69999657	0.00000000	-18.87918000	0.46751960
60.89999656	0.00000000	-18.50394000	8.50147600
61.09999655	0.00000000	-17.39050000	14.67766000
61.29999654	0.00000000	-16.22785000	17.74729000
61.49999653	0.00000000	-15.43430000	16.95374000
61.69999651	0.00000000	-14.64690000	11.94021000
61.89999650	0.00000000	-14.32087000	4.26919300
62.09999649	0.00000000	-14.73917000	-4.22613100
62.29999648	0.00000000	-16.27707000	-11.52190000
62.49999647	0.00000000	-18.55315000	-15.74803000
62.69999645	0.00000000	-20.46014000	-15.74803000
62.89999644	0.00000000	-21.62278000	-11.56496000
63.09999643	0.00000000	-21.57972000	-4.64443900
63.29999642	0.00000000	-20.08489000	3.11269700
63.49999641	0.00000000	-17.76575000	10.45152000
63.69999639	0.00000000	-15.43430000	15.79109000
63.89999638	0.00000000	-13.11516000	17.37205000
64.09999637	0.00000000	-11.62032000	15.14518000
64.29999636	0.00000000	-11.62032000	10.49459000
64.49999635	0.00000000	-13.11516000	4.26919300
64.69999634	0.00000000	-15.43430000	-2.64517700
64.89999632	0.00000000	-17.76575000	-8.40920300
65.09999631	0.00000000	-20.08489000	-11.52190000
65.29999630	0.00000000	-21.57972000	-11.61417000
65.49999629	0.00000000	-21.62278000	-9.33809000
65.69999628	0.00000000	-20.41708000	-5.80093500
65.89999626	0.00000000	-18.17790000	-1.11343500
66.09999625	0.00000000	-15.53273000	4.22613100
66.29999624	0.00000000	-14.36393000	8.45226300
66.49999623	0.00000000	-14.27165000	10.49459000
66.69999622	0.00000000	-14.69611000	10.91289000
66.89999620	0.00000000	-15.90182000	10.16855000
67.09999619	0.00000000	-17.76575000	8.21850300
67.29999618	0.00000000	-19.62352000	5.89320800
67.49999617	0.00000000	-19.99877000	3.11269700
67.69999616	0.00000000	-18.92839000	-0.04306102
67.89999615	0.00000000	-17.34744000	-3.48794300
68.09999613	0.00000000	-15.39124000	-6.54527500
68.29999612	0.00000000	-13.15822000	-7.75713500
68.49999611	0.00000000	-12.03863000	-7.75713500
68.69999610	0.00000000	-12.78297000	-6.54527500
68.89999609	0.00000000	-14.69611000	-3.43873000
69.09999607	0.00000000	-17.43356000	0.41830710
69.29999606	0.00000000	-20.50935000	4.73671200
69.49999605	0.00000000	-23.20374000	8.96284400
69.69999604	0.00000000	-24.69857000	12.03248000
69.89999603	0.00000000	-24.32333000	13.18898000
70.09999601	0.00000000	-21.95497000	11.98942000
70.29999600	0.00000000	-18.08563000	8.54453700
70.49999599	0.00000000	-13.06594000	3.53100400
70.69999598	0.00000000	-8.50147600	-1.48868100
70.89999597	0.00000000	-5.80708600	-5.80093500
71.09999596	0.00000000	-5.80708600	-8.82750900
71.29999594	0.00000000	-8.45841400	-9.56569900
71.49999593	0.00000000	-12.73991000	-7.29576700
71.69999592	0.00000000	-17.80881000	-3.11269700
71.89999591	0.00000000	-23.20374000	1.53174200
72.09999590	0.00000000	-27.39296000	5.80093500
72.29999588	0.00000000	-28.97392000	8.87057000
72.49999587	0.00000000	-27.86048000	10.03322000
72.69999586	0.00000000	-24.74163000	8.91978400
72.89999585	0.00000000	-20.08489000	6.26845500
73.09999584	0.00000000	-14.69611000	3.19881900
73.29999582	0.00000000	-10.03937000	0.46751960
73.49999581	0.00000000	-6.96973400	-1.43946800
73.69999580	0.00000000	-6.18233200	-2.22687000
73.89999579	0.00000000	-8.13238100	-1.48868100
74.09999578	0.00000000	-11.90330000	0.00000000
74.29999577	0.00000000	-16.59695000	1.48868100
74.49999575	0.00000000	-20.79232000	2.22687000
74.69999574	0.00000000	-23.94808000	1.48868100
74.89999573	0.00000000	-25.06767000	0.04306102
75.09999572	0.00000000	-24.36639000	-1.15649600
75.29999571	0.00000000	-22.04109000	-1.90698800
75.49999569	0.00000000	-18.97145000	-2.26993100
75.69999568	0.00000000	-15.90182000	-1.43946800
75.89999567	0.00000000	-13.57652000	0.51058070
76.09999566	0.00000000	-12.73991000	3.57406500
76.29999565	0.00000000	-12.69070000	6.96358300
76.49999563	0.00000000	-13.11516000	8.87672100
76.69999562	0.00000000	-14.27165000	8.91978400
76.89999561	0.00000000	-15.76649000	7.29576700
77.09999560	0.00000000	-16.92298000	3.80782500
77.29999559	0.00000000	-17.29823000	-1.15649600
77.49999558	0.00000000	-16.97219000	-5.75787400
77.69999556	0.00000000	-16.27707000	-8.87057000
77.89999555	0.00000000	-16.32013000	-10.03322000
78.09999554	0.00000000	-17.39050000	-8.82750900
78.29999553	0.00000000	-18.55315000	-5.33956700
78.49999552	0.00000000	-19.30364000	0.04306102
78.69999550	0.00000000	-19.71580000	5.80093500
78.89999549	0.00000000	-19.30364000	10.45152000
79.09999548	0.00000000	-18.50394000	13.18898000
79.29999547	0.00000000	-16.92298000	13.56422000
79.49999546	0.00000000	-14.64690000	11.61417000
79.69999544	0.00000000	-12.73991000	7.33882900
79.89999543	0.00000000	-11.53420000	1.62401600
80.09999542	0.00000000	-11.20202000	-3.76476400
80.29999541	0.00000000	-11.99557000	-7.29576700
80.49999540	0.00000000	-14.32087000	-8.91978400
80.69999539	0.00000000	-17.34744000	-8.91978400
80.89999537	0.00000000	-20.08489000	-7.33882900
81.09999536	0.00000000	-21.99803000	-4.22613100
81.29999535	0.00000000	-22.78543000	0.00000000
81.49999534	0.00000000	-21.99803000	4.26919300
81.69999533	0.00000000	-20.08489000	7.75713500
81.89999531	0.00000000	-17.39050000	10.11934000
82.09999530	0.00000000	-14.69611000	10.86983000
82.29999529	0.00000000	-12.78297000	10.11934000
82.49999528	0.00000000	-11.99557000	7.80019600
82.69999527	0.00000000	-12.73991000	4.68750000
82.89999525	0.00000000	-14.22859000	1.15649600
83.09999524	0.00000000	-15.80955000	-2.69439000
83.29999523	0.00000000	-17.34744000	-5.75787400
83.49999522	0.00000000	-18.50394000	-7.33882900
83.69999521	0.00000000	-18.92839000	-7.38188900
83.89999520	0.00000000	-18.92839000	-6.17618100
84.09999518	0.00000000	-18.55315000	-3.80782500
84.29999517	0.00000000	-17.76575000	0.04306102
84.49999516	0.00000000	-17.01525000	4.31840500
84.69999515	0.00000000	-16.22785000	8.17544300
84.89999514	0.00000000	-15.85261000	11.23893000
85.09999512	0.00000000	-15.80955000	11.98327000
85.29999511	0.00000000	-15.80955000	10.49459000
85.49999510	0.00000000	-15.76649000	7.38188900
85.69999509	0.00000000	-15.39124000	3.11269700
85.89999508	0.00000000	-14.64690000	-1.53174200
86.09999506	0.00000000	-14.27165000	-5.80093500
86.29999505	0.00000000	-14.27165000	-8.82750900
86.49999504	0.00000000	-14.69611000	-9.61491000
86.69999503	0.00000000	-15.90182000	-7.67101300
86.89999502	0.00000000	-17.76575000	-3.85703700
87.09999501	0.00000000	-19.66658000	1.19955700
87.29999499	0.00000000	-20.46014000	6.17618100
87.49999498	0.00000000	-20.50935000	10.03322000
87.69999497	0.00000000	-20.04183000	11.56496000
87.89999496	0.00000000	-18.50394000	10.45152000
88.09999495	0.00000000	-16.22785000	7.38188900
88.29999493	0.00000000	-14.32087000	3.11269700
88.49999492	0.00000000	-13.11516000	-1.53174200
88.69999491	0.00000000	-12.73991000	-5.71481200
88.89999490	0.00000000	-13.11516000	-7.99089500
89.09999489	0.00000000	-14.32087000	-7.25270600
89.29999487	0.00000000	-16.22785000	-4.22613100
89.49999486	0.00000000	-18.50394000	0.04306102
89.69999485	0.00000000	-20.04183000	4.64443900
89.89999484	0.00000000	-20.46014000	8.50147600
90.09999483	0.00000000	-20.08489000	10.40846000
90.29999482	0.00000000	-18.92839000	10.03322000
90.49999480	0.00000000	-17.39050000	7.33882900
90.69999479	0.00000000	-15.85261000	3.11269700
90.89999478	0.00000000	-14.69611000	-1.48868100
91.09999477	0.00000000	-14.32087000	-5.33956700
91.29999476	0.00000000	-14.64690000	-7.24655500
91.49999474	0.00000000	-15.39124000	-6.82824800
91.69999473	0.00000000	-15.76649000	-3.76476400
91.89999472	0.00000000	-15.80955000	1.15649600
92.09999471	0.00000000	-15.80955000	5.75787400
92.29999470	0.00000000	-15.80955000	8.87057000
92.49999468	0.00000000	-15.85261000	10.03322000
92.69999467	0.00000000	-16.22785000	8.87057000
92.89999466	0.00000000	-17.01525000	5.75787400
93.09999465	0.00000000	-17.76575000	1.19955700
93.29999464	0.00000000	-18.55315000	-3.38951800
93.49999463	0.00000000	-18.92839000	-6.09005900
93.69999461	0.00000000	-18.92839000	-6.87130900
93.89999460	0.00000000	-18.50394000	-5.29650500
94.09999459	0.00000000	-17.34744000	-1.48868100
94.29999458	0.00000000	-15.80955000	3.06963600
94.49999457	0.00000000	-14.22859000	6.92052100
94.69999455	0.00000000	-12.69070000	8.87672100
94.89999454	0.00000000	-11.57726000	8.87672100
95.09999453	0.00000000	-11.62032000	6.92052100
95.29999452	0.00000000	-13.11516000	3.11269700
95.49999451	0.00000000	-15.47736000	-1.07037400
95.69999449	0.00000000	-18.18405000	-4.13385800
95.89999448	0.00000000	-21.29675000	-5.33956700
96.09999447	0.00000000	-23.53592000	-4.60137700
96.29999446	0.00000000	-24.32333000	-2.69439000
96.49999445	0.00000000	-23.16068000	0.04306102
96.69999444	0.00000000	-20.46014000	3.11269700
96.89999442	0.00000000	-16.97219000	5.75787400
97.09999441	0.00000000	-13.11516000	6.92052100
97.29999440	0.00000000	-9.99630800	6.17618100
97.49999439	0.00000000	-8.08316900	4.31840500
97.69999438	0.00000000	-7.72022600	1.99311000
97.89999436	0.00000000	-9.71333600	0.04306102
98.09999435	0.00000000	-13.44119000	-1.48868100
98.29999434	0.00000000	-17.71038000	-2.22687000
98.49999433	0.00000000	-20.83538000	-1.48868100
98.69999432	0.00000000	-23.24680000	-0.04306102
98.89999430	0.00000000	-24.69857000	1.15649600
99.09999429	0.00000000	-24.32333000	1.95004900
99.29999428	0.00000000	-22.04109000	2.73745100
99.49999427	0.00000000	-18.92839000	3.06348400
99.69999426	0.00000000	-15.43430000	2.73745100
99.89999425	0.00000000	-11.95251000	1.99311000
100.09999423	0.00000000	-9.62106200	1.66707700
100.29999422	0.00000000	-8.45841400	1.99311000
100.49999421	0.00000000	-8.87672100	2.73745100
100.69999420	0.00000000	-11.15896000	3.11269700
100.89999419	0.00000000	-14.22859000	3.11269700
101.09999417	0.00000000	-17.34744000	2.68823800
101.29999416	0.00000000	-20.08489000	1.53174200
101.49999415	0.00000000	-21.99803000	0.00000000
101.69999414	0.00000000	-22.78543000	-1.48868100
101.89999413	0.00000000	-22.04109000	-2.26993100
102.09999411	0.00000000	-20.50935000	-1.90698800
102.29999410	0.00000000	-18.50394000	-1.11343500
102.49999409	0.00000000	-15.80955000	0.51058070
102.69999408	0.00000000	-13.15822000	3.15575800
102.89999407	0.00000000	-11.57726000	5.80093500
103.09999406	0.00000000	-11.20202000	7.33882900
103.29999404	0.00000000	-11.90330000	7.33882900
103.49999403	0.00000000	-13.47810000	5.80093500
103.69999402	0.00000000	-15.02214000	3.15575800
103.89999401	0.00000000	-17.01525000	0.41830710
104.09999400	0.00000000	-18.87918000	-1.90698800
104.29999398	0.00000000	-20.04183000	-3.80782500
104.49999397	0.00000000	-20.08489000	-4.18307100
104.69999396	0.00000000	-19.30364000	-3.06348400
104.89999395	0.00000000	-18.17790000	-1.11343500
105.09999394	0.00000000	-16.60310000	1.58095500
105.29999392	0.00000000	-15.43430000	4.22613100
105.49999391	0.00000000	-14.27165000	5.80093500
105.69999390	0.00000000	-13.57652000	6.17618100
105.89999389	0.00000000	-14.27165000	5.43184000
106.09999388	0.00000000	-15.39124000	3.53100400
106.29999387	0.00000000	-16.22785000	1.62401600
106.49999385	0.00000000	-17.39050000	0.00000000
106.69999384	0.00000000	-18.46087000	-1.48868100
106.89999383	0.00000000	-18.50394000	-2.22687000
107.09999382	0.00000000	-17.76575000	-1.48868100
107.29999381	0.00000000	-16.97219000	0.04306102
107.49999379	0.00000000	-15.80955000	1.95004900
107.69999378	0.00000000	-14.69611000	3.85088600
107.89999377	0.00000000	-14.32087000	4.60137700
108.09999376	0.00000000	-14.69611000	4.26919300
108.29999375	0.00000000	-15.85261000	3.11269700
108.49999374	0.00000000	-17.34744000	1.57480300
108.69999372	0.00000000	-18.50394000	0.04306102
108.89999371	0.00000000	-18.92839000	-1.11343500
109.09999370	0.00000000	-18.92839000	-1.48253000
109.29999369	0.00000000	-18.50394000	-1.06422200
109.49999368	0.00000000	-17.34744000	0.46751960
109.69999366	0.00000000	-15.85261000	2.69439000
109.89999365	0.00000000	-14.64690000	4.26919300
110.09999364	0.00000000	-13.89641000	5.06274600
110.29999363	0.00000000	-13.48425000	5.43184000
110.49999362	0.00000000	-13.94562000	4.64443900
110.69999360	0.00000000	-15.02214000	3.15575800
110.89999359	0.00000000	-16.59695000	1.57480300
111.09999358	0.00000000	-17.72268000	0.04306102
111.29999357	0.00000000	-18.50394000	-1.11343500
111.49999356	0.00000000	-18.50394000	-1.48253000
111.69999355	0.00000000	-17.76575000	-1.11343500
111.89999353	0.00000000	-17.01525000	0.00000000
112.09999352	0.00000000	-16.22785000	1.15649600
112.29999351	0.00000000	-15.80955000	1.95004900
112.49999350	0.00000000	-15.43430000	2.73745100
112.69999349	0.00000000	-15.06521000	3.11269700
112.89999347	0.00000000	-15.43430000	3.15575800
113.09999346	0.00000000	-15.76649000	3.11269700
113.29999345	0.00000000	-15.85261000	2.73745100
113.49999344	0.00000000	-16.22785000	1.99311000
113.69999343	0.00000000	-16.97219000	1.57480300
113.89999341	0.00000000	-17.29823000	1.15649600
114.09999340	0.00000000	-16.97219000	0.41830710
114.29999339	0.00000000	-16.22785000	0.04306102
114.49999338	0.00000000	-15.85261000	0.00000000
114.69999337	0.00000000	-15.80955000	0.00000000
114.89999336	0.00000000	-15.80955000	0.00000000
115.09999334	0.00000000	-15.80955000	0.00000000
115.29999333	0.00000000	-15.76649000	0.04306102
115.49999332	0.00000000	-15.43430000	0.41830710
115.69999331	0.00000000	-15.06521000	1.15649600
115.89999330	0.00000000	-15.43430000	1.57480300
116.09999328	0.00000000	-15.80955000	1.99311000
116.29999327	0.00000000	-16.22785000	2.73745100
116.49999326	0.00000000	-16.97219000	3.11269700
116.69999325	0.00000000	-17.34744000	3.15575800
116.89999324	0.00000000	-17.34744000	3.11269700
117.09999322	0.00000000	-16.97219000	2.73745100
117.29999321	0.00000000	-16.18479000	1.95004900
117.49999320	0.00000000	-15.43430000	1.19955700
117.69999319	0.00000000	-14.64690000	0.41830710
117.89999318	0.00000000	-14.27165000	0.04306102
118.09999317	0.00000000	-14.22859000	0.00000000
118.29999315	0.00000000	-14.27165000	0.04306102
118.49999314	0.00000000	-14.69611000	0.41830710
118.69999313	0.00000000	-15.80955000	1.15649600
118.89999312	0.00000000	-16.97219000	1.57480300
119.09999311	0.00000000	-17.76575000	1.99311000
119.29999309	0.00000000	-18.55315000	2.73745100
119.49999308	0.00000000	-18.87918000	3.11269700
119.69999307	0.00000000	-18.55315000	3.15575800
119.89999306	0.00000000	-17.72268000	3.15575800
120.09999305	0.00000000	-16.59695000	3.11269700
120.29999303	0.00000000	-15.02214000	2.73745100
120.49999302	0.00000000	-13.89641000	1.99311000
120.69999301	0.00000000	-13.06594000	1.57480300
120.89999300	0.00000000	-12.78297000	1.15649600
121.09999299	0.00000000	-13.48425000	0.41830710
121.29999298	0.00000000	-15.01599000	0.04306102
121.49999296	0.00000000	-16.18479000	0.00000000
121.69999295	0.00000000	-17.39050000	0.04306102
121.89999294	0.00000000	-18.50394000	0.41830710
122.09999293	0.00000000	-18.92839000	1.15649600
122.29999292	0.00000000	-18.92839000	1.57480300
122.49999290	0.00000000	-18.50394000	1.99311000
122.69999289	0.00000000	-17.39050000	2.73745100
122.89999288	0.00000000	-16.22785000	3.11269700
123.09999287	0.00000000	-15.43430000	3.15575800
123.29999286	0.00000000	-14.64690000	3.11269700
123.49999284	0.00000000	-14.27165000	2.73745100
123.69999283	0.00000000	-14.22859000	1.99311000
123.89999282	0.00000000	-14.22859000	1.57480300
124.09999281	0.00000000	-14.27165000	1.15649600
124.29999280	0.00000000	-14.69611000	0.41830710
124.49999279	0.00000000	-15.80955000	0.04306102
124.69999277	0.00000000	-16.97219000	0.00000000
124.89999276	0.00000000	-17.72268000	0.04306102
125.09999275	0.00000000	-18.17790000	0.41830710
125.29999274	0.00000000	-18.14099000	1.19955700
125.49999273	0.00000000	-18.17790000	1.95004900
125.69999271	0.00000000	-17.72268000	2.73745100
125.89999270	0.00000000	-16.97219000	3.11269700
126.09999269	0.00000000	-15.80955000	3.15575800
126.29999268	0.00000000	-14.69611000	3.11269700
126.49999267	0.00000000	-14.27165000	2.73745100
126.69999265	0.00000000	-14.22859000	1.99311000
126.89999264	0.00000000	-14.27165000	1.61786400
127.09999263	0.00000000	-14.64690000	1.53174200
127.29999262	0.00000000	-15.43430000	1.15649600
127.49999261	0.00000000	-16.22785000	0.46136810
127.69999260	0.00000000	-17.39050000	0.41830710
127.89999258	0.00000000	-18.50394000	0.78124990
128.09999257	0.00000000	-18.87918000	0.79355310
128.29999256	0.00000000	-18.50394000	1.19955700
128.49999255	0.00000000	-17.34744000	1.53174200
128.69999254	0.00000000	-15.85261000	1.61786400
128.89999252	0.00000000	-14.69611000	1.95004900
129.09999251	0.00000000	-14.27165000	2.31914400
129.29999250	0.00000000	-14.22859000	1.95004900
129.49999249	0.00000000	-14.27165000	1.61786400
129.69999248	0.00000000	-14.69611000	1.57480300
129.89999246	0.00000000	-15.85261000	1.53174200
130.09999245	0.00000000	-17.29823000	1.19955700
130.29999244	0.00000000	-18.08563000	0.83661410
130.49999243	0.00000000	-17.76575000	1.19955700
130.69999242	0.00000000	-17.39050000	1.53174200
130.89999241	0.00000000	-16.97219000	1.57480300
131.09999239	0.00000000	-16.18479000	1.61786400
131.29999238	0.00000000	-15.43430000	1.90698800
131.49999237	0.00000000	-14.64690000	1.94389800
131.69999236	0.00000000	-14.32087000	1.16879900
131.89999235	0.00000000	-14.64690000	0.83046260
132.09999233	0.00000000	-15.43430000	0.37524600
132.29999232	0.00000000	-16.18479000	0.04306102
132.49999231	0.00000000	-16.97219000	0.00000000
132.69999230	0.00000000	-17.34744000	0.04306102
132.89999229	0.00000000	-17.34744000	0.46136810
133.09999227	0.00000000	-16.97219000	1.57480300
133.29999226	0.00000000	-16.22785000	2.68823800
133.49999225	0.00000000	-15.85261000	3.11269700
133.69999224	0.00000000	-15.80955000	3.15575800
133.89999223	0.00000000	-15.80955000	3.15575800
134.09999222	0.00000000	-15.80955000	3.11269700
134.29999220	0.00000000	-15.80955000	2.68823800
134.49999219	0.00000000	-15.80955000	1.57480300
134.69999218	0.00000000	-15.80955000	0.46136810
134.89999217	0.00000000	-15.80955000	0.04306102
135.09999216	0.00000000	-15.80955000	0.00000000
135.29999214	0.00000000	-15.80955000	0.00000000
135.49999213	0.00000000	-15.80955000	0.04306102
135.69999212	0.00000000	-15.80955000	0.41830710
135.89999211	0.00000000	-15.80955000	1.19955700
136.09999210	0.00000000	-15.85261000	1.95004900
136.29999208	0.00000000	-16.22785000	2.73745100
136.49999207	0.00000000	-16.97219000	3.11269700
136.69999206	0.00000000	-17.34744000	3.15575800
136.89999205	0.00000000	-17.34744000	3.11269700
137.09999204	0.00000000	-16.97219000	2.73745100
137.29999203	0.00000000	-16.18479000	1.99311000
137.49999201	0.00000000	-15.43430000	1.57480300
137.69999200	0.00000000	-14.64690000	1.15649600
137.89999199	0.00000000	-14.27165000	0.41830710
138.09999198	0.00000000	-14.22859000	0.04306102
138.29999197	0.00000000	-14.27165000	0.00000000
138.49999195	0.00000000	-14.64690000	0.04306102
138.69999194	0.00000000	-15.43430000	0.41830710
138.89999193	0.00000000	-16.18479000	1.19955700
139.09999192	0.00000000	-16.97219000	1.95004900
139.29999191	0.00000000	-17.34744000	2.73745100
139.49999189	0.00000000	-17.34744000	3.11269700
139.69999188	0.00000000	-16.97219000	3.15575800
139.89999187	0.00000000	-16.18479000	3.15575800
140.09999186	0.00000000	-15.43430000	3.11269700
140.29999185	0.00000000	-14.64690000	2.73745100
140.49999184	0.00000000	-14.32087000	1.95004900
140.69999182	0.00000000	-14.64690000	1.19955700
140.89999181	0.00000000	-15.39124000	0.41830710
141.09999180	0.00000000	-15.76649000	0.04306102
141.29999179	0.00000000	-15.85261000	0.00000000
141.49999178	0.00000000	-16.18479000	0.04306102
141.69999176	0.00000000	-16.55389000	0.46136810
141.89999175	0.00000000	-16.18479000	1.62401600
142.09999174	0.00000000	-15.85261000	3.06348400
142.29999173	0.00000000	-15.80955000	3.85088600
142.49999172	0.00000000	-15.76649000	3.53100400
142.69999170	0.00000000	-15.43430000	3.19881900
142.89999169	0.00000000	-15.06521000	3.11269700
143.09999168	0.00000000	-15.43430000	2.68823800
143.29999167	0.00000000	-15.76649000	1.57480300
143.49999166	0.00000000	-15.80955000	0.46136810
143.69999165	0.00000000	-15.80955000	0.04306102
143.89999163	0.00000000	-15.80955000	0.00000000
144.09999162	0.00000000	-15.80955000	0.04306102
144.29999161	0.00000000	-15.80955000	0.46136810
144.49999160	0.00000000	-15.76649000	1.57480300
144.69999159	0.00000000	-15.43430000	2.68823800
144.89999157	0.00000000	-15.06521000	3.11269700
145.09999156	0.00000000	-15.43430000	3.15575800
145.29999155	0.00000000	-15.76649000	3.15575800
145.49999154	0.00000000	-15.80955000	3.11269700
145.69999153	0.00000000	-15.85261000	2.73745100
145.89999151	0.00000000	-16.18479000	1.95004900
146.09999150	0.00000000	-16.55389000	1.19955700
146.29999149	0.00000000	-16.18479000	0.41830710
146.49999148	0.00000000	-15.85261000	0.09227362
146.69999147	0.00000000	-15.80955000	0.41830710
146.89999146	0.00000000	-15.76649000	1.15649600
147.09999144	0.00000000	-15.39124000	1.53174200
147.29999143	0.00000000	-14.69611000	1.61786400
147.49999142	0.00000000	-14.69611000	1.95004900
147.69999141	0.00000000	-15.39124000	2.36220500
147.89999140	0.00000000	-15.76649000	2.36835600
148.09999138	0.00000000	-15.80955000	2.78051200
148.29999137	0.00000000	-15.80955000	3.06348400
148.49999136	0.00000000	-15.80955000	2.73745100
148.69999135	0.00000000	-15.80955000	1.99311000
148.89999134	0.00000000	-15.80955000	1.61786400
149.09999132	0.00000000	-15.80955000	1.53174200
149.29999131	0.00000000	-15.76649000	1.19955700
149.49999130	0.00000000	-15.43430000	0.83661410
149.69999129	0.00000000	-15.02214000	1.19955700
149.89999128	0.00000000	-15.01599000	1.53174200
150.09999127	0.00000000	-14.64690000	1.61786400
150.29999125	0.00000000	-14.69611000	1.99311000
150.49999124	0.00000000	-15.39124000	2.73745100
150.69999123	0.00000000	-15.76649000	3.11269700
150.89999122	0.00000000	-15.80955000	3.15575800
151.09999121	0.00000000	-15.80955000	3.11269700
151.29999119	0.00000000	-15.80955000	2.73745100
151.49999118	0.00000000	-15.80955000	1.99311000
151.69999117	0.00000000	-15.80955000	1.61786400
151.89999116	0.00000000	-15.80955000	1.57480300
152.09999115	0.00000000	-15.80955000	1.57480300
152.29999113	0.00000000	-15.80955000	1.57480300
152.49999112	0.00000000	-15.76649000	1.57480300
152.69999111	0.00000000	-15.39124000	1.57480300
152.89999110	0.00000000	-14.64690000	1.57480300
153.09999109	0.00000000	-14.27165000	1.57480300
153.29999108	0.00000000	-14.27165000	1.57480300
153.49999106	0.00000000	-14.64690000	1.57480300
153.69999105	0.00000000	-15.43430000	1.57480300
153.89999104	0.00000000	-16.18479000	1.57480300
154.09999103	0.00000000	-16.92298000	1.57480300
154.29999102	0.00000000	-16.92298000	1.61786400
154.49999100	0.00000000	-16.27707000	1.95004900
154.69999099	0.00000000	-16.22785000	2.31914400
154.89999098	0.00000000	-16.55389000	1.95004900
155.09999097	0.00000000	-16.18479000	1.61786400
155.29999096	0.00000000	-15.80955000	1.57480300
155.49999094	0.00000000	-15.39124000	1.57480300
155.69999093	0.00000000	-14.64690000	1.57480300
155.89999092	0.00000000	-14.32087000	1.57480300
156.09999091	0.00000000	-14.60384000	1.57480300
156.29999090	0.00000000	-15.01599000	1.57480300
156.49999089	0.00000000	-15.02214000	1.57480300
156.69999087	0.00000000	-15.47736000	1.61786400
156.89999086	0.00000000	-16.14173000	1.99311000
157.09999085	0.00000000	-16.55389000	2.73745100
157.29999084	0.00000000	-16.18479000	3.11269700
157.49999083	0.00000000	-15.85261000	3.11269700
157.69999081	0.00000000	-15.80955000	2.73745100
157.89999080	0.00000000	-15.80955000	1.99311000
158.09999079	0.00000000	-15.76649000	1.61786400
158.29999078	0.00000000	-15.39124000	1.57480300
158.49999077	0.00000000	-14.64690000	1.57480300
158.69999075	0.00000000	-14.27165000	1.57480300
158.89999074	0.00000000	-14.27165000	1.57480300
159.09999073	0.00000000	-14.64690000	1.57480300
159.29999072	0.00000000	-15.39124000	1.61786400
159.49999071	0.00000000	-15.76649000	1.99311000
159.69999070	0.00000000	-15.80955000	2.73745100
159.89999068	0.00000000	-15.80955000	3.11269700
160.09999067	0.00000000	-15.80955000	3.15575800
160.29999066	0.00000000	-15.80955000	3.11269700
160.49999065	0.00000000	-15.80955000	2.73745100
160.69999064	0.00000000	-15.80955000	1.99311000
160.89999062	0.00000000	-15.80955000	1.61786400
161.09999061	0.00000000	-15.80955000	1.57480300
161.29999060	0.00000000	-15.80955000	1.57480300
161.49999059	0.00000000	-15.80955000	1.57480300
161.69999058	0.00000000	-15.76649000	1.57480300
161.89999056	0.00000000	-15.39124000	1.57480300
162.09999055	0.00000000	-14.69611000	1.57480300
162.29999054	0.00000000	-14.64690000	1.57480300
162.49999053	0.00000000	-15.01599000	1.61786400
162.69999052	0.00000000	-15.02214000	1.99311000
162.89999051	0.00000000	-15.43430000	2.73745100
163.09999049	0.00000000	-15.76649000	3.06348400
163.29999048	0.00000000	-15.80955000	2.73745100
163.49999047	0.00000000	-15.80955000	1.99311000
163.69999046	0.00000000	-15.80955000	1.61786400
163.89999045	0.00000000	-15.80955000	1.57480300
164.09999043	0.00000000	-15.80955000	1.57480300
164.29999042	0.00000000	-15.80955000	1.57480300
164.49999041	0.00000000	-15.80955000	1.57480300
164.69999040	0.00000000	-15.76649000	1.57480300
164.89999039	0.00000000	-15.39124000	1.57480300
165.09999037	0.00000000	-14.64690000	1.57480300
165.29999036	0.00000000	-14.27165000	1.57480300
165.49999035	0.00000000	-14.27165000	1.57480300
165.69999034	0.00000000	-14.64690000	1.57480300
165.89999033	0.00000000	-15.39124000	1.57480300
166.09999032	0.00000000	-15.76649000	1.57480300
166.29999030	0.00000000	-15.80955000	1.57480300
166.49999029	0.00000000	-15.80955000	1.57480300
166.69999028	0.00000000	-15.80955000	1.57480300
166.89999027	0.00000000	-15.80955000	1.57480300
167.09999026	0.00000000	-15.80955000	1.57480300
167.29999024	0.00000000	-15.80955000	1.57480300
167.49999023	0.00000000	-15.76649000	1.57480300
167.69999022	0.00000000	-15.39124000	1.57480300
167.89999021	0.00000000	-14.64690000	1.57480300
168.09999020	0.00000000	-14.32087000	1.57480300
168.29999018	0.00000000	-14.60384000	1.57480300
168.49999017	0.00000000	-14.97293000	1.57480300
168.69999016	0.00000000	-14.64690000	1.57480300
168.89999015	0.00000000	-14.69611000	1.57480300
169.09999014	0.00000000	-15.39124000	1.57480300
169.29999013	0.00000000	-15.76649000	1.57480300
169.49999011	0.00000000	-15.80955000	1.57480300
169.69999010	0.00000000	-15.80955000	1.57480300
169.89999009	0.00000000	-15.80955000	1.57480300
170.09999008	0.00000000	-15.80955000	1.57480300
170.29999007	0.00000000	-15.80955000	1.57480300
170.49999005	0.00000000	-15.80955000	1.57480300
170.69999004	0.00000000	-15.76649000	1.57480300
170.89999003	0.00000000	-15.39124000	1.57480300
171.09999002	0.00000000	-14.69611000	1.57480300
171.29999001	0.00000000	-14.64690000	1.57480300
171.49998999	0.00000000	-14.97293000	1.57480300
171.69998998	0.00000000	-14.64690000	1.57480300
171.89998997	0.00000000	-14.69611000	1.57480300
172.09998996	0.00000000	-15.39124000	1.57480300
172.29998995	0.00000000	-15.76649000	1.57480300
172.49998994	0.00000000	-15.80955000	1.57480300
172.69998992	0.00000000	-15.80955000	1.57480300
172.89998991	0.00000000	-15.80955000	1.57480300
173.09998990	0.00000000	-15.80955000	1.57480300
173.29998989	0.00000000	-15.80955000	1.57480300
173.49998988	0.00000000	-15.80955000	1.57480300
173.69998986	0.00000000	-15.80955000	1.57480300
173.89998985	0.00000000	-15.80955000	1.57480300
174.09998984	0.00000000	-15.80955000	1.57480300
174.29998983	0.00000000	-15.76649000	1.57480300
174.49998982	0.00000000	-15.43430000	1.57480300
174.69998980	0.00000000	-15.06521000	1.57480300
174.89998979	0.00000000	-15.43430000	1.57480300
175.09998978	0.00000000	-15.76649000	1.57480300
175.29998977	0.00000000	-15.80955000	1.57480300
175.49998976	0.00000000	-15.80955000	1.57480300
175.69998975	0.00000000	-15.80955000	1.61786400
175.89998973	0.00000000	-15.76649000	1.99311000
176.09998972	0.00000000	-15.39124000	2.73745100
176.29998971	0.00000000	-14.69611000	3.06348400
176.49998970	0.00000000	-14.69611000	2.73745100
176.69998969	0.00000000	-15.39124000	1.99311000
176.89998967	0.00000000	-15.71727000	1.61786400
177.09998966	0.00000000	-15.43430000	1.57480300
177.29998965	0.00000000	-15.06521000	1.57480300
177.49998964	0.00000000	-15.43430000	1.57480300
177.69998963	0.00000000	-15.76649000	1.57480300
177.89998961	0.00000000	-15.80955000	1.57480300
178.09998960	0.00000000	-15.80955000	1.57480300
178.29998959	0.00000000	-15.80955000	1.57480300
178.49998958	0.00000000	-15.80955000	1.57480300
178.69998957	0.00000000	-15.80955000	1.57480300
178.89998956	0.00000000	-15.80955000	1.57480300
179.09998954	0.00000000	-15.80955000	1.57480300
179.29998953	0.00000000	-15.80955000	1.57480300
179.49998952	0.00000000	-15.76649000	1.57480300
179.69998951	0.00000000	-15.39124000	1.57480300
179.89998950	0.00000000	-14.69611000	1.57480300
180.09998948	0.00000000	-14.69611000	1.57480300
180.29998947	0.00000000	-15.39124000	1.57480300
180.49998946	0.00000000	-15.76649000	1.57480300
180.69998945	0.00000000	-15.80955000	1.57480300
180.89998944	0.00000000	-15.80955000	1.57480300
181.09998942	0.00000000	-15.80955000	1.57480300
181.29998941	0.00000000	-15.80955000	1.57480300
181.49998940	0.00000000	-15.80955000	1.57480300
181.69998939	0.00000000	-15.80955000	1.61786400
181.89998938	0.00000000	-15.80955000	1.95004900
182.09998937	0.00000000	-15.76649000	2.31914400
182.29998935	0.00000000	-15.43430000	1.95004900
182.49998934	0.00000000	-15.02214000	1.61786400
182.69998933	0.00000000	-15.01599000	1.57480300
182.89998932	0.00000000	-14.64690000	1.57480300
183.09998931	0.00000000	-14.69611000	1.57480300
183.29998929	0.00000000	-15.34203000	1.57480300
183.49998928	0.00000000	-15.34203000	1.57480300
183.69998927	0.00000000	-14.69611000	1.57480300
183.89998926	0.00000000	-14.69611000	1.57480300
184.09998925	0.00000000	-15.39124000	1.57480300
184.29998923	0.00000000	-15.76649000	1.57480300
184.49998922	0.00000000	-15.80955000	1.61786400
184.69998921	0.00000000	-15.80955000	1.99311000
184.89998920	0.00000000	-15.80955000	2.73745100
185.09998919	0.00000000	-15.80955000	3.11269700
185.29998918	0.00000000	-15.76649000	3.15575800
185.49998916	0.00000000	-15.43430000	3.11269700
185.69998915	0.00000000	-15.02214000	2.73745100
185.89998914	0.00000000	-15.01599000	1.99311000
186.09998913	0.00000000	-14.60384000	1.61786400
186.29998912	0.00000000	-14.27165000	1.53174200
186.49998910	0.00000000	-14.27165000	1.19955700
186.69998909	0.00000000	-14.64690000	0.83661410
186.89998908	0.00000000	-15.39124000	1.19955700
187.09998907	0.00000000	-15.76649000	1.53174200
187.29998906	0.00000000	-15.80955000	1.61786400
187.49998904	0.00000000	-15.80955000	1.99311000
187.69998903	0.00000000	-15.80955000	2.73745100
187.89998902	0.00000000	-15.80955000	3.11269700
188.09998901	0.00000000	-15.80955000	3.11269700
188.29998900	0.00000000	-15.76649000	2.73745100
188.49998899	0.00000000	-15.39124000	1.99311000
188.69998897	0.00000000	-14.64690000	1.61786400
188.89998896	0.00000000	-14.27165000	1.57480300
189.09998895	0.00000000	-14.27165000	1.57480300
189.29998894	0.00000000	-14.60384000	1.57480300
189.49998893	0.00000000	-14.97293000	1.57480300
189.69998891	0.00000000	-14.60384000	1.57480300
189.89998890	0.00000000	-14.32087000	1.57480300
190.09998889	0.00000000	-14.64690000	1.61786400
190.29998888	0.00000000	-15.39124000	1.95004900
190.49998887	0.00000000	-15.76649000	2.31914400
190.69998885	0.00000000	-15.80955000	1.95004900
190.89998884	0.00000000	-15.80955000	1.66707700
191.09998883	0.00000000	-15.80955000	1.95004900
191.29998882	0.00000000	-15.80955000	2.31914400
191.49998881	0.00000000	-15.76649000	1.95004900
191.69998880	0.00000000	-15.39124000	1.61786400
191.89998878	0.00000000	-14.64690000	1.57480300
192.09998877	0.00000000	-14.27165000	1.57480300
192.29998876	0.00000000	-14.22859000	1.57480300
192.49998875	0.00000000	-14.22859000	1.57480300
192.69998874	0.00000000	-14.22859000	1.57480300
192.89998872	0.00000000	-14.27165000	1.57480300
193.09998871	0.00000000	-14.64690000	1.57480300
193.29998870	0.00000000	-15.39124000	1.57480300
193.49998869	0.00000000	-15.76649000	1.57480300
193.69998868	0.00000000	-15.80955000	1.61786400
193.89998866	0.00000000	-15.76649000	1.99311000
194.09998865	0.00000000	-15.39124000	2.73745100
194.29998864	0.00000000	-14.64690000	3.11269700
194.49998863	0.00000000	-14.27165000	3.11269700
194.69998862	0.00000000	-14.22859000	2.73745100
194.89998861	0.00000000	-14.22859000	1.99311000
195.09998859	0.00000000	-14.22859000	1.61786400
195.29998858	0.00000000	-14.27165000	1.57480300
195.49998857	0.00000000	-14.60384000	1.57480300
195.69998856	0.00000000	-15.01599000	1.61786400
195.89998855	0.00000000	-15.02214000	1.95004900
196.09998853	0.00000000	-15.43430000	2.31914400
