Time	Channel A	Channel B	Channel C
(us)	(V)	(mV)	(mV)

-4.59999956	0.00000000	-58.54454000	-14.94833000
-4.39999957	0.00000000	-58.50147000	-14.58538000
-4.19999958	0.00000000	-58.50147000	-14.25320000
-3.99999959	0.00000000	-58.50147000	-14.21014000
-3.79999960	0.00000000	-58.50147000	-14.21014000
-3.59999962	0.00000000	-58.50147000	-14.25320000
-3.39999963	0.00000000	-58.50147000	-14.62844000
-3.19999964	0.00000000	-58.50147000	-15.36663000
-2.99999965	0.00000000	-58.50147000	-15.69267000
-2.79999966	0.00000000	-58.50147000	-15.40969000
-2.59999968	0.00000000	-58.50147000	-15.00369000
-2.39999969	0.00000000	-58.50147000	-14.99139000
-2.19999970	0.00000000	-58.50147000	-14.62844000
-1.99999971	0.00000000	-58.50147000	-14.62844000
-1.79999972	0.00000000	-58.50147000	-14.94833000
-1.59999973	0.00000000	-58.50147000	-14.58538000
-1.39999975	0.00000000	-58.50147000	-14.30241000
-1.19999976	0.00000000	-58.50147000	-14.58538000
-0.99999977	0.00000000	-58.50147000	-14.99139000
-0.79999978	0.00000000	-58.50147000	-14.95448000
-0.59999979	0.00000000	-58.50147000	-15.04060000
-0.39999981	0.00000000	-58.50147000	-15.00369000
-0.19999982	0.47736220	-58.50147000	-15.36663000
0.00000017	0.79601380	-58.50147000	-15.36663000
0.20000016	0.95533960	-58.50147000	-15.04675000
0.40000015	0.95533960	-58.54454000	-15.36663000
0.60000013	0.79601380	-58.87672000	-15.36663000
0.80000012	0.15871060	-59.24582000	-15.04675000
1.00000011	-0.79601380	-58.87672000	-15.40969000
1.20000010	-1.75196900	-58.54454000	-15.74188000
1.40000009	-2.54859700	-58.50147000	-15.74188000
1.60000008	-2.70792300	-58.50147000	-15.36663000
1.80000006	-2.22994600	-58.50147000	-14.62844000
2.00000005	-0.79601380	-58.50147000	-14.25320000
2.20000004	1.27399100	-58.50147000	-14.21014000
2.40000003	3.18590100	-58.50147000	-14.21014000
2.60000002	4.77854300	-58.50147000	-14.25320000
2.80000000	5.41584600	-58.50147000	-14.62844000
2.99999999	4.45989200	-58.54454000	-15.36663000
3.19999998	2.07062000	-58.87672000	-15.74188000
3.39999997	-1.11466500	-59.24582000	-15.78494000
3.59999996	-4.45989200	-58.87672000	-15.74188000
3.79999994	-7.00848900	-58.54454000	-15.36663000
3.99999993	-7.96444400	-58.50147000	-14.62844000
4.19999992	-7.00848900	-58.50147000	-14.25320000
4.39999991	-3.98191400	-58.50147000	-14.21014000
4.59999990	0.31803640	-58.50147000	-14.21014000
4.79999989	4.61921700	-58.50147000	-14.25320000
4.99999987	7.96444400	-58.50147000	-14.62844000
5.19999986	9.39837600	-58.50147000	-15.36663000
5.39999985	8.60174700	-58.50147000	-15.74188000
5.59999984	5.41584600	-58.50147000	-15.78494000
5.79999983	0.95533960	-58.50147000	-15.78494000
5.99999981	-3.82258900	-58.50147000	-15.78494000
6.19999980	-7.48646600	-58.50147000	-15.74188000
6.39999979	-9.39837600	-58.50147000	-15.36663000
6.59999978	-8.76107300	-58.50147000	-14.62844000
6.79999977	-6.05315000	-58.50147000	-14.25320000
6.99999975	-2.07062000	-58.50147000	-14.21014000
7.19999974	2.22994600	-58.50147000	-14.21014000
7.39999973	5.73449800	-58.50147000	-14.21014000
7.59999972	7.64579200	-58.50147000	-14.25320000
7.79999971	7.48646600	-58.50147000	-14.62844000
7.99999970	5.41584600	-58.50147000	-15.36663000
8.19999968	2.54859700	-58.54454000	-15.69267000
8.39999967	-0.79601380	-58.87672000	-15.36663000
8.59999966	-3.50393700	-59.24582000	-14.62844000
8.79999965	-4.93786900	-58.87672000	-14.25320000
8.99999964	-5.09719500	-58.54454000	-14.21014000
9.19999962	-3.98191400	-58.50147000	-14.21014000
9.39999961	-2.07062000	-58.50147000	-14.21014000
9.59999960	-0.15871060	-58.50147000	-14.21014000
9.79999959	1.59264300	-58.50147000	-14.21014000
9.99999958	2.38927200	-58.50147000	-14.21014000
10.19999956	2.54859700	-58.50147000	-14.25320000
10.39999955	1.91129400	-58.50147000	-14.58538000
10.59999954	1.11466500	-58.50147000	-14.94833000
10.79999953	0.31803640	-58.50147000	-14.58538000
10.99999952	-0.31803640	-58.50147000	-14.25320000
11.19999951	-0.79601380	-58.50147000	-14.21014000
11.39999949	-0.95533960	-58.50147000	-14.25320000
11.59999948	-0.95533960	-58.50147000	-14.58538000
11.79999947	-0.63668800	-58.50147000	-14.94833000
11.99999946	-0.31803640	-58.50147000	-14.58538000
12.19999945	-0.15871060	-58.50147000	-14.25320000
12.39999943	-0.15871060	-58.50147000	-14.21014000
12.59999942	0.00000000	-58.50147000	-14.21014000
12.79999941	0.00000000	-58.50147000	-14.21014000
12.99999940	0.15871060	-58.50147000	-14.21014000
13.19999939	0.15871060	-58.50147000	-14.21014000
13.39999937	0.00000000	-58.50147000	-14.25320000
13.59999936	0.00000000	-58.50147000	-14.58538000
13.79999935	0.00000000	-58.50147000	-14.99139000
13.99999934	-0.15871060	-58.50147000	-15.00369000
14.19999933	-0.15871060	-58.50147000	-15.40969000
14.39999932	-0.15871060	-58.50147000	-15.69267000
14.59999930	0.00000000	-58.50147000	-15.40969000
14.79999929	0.00000000	-58.50147000	-15.04675000
14.99999928	0.00000000	-58.50147000	-15.40969000
15.19999927	0.00000000	-58.50147000	-15.74188000
15.39999926	0.00000000	-58.50147000	-15.78494000
15.59999924	0.00000000	-58.50147000	-15.78494000
15.79999923	0.00000000	-58.50147000	-15.78494000
15.99999922	0.00000000	-58.50147000	-15.74188000
16.19999921	0.00000000	-58.50147000	-15.40969000
16.39999920	0.00000000	-58.50147000	-15.00369000
16.59999919	0.00000000	-58.45841000	-14.99139000
16.79999917	-0.15871060	-58.08316000	-14.58538000
16.99999916	0.00000000	-57.33883000	-14.30241000
17.19999915	0.00000000	-56.96358000	-14.58538000
17.39999914	0.00000000	-56.92052000	-14.94833000
17.59999913	0.00000000	-56.92052000	-14.58538000
17.79999911	0.00000000	-56.96358000	-14.25320000
17.99999910	0.00000000	-57.38804000	-14.21014000
18.19999909	0.00000000	-58.54454000	-14.21014000
18.39999908	0.00000000	-60.08243000	-14.21014000
18.59999907	0.00000000	-61.62032000	-14.21014000
18.79999905	0.00000000	-62.77681000	-14.21014000
18.99999904	0.00000000	-63.15207000	-14.21014000
19.19999903	0.00000000	-62.73376000	-14.21014000
19.39999902	0.00000000	-61.15280000	-14.21014000
19.59999901	0.00000000	-58.40920000	-14.21014000
19.79999900	0.00000000	-54.92125000	-14.21014000
19.99999898	0.00000000	-51.06422000	-14.21014000
20.19999897	0.00000000	-48.03149000	-14.21014000
20.39999896	0.00000000	-46.91806000	-14.21014000
20.59999895	0.00000000	-48.49901000	-14.21014000
20.79999894	0.00000000	-52.77436000	-14.21014000
20.99999892	0.00000000	-59.01205000	-14.21014000
21.19999891	0.00000000	-66.40624000	-14.21014000
21.39999890	0.00000000	-73.67126000	-14.21014000
21.59999889	0.00000000	-78.60482000	-14.21014000
21.79999888	0.00000000	-78.93085000	-14.21014000
21.99999886	0.00000000	-74.28026000	-14.21014000
22.19999885	0.00000000	-65.29897000	-14.25320000
22.39999884	0.00000000	-53.29109000	-14.62844000
22.59999883	0.00000000	-40.59424000	-15.32357000
22.79999882	0.00000000	-30.63484000	-15.32357000
22.99999881	0.00000000	-26.43947000	-14.62844000
23.19999879	0.00000000	-29.55832000	-14.21014000
23.39999878	0.00000000	-39.70226000	-13.79183000
23.59999877	0.00000000	-55.19808000	-13.04749000
23.79999876	0.00000000	-73.33907000	-12.67224000
23.99999875	0.00000000	-89.49310000	-12.67224000
24.19999873	0.00000000	-99.49556000	-13.04749000
24.39999872	0.00000000	-100.56590000	-13.83489000
24.59999871	0.00000000	-91.63385000	-14.62844000
24.79999870	0.00000000	-74.23105000	-15.83415000
24.99999869	0.00000000	-52.22071000	-17.36589000
25.19999867	0.00000000	-30.58563000	-18.90379000
25.39999866	0.00000000	-14.39468000	-20.01722000
25.59999865	0.00000000	-7.51107200	-19.97416000
25.79999864	0.00000000	-12.20472000	-18.43627000
25.99999863	0.00000000	-28.02657000	-15.69882000
26.19999862	0.00000000	-51.15034000	-12.21087000
26.39999860	0.00000000	-75.90427000	-8.35998900
26.59999859	0.00000000	-96.79502000	-5.29035400
26.79999858	0.00000000	-109.49800000	-3.75246000
26.99999857	0.00000000	-110.61760000	-4.21998000
27.19999856	0.00000000	-99.49556000	-7.41879900
27.39999854	0.00000000	-79.44143000	-13.60113000
27.59999853	0.00000000	-55.43184000	-21.64124000
27.79999852	0.00000000	-32.25885000	-28.98007000
27.99999851	0.00000000	-15.28051000	-34.00591000
28.19999850	0.00000000	-8.66756800	-35.85752000
28.39999848	0.00000000	-13.23204000	-33.02780000
28.59999847	0.00000000	-27.47293000	-25.31373000
28.79999846	0.00000000	-47.57013000	-14.11786000
28.99999845	0.00000000	-68.83612000	-2.17765700
29.19999844	0.00000000	-87.06939000	7.89862200
29.39999843	0.00000000	-98.28986000	14.03789000
29.59999841	0.00000000	-100.65820000	14.73302000
29.79999840	0.00000000	-93.72539000	8.83366100
29.99999839	0.00000000	-79.52755000	-3.10654500
30.19999838	0.00000000	-62.13090000	-18.57160000
30.39999837	0.00000000	-45.42323000	-34.00591000
30.59999835	0.00000000	-32.25885000	-46.31520000
30.79999834	0.00000000	-25.23376000	-52.03002000
30.99999833	0.00000000	-25.55979000	-49.37868000
31.19999832	0.00000000	-32.12352000	-39.34547000
31.39999831	0.00000000	-43.70694000	-24.20029000
31.59999829	0.00000000	-57.61565000	-6.40378900
31.79999828	0.00000000	-70.37401000	10.54995000
31.99999827	0.00000000	-79.76131000	22.49631000
32.19999826	0.00000000	-84.04896000	26.72244000
32.39999825	0.00000000	-83.29847000	22.12106000
32.59999824	0.00000000	-77.44217000	9.76254800
32.79999822	0.00000000	-67.48277000	-7.24040300
32.99999821	0.00000000	-56.26845000	-25.82431000
33.19999820	0.00000000	-46.58587000	-41.99680000
33.39999819	0.00000000	-39.98523000	-52.07923000
33.59999818	0.00000000	-38.02903000	-54.02928000
33.79999816	0.00000000	-40.68651000	-47.89616000
33.99999815	0.00000000	-46.87500000	-35.11934000
34.19999814	0.00000000	-55.33957000	-18.52854000
34.39999813	0.00000000	-63.81028000	-1.52559000
34.59999812	0.00000000	-69.99876000	11.99557000
34.79999810	0.00000000	-72.74237000	19.42667000
34.99999809	0.00000000	-71.62893000	19.75271000
35.19999808	0.00000000	-67.43970000	12.77682000
35.39999807	0.00000000	-61.62032000	-0.64591530
35.59999806	0.00000000	-55.43184000	-16.39395000
35.79999805	0.00000000	-50.07997000	-30.37647000
35.99999803	0.00000000	-47.38558000	-40.41584000
36.19999802	0.00000000	-48.12377000	-44.22367000
36.39999801	0.00000000	-51.52559000	-40.45890000
36.59999800	0.00000000	-56.54527000	-30.88705000
36.79999799	0.00000000	-61.52805000	-18.57160000
36.99999797	0.00000000	-65.43430000	-6.21924200
37.19999796	0.00000000	-67.34743000	2.98351400
37.39999795	0.00000000	-66.97219000	6.88361200
37.59999794	0.00000000	-64.22859000	4.56446800
37.79999793	0.00000000	-59.66412000	-3.05733300
37.99999791	0.00000000	-54.64444000	-13.74262000
38.19999790	0.00000000	-50.82431000	-23.68971000
38.39999789	0.00000000	-48.83120000	-29.91511000
38.59999788	0.00000000	-49.24335000	-31.45300000
38.79999787	0.00000000	-51.52559000	-27.96506000
38.99999786	0.00000000	-55.43184000	-19.93110000
39.19999784	0.00000000	-59.99015000	-10.02707000
39.39999783	0.00000000	-63.89641000	-1.61786400
39.59999782	0.00000000	-66.27091000	2.60826800
39.79999781	0.00000000	-67.43970000	1.49483300
39.99999780	0.00000000	-67.01525000	-4.26304100
40.19999778	0.00000000	-64.68996000	-13.13976000
40.39999777	0.00000000	-61.19586000	-23.08686000
40.59999776	0.00000000	-56.92052000	-31.07775000
40.79999775	0.00000000	-52.73130000	-34.14124000
40.99999774	0.00000000	-49.98769000	-31.53912000
41.19999772	0.00000000	-49.15108000	-24.61860000
41.39999771	0.00000000	-49.52633000	-15.36663000
41.59999770	0.00000000	-51.10728000	-5.75172200
41.79999769	0.00000000	-53.85088000	1.53789400
41.99999768	0.00000000	-57.33883000	4.60752900
42.19999767	0.00000000	-61.19586000	2.70054100
42.39999765	0.00000000	-64.27164000	-3.80167300
42.59999764	0.00000000	-65.80955000	-12.58612000
42.79999763	0.00000000	-65.52042000	-21.08760000
42.99999762	0.00000000	-63.95176000	-27.26378000
43.19999761	0.00000000	-62.03247000	-30.00738000
43.39999759	0.00000000	-59.29502000	-28.89395000
43.59999758	0.00000000	-57.01279000	-24.66781000
43.79999757	0.00000000	-55.38263000	-18.52854000
43.99999756	0.00000000	-54.22613000	-11.97711000
44.19999755	0.00000000	-53.80167000	-6.95743000
44.39999753	0.00000000	-53.75861000	-4.21998000
44.59999752	0.00000000	-53.75861000	-4.17076700
44.79999751	0.00000000	-53.80167000	-6.44685000
44.99999750	0.00000000	-54.17691000	-9.93479300
45.19999749	0.00000000	-54.96432000	-14.16708000
45.39999748	0.00000000	-55.80708000	-17.97490000
45.59999746	0.00000000	-57.43110000	-19.97416000
45.79999745	0.00000000	-60.12549000	-20.43553000
45.99999744	0.00000000	-63.24434000	-20.01722000
46.19999743	0.00000000	-66.32012000	-18.43627000
46.39999742	0.00000000	-68.59621000	-15.78494000
46.59999740	0.00000000	-68.92839000	-13.09055000
46.79999739	0.00000000	-66.92913000	-11.14050000
46.99999738	0.00000000	-62.27239000	-9.98400600
47.19999737	0.00000000	-55.71481000	-9.98400600
47.39999736	0.00000000	-49.15108000	-11.09744000
47.59999734	0.00000000	-43.75615000	-12.67224000
47.79999733	0.00000000	-41.10482000	-14.62844000
47.99999732	0.00000000	-42.26747000	-16.94759000
48.19999731	0.00000000	-46.96112000	-18.85458000
48.39999730	0.00000000	-54.68750000	-19.97416000
48.59999729	0.00000000	-63.94562000	-19.59892000
48.79999727	0.00000000	-71.99802000	-17.69808000
48.99999726	0.00000000	-77.06693000	-15.36663000
49.19999725	0.00000000	-77.76820000	-12.62918000
49.39999724	0.00000000	-73.90501000	-9.98400600
49.59999723	0.00000000	-65.80955000	-8.40305000
49.79999721	0.00000000	-55.80708000	-8.02780400
49.99999720	0.00000000	-46.54281000	-8.86441900
50.19999719	0.00000000	-39.98523000	-11.60187000
50.39999718	0.00000000	-38.07825000	-15.74188000
50.59999717	0.00000000	-41.10482000	-19.59892000
50.79999715	0.00000000	-48.03149000	-21.96727000
50.99999714	0.00000000	-56.92052000	-23.12992000
51.19999713	0.00000000	-65.80955000	-22.66855000
51.39999712	0.00000000	-72.69930000	-19.97416000
51.59999711	0.00000000	-75.35064000	-15.74188000
51.79999710	0.00000000	-72.74237000	-11.14050000
51.99999708	0.00000000	-66.27091000	-7.28346400
52.19999707	0.00000000	-58.54454000	-5.37647600
52.39999706	0.00000000	-51.19340000	-5.70866100
52.59999705	0.00000000	-45.80462000	-8.02780400
52.79999704	0.00000000	-43.89148000	-11.51575000
52.99999702	0.00000000	-45.80462000	-15.74188000
53.19999701	0.00000000	-51.15034000	-19.54970000
53.39999700	0.00000000	-58.03395000	-21.50590000
53.59999699	0.00000000	-64.18552000	-21.54897000
53.79999698	0.00000000	-68.09177000	-20.01722000
53.99999696	0.00000000	-68.84227000	-17.32283000
54.19999695	0.00000000	-66.55389000	-14.25320000
54.39999694	0.00000000	-61.57726000	-11.55881000
54.59999693	0.00000000	-55.85014000	-10.02707000
54.79999692	0.00000000	-51.19340000	-10.02707000
54.99999691	0.00000000	-48.49901000	-11.51575000
55.19999689	0.00000000	-48.49901000	-13.79183000
55.39999688	0.00000000	-51.19340000	-15.64960000
55.59999687	0.00000000	-55.75787000	-16.43701000
55.79999686	0.00000000	-60.73450000	-15.69882000
55.99999685	0.00000000	-64.22859000	-14.21014000
56.19999683	0.00000000	-65.80955000	-12.62918000
56.39999682	0.00000000	-65.38509000	-11.14050000
56.59999681	0.00000000	-62.73376000	-10.44537000
56.79999680	0.00000000	-58.91978000	-11.60187000
56.99999679	0.00000000	-55.38263000	-14.25320000
57.19999677	0.00000000	-52.31299000	-17.36589000
57.39999676	0.00000000	-50.45521000	-20.43553000
57.59999675	0.00000000	-51.15034000	-22.66855000
57.79999674	0.00000000	-53.42642000	-22.61934000
57.99999673	0.00000000	-56.13312000	-19.92495000
58.19999672	0.00000000	-59.24582000	-15.32357000
58.39999670	0.00000000	-61.48499000	-9.89173200
58.59999669	0.00000000	-62.31545000	-4.95816900
58.79999668	0.00000000	-61.57111000	-1.90083600
58.99999667	0.00000000	-60.08243000	-2.35605300
59.19999666	0.00000000	-58.50147000	-6.12696800
59.39999664	0.00000000	-56.92052000	-12.30315000
59.59999663	0.00000000	-55.43184000	-18.85458000
59.79999662	0.00000000	-54.68750000	-24.66781000
59.99999661	0.00000000	-55.43184000	-28.47564000
60.19999660	0.00000000	-56.92052000	-28.80167000
60.39999658	0.00000000	-58.45841000	-25.35679000
60.59999657	0.00000000	-59.57185000	-18.81152000
60.79999656	0.00000000	-59.61491000	-11.09744000
60.99999655	0.00000000	-58.87672000	-3.80167300
61.19999654	0.00000000	-58.08316000	1.16879900
61.39999653	0.00000000	-56.87746000	1.95620100
61.59999651	0.00000000	-55.43184000	-1.10728300
61.79999650	0.00000000	-54.68750000	-7.28346400
61.99999649	0.00000000	-55.43184000	-15.36663000
62.19999648	0.00000000	-56.92052000	-23.08686000
62.39999647	0.00000000	-58.50147000	-28.89395000
62.59999645	0.00000000	-60.08243000	-31.53912000
62.79999644	0.00000000	-61.57111000	-30.00738000
62.99999643	0.00000000	-62.31545000	-24.61860000
63.19999642	0.00000000	-61.52805000	-16.94759000
63.39999641	0.00000000	-59.66412000	-8.82135800
63.59999639	0.00000000	-57.29576000	-2.26377900
63.79999638	0.00000000	-55.00738000	1.58710600
63.99999637	0.00000000	-53.06348000	1.58710600
64.19999636	0.00000000	-52.31299000	-2.22071800
64.39999635	0.00000000	-52.68823000	-8.35383800
64.59999634	0.00000000	-54.26919000	-15.32357000
64.79999632	0.00000000	-56.92052000	-21.50590000
64.99999631	0.00000000	-59.61491000	-25.77510000
65.19999630	0.00000000	-61.52805000	-27.35605000
65.39999629	0.00000000	-62.31545000	-26.24262000
65.59999628	0.00000000	-61.57111000	-23.17298000
65.79999626	0.00000000	-60.03937000	-18.90379000
65.99999625	0.00000000	-58.08316000	-14.25320000
66.19999624	0.00000000	-55.80708000	-9.98400600
66.39999623	0.00000000	-54.31225000	-6.86515700
66.59999622	0.00000000	-54.26919000	-5.29035400
66.79999620	0.00000000	-55.38263000	-5.24729300
66.99999619	0.00000000	-56.96358000	-6.40378900
67.19999618	0.00000000	-58.83366000	-8.35383800
67.39999617	0.00000000	-60.35925000	-11.14050000
67.59999616	0.00000000	-60.32234000	-14.58538000
67.79999615	0.00000000	-59.24582000	-18.11024000
67.99999613	0.00000000	-57.29576000	-20.81078000
68.19999612	0.00000000	-55.38263000	-22.80389000
68.39999611	0.00000000	-53.80167000	-23.54823000
68.59999610	0.00000000	-52.73130000	-23.12992000
68.79999609	0.00000000	-53.19881000	-21.17372000
68.99999607	0.00000000	-55.85014000	-17.69808000
69.19999606	0.00000000	-59.66412000	-13.79183000
69.39999605	0.00000000	-63.10900000	-9.47342500
69.59999604	0.00000000	-65.43430000	-5.29035400
69.79999603	0.00000000	-65.80955000	-2.63902500
69.99999601	0.00000000	-64.27164000	-2.63902500
70.19999600	0.00000000	-61.15280000	-5.33341500
70.39999599	0.00000000	-56.87746000	-9.93479300
70.59999598	0.00000000	-52.26993000	-15.36663000
70.79999597	0.00000000	-48.40674000	-20.39247000
70.99999596	0.00000000	-46.54281000	-24.24335000
71.19999594	0.00000000	-47.29330000	-25.73203000
71.39999593	0.00000000	-50.73204000	-24.29257000
71.59999592	0.00000000	-55.38263000	-20.81078000
71.79999591	0.00000000	-60.45767000	-16.57234000
71.99999590	0.00000000	-65.47736000	-11.88484000
72.19999588	0.00000000	-68.88533000	-8.07086500
72.39999587	0.00000000	-69.67273000	-5.75172200
72.59999586	0.00000000	-67.34743000	-5.75172200
72.79999585	0.00000000	-62.78297000	-7.98474400
72.99999584	0.00000000	-57.33883000	-11.04823000
73.19999582	0.00000000	-52.31299000	-14.16092000
73.39999581	0.00000000	-48.45595000	-16.85531000
73.59999580	0.00000000	-46.91806000	-18.39321000
73.79999579	0.00000000	-48.03149000	-18.43627000
73.99999578	0.00000000	-51.10728000	-17.32283000
74.19999577	0.00000000	-55.33957000	-15.83415000
74.39999575	0.00000000	-59.61491000	-14.67150000
74.59999574	0.00000000	-63.10900000	-14.30241000
74.79999573	0.00000000	-65.43430000	-14.67150000
74.99999572	0.00000000	-65.80955000	-15.83415000
75.19999571	0.00000000	-64.31471000	-17.32283000
75.39999569	0.00000000	-61.62032000	-18.43627000
75.59999568	0.00000000	-58.54454000	-18.39321000
75.79999567	0.00000000	-55.80708000	-16.85531000
75.99999566	0.00000000	-53.89394000	-14.11786000
76.19999565	0.00000000	-53.06348000	-10.67298000
76.39999563	0.00000000	-53.47564000	-7.28346400
76.59999562	0.00000000	-54.55216000	-5.75172200
76.79999561	0.00000000	-56.12696000	-6.48991100
76.99999560	0.00000000	-57.20349000	-8.86441900
77.19999559	0.00000000	-57.66486000	-13.13976000
77.39999558	0.00000000	-57.29576000	-18.47933000
77.59999556	0.00000000	-56.96358000	-23.08686000
77.79999555	0.00000000	-56.96358000	-25.77510000
77.99999554	0.00000000	-57.33883000	-25.77510000
78.19999553	0.00000000	-58.12622000	-23.08686000
78.39999552	0.00000000	-58.87672000	-18.43627000
78.59999550	0.00000000	-59.66412000	-12.62918000
78.79999549	0.00000000	-59.99015000	-6.86515700
78.99999548	0.00000000	-59.61491000	-2.63902500
79.19999547	0.00000000	-58.40920000	-1.05807100
79.39999546	0.00000000	-56.50221000	-2.17765700
79.59999544	0.00000000	-54.22613000	-5.29035400
79.79999543	0.00000000	-52.68823000	-9.98400600
79.99999542	0.00000000	-52.26993000	-15.74188000
80.19999541	0.00000000	-52.64517000	-21.13066000
80.39999540	0.00000000	-53.85088000	-24.57554000
80.59999539	0.00000000	-55.80708000	-25.44906000
80.79999537	0.00000000	-58.50147000	-23.92347000
80.99999536	0.00000000	-61.15280000	-21.22293000
81.19999535	0.00000000	-62.69069000	-17.32283000
81.39999534	0.00000000	-62.73376000	-13.09670000
81.59999533	0.00000000	-61.57111000	-9.55954600
81.79999531	0.00000000	-59.61491000	-6.82209600
81.99999530	0.00000000	-56.92052000	-5.29035400
82.19999529	0.00000000	-54.26919000	-5.24729300
82.39999528	0.00000000	-52.73130000	-6.44685000
82.59999527	0.00000000	-52.68823000	-8.77214500
82.79999525	0.00000000	-53.80167000	-12.29700000
82.99999524	0.00000000	-55.33957000	-16.11712000
83.19999523	0.00000000	-56.92052000	-19.64198000
83.39999522	0.00000000	-58.45841000	-21.96727000
83.59999521	0.00000000	-59.61491000	-23.17298000
83.79999520	0.00000000	-59.99015000	-23.12992000
83.99999518	0.00000000	-59.66412000	-21.54897000
84.19999517	0.00000000	-58.91978000	-18.43627000
84.39999516	0.00000000	-58.50147000	-14.21014000
84.59999515	0.00000000	-58.08316000	-9.93479300
84.79999514	0.00000000	-57.33883000	-6.44685000
84.99999512	0.00000000	-56.96358000	-4.17076700
85.19999511	0.00000000	-56.92052000	-4.17076700
85.39999510	0.00000000	-56.87746000	-6.44685000
85.59999509	0.00000000	-56.50221000	-9.98400600
85.79999508	0.00000000	-55.75787000	-14.62844000
85.99999506	0.00000000	-55.38263000	-19.64198000
86.19999505	0.00000000	-55.38263000	-23.46210000
86.39999504	0.00000000	-55.75787000	-25.40600000
86.59999503	0.00000000	-56.58833000	-24.61860000
86.79999502	0.00000000	-57.71407000	-21.54897000
86.99999501	0.00000000	-59.28888000	-16.89837000
87.19999499	0.00000000	-60.36540000	-11.51575000
87.39999498	0.00000000	-60.82677000	-6.90821800
87.59999497	0.00000000	-60.36540000	-4.17076700
87.79999496	0.00000000	-59.24582000	-3.80167300
87.99999495	0.00000000	-57.29576000	-5.70866100
88.19999493	0.00000000	-55.38263000	-9.60875900
88.39999492	0.00000000	-53.85088000	-14.58538000
88.59999491	0.00000000	-53.06348000	-19.59892000
88.79999490	0.00000000	-53.47564000	-23.04380000
88.99999489	0.00000000	-54.59522000	-24.20029000
89.19999487	0.00000000	-56.54527000	-22.66855000
89.39999486	0.00000000	-58.45841000	-18.85458000
89.59999485	0.00000000	-60.03937000	-14.21014000
89.79999484	0.00000000	-61.15280000	-9.56569900
89.99999483	0.00000000	-61.15280000	-5.75172200
90.19999482	0.00000000	-60.03937000	-4.26304100
90.39999480	0.00000000	-58.50147000	-5.75172200
90.59999479	0.00000000	-56.96358000	-9.56569900
90.79999478	0.00000000	-55.80708000	-14.21014000
90.99999477	0.00000000	-55.38263000	-18.81152000
91.19999476	0.00000000	-55.33957000	-22.24409000
91.39999474	0.00000000	-55.38263000	-22.99459000
91.59999473	0.00000000	-55.75787000	-21.13066000
91.79999472	0.00000000	-56.50221000	-17.27362000
91.99999471	0.00000000	-56.87746000	-12.67224000
92.19999470	0.00000000	-56.92052000	-8.44611200
92.39999468	0.00000000	-56.92052000	-5.80093500
92.59999467	0.00000000	-56.92052000	-5.75172200
92.79999466	0.00000000	-56.96358000	-8.07086500
92.99999465	0.00000000	-57.38804000	-11.88484000
93.19999464	0.00000000	-58.50147000	-16.52928000
93.39999463	0.00000000	-59.61491000	-20.34941000
93.59999461	0.00000000	-59.99015000	-22.66855000
93.79999460	0.00000000	-59.61491000	-22.61934000
93.99999459	0.00000000	-58.45841000	-19.97416000
94.19999458	0.00000000	-56.92052000	-15.78494000
94.39999457	0.00000000	-55.33957000	-11.55881000
94.59999455	0.00000000	-53.80167000	-8.44611200
94.79999454	0.00000000	-52.64517000	-6.90821800
94.99999453	0.00000000	-52.26993000	-7.33267600
95.19999452	0.00000000	-52.68823000	-10.02707000
95.39999451	0.00000000	-54.26919000	-14.21014000
95.59999449	0.00000000	-56.96358000	-18.39321000
95.79999448	0.00000000	-60.03937000	-21.08760000
95.99999447	0.00000000	-62.73376000	-21.50590000
96.19999446	0.00000000	-64.22859000	-19.97416000
96.39999445	0.00000000	-63.89641000	-16.94759000
96.59999444	0.00000000	-61.94635000	-13.46580000
96.79999442	0.00000000	-59.24582000	-10.76525000
96.99999441	0.00000000	-55.71481000	-8.82135800
97.19999440	0.00000000	-52.26993000	-8.48917200
97.39999439	0.00000000	-49.56939000	-9.98400600
97.59999438	0.00000000	-48.40674000	-12.62918000
97.79999436	0.00000000	-49.19414000	-15.32357000
97.99999435	0.00000000	-51.48252000	-17.23056000
98.19999434	0.00000000	-55.00738000	-18.06102000
98.39999433	0.00000000	-58.83366000	-17.69808000
98.59999432	0.00000000	-62.35851000	-16.94759000
98.79999430	0.00000000	-64.64690000	-15.74188000
98.99999429	0.00000000	-65.43430000	-14.21014000
99.19999428	0.00000000	-64.27164000	-12.72146000
99.39999427	0.00000000	-61.62032000	-11.97711000
99.59999426	0.00000000	-58.45841000	-12.62918000
99.79999425	0.00000000	-54.96432000	-13.32431000
99.99999423	0.00000000	-51.52559000	-13.00443000
100.19999422	0.00000000	-49.61245000	-12.67224000
100.39999421	0.00000000	-49.52633000	-12.58612000
100.59999420	0.00000000	-50.68897000	-12.21087000
100.79999419	0.00000000	-52.64517000	-11.51575000
100.99999417	0.00000000	-55.38263000	-11.55881000
101.19999416	0.00000000	-58.45841000	-12.67224000
101.39999415	0.00000000	-61.15280000	-14.25320000
101.59999414	0.00000000	-62.73376000	-16.11712000
101.79999413	0.00000000	-63.10900000	-17.68578000
101.99999411	0.00000000	-62.35851000	-18.02411000
102.19999410	0.00000000	-60.41461000	-17.64272000
102.39999409	0.00000000	-58.08316000	-15.69882000
102.59999408	0.00000000	-55.38263000	-13.09055000
102.79999407	0.00000000	-53.10654000	-11.09744000
102.99999406	0.00000000	-52.26993000	-9.51648500
103.19999404	0.00000000	-52.22071000	-8.40305000
103.39999403	0.00000000	-52.68823000	-8.44611200
103.59999402	0.00000000	-54.22613000	-9.98400600
103.79999401	0.00000000	-56.50221000	-12.67224000
103.99999400	0.00000000	-58.40920000	-15.74188000
104.19999398	0.00000000	-59.61491000	-18.43627000
104.39999397	0.00000000	-60.03937000	-19.97416000
104.59999396	0.00000000	-60.03937000	-19.97416000
104.79999395	0.00000000	-59.61491000	-18.43627000
104.99999394	0.00000000	-58.45841000	-15.74188000
105.19999392	0.00000000	-56.92052000	-12.72146000
105.39999391	0.00000000	-55.38263000	-10.40231000
105.59999390	0.00000000	-54.26919000	-9.60875900
105.79999389	0.00000000	-54.22613000	-9.93479300
105.99999388	0.00000000	-54.96432000	-11.14050000
106.19999387	0.00000000	-55.75787000	-13.04749000
106.39999385	0.00000000	-56.92052000	-15.36663000
106.59999384	0.00000000	-58.03395000	-17.23056000
106.79999383	0.00000000	-58.45841000	-18.01796000
106.99999382	0.00000000	-58.45841000	-17.27362000
107.19999381	0.00000000	-58.03395000	-15.78494000
107.39999379	0.00000000	-56.92052000	-14.21014000
107.59999378	0.00000000	-55.80708000	-12.67224000
107.79999377	0.00000000	-55.38263000	-11.55881000
107.99999376	0.00000000	-55.38263000	-11.51575000
108.19999375	0.00000000	-55.75787000	-12.29700000
108.39999374	0.00000000	-56.54527000	-13.46580000
108.59999372	0.00000000	-57.33883000	-15.36663000
108.79999371	0.00000000	-58.45841000	-16.85531000
108.99999370	0.00000000	-59.19660000	-17.27362000
109.19999369	0.00000000	-58.83366000	-16.89837000
109.39999368	0.00000000	-58.08316000	-15.74188000
109.59999366	0.00000000	-56.87746000	-14.21014000
109.79999365	0.00000000	-55.38263000	-12.62918000
109.99999364	0.00000000	-54.22613000	-11.14050000
110.19999363	0.00000000	-53.85088000	-10.35310000
110.39999362	0.00000000	-54.22613000	-10.72219000
110.59999360	0.00000000	-55.33957000	-11.46653000
110.79999359	0.00000000	-56.50221000	-12.72146000
110.99999358	0.00000000	-57.29576000	-14.58538000
111.19999357	0.00000000	-58.08316000	-16.48622000
111.39999356	0.00000000	-58.45841000	-17.27362000
111.59999355	0.00000000	-58.45841000	-17.32283000
111.79999353	0.00000000	-58.08316000	-16.89837000
111.99999352	0.00000000	-57.29576000	-15.74188000
112.19999351	0.00000000	-56.54527000	-14.21014000
112.39999350	0.00000000	-55.75787000	-12.72146000
112.59999349	0.00000000	-55.38263000	-11.93405000
112.79999347	0.00000000	-55.33957000	-12.25394000
112.99999346	0.00000000	-55.38263000	-12.62918000
113.19999345	0.00000000	-55.75787000	-13.04749000
113.39999344	0.00000000	-56.50221000	-13.79183000
113.59999343	0.00000000	-56.87746000	-14.16708000
113.79999341	0.00000000	-56.92052000	-14.21014000
113.99999340	0.00000000	-56.92052000	-14.21014000
114.19999339	0.00000000	-56.92052000	-14.21014000
114.39999338	0.00000000	-56.92052000	-14.21014000
114.59999337	0.00000000	-56.87746000	-14.25320000
114.79999336	0.00000000	-56.50221000	-14.62844000
114.99999334	0.00000000	-55.75787000	-15.36663000
115.19999333	0.00000000	-55.38263000	-15.69267000
115.39999332	0.00000000	-55.38263000	-15.36663000
115.59999331	0.00000000	-55.75787000	-14.62844000
115.79999330	0.00000000	-56.50221000	-14.21014000
115.99999328	0.00000000	-56.87746000	-13.79183000
116.19999327	0.00000000	-56.92052000	-13.04749000
116.39999326	0.00000000	-56.96358000	-12.62918000
116.59999325	0.00000000	-57.29576000	-12.25394000
116.79999324	0.00000000	-57.66486000	-11.88484000
116.99999322	0.00000000	-57.29576000	-12.29700000
117.19999321	0.00000000	-56.92052000	-13.00443000
117.39999320	0.00000000	-56.50221000	-13.83489000
117.59999319	0.00000000	-55.71481000	-14.58538000
117.79999318	0.00000000	-54.96432000	-15.36663000
117.99999317	0.00000000	-54.17691000	-15.74188000
118.19999315	0.00000000	-53.85088000	-15.74188000
118.39999314	0.00000000	-54.22613000	-15.36663000
118.59999313	0.00000000	-55.38263000	-14.62844000
118.79999312	0.00000000	-56.87746000	-14.21014000
118.99999311	0.00000000	-58.03395000	-13.79183000
119.19999309	0.00000000	-58.50147000	-13.04749000
119.39999308	0.00000000	-58.87672000	-12.67224000
119.59999307	0.00000000	-59.19660000	-12.62918000
119.79999306	0.00000000	-58.45841000	-12.62918000
119.99999305	0.00000000	-57.33883000	-12.62918000
120.19999303	0.00000000	-56.50221000	-12.67224000
120.39999302	0.00000000	-55.33957000	-13.04749000
120.59999301	0.00000000	-54.22613000	-13.83489000
120.79999300	0.00000000	-53.80167000	-14.58538000
120.99999299	0.00000000	-53.80167000	-15.32357000
121.19999298	0.00000000	-54.22613000	-15.36663000
121.39999296	0.00000000	-55.38263000	-15.00369000
121.59999295	0.00000000	-56.87746000	-15.04060000
121.79999294	0.00000000	-58.08316000	-14.95448000
121.99999293	0.00000000	-58.83366000	-14.99139000
122.19999292	0.00000000	-59.24582000	-14.53617000
122.39999290	0.00000000	-58.83366000	-13.83489000
122.59999289	0.00000000	-58.12622000	-13.04749000
122.79999288	0.00000000	-57.29576000	-12.67224000
122.99999287	0.00000000	-56.54527000	-12.62918000
123.19999286	0.00000000	-55.71481000	-12.62918000
123.39999284	0.00000000	-54.96432000	-12.67224000
123.59999283	0.00000000	-54.22613000	-13.04749000
123.79999282	0.00000000	-54.22613000	-13.83489000
123.99999281	0.00000000	-54.96432000	-14.58538000
124.19999280	0.00000000	-55.71481000	-15.36663000
124.39999279	0.00000000	-56.50221000	-15.74188000
124.59999277	0.00000000	-56.92052000	-15.78494000
124.79999276	0.00000000	-57.33883000	-15.74188000
124.99999275	0.00000000	-58.08316000	-15.36663000
125.19999274	0.00000000	-58.45841000	-14.58538000
125.39999273	0.00000000	-58.45841000	-13.83489000
125.59999271	0.00000000	-58.08316000	-13.04749000
125.79999270	0.00000000	-57.29576000	-12.67224000
125.99999269	0.00000000	-56.50221000	-12.62918000
126.19999268	0.00000000	-55.33957000	-12.62918000
126.39999267	0.00000000	-54.22613000	-12.67224000
126.59999265	0.00000000	-53.80167000	-13.04749000
126.79999264	0.00000000	-53.80167000	-13.79183000
126.99999263	0.00000000	-54.22613000	-14.16708000
127.19999262	0.00000000	-55.38263000	-14.25320000
127.39999261	0.00000000	-56.87746000	-14.58538000
127.59999260	0.00000000	-58.03395000	-14.94833000
127.79999258	0.00000000	-58.45841000	-14.58538000
127.99999257	0.00000000	-58.50147000	-14.21014000
128.19999256	0.00000000	-58.45841000	-13.83489000
128.39999255	0.00000000	-58.08316000	-13.42274000
128.59999254	0.00000000	-57.29576000	-13.41658000
128.79999252	0.00000000	-56.50221000	-13.04749000
128.99999251	0.00000000	-55.33957000	-13.04749000
129.19999250	0.00000000	-54.26919000	-13.41658000
129.39999249	0.00000000	-54.22613000	-13.42274000
129.59999248	0.00000000	-54.96432000	-13.83489000
129.79999246	0.00000000	-55.75787000	-14.16708000
129.99999245	0.00000000	-56.92052000	-14.21014000
130.19999244	0.00000000	-58.03395000	-14.21014000
130.39999243	0.00000000	-58.45841000	-14.16708000
130.59999242	0.00000000	-58.45841000	-13.79183000
130.79999241	0.00000000	-58.03395000	-13.04749000
130.99999239	0.00000000	-56.92052000	-12.67224000
131.19999238	0.00000000	-55.75787000	-12.67224000
131.39999237	0.00000000	-54.96432000	-13.04749000
131.59999236	0.00000000	-54.22613000	-13.79183000
131.79999235	0.00000000	-54.22613000	-14.21014000
131.99999233	0.00000000	-54.96432000	-14.62844000
132.19999232	0.00000000	-55.71481000	-15.36663000
132.39999231	0.00000000	-56.50221000	-15.74188000
132.59999230	0.00000000	-56.87746000	-15.78494000
132.79999229	0.00000000	-56.92052000	-15.74188000
132.99999227	0.00000000	-56.92052000	-15.32357000
133.19999226	0.00000000	-56.92052000	-14.21014000
133.39999225	0.00000000	-56.92052000	-13.09670000
133.59999224	0.00000000	-56.87746000	-12.67224000
133.79999223	0.00000000	-56.54527000	-12.62918000
133.99999222	0.00000000	-56.13312000	-12.62918000
134.19999220	0.00000000	-56.17002000	-12.67224000
134.39999219	0.00000000	-56.09006000	-13.04749000
134.59999218	0.00000000	-56.12696000	-13.83489000
134.79999217	0.00000000	-55.71481000	-14.58538000
134.99999216	0.00000000	-55.38263000	-15.36663000
135.19999214	0.00000000	-55.33957000	-15.74188000
135.39999213	0.00000000	-55.33957000	-15.74188000
135.59999212	0.00000000	-55.33957000	-15.32357000
135.79999211	0.00000000	-55.38263000	-14.21014000
135.99999210	0.00000000	-55.75787000	-13.04749000
136.19999208	0.00000000	-56.50221000	-12.25394000
136.39999207	0.00000000	-56.87746000	-11.46653000
136.59999206	0.00000000	-56.92052000	-11.14050000
136.79999205	0.00000000	-56.92052000	-11.46653000
136.99999204	0.00000000	-56.87746000	-12.25394000
137.19999203	0.00000000	-56.50221000	-13.00443000
137.39999201	0.00000000	-55.75787000	-13.79183000
137.59999200	0.00000000	-55.38263000	-14.21014000
137.79999199	0.00000000	-55.29650000	-14.62844000
137.99999198	0.00000000	-54.96432000	-15.32357000
138.19999197	0.00000000	-54.59522000	-15.32357000
138.39999195	0.00000000	-54.96432000	-14.62844000
138.59999194	0.00000000	-55.33957000	-14.25320000
138.79999193	0.00000000	-55.75787000	-14.16708000
138.99999192	0.00000000	-56.54527000	-13.79183000
139.19999191	0.00000000	-57.29576000	-13.04749000
139.39999189	0.00000000	-58.03395000	-12.67224000
139.59999188	0.00000000	-57.99089000	-12.58612000
139.79999187	0.00000000	-56.92052000	-12.25394000
139.99999186	0.00000000	-55.80708000	-11.93405000
140.19999185	0.00000000	-55.33957000	-12.67224000
140.39999184	0.00000000	-54.96432000	-13.74262000
140.59999182	0.00000000	-54.59522000	-14.21014000
140.79999181	0.00000000	-55.00738000	-14.62844000
140.99999180	0.00000000	-55.71481000	-15.36663000
141.19999179	0.00000000	-56.50221000	-15.74188000
141.39999178	0.00000000	-56.87746000	-15.74188000
141.59999176	0.00000000	-56.92052000	-15.36663000
141.79999175	0.00000000	-56.87746000	-14.58538000
141.99999174	0.00000000	-56.50221000	-13.83489000
142.19999173	0.00000000	-55.75787000	-13.00443000
142.39999172	0.00000000	-55.38263000	-12.29700000
142.59999170	0.00000000	-55.33957000	-11.88484000
142.79999169	0.00000000	-55.33957000	-12.29700000
142.99999168	0.00000000	-55.38263000	-13.00443000
143.19999167	0.00000000	-55.75787000	-13.83489000
143.39999166	0.00000000	-56.50221000	-14.58538000
143.59999165	0.00000000	-56.87746000	-15.36663000
143.79999163	0.00000000	-56.92052000	-15.74188000
143.99999162	0.00000000	-56.92052000	-15.78494000
144.19999161	0.00000000	-56.87746000	-15.74188000
144.39999160	0.00000000	-56.50221000	-15.32357000
144.59999159	0.00000000	-55.71481000	-14.21014000
144.79999157	0.00000000	-55.00738000	-13.09670000
144.99999156	0.00000000	-54.59522000	-12.67224000
145.19999155	0.00000000	-54.96432000	-12.62918000
145.39999154	0.00000000	-55.33957000	-12.67224000
145.59999153	0.00000000	-55.75787000	-13.04749000
145.79999151	0.00000000	-56.50221000	-13.79183000
145.99999150	0.00000000	-56.87746000	-14.21014000
146.19999149	0.00000000	-56.92052000	-14.62844000
146.39999148	0.00000000	-56.87746000	-15.32357000
146.59999147	0.00000000	-56.50221000	-15.32357000
146.79999146	0.00000000	-55.75787000	-14.62844000
146.99999144	0.00000000	-55.38263000	-14.25320000
147.19999143	0.00000000	-55.33957000	-14.16708000
147.39999142	0.00000000	-55.33957000	-13.79183000
147.59999141	0.00000000	-55.33957000	-13.04749000
147.79999140	0.00000000	-55.33957000	-12.67224000
147.99999138	0.00000000	-55.38263000	-12.62918000
148.19999137	0.00000000	-55.75787000	-12.62918000
148.39999136	0.00000000	-56.50221000	-12.62918000
148.59999135	0.00000000	-56.87746000	-12.67224000
148.79999134	0.00000000	-56.92052000	-13.04749000
148.99999132	0.00000000	-56.87746000	-13.79183000
149.19999131	0.00000000	-56.50221000	-14.16708000
149.39999130	0.00000000	-55.75787000	-14.21014000
149.59999129	0.00000000	-55.38263000	-14.21014000
149.79999128	0.00000000	-55.33957000	-14.21014000
149.99999127	0.00000000	-55.33957000	-14.21014000
150.19999125	0.00000000	-55.33957000	-14.16708000
150.39999124	0.00000000	-55.33957000	-13.79183000
150.59999123	0.00000000	-55.38263000	-13.04749000
150.79999122	0.00000000	-55.71481000	-12.67224000
150.99999121	0.00000000	-56.12696000	-12.62918000
151.19999119	0.00000000	-56.13312000	-12.62918000
151.39999118	0.00000000	-56.54527000	-12.62918000
151.59999117	0.00000000	-56.87746000	-12.67224000
151.79999116	0.00000000	-56.92052000	-13.04749000
151.99999115	0.00000000	-56.87746000	-13.79183000
152.19999113	0.00000000	-56.50221000	-14.16708000
152.39999112	0.00000000	-55.75787000	-14.21014000
152.59999111	0.00000000	-55.38263000	-14.21014000
152.79999110	0.00000000	-55.33957000	-14.21014000
152.99999109	0.00000000	-55.33957000	-14.16708000
153.19999108	0.00000000	-55.33957000	-13.79183000
153.39999106	0.00000000	-55.33957000	-13.09670000
153.59999105	0.00000000	-55.38263000	-13.04749000
153.79999104	0.00000000	-55.75787000	-13.37352000
153.99999103	0.00000000	-56.50221000	-13.04749000
154.19999102	0.00000000	-56.87746000	-13.09670000
154.39999100	0.00000000	-56.92052000	-13.79183000
154.59999099	0.00000000	-56.92052000	-14.16708000
154.79999098	0.00000000	-56.92052000	-14.21014000
154.99999097	0.00000000	-56.87746000	-14.21014000
155.19999096	0.00000000	-56.50221000	-14.21014000
155.39999094	0.00000000	-55.75787000	-14.21014000
155.59999093	0.00000000	-55.38263000	-14.21014000
155.79999092	0.00000000	-55.33957000	-14.21014000
155.99999091	0.00000000	-55.33957000	-14.21014000
156.19999090	0.00000000	-55.38263000	-14.21014000
156.39999089	0.00000000	-55.71481000	-14.16708000
156.59999087	0.00000000	-56.12696000	-13.79183000
156.79999086	0.00000000	-56.13312000	-13.04749000
156.99999085	0.00000000	-56.54527000	-12.67224000
157.19999084	0.00000000	-56.87746000	-12.62918000
157.39999083	0.00000000	-56.92052000	-12.62918000
157.59999081	0.00000000	-56.92052000	-12.67224000
157.79999080	0.00000000	-56.87746000	-13.04749000
157.99999079	0.00000000	-56.50221000	-13.79183000
158.19999078	0.00000000	-55.75787000	-14.16708000
158.39999077	0.00000000	-55.38263000	-14.21014000
158.59999075	0.00000000	-55.33957000	-14.25320000
158.79999074	0.00000000	-55.33957000	-14.58538000
158.99999073	0.00000000	-55.33957000	-14.94833000
159.19999072	0.00000000	-55.33957000	-14.53617000
159.39999071	0.00000000	-55.33957000	-13.83489000
159.59999070	0.00000000	-55.33957000	-13.04749000
159.79999068	0.00000000	-55.38263000	-12.67224000
159.99999067	0.00000000	-55.75787000	-12.62918000
160.19999066	0.00000000	-56.50221000	-12.62918000
160.39999065	0.00000000	-56.87746000	-12.62918000
160.59999064	0.00000000	-56.92052000	-12.67224000
160.79999062	0.00000000	-56.87746000	-13.04749000
160.99999061	0.00000000	-56.54527000	-13.74262000
161.19999060	0.00000000	-56.13312000	-13.79183000
161.39999059	0.00000000	-56.12696000	-13.46580000
161.59999058	0.00000000	-55.71481000	-13.83489000
161.79999056	0.00000000	-55.38263000	-14.16708000
161.99999055	0.00000000	-55.33957000	-14.16708000
162.19999054	0.00000000	-55.33957000	-13.83489000
162.39999053	0.00000000	-55.33957000	-13.42274000
162.59999052	0.00000000	-55.33957000	-13.41658000
162.79999051	0.00000000	-55.33957000	-13.00443000
162.99999049	0.00000000	-55.38263000	-12.67224000
163.19999048	0.00000000	-55.71481000	-12.62918000
163.39999047	0.00000000	-56.12696000	-12.67224000
163.59999046	0.00000000	-56.13312000	-13.00443000
163.79999045	0.00000000	-56.54527000	-13.41658000
163.99999043	0.00000000	-56.87746000	-13.42274000
164.19999042	0.00000000	-56.87746000	-13.83489000
164.39999041	0.00000000	-56.50221000	-14.11786000
164.59999040	0.00000000	-55.75787000	-13.83489000
164.79999039	0.00000000	-55.38263000	-13.46580000
164.99999037	0.00000000	-55.33957000	-13.79183000
165.19999036	0.00000000	-55.33957000	-13.79183000
165.39999035	0.00000000	-55.33957000	-13.46580000
165.59999034	0.00000000	-55.33957000	-13.79183000
165.79999033	0.00000000	-55.33957000	-13.74262000
165.99999032	0.00000000	-55.33957000	-13.04749000
166.19999030	0.00000000	-55.38263000	-12.67224000
166.39999029	0.00000000	-55.75787000	-12.62918000
166.59999028	0.00000000	-56.50221000	-12.62918000
166.79999027	0.00000000	-56.82825000	-12.67224000
166.99999026	0.00000000	-56.50221000	-13.04749000
167.19999024	0.00000000	-55.80708000	-13.79183000
167.39999023	0.00000000	-55.75787000	-14.16708000
167.59999022	0.00000000	-56.08390000	-14.25320000
167.79999021	0.00000000	-55.71481000	-14.58538000
167.99999020	0.00000000	-55.38263000	-14.94833000
168.19999018	0.00000000	-55.33957000	-14.58538000
168.39999017	0.00000000	-55.33957000	-14.25320000
168.59999016	0.00000000	-55.33957000	-14.21014000
168.79999015	0.00000000	-55.33957000	-14.16708000
168.99999014	0.00000000	-55.33957000	-13.83489000
169.19999013	0.00000000	-55.33957000	-13.46580000
169.39999011	0.00000000	-55.33957000	-13.83489000
169.59999010	0.00000000	-55.33957000	-14.16708000
169.79999009	0.00000000	-55.33957000	-14.16708000
169.99999008	0.00000000	-55.33957000	-13.83489000
170.19999007	0.00000000	-55.33957000	-13.42274000
170.39999005	0.00000000	-55.33957000	-13.41658000
170.59999004	0.00000000	-55.33957000	-13.00443000
170.79999003	0.00000000	-55.33957000	-12.72146000
170.99999002	0.00000000	-55.33957000	-13.04749000
171.19999001	0.00000000	-55.33957000	-13.79183000
171.39998999	0.00000000	-55.33957000	-14.16708000
171.59998998	0.00000000	-55.33957000	-14.21014000
171.79998997	0.00000000	-55.33957000	-14.21014000
171.99998996	0.00000000	-55.33957000	-14.21014000
172.19998995	0.00000000	-55.33957000	-14.21014000
172.39998994	0.00000000	-55.33957000	-14.16708000
172.59998992	0.00000000	-55.38263000	-13.83489000
172.79998991	0.00000000	-55.71481000	-13.42274000
172.99998990	0.00000000	-56.08390000	-13.41658000
173.19998989	0.00000000	-55.71481000	-13.00443000
173.39998988	0.00000000	-55.38263000	-12.72146000
173.59998986	0.00000000	-55.33957000	-13.00443000
173.79998985	0.00000000	-55.33957000	-13.41658000
173.99998984	0.00000000	-55.33957000	-13.42274000
174.19998983	0.00000000	-55.33957000	-13.83489000
174.39998982	0.00000000	-55.33957000	-14.16708000
174.59998980	0.00000000	-55.33957000	-14.21014000
174.79998979	0.00000000	-55.33957000	-14.21014000
174.99998978	0.00000000	-55.33957000	-14.21014000
175.19998977	0.00000000	-55.33957000	-14.21014000
175.39998976	0.00000000	-55.33957000	-14.21014000
175.59998975	0.00000000	-55.33957000	-14.21014000
175.79998973	0.00000000	-55.33957000	-14.16708000
175.99998972	0.00000000	-55.33957000	-13.83489000
176.19998971	0.00000000	-55.33957000	-13.42274000
176.39998970	0.00000000	-55.33957000	-13.45964000
176.59998969	0.00000000	-55.33957000	-13.37967000
176.79998967	0.00000000	-55.33957000	-13.41658000
176.99998966	0.00000000	-55.33957000	-13.04749000
177.19998965	0.00000000	-55.33957000	-13.04749000
177.39998964	0.00000000	-55.33957000	-13.41658000
177.59998963	0.00000000	-55.33957000	-13.42274000
177.79998961	0.00000000	-55.33957000	-13.83489000
177.99998960	0.00000000	-55.33957000	-14.16708000
178.19998959	0.00000000	-55.33957000	-14.21014000
178.39998958	0.00000000	-55.33957000	-14.16708000
178.59998957	0.00000000	-55.33957000	-13.79183000
178.79998956	0.00000000	-55.33957000	-13.04749000
178.99998954	0.00000000	-55.33957000	-12.67224000
179.19998953	0.00000000	-55.33957000	-12.62918000
179.39998952	0.00000000	-55.33957000	-12.62918000
179.59998951	0.00000000	-55.33957000	-12.62918000
179.79998950	0.00000000	-55.33957000	-12.67224000
179.99998948	0.00000000	-55.33957000	-13.04749000
180.19998947	0.00000000	-55.33957000	-13.79183000
180.39998946	0.00000000	-55.33957000	-14.16708000
180.59998945	0.00000000	-55.33957000	-14.21014000
180.79998944	0.00000000	-55.33957000	-14.16708000
180.99998942	0.00000000	-55.33957000	-13.79183000
181.19998941	0.00000000	-55.33957000	-13.04749000
181.39998940	0.00000000	-55.33957000	-12.67224000
181.59998939	0.00000000	-55.33957000	-12.62918000
181.79998938	0.00000000	-55.33957000	-12.67224000
181.99998937	0.00000000	-55.33957000	-13.04749000
182.19998935	0.00000000	-55.33957000	-13.79183000
182.39998934	0.00000000	-55.33957000	-14.11786000
182.59998933	0.00000000	-55.33957000	-13.83489000
182.79998932	0.00000000	-55.33957000	-13.46580000
182.99998931	0.00000000	-55.33957000	-13.83489000
183.19998929	0.00000000	-55.33957000	-14.16708000
183.39998928	0.00000000	-55.33957000	-14.21014000
183.59998927	0.00000000	-55.33957000	-14.21014000
183.79998926	0.00000000	-55.33957000	-14.21014000
183.99998925	0.00000000	-55.33957000	-14.21014000
184.19998923	0.00000000	-55.33957000	-14.16708000
184.39998922	0.00000000	-55.33957000	-13.79183000
184.59998921	0.00000000	-55.33957000	-13.04749000
184.79998920	0.00000000	-55.33957000	-12.67224000
184.99998919	0.00000000	-55.33957000	-12.62918000
185.19998918	0.00000000	-55.33957000	-12.62918000
185.39998916	0.00000000	-55.33957000	-12.62918000
185.59998915	0.00000000	-55.33957000	-12.67224000
185.79998914	0.00000000	-55.33957000	-13.04749000
185.99998913	0.00000000	-55.33957000	-13.79183000
186.19998912	0.00000000	-55.33957000	-14.16708000
186.39998910	0.00000000	-55.33957000	-14.21014000
186.59998909	0.00000000	-55.33957000	-14.21014000
186.79998908	0.00000000	-55.33957000	-14.16708000
186.99998907	0.00000000	-55.33957000	-13.79183000
187.19998906	0.00000000	-55.33957000	-13.04749000
187.39998904	0.00000000	-55.33957000	-12.67224000
187.59998903	0.00000000	-55.33957000	-12.62918000
187.79998902	0.00000000	-55.33957000	-12.62918000
187.99998901	0.00000000	-55.29650000	-12.62918000
188.19998900	0.00000000	-54.96432000	-12.62918000
188.39998899	0.00000000	-54.59522000	-12.62918000
188.59998897	0.00000000	-54.96432000	-12.62918000
188.79998896	0.00000000	-55.24729000	-12.67224000
188.99998895	0.00000000	-54.96432000	-13.04749000
189.19998894	0.00000000	-54.59522000	-13.79183000
189.39998893	0.00000000	-54.96432000	-14.16708000
189.59998891	0.00000000	-55.29650000	-14.21014000
189.79998890	0.00000000	-55.33957000	-14.16708000
189.99998889	0.00000000	-55.33957000	-13.79183000
190.19998888	0.00000000	-55.33957000	-13.04749000
190.39998887	0.00000000	-55.33957000	-12.67224000
190.59998885	0.00000000	-55.33957000	-12.62918000
190.79998884	0.00000000	-55.33957000	-12.62918000
190.99998883	0.00000000	-55.33957000	-12.62918000
191.19998882	0.00000000	-55.33957000	-12.67224000
191.39998881	0.00000000	-55.33957000	-13.00443000
191.59998880	0.00000000	-55.33957000	-13.41658000
191.79998878	0.00000000	-55.33957000	-13.42274000
191.99998877	0.00000000	-55.33957000	-13.83489000
192.19998876	0.00000000	-55.33957000	-14.16708000
192.39998875	0.00000000	-55.33957000	-14.21014000
192.59998874	0.00000000	-55.33957000	-14.21014000
192.79998872	0.00000000	-55.33957000	-14.21014000
192.99998871	0.00000000	-55.33957000	-14.21014000
193.19998870	0.00000000	-55.33957000	-14.21014000
193.39998869	0.00000000	-55.33957000	-14.21014000
193.59998868	0.00000000	-55.38263000	-14.16708000
193.79998866	0.00000000	-55.71481000	-13.79183000
193.99998865	0.00000000	-56.08390000	-13.04749000
194.19998864	0.00000000	-55.71481000	-12.67224000
194.39998863	0.00000000	-55.38263000	-12.62918000
194.59998862	0.00000000	-55.33957000	-12.62918000
194.79998861	0.00000000	-55.33957000	-12.67224000
194.99998859	0.00000000	-55.33957000	-13.04749000
195.19998858	0.00000000	-55.29650000	-13.74262000
195.39998857	0.00000000	-54.96432000	-13.74262000
195.59998856	0.00000000	-54.59522000	-13.09670000
195.79998855	0.00000000	-54.96432000	-13.09670000
195.99998853	0.00000000	-55.29650000	-13.79183000
