Time	Channel A	Channel B	Channel C
(us)	(V)	(mV)	(mV)

-4.49999956	0.00000000	-90.12672000	-28.42027000
-4.29999957	0.00000000	-90.12672000	-28.42027000
-4.09999958	0.00000000	-90.12672000	-28.42027000
-3.89999959	0.00000000	-90.12672000	-28.42027000
-3.69999960	0.00000000	-90.12672000	-28.42027000
-3.49999962	0.00000000	-90.08366000	-28.42027000
-3.29999963	0.00000000	-89.70841000	-28.42027000
-3.09999964	0.00000000	-89.01328000	-28.42027000
-2.89999965	0.00000000	-89.01328000	-28.42027000
-2.69999966	0.00000000	-89.70841000	-28.42027000
-2.49999968	0.00000000	-90.03444000	-28.42027000
-2.29999969	0.00000000	-89.75147000	-28.42027000
-2.09999970	0.00000000	-89.38238000	-28.42027000
-1.89999971	0.00000000	-89.70841000	-28.42027000
-1.69999972	0.00000000	-89.70841000	-28.42027000
-1.49999973	0.00000000	-89.38238000	-28.42027000
-1.29999975	0.00000000	-89.75147000	-28.46333000
-1.09999976	0.00000000	-90.03444000	-28.75246000
-0.89999977	0.00000000	-89.70841000	-28.78937000
-0.69999978	0.00000000	-89.01328000	-28.05118000
-0.49999979	0.00000000	-88.96407000	-28.08809000
-0.29999981	0.31803640	-89.29010000	-28.37721000
-0.09999982	0.63668800	-88.96407000	-28.42027000
0.10000017	0.95533960	-89.01328000	-28.42027000
0.30000016	1.11466500	-89.70841000	-28.42027000
0.50000015	0.79601380	-90.03444000	-28.42027000
0.70000013	0.31803640	-89.75147000	-28.42027000
0.90000012	-0.63668800	-89.38238000	-28.42027000
1.10000011	-1.59264300	-89.70841000	-28.42027000
1.30000010	-2.38927200	-89.65919000	-28.42027000
1.50000009	-2.70792300	-89.01328000	-28.42027000
1.70000008	-2.38927200	-88.96407000	-28.42027000
1.90000006	-1.11466500	-89.29010000	-28.42027000
2.10000005	0.63668800	-88.92101000	-28.42027000
2.30000004	2.86724900	-88.58882000	-28.42027000
2.50000003	4.61921700	-88.58882000	-28.42027000
2.70000002	5.41584600	-88.96407000	-28.42027000
2.90000000	4.77854300	-89.70841000	-28.46333000
3.09999999	2.70792300	-90.03444000	-28.79552000
3.29999998	-0.31803640	-89.70841000	-29.16461000
3.49999997	-3.66326300	-88.96407000	-28.79552000
3.69999996	-6.53112700	-88.58882000	-28.46333000
3.89999994	-7.96444400	-88.54576000	-28.42027000
4.09999993	-7.32714100	-88.54576000	-28.42027000
4.29999992	-4.77854300	-88.54576000	-28.42027000
4.49999991	-0.79601380	-88.54576000	-28.42027000
4.69999990	3.66326300	-88.54576000	-28.42027000
4.89999989	7.32714100	-88.58882000	-28.42027000
5.09999987	9.39837600	-88.96407000	-28.46333000
5.29999986	8.92039900	-89.70841000	-28.83858000
5.49999985	6.37180100	-90.08366000	-29.58292000
5.69999984	2.07062000	-90.12672000	-29.95817000
5.89999983	-2.70792300	-90.12672000	-29.95817000
6.09999981	-6.84916400	-90.08366000	-29.58292000
6.29999980	-9.07972400	-89.70841000	-28.83858000
6.49999979	-9.23905000	-88.96407000	-28.46333000
6.69999978	-7.00848900	-88.58882000	-28.42027000
6.89999977	-3.18590100	-88.54576000	-28.42027000
7.09999975	1.27399100	-88.54576000	-28.42027000
7.29999974	5.09719500	-88.58882000	-28.42027000
7.49999973	7.32714100	-88.96407000	-28.42027000
7.69999972	7.64579200	-89.70841000	-28.42027000
7.89999971	6.05315000	-90.08366000	-28.46333000
8.09999970	3.18590100	-90.08366000	-28.79552000
8.29999968	-0.15871060	-89.70841000	-29.20767000
8.49999967	-3.02657500	-88.96407000	-29.17077000
8.69999966	-4.77854300	-88.58882000	-29.20767000
8.89999965	-5.09719500	-88.58882000	-28.79552000
9.09999964	-4.30056600	-88.92101000	-28.46333000
9.29999962	-2.54859700	-89.29010000	-28.42027000
9.49999961	-0.47736220	-88.96407000	-28.42027000
9.69999960	1.11466500	-88.96407000	-28.42027000
9.89999959	2.22994600	-89.33316000	-28.42027000
10.09999958	2.54859700	-89.29626000	-28.42027000
10.29999956	2.22994600	-89.33316000	-28.42027000
10.49999955	1.43331700	-88.96407000	-28.42027000
10.69999954	0.47736220	-89.01328000	-28.42027000
10.89999953	-0.31803640	-89.65919000	-28.42027000
11.09999952	-0.79601380	-89.65919000	-28.42027000
11.29999951	-0.95533960	-88.96407000	-28.42027000
11.49999949	-0.95533960	-88.58882000	-28.42027000
11.69999948	-0.79601380	-88.54576000	-28.42027000
11.89999947	-0.47736220	-88.54576000	-28.42027000
12.09999946	-0.15871060	-88.54576000	-28.42027000
12.29999945	-0.15871060	-88.54576000	-28.42027000
12.49999943	0.00000000	-88.58882000	-28.42027000
12.69999942	0.00000000	-88.92101000	-28.42027000
12.89999941	0.00000000	-89.29010000	-28.42027000
13.09999940	0.15871060	-88.92101000	-28.42027000
13.29999939	0.00000000	-88.58882000	-28.42027000
13.49999937	0.00000000	-88.54576000	-28.42027000
13.69999936	0.00000000	-88.54576000	-28.42027000
13.89999935	0.00000000	-88.54576000	-28.42027000
14.09999934	-0.15871060	-88.54576000	-28.42027000
14.29999933	-0.15871060	-88.54576000	-28.42027000
14.49999932	-0.15871060	-88.54576000	-28.42027000
14.69999930	0.00000000	-88.54576000	-28.42027000
14.89999929	0.00000000	-88.54576000	-28.42027000
15.09999928	0.00000000	-88.54576000	-28.42027000
15.29999927	0.00000000	-88.54576000	-28.37721000
15.49999926	0.15871060	-88.58882000	-28.04503000
15.69999924	0.00000000	-88.92101000	-27.67593000
15.89999923	0.00000000	-89.33316000	-28.04503000
16.09999922	0.00000000	-89.33932000	-28.37721000
16.29999921	0.00000000	-89.70841000	-28.42027000
16.49999920	0.00000000	-89.65919000	-28.42027000
16.69999919	0.00000000	-88.92101000	-28.42027000
16.89999917	0.00000000	-88.21358000	-28.42027000
17.09999916	0.00000000	-87.75835000	-28.42027000
17.29999915	0.00000000	-87.75221000	-28.42027000
17.49999914	0.00000000	-87.34005000	-28.42027000
17.69999913	0.00000000	-87.05708000	-28.42027000
17.89999911	0.00000000	-87.43233000	-28.42027000
18.09999910	0.00000000	-88.58882000	-28.42027000
18.29999909	0.00000000	-90.12672000	-28.42027000
18.49999908	0.00000000	-91.66460000	-28.42027000
18.69999907	0.00000000	-92.87032000	-28.42027000
18.89999905	0.00000000	-93.62081000	-28.42027000
19.09999904	0.00000000	-93.94069000	-28.42027000
19.29999903	0.00000000	-92.73499000	-28.42027000
19.49999902	0.00000000	-90.03444000	-28.42027000
19.69999901	0.00000000	-86.54650000	-28.42027000
19.89999900	0.00000000	-82.64025000	-28.42027000
20.09999898	0.00000000	-79.23843000	-28.42027000
20.29999897	0.00000000	-77.33759000	-28.42027000
20.49999896	0.00000000	-78.16806000	-28.42027000
20.69999895	0.00000000	-81.70521000	-28.42027000
20.89999894	0.00000000	-87.93675000	-28.42027000
21.09999892	0.00000000	-95.98917000	-28.42027000
21.29999891	0.00000000	-103.29720000	-28.42027000
21.49999890	0.00000000	-107.94780000	-28.46333000
21.69999889	0.00000000	-109.06740000	-28.79552000
21.89999888	0.00000000	-105.85630000	-29.16461000
22.09999886	0.00000000	-98.03764000	-28.79552000
22.29999885	0.00000000	-86.45423000	-28.46333000
22.49999884	0.00000000	-73.75123000	-28.42027000
22.69999883	0.00000000	-63.33046000	-28.42027000
22.89999882	0.00000000	-57.60334000	-28.42027000
23.09999881	0.00000000	-58.48917000	-28.42027000
23.29999879	0.00000000	-67.04601000	-28.37721000
23.49999878	0.00000000	-81.74828000	-28.00197000
23.69999877	0.00000000	-99.52632000	-27.25763000
23.89999876	0.00000000	-116.50470000	-26.88238000
24.09999875	0.00000000	-128.37720000	-26.83932000
24.29999873	0.00000000	-131.81590000	-26.93159000
24.49999872	0.00000000	-125.17220000	-27.72515000
24.69999871	0.00000000	-109.71950000	-29.62598000
24.89999870	0.00000000	-88.45349000	-31.53297000
25.09999869	0.00000000	-66.44315000	-33.11393000
25.29999867	0.00000000	-48.67126000	-34.22736000
25.49999866	0.00000000	-39.08710000	-34.18430000
25.69999865	0.00000000	-40.71727000	-32.64640000
25.89999864	0.00000000	-53.83858000	-29.90895000
26.09999863	0.00000000	-75.47367000	-26.42101000
26.29999862	0.00000000	-100.55360000	-22.52091000
26.49999860	0.00000000	-123.30220000	-19.08218000
26.69999859	0.00000000	-138.00440000	-16.80610000
26.89999858	0.00000000	-141.49850000	-16.89222000
27.09999857	0.00000000	-133.39690000	-20.01107000
27.29999856	0.00000000	-115.21280000	-25.81816000
27.49999854	0.00000000	-91.33242000	-33.15699000
27.69999853	0.00000000	-67.32899000	-40.50196000
27.89999852	0.00000000	-48.80659000	-46.25984000
28.09999851	0.00000000	-39.46235000	-48.91117000
28.29999850	0.00000000	-41.36934000	-47.28715000
28.49999848	0.00000000	-53.27879000	-41.01255000
28.69999847	0.00000000	-72.21949000	-30.60408000
28.89999846	0.00000000	-93.85457000	-18.29478000
29.09999845	0.00000000	-113.20740000	-7.46801100
29.29999844	0.00000000	-126.42100000	-0.12918310
29.49999843	0.00000000	-131.07160000	2.10383800
29.69999841	0.00000000	-126.50710000	-2.25762800
29.89999840	0.00000000	-114.18550000	-13.04134000
30.09999839	0.00000000	-97.57012000	-28.13730000
30.29999838	0.00000000	-80.12425000	-43.94069000
30.49999837	0.00000000	-65.42200000	-57.45570000
30.69999835	0.00000000	-56.48376000	-65.08366000
30.89999834	0.00000000	-54.85974000	-64.70840000
31.09999833	0.00000000	-60.25467000	-56.20694000
31.29999832	0.00000000	-71.05684000	-41.52312000
31.49999831	0.00000000	-84.91634000	-23.72662000
31.69999829	0.00000000	-98.08685000	-6.35457700
31.89999828	0.00000000	-107.86170000	6.74827700
32.09999827	0.00000000	-113.34280000	12.55536000
32.29999826	0.00000000	-113.67490000	9.86097400
32.49999825	0.00000000	-108.69220000	-0.59055110
32.69999824	0.00000000	-99.43405000	-16.80610000
32.89999822	0.00000000	-88.68110000	-35.34079000
33.09999821	0.00000000	-78.91855000	-51.98080000
33.29999820	0.00000000	-71.93036000	-63.59498000
33.49999819	0.00000000	-68.44857000	-67.87032000
33.69999818	0.00000000	-69.65427000	-63.97022000
33.89999816	0.00000000	-75.33833000	-52.76205000
34.09999815	0.00000000	-83.42766000	-36.17741000
34.29999814	0.00000000	-91.57234000	-18.47318000
34.49999813	0.00000000	-98.54822000	-3.74630900
34.69999812	0.00000000	-102.74360000	5.16732200
34.89999810	0.00000000	-102.78670000	6.74827700
35.09999809	0.00000000	-99.01575000	0.94119090
35.29999808	0.00000000	-93.19635000	-10.99901000
35.49999807	0.00000000	-86.68184000	-26.42101000
35.69999806	0.00000000	-80.91781000	-41.43085000
35.89999805	0.00000000	-78.21111000	-52.67593000
36.09999803	0.00000000	-78.50024000	-57.69562000
36.29999802	0.00000000	-81.23769000	-55.78863000
36.49999801	0.00000000	-85.85137000	-47.33021000
36.69999800	0.00000000	-91.24016000	-34.69488000
36.89999799	0.00000000	-95.80462000	-21.63509000
37.09999797	0.00000000	-98.12991000	-11.60187000
37.29999796	0.00000000	-97.43479000	-6.95127900
37.49999795	0.00000000	-94.73425000	-8.39689900
37.69999794	0.00000000	-90.82184000	-14.94217000
37.89999793	0.00000000	-85.85137000	-24.52018000
38.09999791	0.00000000	-81.61294000	-34.87943000
38.29999790	0.00000000	-79.28764000	-42.55044000
38.49999789	0.00000000	-78.87549000	-45.62008000
38.69999788	0.00000000	-80.81939000	-43.28863000
38.89999787	0.00000000	-84.27042000	-35.67298000
39.09999786	0.00000000	-88.54576000	-25.76895000
39.29999784	0.00000000	-92.77805000	-16.94144000
39.49999783	0.00000000	-95.89690000	-11.59572000
39.69999782	0.00000000	-97.47784000	-11.59572000
39.89999781	0.00000000	-97.47784000	-16.94144000
40.09999780	0.00000000	-95.89690000	-25.72589000
40.29999778	0.00000000	-92.77805000	-35.34079000
40.49999777	0.00000000	-88.54576000	-43.05487000
40.69999776	0.00000000	-84.31348000	-47.24409000
40.89999775	0.00000000	-81.19463000	-46.45054000
41.09999774	0.00000000	-79.61367000	-40.31742000
41.29999772	0.00000000	-79.61367000	-31.11466000
41.49999771	0.00000000	-81.15157000	-21.12451000
41.69999770	0.00000000	-83.89517000	-13.04134000
41.89999769	0.00000000	-87.34005000	-9.17814900
42.09999768	0.00000000	-90.87106000	-9.92864100
42.29999767	0.00000000	-93.57159000	-15.31742000
42.49999765	0.00000000	-95.56471000	-23.77584000
42.69999764	0.00000000	-96.27214000	-32.97859000
42.89999763	0.00000000	-95.52164000	-40.64345000
43.09999762	0.00000000	-93.19635000	-44.17446000
43.29999761	0.00000000	-90.16978000	-43.47933000
43.49999759	0.00000000	-87.43233000	-39.61614000
43.69999758	0.00000000	-85.47613000	-33.11393000
43.89999757	0.00000000	-84.27042000	-26.23647000
44.09999756	0.00000000	-83.89517000	-21.12451000
44.29999755	0.00000000	-84.22120000	-18.01181000
44.49999753	0.00000000	-84.96555000	-17.22441000
44.69999752	0.00000000	-85.29158000	-19.12524000
44.89999751	0.00000000	-85.00861000	-22.57013000
45.09999750	0.00000000	-84.68873000	-26.79626000
45.29999749	0.00000000	-85.47613000	-30.64714000
45.49999748	0.00000000	-87.00787000	-33.02165000
45.69999746	0.00000000	-89.05634000	-34.22736000
45.89999745	0.00000000	-92.12598000	-34.18430000
46.09999744	0.00000000	-95.56471000	-32.64640000
46.29999743	0.00000000	-97.85310000	-30.00123000
46.49999742	0.00000000	-98.59129000	-27.30684000
46.69999740	0.00000000	-97.01033000	-25.35064000
46.89999739	0.00000000	-93.11023000	-24.15108000
47.09999738	0.00000000	-87.65993000	-23.77584000
47.29999737	0.00000000	-81.10851000	-24.15108000
47.49999736	0.00000000	-75.33833000	-25.35064000
47.69999734	0.00000000	-71.88730000	-27.25763000
47.89999733	0.00000000	-71.56742000	-29.58292000
48.09999732	0.00000000	-75.47367000	-31.48991000
48.29999731	0.00000000	-82.77559000	-32.60334000
48.49999730	0.00000000	-91.66460000	-32.27731000
48.69999729	0.00000000	-100.13530000	-30.75172000
48.89999727	0.00000000	-105.94860000	-29.16461000
49.09999726	0.00000000	-107.81250000	-26.75320000
49.29999725	0.00000000	-105.10580000	-23.77584000
49.49999724	0.00000000	-97.76082000	-21.45669000
49.69999723	0.00000000	-88.17052000	-20.70620000
49.89999721	0.00000000	-78.50024000	-21.49975000
50.09999720	0.00000000	-71.19217000	-24.19414000
50.29999719	0.00000000	-68.07332000	-28.04503000
50.49999718	0.00000000	-69.65427000	-31.90822000
50.69999717	0.00000000	-75.79970000	-35.38385000
50.89999715	0.00000000	-85.00861000	-37.24778000
51.09999714	0.00000000	-94.27287000	-36.87869000
51.29999713	0.00000000	-101.62400000	-34.18430000
51.49999712	0.00000000	-105.43800000	-30.00123000
51.69999711	0.00000000	-104.32450000	-25.68282000
51.89999710	0.00000000	-98.97268000	-21.86270000
52.09999708	0.00000000	-91.28937000	-19.18061000
52.29999707	0.00000000	-83.19389000	-19.16830000
52.49999706	0.00000000	-77.05462000	-21.03838000
52.69999705	0.00000000	-74.31102000	-24.19414000
52.89999704	0.00000000	-75.47367000	-28.42027000
53.09999702	0.00000000	-80.03198000	-32.60334000
53.29999701	0.00000000	-86.58956000	-35.29773000
53.49999700	0.00000000	-93.11023000	-35.71604000
53.69999699	0.00000000	-98.08685000	-34.22736000
53.89999698	0.00000000	-99.62475000	-31.53297000
54.09999696	0.00000000	-97.38557000	-28.46333000
54.29999695	0.00000000	-92.82111000	-25.77510000
54.49999694	0.00000000	-87.38312000	-24.23720000
54.69999693	0.00000000	-82.40034000	-24.19414000
54.89999692	0.00000000	-78.91855000	-25.35064000
55.09999691	0.00000000	-78.16806000	-27.21457000
55.29999689	0.00000000	-80.08120000	-29.11540000
55.49999688	0.00000000	-84.31348000	-29.86589000
55.69999687	0.00000000	-89.61613000	-29.53371000
55.89999686	0.00000000	-93.84842000	-28.37721000
56.09999685	0.00000000	-95.85383000	-26.83932000
56.29999683	0.00000000	-95.85383000	-25.30758000
56.49999682	0.00000000	-93.89764000	-24.23720000
56.69999681	0.00000000	-90.08366000	-24.65551000
56.89999680	0.00000000	-85.89443000	-26.97465000
57.09999679	0.00000000	-82.77559000	-30.37647000
57.29999677	0.00000000	-81.19463000	-33.80905000
57.49999676	0.00000000	-81.19463000	-35.71604000
57.69999675	0.00000000	-82.73252000	-35.71604000
57.89999674	0.00000000	-85.42691000	-33.71678000
58.09999673	0.00000000	-88.50270000	-29.49065000
58.29999672	0.00000000	-91.15402000	-24.15108000
58.49999670	0.00000000	-92.31667000	-19.50049000
58.69999669	0.00000000	-91.61539000	-16.43085000
58.89999668	0.00000000	-90.12672000	-15.69267000
59.09999667	0.00000000	-88.54576000	-18.05487000
59.29999666	0.00000000	-86.96481000	-23.07455000
59.49999664	0.00000000	-85.47613000	-30.00123000
59.69999663	0.00000000	-84.73178000	-36.82948000
59.89999662	0.00000000	-85.47613000	-41.10482000
60.09999661	0.00000000	-86.92175000	-41.89838000
60.29999660	0.00000000	-88.12745000	-39.57308000
60.49999658	0.00000000	-88.92101000	-34.14124000
60.69999657	0.00000000	-89.65919000	-26.83932000
60.89999656	0.00000000	-89.61613000	-19.50049000
61.09999655	0.00000000	-88.50270000	-13.73647000
61.29999654	0.00000000	-86.96481000	-11.09129000
61.49999653	0.00000000	-85.47613000	-12.66609000
61.69999651	0.00000000	-84.68873000	-18.43012000
61.89999650	0.00000000	-85.10088000	-26.83932000
62.09999649	0.00000000	-86.22047000	-35.29773000
62.29999648	0.00000000	-88.17052000	-41.52312000
62.49999647	0.00000000	-90.03444000	-44.63582000
62.69999645	0.00000000	-91.24016000	-44.21752000
62.89999644	0.00000000	-91.61539000	-39.94832000
63.09999643	0.00000000	-91.24016000	-32.64640000
63.29999642	0.00000000	-90.03444000	-24.23720000
63.49999641	0.00000000	-88.07824000	-17.26747000
63.69999639	0.00000000	-85.42691000	-13.31816000
63.89999638	0.00000000	-83.15083000	-12.15551000
64.09999637	0.00000000	-82.35728000	-14.15477000
64.29999636	0.00000000	-82.73252000	-19.50049000
64.49999635	0.00000000	-84.27042000	-26.42101000
64.69999634	0.00000000	-86.58956000	-32.97859000
64.89999632	0.00000000	-88.87794000	-38.03519000
65.09999631	0.00000000	-90.82184000	-40.36663000
65.29999630	0.00000000	-91.57234000	-40.03444000
65.49999629	0.00000000	-91.24016000	-37.34006000
65.69999628	0.00000000	-90.08366000	-33.11393000
65.89999626	0.00000000	-88.50270000	-28.46333000
66.09999625	0.00000000	-86.58956000	-24.15108000
66.29999624	0.00000000	-84.68873000	-20.66314000
66.49999623	0.00000000	-83.98129000	-18.33784000
66.69999622	0.00000000	-84.68873000	-17.91953000
66.89999620	0.00000000	-86.58956000	-19.03912000
67.09999619	0.00000000	-88.45349000	-20.98917000
67.29999618	0.00000000	-89.65919000	-23.72662000
67.49999617	0.00000000	-90.03444000	-26.83932000
67.69999616	0.00000000	-89.61613000	-30.00123000
67.89999615	0.00000000	-88.07824000	-33.11393000
68.09999613	0.00000000	-85.80216000	-35.80217000
68.29999612	0.00000000	-83.89517000	-37.34006000
68.49999611	0.00000000	-82.77559000	-37.34006000
68.69999610	0.00000000	-83.19389000	-35.75910000
68.89999609	0.00000000	-85.47613000	-32.64640000
69.09999607	0.00000000	-88.54576000	-28.37721000
69.29999606	0.00000000	-91.66460000	-23.72662000
69.49999605	0.00000000	-94.35899000	-19.50049000
69.69999604	0.00000000	-95.85383000	-16.80610000
69.89999603	0.00000000	-95.42937000	-16.43085000
70.09999601	0.00000000	-92.69193000	-18.38090000
70.29999600	0.00000000	-88.12745000	-22.61319000
70.49999599	0.00000000	-83.10777000	-28.00197000
70.69999598	0.00000000	-79.23843000	-33.02165000
70.89999597	0.00000000	-76.91928000	-36.92175000
71.09999596	0.00000000	-76.96235000	-38.82874000
71.29999594	0.00000000	-79.65674000	-38.45349000
71.49999593	0.00000000	-84.31348000	-35.75910000
71.69999592	0.00000000	-90.08366000	-31.53297000
71.89999591	0.00000000	-95.47859000	-26.93159000
72.09999590	0.00000000	-98.96652000	-23.03149000
72.29999588	0.00000000	-100.12920000	-20.70620000
72.49999587	0.00000000	-98.54822000	-19.91880000
72.69999586	0.00000000	-94.31594000	-21.08145000
72.89999585	0.00000000	-88.58882000	-23.72662000
73.09999584	0.00000000	-83.15083000	-26.79626000
73.29999582	0.00000000	-79.23843000	-29.49065000
73.49999581	0.00000000	-76.91928000	-31.02239000
73.69999580	0.00000000	-76.96235000	-31.06545000
73.89999579	0.00000000	-79.61367000	-29.95201000
74.09999578	0.00000000	-83.80289000	-28.46333000
74.29999577	0.00000000	-88.07824000	-27.30684000
74.49999575	0.00000000	-91.61539000	-26.93159000
74.69999574	0.00000000	-94.27287000	-27.30684000
74.89999573	0.00000000	-95.05413000	-28.46333000
75.09999572	0.00000000	-93.57159000	-29.95201000
75.29999571	0.00000000	-91.28937000	-31.06545000
75.49999569	0.00000000	-88.54576000	-31.02239000
75.69999568	0.00000000	-85.85137000	-29.49065000
75.89999567	0.00000000	-83.89517000	-26.79626000
76.09999566	0.00000000	-82.73252000	-23.72662000
76.29999565	0.00000000	-82.73252000	-21.03838000
76.49999563	0.00000000	-83.84596000	-19.50049000
76.69999562	0.00000000	-85.34079000	-19.54355000
76.89999561	0.00000000	-86.49728000	-21.49975000
77.09999560	0.00000000	-86.92175000	-25.35679000
77.29999559	0.00000000	-86.96481000	-30.00123000
77.49999558	0.00000000	-86.96481000	-34.60261000
77.69999556	0.00000000	-86.96481000	-38.03519000
77.89999555	0.00000000	-87.00787000	-38.78568000
78.09999554	0.00000000	-87.43233000	-36.92175000
78.29999553	0.00000000	-88.54576000	-33.02165000
78.49999552	0.00000000	-89.65919000	-28.00197000
78.69999550	0.00000000	-90.03444000	-22.57013000
78.89999549	0.00000000	-89.65919000	-17.96260000
79.09999548	0.00000000	-88.45349000	-15.27436000
79.29999547	0.00000000	-86.54650000	-15.27436000
79.49999546	0.00000000	-84.22120000	-17.96260000
79.69999544	0.00000000	-82.31422000	-22.57013000
79.89999543	0.00000000	-81.15157000	-28.00197000
80.09999542	0.00000000	-81.19463000	-33.02165000
80.29999541	0.00000000	-82.73252000	-36.92175000
80.49999540	0.00000000	-85.42691000	-38.82874000
80.69999539	0.00000000	-88.50270000	-38.50270000
80.89999537	0.00000000	-91.19709000	-36.13435000
81.09999536	0.00000000	-92.73499000	-32.32037000
81.29999535	0.00000000	-92.73499000	-27.63287000
81.49999534	0.00000000	-91.24016000	-23.40059000
81.69999533	0.00000000	-88.92101000	-19.91880000
81.89999531	0.00000000	-86.58956000	-18.33784000
82.09999530	0.00000000	-84.27042000	-18.66388000
82.29999529	0.00000000	-82.73252000	-19.82652000
82.49999528	0.00000000	-82.31422000	-22.19488000
82.69999527	0.00000000	-82.73252000	-25.30758000
82.89999525	0.00000000	-84.27042000	-28.79552000
83.09999524	0.00000000	-86.54650000	-32.32037000
83.29999523	0.00000000	-88.45349000	-35.02091000
83.49999522	0.00000000	-89.65919000	-36.96481000
83.69999521	0.00000000	-90.08366000	-37.29700000
83.89999520	0.00000000	-90.08366000	-35.75910000
84.09999518	0.00000000	-89.65919000	-32.64640000
84.29999517	0.00000000	-88.54576000	-28.42027000
84.49999516	0.00000000	-87.43233000	-24.15108000
84.69999515	0.00000000	-87.00787000	-20.61393000
84.89999514	0.00000000	-86.96481000	-17.91953000
85.09999512	0.00000000	-86.96481000	-16.84916000
85.29999511	0.00000000	-86.92175000	-18.38090000
85.49999510	0.00000000	-86.54650000	-22.19488000
85.69999509	0.00000000	-85.75910000	-26.83932000
85.89999508	0.00000000	-85.05167000	-31.53297000
86.09999506	0.00000000	-84.63951000	-35.75910000
86.29999505	0.00000000	-85.05167000	-38.41043000
86.49999504	0.00000000	-85.80216000	-38.41043000
86.69999503	0.00000000	-87.00787000	-35.75910000
86.89999502	0.00000000	-88.54576000	-31.48376000
87.09999501	0.00000000	-90.08366000	-26.46407000
87.29999499	0.00000000	-91.19709000	-21.45669000
87.49999498	0.00000000	-91.15402000	-18.01181000
87.69999497	0.00000000	-89.65919000	-16.80610000
87.89999496	0.00000000	-87.38312000	-18.01181000
88.09999495	0.00000000	-85.42691000	-21.45669000
88.29999493	0.00000000	-83.84596000	-26.46407000
88.49999492	0.00000000	-82.73252000	-31.44069000
88.69999491	0.00000000	-82.73252000	-35.29773000
88.89999490	0.00000000	-83.84596000	-36.82948000
89.09999489	0.00000000	-85.42691000	-35.71604000
89.29999487	0.00000000	-87.38312000	-32.64640000
89.49999486	0.00000000	-89.61613000	-28.37721000
89.69999485	0.00000000	-90.77879000	-23.77584000
89.89999484	0.00000000	-90.45890000	-19.96186000
90.09999483	0.00000000	-89.70841000	-18.43012000
90.29999482	0.00000000	-88.50270000	-19.54355000
90.49999480	0.00000000	-87.00787000	-22.61319000
90.69999479	0.00000000	-85.85137000	-26.83932000
90.89999478	0.00000000	-85.42691000	-31.06545000
91.09999477	0.00000000	-85.38385000	-34.18430000
91.29999476	0.00000000	-85.38385000	-35.67298000
91.49999474	0.00000000	-85.42691000	-34.87328000
91.69999473	0.00000000	-85.80216000	-31.44069000
91.89999472	0.00000000	-86.54650000	-26.88238000
92.09999471	0.00000000	-86.92175000	-22.61319000
92.29999470	0.00000000	-86.96481000	-19.54355000
92.49999468	0.00000000	-86.96481000	-18.43012000
92.69999467	0.00000000	-86.96481000	-19.96186000
92.89999466	0.00000000	-87.00787000	-23.77584000
93.09999465	0.00000000	-87.38312000	-28.37721000
93.29999464	0.00000000	-88.17052000	-32.60334000
93.49999463	0.00000000	-88.87794000	-35.24852000
93.69999461	0.00000000	-89.24089000	-35.29773000
93.89999460	0.00000000	-88.45349000	-33.02165000
94.09999459	0.00000000	-86.96481000	-29.53371000
94.29999458	0.00000000	-85.38385000	-25.30758000
94.49999457	0.00000000	-83.80289000	-21.49975000
94.69999455	0.00000000	-82.26501000	-19.59276000
94.89999454	0.00000000	-81.19463000	-19.96186000
95.09999453	0.00000000	-81.56988000	-22.65625000
95.29999452	0.00000000	-83.47071000	-26.79626000
95.49999451	0.00000000	-85.80216000	-30.64714000
95.69999449	0.00000000	-88.54576000	-32.97859000
95.89999448	0.00000000	-91.24016000	-33.80905000
96.09999447	0.00000000	-93.15329000	-33.02165000
96.29999446	0.00000000	-93.89764000	-31.06545000
96.49999445	0.00000000	-92.69193000	-28.00197000
96.69999444	0.00000000	-89.65919000	-24.61245000
96.89999442	0.00000000	-85.80216000	-22.65625000
97.09999441	0.00000000	-82.31422000	-22.23794000
97.29999440	0.00000000	-79.57062000	-23.03149000
97.49999439	0.00000000	-78.03272000	-25.30758000
97.69999438	0.00000000	-78.07578000	-28.00197000
97.89999436	0.00000000	-79.98892000	-30.24114000
98.09999435	0.00000000	-83.47071000	-31.43455000
98.29999434	0.00000000	-87.34005000	-30.75172000
98.49999433	0.00000000	-91.24016000	-30.00123000
98.69999432	0.00000000	-94.27287000	-29.16461000
98.89999430	0.00000000	-95.42937000	-27.63287000
99.09999429	0.00000000	-94.31594000	-26.55635000
99.29999428	0.00000000	-91.61539000	-26.10113000
99.49999427	0.00000000	-88.12745000	-26.46407000
99.69999426	0.00000000	-84.27042000	-26.79626000
99.89999425	0.00000000	-81.15157000	-26.83932000
100.09999423	0.00000000	-79.19537000	-26.79626000
100.29999422	0.00000000	-78.45103000	-26.42101000
100.49999421	0.00000000	-79.61367000	-25.68282000
100.69999420	0.00000000	-82.26501000	-25.30758000
100.89999419	0.00000000	-85.38385000	-25.30758000
101.09999417	0.00000000	-88.50270000	-25.72589000
101.29999416	0.00000000	-91.19709000	-26.88853000
101.49999415	0.00000000	-92.73499000	-28.42027000
101.69999414	0.00000000	-92.77805000	-29.95201000
101.89999413	0.00000000	-91.66460000	-31.06545000
102.09999411	0.00000000	-90.08366000	-31.06545000
102.29999410	0.00000000	-88.12745000	-29.90895000
102.49999409	0.00000000	-85.80216000	-27.95891000
102.69999408	0.00000000	-83.84596000	-25.30758000
102.89999407	0.00000000	-82.31422000	-22.98843000
103.09999406	0.00000000	-81.56988000	-21.81964000
103.29999404	0.00000000	-82.31422000	-21.45669000
103.49999403	0.00000000	-83.84596000	-22.65625000
103.69999402	0.00000000	-85.75910000	-25.30758000
103.89999401	0.00000000	-87.70914000	-28.37721000
104.09999400	0.00000000	-88.87794000	-31.06545000
104.29999398	0.00000000	-89.70841000	-32.60334000
104.49999397	0.00000000	-90.03444000	-32.60334000
104.69999396	0.00000000	-89.61613000	-31.06545000
104.89999395	0.00000000	-88.07824000	-28.42027000
105.09999394	0.00000000	-85.85137000	-25.72589000
105.29999392	0.00000000	-84.31348000	-23.77584000
105.49999391	0.00000000	-83.84596000	-22.57013000
105.69999390	0.00000000	-83.84596000	-22.23794000
105.89999389	0.00000000	-84.27042000	-23.03149000
106.09999388	0.00000000	-85.42691000	-25.30758000
106.29999387	0.00000000	-86.92175000	-27.95891000
106.49999385	0.00000000	-88.07824000	-29.86589000
106.69999384	0.00000000	-88.41042000	-30.69636000
106.89999383	0.00000000	-87.75221000	-30.32726000
107.09999382	0.00000000	-86.59572000	-29.53371000
107.29999381	0.00000000	-86.17126000	-28.00197000
107.49999379	0.00000000	-85.34079000	-26.10113000
107.69999378	0.00000000	-84.31348000	-24.98154000
107.89999377	0.00000000	-84.27042000	-24.52018000
108.09999376	0.00000000	-85.00861000	-24.98154000
108.29999375	0.00000000	-85.80216000	-26.10113000
108.49999374	0.00000000	-86.96481000	-28.00197000
108.69999372	0.00000000	-88.07824000	-29.49065000
108.89999371	0.00000000	-88.50270000	-29.95817000
109.09999370	0.00000000	-88.50270000	-29.95817000
109.29999369	0.00000000	-88.07824000	-29.49065000
109.49999368	0.00000000	-86.96481000	-27.95891000
109.69999366	0.00000000	-85.80216000	-25.72589000
109.89999365	0.00000000	-85.00861000	-24.15108000
110.09999364	0.00000000	-84.22120000	-23.35138000
110.29999363	0.00000000	-83.89517000	-22.98843000
110.49999362	0.00000000	-84.27042000	-23.81890000
110.69999360	0.00000000	-85.38385000	-25.63976000
110.89999359	0.00000000	-86.54650000	-27.58366000
111.09999358	0.00000000	-87.34005000	-28.75246000
111.29999357	0.00000000	-88.12745000	-29.58292000
111.49999356	0.00000000	-88.45349000	-29.90895000
111.69999355	0.00000000	-88.07824000	-29.58292000
111.89999353	0.00000000	-86.96481000	-28.79552000
112.09999352	0.00000000	-85.85137000	-28.00197000
112.29999351	0.00000000	-85.38385000	-26.83932000
112.49999350	0.00000000	-85.00861000	-25.72589000
112.69999349	0.00000000	-84.63951000	-25.30758000
112.89999347	0.00000000	-85.05167000	-25.26452000
113.09999346	0.00000000	-85.75910000	-25.30758000
113.29999345	0.00000000	-86.54650000	-25.68282000
113.49999344	0.00000000	-86.92175000	-26.42101000
113.69999343	0.00000000	-86.96481000	-26.83932000
113.89999341	0.00000000	-86.96481000	-27.25763000
114.09999340	0.00000000	-86.92175000	-28.00197000
114.29999339	0.00000000	-86.54650000	-28.37721000
114.49999338	0.00000000	-85.80216000	-28.42027000
114.69999337	0.00000000	-85.42691000	-28.42027000
114.89999336	0.00000000	-85.38385000	-28.42027000
115.09999334	0.00000000	-85.38385000	-28.42027000
115.29999333	0.00000000	-85.42691000	-28.42027000
115.49999332	0.00000000	-85.80216000	-28.37721000
115.69999331	0.00000000	-86.54650000	-28.00197000
115.89999330	0.00000000	-86.92175000	-27.25763000
116.09999328	0.00000000	-86.96481000	-26.83932000
116.29999327	0.00000000	-86.96481000	-26.42101000
116.49999326	0.00000000	-86.96481000	-25.68282000
116.69999325	0.00000000	-86.96481000	-25.35679000
116.89999324	0.00000000	-86.96481000	-25.68282000
117.09999322	0.00000000	-86.92175000	-26.46407000
117.29999321	0.00000000	-86.54650000	-27.21457000
117.49999320	0.00000000	-85.75910000	-28.04503000
117.69999319	0.00000000	-85.00861000	-28.79552000
117.89999318	0.00000000	-84.22120000	-29.53371000
118.09999317	0.00000000	-83.89517000	-29.53371000
118.29999315	0.00000000	-84.22120000	-28.83858000
118.49999314	0.00000000	-85.00861000	-28.42027000
118.69999313	0.00000000	-85.80216000	-28.00197000
118.89999312	0.00000000	-86.96481000	-27.21457000
119.09999311	0.00000000	-88.07824000	-26.46407000
119.29999309	0.00000000	-88.50270000	-25.68282000
119.49999308	0.00000000	-88.50270000	-25.30758000
119.69999307	0.00000000	-88.07824000	-25.26452000
119.89999306	0.00000000	-86.96481000	-25.30758000
120.09999305	0.00000000	-85.80216000	-25.68282000
120.29999303	0.00000000	-84.96555000	-26.42101000
120.49999302	0.00000000	-83.80289000	-26.79626000
120.69999301	0.00000000	-82.73252000	-26.88238000
120.89999300	0.00000000	-82.68947000	-27.25763000
121.09999299	0.00000000	-83.42766000	-28.00197000
121.29999298	0.00000000	-84.22120000	-28.37721000
121.49999296	0.00000000	-85.42691000	-28.42027000
121.69999295	0.00000000	-86.92175000	-28.37721000
121.89999294	0.00000000	-88.07824000	-28.00197000
122.09999293	0.00000000	-88.50270000	-27.21457000
122.29999292	0.00000000	-88.50270000	-26.46407000
122.49999290	0.00000000	-88.07824000	-25.68282000
122.69999289	0.00000000	-86.96481000	-25.30758000
122.89999288	0.00000000	-85.80216000	-25.26452000
123.09999287	0.00000000	-85.00861000	-25.26452000
123.29999286	0.00000000	-84.22120000	-25.30758000
123.49999284	0.00000000	-83.84596000	-25.68282000
123.69999283	0.00000000	-83.80289000	-26.42101000
123.89999282	0.00000000	-83.80289000	-26.83932000
124.09999281	0.00000000	-83.84596000	-27.25763000
124.29999280	0.00000000	-84.27042000	-27.95275000
124.49999279	0.00000000	-85.38385000	-27.95275000
124.69999277	0.00000000	-86.49728000	-27.25763000
124.89999276	0.00000000	-86.96481000	-26.88238000
125.09999275	0.00000000	-87.34005000	-26.83932000
125.29999274	0.00000000	-87.70914000	-26.79626000
125.49999273	0.00000000	-87.34005000	-26.42101000
125.69999271	0.00000000	-86.96481000	-25.68282000
125.89999270	0.00000000	-86.49728000	-25.30758000
126.09999269	0.00000000	-85.38385000	-25.26452000
126.29999268	0.00000000	-84.27042000	-25.30758000
126.49999267	0.00000000	-83.84596000	-25.68282000
126.69999265	0.00000000	-83.80289000	-26.42101000
126.89999264	0.00000000	-83.84596000	-26.79626000
127.09999263	0.00000000	-84.27042000	-26.88238000
127.29999262	0.00000000	-85.42691000	-27.25763000
127.49999261	0.00000000	-86.92175000	-28.00197000
127.69999260	0.00000000	-88.07824000	-28.37721000
127.89999258	0.00000000	-88.45349000	-28.37721000
128.09999257	0.00000000	-88.12745000	-28.00197000
128.29999256	0.00000000	-87.34005000	-27.25763000
128.49999255	0.00000000	-86.54650000	-26.88238000
128.69999254	0.00000000	-85.38385000	-26.83932000
128.89999252	0.00000000	-84.27042000	-26.83932000
129.09999251	0.00000000	-83.84596000	-26.83932000
129.29999250	0.00000000	-83.80289000	-26.88238000
129.49999249	0.00000000	-83.89517000	-27.25763000
129.69999248	0.00000000	-84.68873000	-28.00197000
129.89999246	0.00000000	-86.49728000	-28.37721000
130.09999245	0.00000000	-87.65993000	-28.37721000
130.29999244	0.00000000	-87.71530000	-28.00197000
130.49999243	0.00000000	-87.75221000	-27.25763000
130.69999242	0.00000000	-87.34005000	-26.88238000
130.89999241	0.00000000	-86.96481000	-26.83932000
131.09999239	0.00000000	-86.49728000	-26.83932000
131.29999238	0.00000000	-85.38385000	-26.83932000
131.49999237	0.00000000	-84.27042000	-26.88238000
131.69999236	0.00000000	-83.89517000	-27.25763000
131.89999235	0.00000000	-84.22120000	-28.00197000
132.09999233	0.00000000	-85.00861000	-28.37721000
132.29999232	0.00000000	-85.75910000	-28.42027000
132.49999231	0.00000000	-86.54650000	-28.42027000
132.69999230	0.00000000	-86.92175000	-28.37721000
132.89999229	0.00000000	-86.96481000	-27.95275000
133.09999227	0.00000000	-86.92175000	-26.83932000
133.29999226	0.00000000	-86.54650000	-25.72589000
133.49999225	0.00000000	-85.80216000	-25.30758000
133.69999224	0.00000000	-85.42691000	-25.26452000
133.89999223	0.00000000	-85.38385000	-25.30758000
134.09999222	0.00000000	-85.38385000	-25.68282000
134.29999220	0.00000000	-85.38385000	-26.46407000
134.49999219	0.00000000	-85.38385000	-27.21457000
134.69999218	0.00000000	-85.38385000	-28.00197000
134.89999217	0.00000000	-85.38385000	-28.37721000
135.09999216	0.00000000	-85.34079000	-28.42027000
135.29999214	0.00000000	-84.96555000	-28.37721000
135.49999213	0.00000000	-84.27042000	-28.00197000
135.69999212	0.00000000	-84.27042000	-27.21457000
135.89999211	0.00000000	-84.96555000	-26.46407000
136.09999210	0.00000000	-85.38385000	-25.68282000
136.29999208	0.00000000	-85.80216000	-25.30758000
136.49999207	0.00000000	-86.54650000	-25.26452000
136.69999206	0.00000000	-86.92175000	-25.26452000
136.89999205	0.00000000	-86.92175000	-25.30758000
137.09999204	0.00000000	-86.54650000	-25.68282000
137.29999203	0.00000000	-85.75910000	-26.46407000
137.49999201	0.00000000	-85.00861000	-27.21457000
137.69999200	0.00000000	-84.22120000	-28.00197000
137.89999199	0.00000000	-83.84596000	-28.37721000
138.09999198	0.00000000	-83.84596000	-28.42027000
138.29999197	0.00000000	-84.22120000	-28.42027000
138.49999195	0.00000000	-85.00861000	-28.37721000
138.69999194	0.00000000	-85.75910000	-27.95275000
138.89999193	0.00000000	-86.58956000	-26.83932000
139.09999192	0.00000000	-87.24778000	-25.72589000
139.29999191	0.00000000	-87.33391000	-25.30758000
139.49999189	0.00000000	-86.55265000	-25.26452000
139.69999188	0.00000000	-86.21432000	-25.26452000
139.89999187	0.00000000	-85.71604000	-25.30758000
140.09999186	0.00000000	-85.00861000	-25.68282000
140.29999185	0.00000000	-84.22120000	-26.46407000
140.49999184	0.00000000	-83.84596000	-27.21457000
140.69999182	0.00000000	-83.84596000	-28.00197000
140.89999181	0.00000000	-84.22120000	-28.37721000
141.09999180	0.00000000	-84.96555000	-28.42027000
141.29999179	0.00000000	-85.38385000	-28.37721000
141.49999178	0.00000000	-85.75910000	-28.00197000
141.69999176	0.00000000	-86.12819000	-27.21457000
141.89999175	0.00000000	-85.75910000	-26.42101000
142.09999174	0.00000000	-85.42691000	-25.26452000
142.29999173	0.00000000	-85.34079000	-24.19414000
142.49999172	0.00000000	-84.96555000	-24.15108000
142.69999170	0.00000000	-84.27042000	-24.88927000
142.89999169	0.00000000	-84.27042000	-25.68282000
143.09999168	0.00000000	-84.96555000	-26.83932000
143.29999167	0.00000000	-85.34079000	-27.95275000
143.49999166	0.00000000	-85.38385000	-28.37721000
143.69999165	0.00000000	-85.38385000	-28.42027000
143.89999163	0.00000000	-85.38385000	-28.42027000
144.09999162	0.00000000	-85.38385000	-28.37721000
144.29999161	0.00000000	-85.38385000	-27.95275000
144.49999160	0.00000000	-85.38385000	-26.83932000
144.69999159	0.00000000	-85.34079000	-25.72589000
144.89999157	0.00000000	-85.00861000	-25.30758000
145.09999156	0.00000000	-84.63951000	-25.26452000
145.29999155	0.00000000	-85.00861000	-25.30758000
145.49999154	0.00000000	-85.34079000	-25.68282000
145.69999153	0.00000000	-85.38385000	-26.46407000
145.89999151	0.00000000	-85.38385000	-27.21457000
146.09999150	0.00000000	-85.38385000	-28.00197000
146.29999149	0.00000000	-85.38385000	-28.37721000
146.49999148	0.00000000	-85.38385000	-28.37721000
146.69999147	0.00000000	-85.38385000	-28.04503000
146.89999146	0.00000000	-85.34079000	-27.58981000
147.09999144	0.00000000	-84.96555000	-27.25147000
147.29999143	0.00000000	-84.22120000	-26.43332000
147.49999142	0.00000000	-83.89517000	-26.09498000
147.69999141	0.00000000	-84.22120000	-25.68282000
147.89999140	0.00000000	-84.96555000	-25.72589000
148.09999138	0.00000000	-85.34079000	-26.42101000
148.29999137	0.00000000	-85.42691000	-26.79626000
148.49999136	0.00000000	-85.80216000	-26.83932000
148.69999135	0.00000000	-86.49728000	-26.83932000
148.89999134	0.00000000	-86.49728000	-26.83932000
149.09999132	0.00000000	-85.80216000	-26.83932000
149.29999131	0.00000000	-85.42691000	-26.83932000
149.49999130	0.00000000	-85.34079000	-26.83932000
149.69999129	0.00000000	-84.96555000	-26.83932000
149.89999128	0.00000000	-84.22120000	-26.83932000
150.09999127	0.00000000	-83.84596000	-26.79626000
150.29999125	0.00000000	-83.84596000	-26.42101000
150.49999124	0.00000000	-84.22120000	-25.68282000
150.69999123	0.00000000	-84.96555000	-25.30758000
150.89999122	0.00000000	-85.34079000	-25.26452000
151.09999121	0.00000000	-85.38385000	-25.26452000
151.29999119	0.00000000	-85.38385000	-25.30758000
151.49999118	0.00000000	-85.38385000	-25.68282000
151.69999117	0.00000000	-85.38385000	-26.42101000
151.89999116	0.00000000	-85.38385000	-26.79626000
152.09999115	0.00000000	-85.38385000	-26.83932000
152.29999113	0.00000000	-85.34079000	-26.83932000
152.49999112	0.00000000	-84.96555000	-26.83932000
152.69999111	0.00000000	-84.22120000	-26.83932000
152.89999110	0.00000000	-83.84596000	-26.83932000
153.09999109	0.00000000	-83.80289000	-26.79626000
153.29999108	0.00000000	-83.84596000	-26.46407000
153.49999106	0.00000000	-84.22120000	-26.05807000
153.69999105	0.00000000	-84.96555000	-26.09498000
153.89999104	0.00000000	-85.34079000	-26.00886000
154.09999103	0.00000000	-85.38385000	-26.09498000
154.29999102	0.00000000	-85.42691000	-26.00886000
154.49999100	0.00000000	-85.75910000	-26.04577000
154.69999099	0.00000000	-86.12819000	-25.68282000
154.89999098	0.00000000	-85.75910000	-25.72589000
155.09999097	0.00000000	-85.38385000	-26.42101000
155.29999096	0.00000000	-84.96555000	-26.79626000
155.49999094	0.00000000	-84.22120000	-26.83932000
155.69999093	0.00000000	-83.84596000	-26.83932000
155.89999092	0.00000000	-83.80289000	-26.83932000
156.09999091	0.00000000	-83.80289000	-26.83932000
156.29999090	0.00000000	-83.84596000	-26.79626000
156.49999089	0.00000000	-84.22120000	-26.42101000
156.69999087	0.00000000	-84.96555000	-25.68282000
156.89999086	0.00000000	-85.34079000	-25.30758000
157.09999085	0.00000000	-85.38385000	-25.26452000
157.29999084	0.00000000	-85.38385000	-25.26452000
157.49999083	0.00000000	-85.38385000	-25.30758000
157.69999081	0.00000000	-85.38385000	-25.68282000
157.89999080	0.00000000	-85.34079000	-26.42101000
158.09999079	0.00000000	-84.96555000	-26.79626000
158.29999078	0.00000000	-84.22120000	-26.83932000
158.49999077	0.00000000	-83.84596000	-26.83932000
158.69999075	0.00000000	-83.80289000	-26.83932000
158.89999074	0.00000000	-83.80289000	-26.83932000
159.09999073	0.00000000	-83.80289000	-26.83932000
159.29999072	0.00000000	-83.84596000	-26.79626000
159.49999071	0.00000000	-84.22120000	-26.46407000
159.69999070	0.00000000	-84.96555000	-26.05807000
159.89999068	0.00000000	-85.34079000	-26.04577000
160.09999067	0.00000000	-85.38385000	-25.63976000
160.29999066	0.00000000	-85.38385000	-25.35679000
160.49999065	0.00000000	-85.38385000	-25.68282000
160.69999064	0.00000000	-85.38385000	-26.42101000
160.89999062	0.00000000	-85.38385000	-26.79626000
161.09999061	0.00000000	-85.38385000	-26.83932000
161.29999060	0.00000000	-85.38385000	-26.88238000
161.49999059	0.00000000	-85.38385000	-27.21457000
161.69999058	0.00000000	-85.34079000	-27.58366000
161.89999056	0.00000000	-85.00861000	-27.21457000
162.09999055	0.00000000	-84.59645000	-26.88238000
162.29999054	0.00000000	-84.59030000	-26.83932000
162.49999053	0.00000000	-84.22120000	-26.79626000
162.69999052	0.00000000	-84.27042000	-26.46407000
162.89999051	0.00000000	-84.96555000	-26.05807000
163.09999049	0.00000000	-85.34079000	-26.09498000
163.29999048	0.00000000	-85.38385000	-26.00886000
163.49999047	0.00000000	-85.38385000	-26.09498000
163.69999046	0.00000000	-85.38385000	-26.05807000
163.89999045	0.00000000	-85.38385000	-26.46407000
164.09999043	0.00000000	-85.38385000	-26.79626000
164.29999042	0.00000000	-85.38385000	-26.83932000
164.49999041	0.00000000	-85.34079000	-26.83932000
164.69999040	0.00000000	-84.96555000	-26.83932000
164.89999039	0.00000000	-84.22120000	-26.83932000
165.09999037	0.00000000	-83.84596000	-26.83932000
165.29999036	0.00000000	-83.80289000	-26.83932000
165.49999035	0.00000000	-83.80289000	-26.83932000
165.69999034	0.00000000	-83.84596000	-26.83932000
165.89999033	0.00000000	-84.22120000	-26.79626000
166.09999032	0.00000000	-84.96555000	-26.42101000
166.29999030	0.00000000	-85.34079000	-25.68282000
166.49999029	0.00000000	-85.38385000	-25.35679000
166.69999028	0.00000000	-85.38385000	-25.68282000
166.89999027	0.00000000	-85.38385000	-26.42101000
167.09999026	0.00000000	-85.38385000	-26.79626000
167.29999024	0.00000000	-85.34079000	-26.79626000
167.49999023	0.00000000	-84.96555000	-26.42101000
167.69999022	0.00000000	-84.22120000	-25.68282000
167.89999021	0.00000000	-83.84596000	-25.30758000
168.09999020	0.00000000	-83.80289000	-25.30758000
168.29999018	0.00000000	-83.80289000	-25.68282000
168.49999017	0.00000000	-83.84596000	-26.42101000
168.69999016	0.00000000	-84.17815000	-26.79626000
168.89999015	0.00000000	-84.54724000	-26.83932000
169.09999014	0.00000000	-84.22120000	-26.83932000
169.29999013	0.00000000	-84.27042000	-26.79626000
169.49999011	0.00000000	-84.96555000	-26.46407000
169.69999010	0.00000000	-85.34079000	-26.05807000
169.89999009	0.00000000	-85.38385000	-26.09498000
170.09999008	0.00000000	-85.38385000	-26.05807000
170.29999007	0.00000000	-85.38385000	-26.42101000
170.49999005	0.00000000	-85.34079000	-26.42101000
170.69999004	0.00000000	-84.96555000	-26.10113000
170.89999003	0.00000000	-84.22120000	-26.46407000
171.09999002	0.00000000	-83.84596000	-26.79626000
171.29999001	0.00000000	-83.80289000	-26.83932000
171.49998999	0.00000000	-83.80289000	-26.83932000
171.69998998	0.00000000	-83.80289000	-26.83932000
171.89998997	0.00000000	-83.80289000	-26.83932000
172.09998996	0.00000000	-83.84596000	-26.83932000
172.29998995	0.00000000	-84.22120000	-26.83932000
172.49998994	0.00000000	-84.96555000	-26.83932000
172.69998992	0.00000000	-85.34079000	-26.79626000
172.89998991	0.00000000	-85.38385000	-26.46407000
173.09998990	0.00000000	-85.34079000	-26.05807000
173.29998989	0.00000000	-84.96555000	-26.04577000
173.49998988	0.00000000	-84.22120000	-25.68282000
173.69998986	0.00000000	-83.84596000	-25.72589000
173.89998985	0.00000000	-83.80289000	-26.42101000
174.09998984	0.00000000	-83.80289000	-26.79626000
174.29998983	0.00000000	-83.80289000	-26.83932000
174.49998982	0.00000000	-83.80289000	-26.83932000
174.69998980	0.00000000	-83.84596000	-26.83932000
174.89998979	0.00000000	-84.17815000	-26.83932000
175.09998978	0.00000000	-84.54724000	-26.83932000
175.29998977	0.00000000	-84.22120000	-26.83932000
175.49998976	0.00000000	-84.27042000	-26.83932000
175.69998975	0.00000000	-84.96555000	-26.83932000
175.89998973	0.00000000	-85.29158000	-26.79626000
176.09998972	0.00000000	-84.96555000	-26.46407000
176.29998971	0.00000000	-84.22120000	-26.10113000
176.49998970	0.00000000	-83.84596000	-26.46407000
176.69998969	0.00000000	-83.80289000	-26.79626000
176.89998967	0.00000000	-83.80289000	-26.83932000
177.09998966	0.00000000	-83.80289000	-26.83932000
177.29998965	0.00000000	-83.80289000	-26.83932000
177.49998964	0.00000000	-83.80289000	-26.83932000
177.69998963	0.00000000	-83.84596000	-26.83932000
177.89998961	0.00000000	-84.22120000	-26.83932000
178.09998960	0.00000000	-84.96555000	-26.83932000
178.29998959	0.00000000	-85.29158000	-26.83932000
178.49998958	0.00000000	-85.00861000	-26.83932000
178.69998957	0.00000000	-84.63951000	-26.83932000
178.89998956	0.00000000	-84.96555000	-26.79626000
179.09998954	0.00000000	-84.91634000	-26.46407000
179.29998953	0.00000000	-84.22120000	-26.05807000
179.49998952	0.00000000	-83.84596000	-26.09498000
179.69998951	0.00000000	-83.80289000	-26.05807000
179.89998950	0.00000000	-83.80289000	-26.46407000
180.09998948	0.00000000	-83.80289000	-26.79626000
180.29998947	0.00000000	-83.80289000	-26.83932000
180.49998946	0.00000000	-83.84596000	-26.79626000
180.69998945	0.00000000	-84.17815000	-26.42101000
180.89998944	0.00000000	-84.54724000	-25.72589000
181.09998942	0.00000000	-84.22120000	-25.72589000
181.29998941	0.00000000	-84.22120000	-26.37795000
181.49998940	0.00000000	-84.54724000	-26.37795000
181.69998939	0.00000000	-84.17815000	-25.68282000
181.89998938	0.00000000	-83.84596000	-25.30758000
182.09998937	0.00000000	-83.80289000	-25.26452000
182.29998935	0.00000000	-83.80289000	-25.26452000
182.49998934	0.00000000	-83.80289000	-25.30758000
182.69998933	0.00000000	-83.80289000	-25.68282000
182.89998932	0.00000000	-83.80289000	-26.42101000
183.09998931	0.00000000	-83.80289000	-26.79626000
183.29998929	0.00000000	-83.80289000	-26.83932000
183.49998928	0.00000000	-83.80289000	-26.83932000
183.69998927	0.00000000	-83.80289000	-26.83932000
183.89998926	0.00000000	-83.80289000	-26.79626000
184.09998925	0.00000000	-83.80289000	-26.42101000
184.29998923	0.00000000	-83.80289000	-25.68282000
184.49998922	0.00000000	-83.80289000	-25.30758000
184.69998921	0.00000000	-83.80289000	-25.26452000
184.89998920	0.00000000	-83.80289000	-25.26452000
185.09998919	0.00000000	-83.80289000	-25.26452000
185.29998918	0.00000000	-83.80289000	-25.26452000
185.49998916	0.00000000	-83.80289000	-25.30758000
185.69998915	0.00000000	-83.80289000	-25.68282000
185.89998914	0.00000000	-83.80289000	-26.42101000
186.09998913	0.00000000	-83.80289000	-26.79626000
186.29998912	0.00000000	-83.80289000	-26.83932000
186.49998910	0.00000000	-83.80289000	-26.83932000
186.69998909	0.00000000	-83.80289000	-26.83932000
186.89998908	0.00000000	-83.80289000	-26.79626000
187.09998907	0.00000000	-83.80289000	-26.42101000
187.29998906	0.00000000	-83.80289000	-25.68282000
187.49998904	0.00000000	-83.80289000	-25.30758000
187.69998903	0.00000000	-83.80289000	-25.26452000
187.89998902	0.00000000	-83.80289000	-25.26452000
188.09998901	0.00000000	-83.80289000	-25.26452000
188.29998900	0.00000000	-83.80289000	-25.30758000
188.49998899	0.00000000	-83.80289000	-25.68282000
188.69998897	0.00000000	-83.80289000	-26.42101000
188.89998896	0.00000000	-83.80289000	-26.79626000
189.09998895	0.00000000	-83.80289000	-26.83932000
189.29998894	0.00000000	-83.80289000	-26.83932000
189.49998893	0.00000000	-83.80289000	-26.83932000
189.69998891	0.00000000	-83.80289000	-26.83932000
189.89998890	0.00000000	-83.80289000	-26.83932000
190.09998889	0.00000000	-83.80289000	-26.83932000
190.29998888	0.00000000	-83.80289000	-26.79626000
190.49998887	0.00000000	-83.84596000	-26.42101000
190.69998885	0.00000000	-84.17815000	-25.68282000
190.89998884	0.00000000	-84.54724000	-25.30758000
191.09998883	0.00000000	-84.17815000	-25.30758000
191.29998882	0.00000000	-83.84596000	-25.68282000
191.49998881	0.00000000	-83.80289000	-26.42101000
191.69998880	0.00000000	-83.80289000	-26.79626000
191.89998878	0.00000000	-83.80289000	-26.83932000
192.09998877	0.00000000	-83.80289000	-26.83932000
192.29998876	0.00000000	-83.80289000	-26.83932000
192.49998875	0.00000000	-83.80289000	-26.83932000
192.69998874	0.00000000	-83.80289000	-26.83932000
192.89998872	0.00000000	-83.80289000	-26.83932000
193.09998871	0.00000000	-83.80289000	-26.83932000
193.29998870	0.00000000	-83.80289000	-26.83932000
193.49998869	0.00000000	-83.80289000	-26.79626000
193.69998868	0.00000000	-83.80289000	-26.42101000
193.89998866	0.00000000	-83.84596000	-25.72589000
194.09998865	0.00000000	-84.17815000	-25.68282000
194.29998864	0.00000000	-84.54724000	-26.00270000
194.49998863	0.00000000	-84.17815000	-25.63976000
194.69998862	0.00000000	-83.84596000	-25.30758000
194.89998861	0.00000000	-83.80289000	-25.26452000
195.09998859	0.00000000	-83.80289000	-25.30758000
195.29998858	0.00000000	-83.80289000	-25.68282000
195.49998857	0.00000000	-83.84596000	-26.37795000
195.69998856	0.00000000	-84.17815000	-26.42101000
195.89998855	0.00000000	-84.54724000	-26.10113000
196.09998853	0.00000000	-84.17815000	-26.42101000
