Time	Channel A	Channel B	Channel C
(us)	(V)	(mV)	(mV)

-4.49999956	0.00000000	-11.06668000	3.57406500
-4.29999957	0.00000000	-11.06668000	4.26919300
-4.09999958	0.00000000	-11.06668000	4.31840500
-3.89999959	0.00000000	-11.06668000	3.94931100
-3.69999960	0.00000000	-11.06668000	3.98622000
-3.49999962	0.00000000	-11.06668000	3.90625000
-3.29999963	0.00000000	-11.06668000	3.94315900
-3.09999964	0.00000000	-11.06668000	3.53100400
-2.89999965	0.00000000	-11.06668000	3.19881900
-2.69999966	0.00000000	-11.06668000	3.15575800
-2.49999968	0.00000000	-11.06668000	3.15575800
-2.29999969	0.00000000	-11.06668000	3.15575800
-2.09999970	0.00000000	-11.06668000	3.15575800
-1.89999971	0.00000000	-11.06668000	3.15575800
-1.69999972	0.00000000	-11.06668000	3.15575800
-1.49999973	0.00000000	-11.06668000	3.15575800
-1.29999975	0.00000000	-11.06668000	3.15575800
-1.09999976	0.00000000	-11.06668000	3.15575800
-0.89999977	0.00000000	-11.06668000	3.15575800
-0.69999978	0.00000000	-11.06668000	3.15575800
-0.49999979	0.00000000	-11.06668000	3.15575800
-0.29999981	0.31803640	-11.02362000	3.15575800
-0.09999982	0.63668800	-10.69144000	3.15575800
0.10000017	0.95533960	-10.32234000	3.15575800
0.30000016	1.11466500	-10.69144000	3.15575800
0.50000015	0.95533960	-11.02362000	3.15575800
0.70000013	0.47736220	-11.06668000	3.15575800
0.90000012	-0.31803640	-11.02362000	3.15575800
1.10000011	-1.27399100	-10.69144000	3.15575800
1.30000010	-2.22994600	-10.32234000	3.15575800
1.50000009	-2.70792300	-10.69144000	3.15575800
1.70000008	-2.54859700	-11.02362000	3.19881900
1.90000006	-1.59264300	-11.06668000	3.53100400
2.10000005	0.15871060	-11.06668000	3.90009800
2.30000004	2.22994600	-11.06668000	3.53100400
2.50000003	4.14124000	-11.02362000	3.19881900
2.70000002	5.25652100	-10.69144000	3.15575800
2.90000000	5.09719500	-10.32234000	3.15575800
3.09999999	3.34522600	-10.69144000	3.15575800
3.29999998	0.47736220	-11.02362000	3.15575800
3.49999997	-2.86724900	-11.06668000	3.15575800
3.69999996	-6.05315000	-11.02362000	3.15575800
3.89999994	-7.80511800	-10.69144000	3.19881900
4.09999993	-7.64579200	-10.27928000	3.57406500
4.29999992	-5.57517200	-10.27313000	4.31840500
4.49999991	-1.91129400	-9.86097400	4.69365100
4.69999990	2.54859700	-9.57800100	4.69365100
4.89999989	6.69045300	-9.90403500	4.31840500
5.09999987	9.07972400	-10.64838000	3.57406500
5.29999986	9.23905000	-10.97441000	3.19881900
5.49999985	7.16781500	-10.69144000	3.15575800
5.69999984	3.18590100	-10.32234000	3.15575800
5.89999983	-1.59264300	-10.64838000	3.15575800
6.09999981	-6.05315000	-10.59916000	3.15575800
6.29999980	-8.76107300	-9.95324800	3.19881900
6.49999979	-9.39837600	-9.90403500	3.57406500
6.69999978	-7.64579200	-10.23007000	4.31840500
6.89999977	-4.14124000	-9.90403500	4.69365100
7.09999975	0.31803640	-9.95324800	4.69365100
7.29999974	4.30056600	-10.64838000	4.31840500
7.49999973	7.00848900	-11.02362000	3.57406500
7.69999972	7.80511800	-11.06668000	3.19881900
7.89999971	6.53112700	-11.06668000	3.15575800
8.09999970	3.98191400	-11.06668000	3.15575800
8.29999968	0.79601380	-11.06668000	3.15575800
8.49999967	-2.38927200	-11.02362000	3.15575800
8.69999966	-4.45989200	-10.64838000	3.15575800
8.89999965	-5.25652100	-9.90403500	3.15575800
9.09999964	-4.61921700	-9.57800100	3.15575800
9.29999962	-3.02657500	-9.90403500	3.15575800
9.49999961	-0.95533960	-10.64838000	3.15575800
9.69999960	0.79601380	-10.97441000	3.15575800
9.89999959	2.07062000	-10.69144000	3.15575800
10.09999958	2.54859700	-10.32234000	3.15575800
10.29999956	2.38927200	-10.69144000	3.15575800
10.49999955	1.59264300	-10.97441000	3.15575800
10.69999954	0.63668800	-10.69144000	3.15575800
10.89999953	-0.15871060	-10.27928000	3.15575800
11.09999952	-0.63668800	-10.27313000	3.15575800
11.29999951	-0.95533960	-9.90403500	3.15575800
11.49999949	-0.95533960	-9.95324800	3.15575800
11.69999948	-0.79601380	-10.59916000	3.15575800
11.89999947	-0.47736220	-10.59916000	3.15575800
12.09999946	-0.15871060	-9.90403500	3.15575800
12.29999945	-0.15871060	-9.57800100	3.15575800
12.49999943	-0.15871060	-9.86097400	3.15575800
12.69999942	0.00000000	-10.27313000	3.15575800
12.89999941	0.00000000	-10.27928000	3.15575800
13.09999940	0.00000000	-10.64838000	3.15575800
13.29999939	0.15871060	-10.59916000	3.15575800
13.49999937	0.00000000	-9.95324800	3.15575800
13.69999936	0.00000000	-9.95324800	3.15575800
13.89999935	0.00000000	-10.64838000	3.15575800
14.09999934	0.00000000	-10.97441000	3.15575800
14.29999933	-0.15871060	-10.69144000	3.15575800
14.49999932	-0.15871060	-10.27928000	3.15575800
14.69999930	0.00000000	-10.31619000	3.15575800
14.89999929	0.00000000	-10.27928000	3.15575800
15.09999928	0.00000000	-10.69144000	3.15575800
15.29999927	0.00000000	-11.02362000	3.15575800
15.49999926	0.00000000	-11.06668000	3.15575800
15.69999924	0.00000000	-11.06668000	3.15575800
15.89999923	0.00000000	-11.06668000	3.15575800
16.09999922	0.00000000	-11.06668000	3.15575800
16.29999921	0.00000000	-11.02362000	3.15575800
16.49999920	0.00000000	-10.64838000	3.15575800
16.69999919	0.00000000	-9.90403500	3.15575800
16.89999917	-0.15871060	-9.52879000	3.15575800
17.09999916	0.00000000	-9.44266700	3.15575800
17.29999915	0.00000000	-9.06742000	3.15575800
17.49999914	0.00000000	-8.32308000	3.15575800
17.69999913	0.00000000	-7.99704600	3.15575800
17.89999911	0.00000000	-8.37229300	3.15575800
18.09999910	0.00000000	-9.52879000	3.15575800
18.29999909	0.00000000	-11.10974000	3.15575800
18.49999908	0.00000000	-13.02288000	3.15575800
18.69999907	0.00000000	-14.92372000	3.15575800
18.89999905	0.00000000	-15.71727000	3.15575800
19.09999904	0.00000000	-15.71727000	3.15575800
19.29999903	0.00000000	-14.88066000	3.15575800
19.49999902	0.00000000	-12.51230000	3.15575800
19.69999901	0.00000000	-9.01820900	3.15575800
19.89999900	0.00000000	-4.78592500	3.15575800
20.09999898	0.00000000	-0.97194880	3.15575800
20.29999897	0.00000000	0.93503930	3.15575800
20.49999896	0.00000000	0.51673230	3.15575800
20.69999895	0.00000000	-2.60211600	3.15575800
20.89999894	0.00000000	-8.08316900	3.15575800
21.09999892	0.00000000	-15.06521000	3.15575800
21.29999891	0.00000000	-22.74237000	3.15575800
21.49999890	0.00000000	-28.46333000	3.15575800
21.69999889	0.00000000	-30.41954000	3.15575800
21.89999888	0.00000000	-28.37721000	3.15575800
22.09999886	0.00000000	-21.72121000	3.15575800
22.29999885	0.00000000	-10.88829000	3.15575800
22.49999884	0.00000000	1.44562000	3.15575800
22.69999883	0.00000000	12.65379000	3.15575800
22.89999882	0.00000000	19.91265000	3.19881900
23.09999881	0.00000000	20.98917000	3.57406500
23.29999879	0.00000000	14.70842000	4.31840500
23.49999878	0.00000000	1.50098400	4.73671200
23.69999877	0.00000000	-16.22785000	5.15501900
23.89999876	0.00000000	-34.32578000	5.85014700
24.09999875	0.00000000	-47.77928000	5.85014700
24.29999873	0.00000000	-53.17421000	5.11195900
24.49999872	0.00000000	-48.84966000	4.31840500
24.69999871	0.00000000	-35.26698000	3.11269700
24.89999870	0.00000000	-14.79454000	1.57480300
25.09999869	0.00000000	7.95398600	0.04306102
25.29999867	0.00000000	27.26993000	-1.11343500
25.49999866	0.00000000	38.81028000	-1.43946800
25.69999865	0.00000000	39.54847000	-0.64591530
25.89999864	0.00000000	28.71555000	1.66707700
26.09999863	0.00000000	9.03051100	4.77977300
26.29999862	0.00000000	-15.34818000	8.31077700
26.49999860	0.00000000	-38.89025000	12.11860000
26.69999859	0.00000000	-56.24384000	14.76993000
26.89999858	0.00000000	-63.17667000	15.14518000
27.09999857	0.00000000	-57.78174000	13.14591000
27.29999856	0.00000000	-41.63386000	8.45226300
27.49999854	0.00000000	-18.83612000	1.48868100
27.69999853	0.00000000	5.12426100	-6.22539300
27.89999852	0.00000000	25.26452000	-13.10285000
28.09999851	0.00000000	37.22933000	-16.95374000
28.29999850	0.00000000	38.43504000	-16.45546000
28.49999848	0.00000000	28.80167000	-11.42347000
28.69999847	0.00000000	11.07283000	-1.72859200
28.89999846	0.00000000	-10.55610000	9.80561000
29.09999845	0.00000000	-31.02854000	21.08760000
29.29999844	0.00000000	-45.77386000	29.87205000
29.49999843	0.00000000	-52.05462000	33.67987000
29.69999841	0.00000000	-49.40330000	30.89321000
29.89999840	0.00000000	-38.93332000	21.60433000
30.09999839	0.00000000	-22.74237000	7.33882900
30.29999838	0.00000000	-4.64443900	-8.50147600
30.49999837	0.00000000	10.51919000	-22.39788000
30.69999835	0.00000000	20.28789000	-31.63755000
30.89999834	0.00000000	23.77584000	-33.50147000
31.09999833	0.00000000	19.91265000	-27.31914000
31.29999832	0.00000000	9.95939900	-14.17323000
31.49999831	0.00000000	-3.16190900	3.20497000
31.69999829	0.00000000	-16.36934000	20.95226000
31.89999828	0.00000000	-27.25763000	35.26082000
32.09999827	0.00000000	-34.23966000	42.97490000
32.29999826	0.00000000	-35.82062000	42.59965000
32.49999825	0.00000000	-31.95743000	34.09818000
32.69999824	0.00000000	-23.85581000	19.37131000
32.89999822	0.00000000	-13.06594000	1.24877000
33.09999821	0.00000000	-2.64517700	-16.53543000
33.29999820	0.00000000	5.16732200	-29.64444000
33.49999819	0.00000000	9.44881800	-35.86368000
33.69999818	0.00000000	9.40575800	-33.54453000
33.89999816	0.00000000	4.84128900	-23.55438000
34.09999815	0.00000000	-2.82972400	-8.45841400
34.29999814	0.00000000	-10.97441000	8.91978400
34.49999813	0.00000000	-18.37475000	24.76009000
34.69999812	0.00000000	-23.67741000	35.58686000
34.89999810	0.00000000	-24.88312000	39.44390000
35.09999809	0.00000000	-21.86270000	35.21776000
35.29999808	0.00000000	-16.50467000	24.06496000
35.49999807	0.00000000	-9.90403500	9.05511800
35.69999806	0.00000000	-3.80782500	-6.36687900
35.89999805	0.00000000	0.04921259	-18.35630000
36.09999803	0.00000000	0.47367120	-24.58169000
36.29999802	0.00000000	-2.13459600	-24.20645000
36.49999801	0.00000000	-6.41609200	-17.28592000
36.69999800	0.00000000	-11.44193000	-5.75787400
36.89999799	0.00000000	-16.41855000	7.29576700
37.09999797	0.00000000	-19.48819000	18.44242000
37.29999796	0.00000000	-19.90650000	24.62475000
37.49999795	0.00000000	-17.95029000	24.71703000
37.69999794	0.00000000	-13.71801000	19.32825000
37.89999793	0.00000000	-8.37229300	10.12549000
38.09999791	0.00000000	-3.75861200	-0.60285430
38.29999790	0.00000000	-1.02116100	-9.38730200
38.49999789	0.00000000	-0.59670270	-13.61343000
38.69999788	0.00000000	-2.13459600	-12.12475000
38.89999787	0.00000000	-5.25344500	-5.62253900
39.09999786	0.00000000	-9.48572700	3.57406500
39.29999784	0.00000000	-13.71801000	13.14591000
39.49999783	0.00000000	-16.83686000	19.98031000
39.69999782	0.00000000	-18.41781000	21.55512000
39.89999781	0.00000000	-18.41781000	17.74729000
40.09999780	0.00000000	-16.87992000	10.07628000
40.29999778	0.00000000	-14.13632000	0.41830710
40.49999777	0.00000000	-10.64838000	-8.74138700
40.69999776	0.00000000	-6.79133800	-14.86836000
40.89999775	0.00000000	-3.67249000	-15.61270000
41.09999774	0.00000000	-1.71628900	-11.01132000
41.29999772	0.00000000	-0.97194880	-2.18380900
41.49999771	0.00000000	-2.13459600	8.50147600
41.69999770	0.00000000	-4.83513700	17.32899000
41.89999769	0.00000000	-8.32308000	22.02264000
42.09999768	0.00000000	-12.18012000	22.02264000
42.29999767	0.00000000	-15.29897000	17.42126000
42.49999765	0.00000000	-17.25517000	9.38115100
42.69999764	0.00000000	-18.04257000	0.51058070
42.89999763	0.00000000	-17.25517000	-7.20349400
43.09999762	0.00000000	-15.34203000	-12.17397000
43.29999761	0.00000000	-12.64764000	-12.59227000
43.49999759	0.00000000	-9.95324800	-8.87672100
43.69999758	0.00000000	-7.99704600	-3.06963600
43.89999757	0.00000000	-6.79133800	3.48794300
44.09999756	0.00000000	-6.36687900	9.65797200
44.29999755	0.00000000	-6.32381900	13.52116000
44.49999753	0.00000000	-6.32381900	14.72687000
44.69999752	0.00000000	-6.32381900	13.23819000
44.89999751	0.00000000	-6.32381900	9.79945900
45.09999750	0.00000000	-6.36687900	5.93626900
45.29999749	0.00000000	-6.79133800	2.04232300
45.49999748	0.00000000	-7.99704600	-1.02116100
45.69999746	0.00000000	-9.95324800	-2.60211600
45.89999745	0.00000000	-12.73991000	-2.60211600
46.09999744	0.00000000	-16.18479000	-1.11343500
46.29999743	0.00000000	-19.58046000	1.20570900
46.49999742	0.00000000	-21.06914000	3.53100400
46.69999740	0.00000000	-19.90650000	5.89320800
46.89999739	0.00000000	-16.41855000	7.75713500
47.09999738	0.00000000	-10.93135000	8.54453700
47.29999737	0.00000000	-4.36761800	7.80019600
47.49999736	0.00000000	2.14074800	6.26845500
47.69999734	0.00000000	6.32997000	4.31840500
47.89999733	0.00000000	6.74827700	1.99311000
48.09999732	0.00000000	3.58636800	0.09227362
48.29999731	0.00000000	-2.97736200	-1.11343500
48.49999730	0.00000000	-11.85408000	-1.43946800
48.69999729	0.00000000	-20.32480000	-0.64591530
48.89999727	0.00000000	-26.92544000	1.66707700
49.09999726	0.00000000	-29.90895000	4.68750000
49.29999725	0.00000000	-28.00197000	7.43110200
49.49999724	0.00000000	-21.44439000	9.38115100
49.69999723	0.00000000	-12.22933000	10.49459000
49.89999721	0.00000000	-2.55290300	10.07628000
50.09999720	0.00000000	5.16732200	7.75713500
50.29999719	0.00000000	9.40575800	4.31840500
50.49999718	0.00000000	9.03051100	0.46751960
50.69999717	0.00000000	4.01082700	-2.64517700
50.89999715	0.00000000	-4.09079700	-4.55831700
51.09999714	0.00000000	-13.71801000	-4.92125900
51.29999713	0.00000000	-22.13952000	-2.93430100
51.49999712	0.00000000	-26.79626000	0.83661410
51.69999711	0.00000000	-26.83932000	5.47490100
51.89999710	0.00000000	-22.60704000	9.33809000
52.09999708	0.00000000	-15.29897000	12.07554000
52.29999707	0.00000000	-6.87746000	13.14591000
52.49999706	0.00000000	0.04921259	11.65723000
52.69999705	0.00000000	3.54330700	8.22465500
52.89999704	0.00000000	3.21112200	4.36146600
53.09999702	0.00000000	-0.64591530	0.46751960
53.29999701	0.00000000	-6.79133800	-2.55905500
53.49999700	0.00000000	-13.71801000	-3.76476400
53.69999699	0.00000000	-19.39591000	-2.97736200
53.89999698	0.00000000	-21.76427000	-0.69512790
54.09999696	0.00000000	-20.28174000	2.73745100
54.29999695	0.00000000	-16.46161000	5.75787400
54.49999694	0.00000000	-11.02362000	7.38188900
54.69999693	0.00000000	-5.29650500	7.75713500
54.89999692	0.00000000	-1.10728300	7.01279500
55.09999691	0.00000000	0.09842519	5.11195900
55.29999689	0.00000000	-1.80856300	3.24803100
55.49999688	0.00000000	-5.62869100	2.08538400
55.69999687	0.00000000	-10.64838000	2.08538400
55.89999686	0.00000000	-15.16363000	3.24803100
56.09999685	0.00000000	-17.57505000	5.11195900
56.29999683	0.00000000	-17.58735000	7.01279500
56.49999682	0.00000000	-16.04331000	7.75713500
56.69999681	0.00000000	-12.55536000	7.38188900
56.89999680	0.00000000	-8.37229300	5.75787400
57.09999679	0.00000000	-4.92125900	2.69439000
57.29999677	0.00000000	-2.92814900	-1.07037400
57.49999676	0.00000000	-2.96505900	-3.76476400
57.69999675	0.00000000	-4.46604300	-4.50910400
57.89999674	0.00000000	-7.52952700	-3.29724400
58.09999673	0.00000000	-10.55610000	0.55364170
58.29999672	0.00000000	-12.55536000	5.89320800
58.49999670	0.00000000	-13.71801000	10.91289000
58.69999669	0.00000000	-13.71801000	14.76993000
58.89999668	0.00000000	-12.60458000	16.20940000
59.09999667	0.00000000	-11.06668000	14.30241000
59.29999666	0.00000000	-9.48572700	9.29502900
59.49999664	0.00000000	-7.94783400	2.73745100
59.69999663	0.00000000	-6.83439900	-4.18307100
59.89999662	0.00000000	-6.83439900	-9.52263600
60.09999661	0.00000000	-7.94783400	-11.42962000
60.29999660	0.00000000	-9.44266700	-9.52263600
60.49999658	0.00000000	-10.59916000	-4.14000900
60.69999657	0.00000000	-11.02362000	3.19881900
60.89999656	0.00000000	-11.02362000	10.91289000
61.09999655	0.00000000	-10.59916000	17.42126000
61.29999654	0.00000000	-9.44266700	20.48474000
61.49999653	0.00000000	-7.94783400	19.32825000
61.69999651	0.00000000	-6.87746000	14.35162000
61.89999650	0.00000000	-7.20964500	6.64370100
62.09999649	0.00000000	-8.69217500	-1.44562000
62.29999648	0.00000000	-9.90403500	-8.40920300
62.49999647	0.00000000	-11.48499000	-12.63533000
62.69999645	0.00000000	-13.34276000	-13.01058000
62.89999644	0.00000000	-14.09326000	-9.56569900
63.09999643	0.00000000	-13.71801000	-2.97736200
63.29999642	0.00000000	-12.18012000	5.06889700
63.49999641	0.00000000	-9.86097400	12.77067000
63.69999639	0.00000000	-7.57258800	17.79650000
63.89999638	0.00000000	-5.57947800	19.42052000
64.09999637	0.00000000	-4.50295200	17.83957000
64.29999636	0.00000000	-4.46604300	13.18898000
64.49999635	0.00000000	-6.04084600	6.31766700
64.69999634	0.00000000	-8.28001900	-0.60285430
64.89999632	0.00000000	-10.64838000	-5.71481200
65.09999631	0.00000000	-12.55536000	-8.82750900
65.29999630	0.00000000	-13.71801000	-9.56569900
65.49999629	0.00000000	-13.71801000	-7.29576700
65.69999628	0.00000000	-12.60458000	-3.11269700
65.89999626	0.00000000	-11.02362000	1.57480300
66.09999625	0.00000000	-9.11048200	6.26845500
66.29999624	0.00000000	-7.20964500	10.49459000
66.49999623	0.00000000	-6.45915300	13.18898000
66.69999622	0.00000000	-6.79133800	13.65650000
66.89999620	0.00000000	-7.99704600	12.53691000
67.09999619	0.00000000	-9.86097400	10.58686000
67.29999618	0.00000000	-11.76181000	7.84940900
67.49999617	0.00000000	-12.51230000	4.73671200
67.69999616	0.00000000	-12.13706000	1.58095500
67.89999615	0.00000000	-10.59916000	-1.53174200
68.09999613	0.00000000	-8.32308000	-4.22613100
68.29999612	0.00000000	-6.41609200	-5.75787400
68.49999611	0.00000000	-5.25344500	-5.75787400
68.69999610	0.00000000	-5.29650500	-4.22613100
68.89999609	0.00000000	-6.83439900	-1.48868100
69.09999607	0.00000000	-9.52879000	2.04232300
69.29999606	0.00000000	-12.64764000	6.35457700
69.49999605	0.00000000	-15.71727000	10.91289000
69.69999604	0.00000000	-17.95029000	14.34547000
69.89999603	0.00000000	-17.90723000	15.14518000
70.09999601	0.00000000	-15.25591000	13.65650000
70.29999600	0.00000000	-11.02362000	10.49459000
70.49999599	0.00000000	-6.36687900	5.85014700
70.69999598	0.00000000	-2.13459600	0.46136810
70.89999597	0.00000000	0.55979330	-4.14000900
71.09999596	0.00000000	0.93503930	-6.87746000
71.29999594	0.00000000	-1.02116100	-7.24655500
71.49999593	0.00000000	-5.29650500	-5.33956700
71.69999592	0.00000000	-11.02362000	-1.48868100
71.89999591	0.00000000	-16.41855000	3.11269700
72.09999590	0.00000000	-19.95571000	7.38188900
72.29999588	0.00000000	-21.48745000	10.49459000
72.49999587	0.00000000	-20.69390000	12.03248000
72.69999586	0.00000000	-17.21210000	11.65723000
72.89999585	0.00000000	-12.22933000	9.38115100
73.09999584	0.00000000	-6.79133800	6.31151500
73.29999582	0.00000000	-2.17765700	3.24803100
73.49999581	0.00000000	0.55979330	0.97194880
73.69999580	0.00000000	0.93503930	0.51058070
73.89999579	0.00000000	-0.97194880	1.19955700
74.09999578	0.00000000	-4.83513700	1.99311000
74.29999577	0.00000000	-9.44266700	3.15575800
74.49999575	0.00000000	-13.71801000	4.22613100
74.69999574	0.00000000	-16.79380000	4.22613100
74.89999573	0.00000000	-17.95029000	3.11269700
75.09999572	0.00000000	-16.87992000	1.62401600
75.29999571	0.00000000	-14.56078000	0.46136810
75.49999569	0.00000000	-11.85408000	0.13533460
75.69999568	0.00000000	-8.74138700	0.92888770
75.89999567	0.00000000	-6.45915300	3.24803100
76.09999566	0.00000000	-5.25344500	6.31151500
76.29999565	0.00000000	-5.25344500	9.38115100
76.49999563	0.00000000	-6.36687900	11.65723000
76.69999562	0.00000000	-7.86171200	12.03248000
76.89999561	0.00000000	-9.01820900	10.45152000
77.09999560	0.00000000	-9.44266700	6.96358300
77.29999559	0.00000000	-9.48572700	1.95004900
77.49999558	0.00000000	-9.48572700	-3.02042300
77.69999556	0.00000000	-9.48572700	-6.87746000
77.89999555	0.00000000	-9.52879000	-8.40920300
78.09999554	0.00000000	-9.95324800	-7.25270600
78.29999553	0.00000000	-11.06668000	-3.76476400
78.49999552	0.00000000	-12.18012000	1.66707700
78.69999550	0.00000000	-12.60458000	7.75713500
78.89999549	0.00000000	-12.60458000	12.81373000
79.09999548	0.00000000	-12.13706000	15.51427000
79.29999547	0.00000000	-10.59916000	15.92642000
79.49999546	0.00000000	-8.28001900	13.61343000
79.69999544	0.00000000	-5.99163300	9.38115100
79.89999543	0.00000000	-4.09079700	4.31840500
80.09999542	0.00000000	-3.75861200	-1.06422200
80.29999541	0.00000000	-5.21038300	-5.29650500
80.49999540	0.00000000	-7.52952700	-7.24655500
80.69999539	0.00000000	-9.86097400	-6.92052100
80.89999537	0.00000000	-12.22933000	-4.60137700
81.09999536	0.00000000	-14.09326000	-1.11343500
81.29999535	0.00000000	-14.88066000	3.15575800
81.49999534	0.00000000	-14.09326000	7.38188900
81.69999533	0.00000000	-12.22933000	10.53765000
81.89999531	0.00000000	-9.90403500	12.49385000
82.09999530	0.00000000	-7.94783400	13.28125000
82.29999529	0.00000000	-6.36687900	12.49385000
82.49999528	0.00000000	-5.25344500	10.53765000
82.69999527	0.00000000	-5.25344500	7.42495000
82.89999525	0.00000000	-6.41609200	3.57406500
83.09999524	0.00000000	-8.28001900	0.04306102
83.29999523	0.00000000	-10.23007000	-3.06348400
83.49999522	0.00000000	-11.39887000	-5.33956700
83.69999521	0.00000000	-12.18012000	-5.71481200
83.89999520	0.00000000	-12.18012000	-4.22613100
84.09999518	0.00000000	-11.44193000	-1.48868100
84.29999517	0.00000000	-10.69144000	2.04232300
84.49999516	0.00000000	-9.90403500	6.31151500
84.69999515	0.00000000	-9.52879000	10.53765000
84.89999514	0.00000000	-9.48572700	13.60728000
85.09999512	0.00000000	-9.44266700	14.76993000
85.29999511	0.00000000	-9.06742000	13.60728000
85.49999510	0.00000000	-8.32308000	10.49459000
85.69999509	0.00000000	-7.94783400	5.85014700
85.89999508	0.00000000	-7.90477300	0.46136810
86.09999506	0.00000000	-7.90477300	-4.14000900
86.29999505	0.00000000	-7.94783400	-6.87746000
86.49999504	0.00000000	-8.37229300	-7.24655500
86.69999503	0.00000000	-9.52879000	-5.33956700
86.89999502	0.00000000	-11.02362000	-1.43946800
87.09999501	0.00000000	-12.22933000	3.53100400
87.29999499	0.00000000	-12.97982000	8.54453700
87.49999498	0.00000000	-13.34276000	12.03248000
87.69999497	0.00000000	-12.51230000	13.61343000
87.89999496	0.00000000	-10.64838000	13.18898000
88.09999495	0.00000000	-8.32308000	10.45152000
88.29999493	0.00000000	-6.41609200	5.85014700
88.49999492	0.00000000	-5.25344500	0.51058070
88.69999491	0.00000000	-5.25344500	-3.71555100
88.89999490	0.00000000	-6.36687900	-5.67175200
89.09999489	0.00000000	-7.90477300	-5.29650500
89.29999487	0.00000000	-9.48572700	-2.60211600
89.49999486	0.00000000	-11.02362000	1.62401600
89.69999485	0.00000000	-12.18012000	6.26845500
89.89999484	0.00000000	-12.55536000	10.49459000
90.09999483	0.00000000	-12.18012000	13.14591000
90.29999482	0.00000000	-11.02362000	13.14591000
90.49999480	0.00000000	-9.52879000	10.45152000
90.69999479	0.00000000	-8.32308000	5.89320800
90.89999478	0.00000000	-7.57258800	0.87967510
91.09999477	0.00000000	-7.16043300	-2.93430100
91.29999476	0.00000000	-7.52952700	-4.87819900
91.49999474	0.00000000	-7.90477300	-4.09079700
91.69999473	0.00000000	-8.32308000	-1.07037400
91.89999472	0.00000000	-9.06742000	3.20497000
92.09999471	0.00000000	-9.44266700	7.80019600
92.29999470	0.00000000	-9.48572700	11.61417000
92.49999468	0.00000000	-9.48572700	13.14591000
92.69999467	0.00000000	-9.48572700	11.98942000
92.89999466	0.00000000	-9.52879000	8.54453700
93.09999465	0.00000000	-9.90403500	3.57406500
93.29999464	0.00000000	-10.69144000	-1.02116100
93.49999463	0.00000000	-11.39887000	-4.09079700
93.69999461	0.00000000	-11.81102000	-4.87819900
93.89999460	0.00000000	-11.34966000	-2.97736200
94.09999459	0.00000000	-10.23007000	0.46751960
94.29999458	0.00000000	-8.28001900	4.69365100
94.49999457	0.00000000	-6.36687900	8.54453700
94.69999455	0.00000000	-4.78592500	10.82677000
94.89999454	0.00000000	-3.71555100	11.18971000
95.09999453	0.00000000	-4.09079700	8.91978400
95.29999452	0.00000000	-5.99163300	5.15501900
95.49999451	0.00000000	-8.32308000	1.66707700
95.69999449	0.00000000	-11.06668000	-1.07037400
95.89999448	0.00000000	-13.76107000	-2.60211600
96.09999447	0.00000000	-15.67421000	-2.55905500
96.29999446	0.00000000	-16.46161000	-0.64591530
96.49999445	0.00000000	-15.63115000	2.78051200
96.69999444	0.00000000	-13.34276000	6.17618100
96.89999442	0.00000000	-9.86097400	8.54453700
97.09999441	0.00000000	-6.36687900	9.33809000
97.29999440	0.00000000	-3.25418300	8.96284400
97.49999439	0.00000000	-0.97194880	7.38188900
97.69999438	0.00000000	-0.59670270	4.73671200
97.89999436	0.00000000	-2.13459600	2.08538400
98.09999435	0.00000000	-5.25344500	0.51058070
98.29999434	0.00000000	-9.48572700	0.09227362
98.49999433	0.00000000	-13.71801000	0.46136810
98.69999432	0.00000000	-16.79380000	1.62401600
98.89999430	0.00000000	-17.99951000	3.15575800
99.09999429	0.00000000	-17.25517000	4.64443900
99.29999428	0.00000000	-15.25591000	5.47490100
99.49999427	0.00000000	-11.81102000	5.48105300
99.69999426	0.00000000	-7.58489100	5.51796200
99.89999425	0.00000000	-4.45989200	5.11195900
100.09999423	0.00000000	-2.09153500	4.82898600
100.29999422	0.00000000	-0.97194880	5.15501900
100.49999421	0.00000000	-1.71628900	5.89320800
100.69999420	0.00000000	-3.62942900	6.26845500
100.89999419	0.00000000	-6.36687900	6.26845500
101.09999417	0.00000000	-9.48572700	5.80093500
101.29999416	0.00000000	-12.55536000	4.26919300
101.49999415	0.00000000	-14.88066000	2.04232300
101.69999414	0.00000000	-15.67421000	0.51058070
101.89999413	0.00000000	-15.29897000	0.04306102
102.09999411	0.00000000	-13.76107000	0.09227362
102.29999410	0.00000000	-11.44193000	0.87967510
102.49999409	0.00000000	-9.11048200	2.82972400
102.69999408	0.00000000	-6.74212600	5.11195900
102.89999407	0.00000000	-4.87819900	7.43110200
103.09999406	0.00000000	-4.09079700	8.96284400
103.29999404	0.00000000	-4.83513700	9.33809000
103.49999403	0.00000000	-6.32381900	8.54453700
103.69999402	0.00000000	-7.90477300	6.22539300
103.89999401	0.00000000	-9.48572700	3.19881900
104.09999400	0.00000000	-11.02362000	0.46751960
104.29999398	0.00000000	-12.18012000	-1.43946800
104.49999397	0.00000000	-12.55536000	-2.18380900
104.69999396	0.00000000	-12.18012000	-1.02116100
104.89999395	0.00000000	-11.02362000	1.58095500
105.09999394	0.00000000	-9.48572700	4.26919300
105.29999392	0.00000000	-7.94783400	6.26845500
105.49999391	0.00000000	-6.79133800	7.80019600
105.69999390	0.00000000	-6.41609200	8.54453700
105.89999389	0.00000000	-6.79133800	7.75713500
106.09999388	0.00000000	-7.90477300	5.89320800
106.29999387	0.00000000	-9.06742000	3.57406500
106.49999385	0.00000000	-9.86097400	1.66707700
106.69999384	0.00000000	-10.64838000	0.46136810
106.89999383	0.00000000	-10.97441000	0.13533460
107.09999382	0.00000000	-10.59916000	0.87967510
107.29999381	0.00000000	-9.48572700	2.78051200
107.49999379	0.00000000	-8.37229300	4.64443900
107.69999378	0.00000000	-7.90477300	5.89320800
107.89999377	0.00000000	-7.57258800	6.59448800
108.09999376	0.00000000	-7.58489100	6.63754800
108.29999375	0.00000000	-8.73523500	5.43799200
108.49999374	0.00000000	-9.81791200	3.94315900
108.69999372	0.00000000	-10.69144000	1.99311000
108.89999371	0.00000000	-11.39887000	0.55364170
109.09999370	0.00000000	-11.76181000	0.51058070
109.29999369	0.00000000	-10.97441000	1.62401600
109.49999368	0.00000000	-9.48572700	3.15575800
109.69999366	0.00000000	-7.94783400	4.73671200
109.89999365	0.00000000	-6.79133800	6.26845500
110.09999364	0.00000000	-6.36687900	7.42495000
110.29999363	0.00000000	-6.36687900	7.80019600
110.49999362	0.00000000	-6.79133800	7.42495000
110.69999360	0.00000000	-7.94783400	6.22539300
110.89999359	0.00000000	-9.44266700	4.36146600
111.09999358	0.00000000	-10.59916000	2.41141700
111.29999357	0.00000000	-11.02362000	1.24877000
111.49999356	0.00000000	-11.06668000	0.46136810
111.69999355	0.00000000	-11.02362000	0.51058070
111.89999353	0.00000000	-10.59916000	1.62401600
112.09999352	0.00000000	-9.48572700	3.15575800
112.29999351	0.00000000	-8.37229300	4.68750000
112.49999350	0.00000000	-7.94783400	5.85014700
112.69999349	0.00000000	-7.90477300	6.26845500
112.89999347	0.00000000	-7.94783400	6.26845500
113.09999346	0.00000000	-8.32308000	5.89320800
113.29999345	0.00000000	-9.06742000	5.11195900
113.49999344	0.00000000	-9.44266700	4.36146600
113.69999343	0.00000000	-9.48572700	3.57406500
113.89999341	0.00000000	-9.48572700	3.19881900
114.09999340	0.00000000	-9.48572700	3.15575800
114.29999339	0.00000000	-9.48572700	3.15575800
114.49999338	0.00000000	-9.48572700	3.15575800
114.69999337	0.00000000	-9.44266700	3.15575800
114.89999336	0.00000000	-9.06742000	3.15575800
115.09999334	0.00000000	-8.32308000	3.15575800
115.29999333	0.00000000	-7.99704600	3.15575800
115.49999332	0.00000000	-8.32308000	3.15575800
115.69999331	0.00000000	-9.06742000	3.19881900
115.89999330	0.00000000	-9.44266700	3.57406500
116.09999328	0.00000000	-9.48572700	4.36146600
116.29999327	0.00000000	-9.52879000	5.11195900
116.49999326	0.00000000	-9.86097400	5.89320800
116.69999325	0.00000000	-10.27313000	6.21924200
116.89999324	0.00000000	-10.23622000	5.89320800
117.09999322	0.00000000	-10.23007000	5.11195900
117.29999321	0.00000000	-9.44266700	4.36146600
117.49999320	0.00000000	-8.37229300	3.53100400
117.69999319	0.00000000	-7.90477300	2.78051200
117.89999318	0.00000000	-7.52952700	1.99311000
118.09999317	0.00000000	-7.16043300	1.61786400
118.29999315	0.00000000	-7.57258800	1.61786400
118.49999314	0.00000000	-8.28001900	2.04232300
118.69999313	0.00000000	-9.11048200	3.15575800
118.89999312	0.00000000	-9.86097400	4.26919300
119.09999311	0.00000000	-10.69144000	4.73671200
119.29999309	0.00000000	-11.44193000	5.11195900
119.49999308	0.00000000	-12.18012000	5.51796200
119.69999307	0.00000000	-12.13706000	5.48105300
119.89999306	0.00000000	-11.02362000	5.51796200
120.09999305	0.00000000	-9.48572700	5.11195900
120.29999303	0.00000000	-7.94783400	4.73671200
120.49999302	0.00000000	-6.79133800	4.31840500
120.69999301	0.00000000	-6.36687900	3.57406500
120.89999300	0.00000000	-6.36687900	3.15575800
121.09999299	0.00000000	-6.74212600	2.78051200
121.29999298	0.00000000	-7.52952700	2.41141700
121.49999296	0.00000000	-8.32308000	2.78051200
121.69999295	0.00000000	-9.48572700	3.11269700
121.89999294	0.00000000	-10.64838000	3.15575800
122.09999293	0.00000000	-11.39887000	3.19881900
122.29999292	0.00000000	-11.81102000	3.57406500
122.49999290	0.00000000	-11.39887000	4.31840500
122.69999289	0.00000000	-10.64838000	4.73671200
122.89999288	0.00000000	-9.48572700	5.15501900
123.09999287	0.00000000	-8.32308000	5.85014700
123.29999286	0.00000000	-7.52952700	5.85014700
123.49999284	0.00000000	-6.74212600	5.11195900
123.69999283	0.00000000	-6.41609200	4.36146600
123.89999282	0.00000000	-6.74212600	3.53100400
124.09999281	0.00000000	-7.52952700	2.82357300
124.29999280	0.00000000	-8.28001900	2.41141700
124.49999279	0.00000000	-9.06742000	2.78051200
124.69999277	0.00000000	-9.48572700	3.11269700
124.89999276	0.00000000	-9.90403500	3.15575800
125.09999275	0.00000000	-10.64838000	3.19881900
125.29999274	0.00000000	-11.02362000	3.57406500
125.49999273	0.00000000	-11.02362000	4.31840500
125.69999271	0.00000000	-10.64838000	4.69365100
125.89999270	0.00000000	-9.86097400	4.73671200
126.09999269	0.00000000	-9.06742000	4.73671200
126.29999268	0.00000000	-7.90477300	4.73671200
126.49999267	0.00000000	-6.79133800	4.73671200
126.69999265	0.00000000	-6.36687900	4.69365100
126.89999264	0.00000000	-6.36687900	4.31840500
127.09999263	0.00000000	-6.79133800	3.57406500
127.29999262	0.00000000	-7.94783400	3.19881900
127.49999261	0.00000000	-9.44266700	3.15575800
127.69999260	0.00000000	-10.59916000	3.15575800
127.89999258	0.00000000	-11.02362000	3.19881900
128.09999257	0.00000000	-11.02362000	3.57406500
128.29999256	0.00000000	-10.59916000	4.31840500
128.49999255	0.00000000	-9.48572700	4.69365100
128.69999254	0.00000000	-8.32308000	4.73671200
128.89999252	0.00000000	-7.52952700	4.73671200
129.09999251	0.00000000	-6.74212600	4.73671200
129.29999250	0.00000000	-6.41609200	4.69365100
129.49999249	0.00000000	-6.79133800	4.31840500
129.69999248	0.00000000	-7.90477300	3.62327700
129.89999246	0.00000000	-9.06742000	3.57406500
130.09999245	0.00000000	-9.86097400	3.90009800
130.29999244	0.00000000	-10.64838000	3.57406500
130.49999243	0.00000000	-10.97441000	3.62327700
130.69999242	0.00000000	-10.64838000	4.31840500
130.89999241	0.00000000	-9.86097400	4.69365100
131.09999239	0.00000000	-9.11048200	4.73671200
131.29999238	0.00000000	-8.28001900	4.73671200
131.49999237	0.00000000	-7.57258800	4.69365100
131.69999236	0.00000000	-7.16043300	4.31840500
131.89999235	0.00000000	-7.52952700	3.57406500
132.09999233	0.00000000	-7.90477300	3.19881900
132.29999232	0.00000000	-8.37229300	3.11269700
132.49999231	0.00000000	-9.44266700	2.78051200
132.69999230	0.00000000	-10.18086000	2.41141700
132.89999229	0.00000000	-9.86097400	2.82357300
133.09999227	0.00000000	-9.52879000	3.53100400
133.29999226	0.00000000	-9.48572700	4.36146600
133.49999225	0.00000000	-9.48572700	5.11195900
133.69999224	0.00000000	-9.44266700	5.85014700
133.89999223	0.00000000	-9.11048200	5.85014700
134.09999222	0.00000000	-8.69832600	5.15501900
134.29999220	0.00000000	-8.73523500	4.73671200
134.49999219	0.00000000	-8.69832600	4.31840500
134.69999218	0.00000000	-9.06742000	3.53100400
134.89999217	0.00000000	-9.01820900	2.78051200
135.09999216	0.00000000	-8.32308000	2.04232300
135.29999214	0.00000000	-7.94783400	2.04232300
135.49999213	0.00000000	-7.94783400	2.73745100
135.69999212	0.00000000	-8.28001900	3.15575800
135.89999211	0.00000000	-8.69217500	3.57406500
136.09999210	0.00000000	-8.69832600	4.36146600
136.29999208	0.00000000	-9.11048200	5.11195900
136.49999207	0.00000000	-9.48572700	5.89320800
136.69999206	0.00000000	-9.86097400	6.21924200
136.89999205	0.00000000	-10.23007000	5.89320800
137.09999204	0.00000000	-9.86097400	5.11195900
137.29999203	0.00000000	-9.48572700	4.36146600
137.49999201	0.00000000	-9.06742000	3.53100400
137.69999200	0.00000000	-8.28001900	2.82357300
137.89999199	0.00000000	-7.57258800	2.36835600
138.09999198	0.00000000	-7.16043300	2.40526600
138.29999197	0.00000000	-7.57258800	2.36835600
138.49999195	0.00000000	-8.28001900	2.78051200
138.69999194	0.00000000	-9.06742000	3.15575800
138.89999193	0.00000000	-9.48572700	3.57406500
139.09999192	0.00000000	-9.86097400	4.31840500
139.29999191	0.00000000	-10.23007000	4.73671200
139.49999189	0.00000000	-9.86097400	5.15501900
139.69999188	0.00000000	-9.48572700	5.89320800
139.89999187	0.00000000	-9.06742000	6.21924200
140.09999186	0.00000000	-8.32308000	5.89320800
140.29999185	0.00000000	-7.94783400	5.11195900
140.49999184	0.00000000	-7.90477300	4.36146600
140.69999182	0.00000000	-7.90477300	3.53100400
140.89999181	0.00000000	-7.94783400	2.78051200
141.09999180	0.00000000	-8.32308000	2.04232300
141.29999179	0.00000000	-9.06742000	2.04232300
141.49999178	0.00000000	-9.44266700	2.73745100
141.69999176	0.00000000	-9.48572700	3.15575800
141.89999175	0.00000000	-9.48572700	3.62327700
142.09999174	0.00000000	-9.44266700	4.73671200
142.29999173	0.00000000	-9.06742000	5.85014700
142.49999172	0.00000000	-8.32308000	6.26845500
142.69999170	0.00000000	-7.94783400	6.26845500
142.89999169	0.00000000	-7.90477300	5.85014700
143.09999168	0.00000000	-7.94783400	4.73671200
143.29999167	0.00000000	-8.32308000	3.62327700
143.49999166	0.00000000	-9.06742000	3.15575800
143.69999165	0.00000000	-9.44266700	2.73745100
143.89999163	0.00000000	-9.48572700	2.04232300
144.09999162	0.00000000	-9.44266700	2.08538400
144.29999161	0.00000000	-9.06742000	3.15575800
144.49999160	0.00000000	-8.32308000	4.26919300
144.69999159	0.00000000	-7.94783400	4.73671200
144.89999157	0.00000000	-7.90477300	5.15501900
145.09999156	0.00000000	-7.90477300	5.85014700
145.29999155	0.00000000	-7.90477300	5.85014700
145.49999154	0.00000000	-7.94783400	5.15501900
145.69999153	0.00000000	-8.32308000	4.73671200
145.89999151	0.00000000	-9.06742000	4.31840500
146.09999150	0.00000000	-9.44266700	3.57406500
146.29999149	0.00000000	-9.48572700	3.19881900
146.49999148	0.00000000	-9.48572700	3.15575800
146.69999147	0.00000000	-9.44266700	3.15575800
146.89999146	0.00000000	-9.06742000	3.15575800
147.09999144	0.00000000	-8.32308000	3.19881900
147.29999143	0.00000000	-7.94783400	3.57406500
147.49999142	0.00000000	-7.90477300	4.31840500
147.69999141	0.00000000	-7.94783400	4.69365100
147.89999140	0.00000000	-8.32308000	4.73671200
148.09999138	0.00000000	-9.06742000	4.73671200
148.29999137	0.00000000	-9.44266700	4.73671200
148.49999136	0.00000000	-9.48572700	4.73671200
148.69999135	0.00000000	-9.48572700	4.69365100
148.89999134	0.00000000	-9.48572700	4.31840500
149.09999132	0.00000000	-9.44266700	3.57406500
149.29999131	0.00000000	-9.06742000	3.19881900
149.49999130	0.00000000	-8.32308000	3.15575800
149.69999129	0.00000000	-7.94783400	3.19881900
149.89999128	0.00000000	-7.90477300	3.57406500
150.09999127	0.00000000	-7.90477300	4.31840500
150.29999125	0.00000000	-7.90477300	4.69365100
150.49999124	0.00000000	-7.94783400	4.73671200
150.69999123	0.00000000	-8.32308000	4.73671200
150.89999122	0.00000000	-9.06742000	4.73671200
151.09999121	0.00000000	-9.44266700	4.73671200
151.29999119	0.00000000	-9.48572700	4.73671200
151.49999118	0.00000000	-9.48572700	4.69365100
151.69999117	0.00000000	-9.48572700	4.31840500
151.89999116	0.00000000	-9.48572700	3.57406500
152.09999115	0.00000000	-9.44266700	3.19881900
152.29999113	0.00000000	-9.06742000	3.15575800
152.49999112	0.00000000	-8.32308000	3.19881900
152.69999111	0.00000000	-7.94783400	3.57406500
152.89999110	0.00000000	-7.90477300	4.31840500
153.09999109	0.00000000	-7.90477300	4.69365100
153.29999108	0.00000000	-7.94783400	4.73671200
153.49999106	0.00000000	-8.28001900	4.73671200
153.69999105	0.00000000	-8.69217500	4.73671200
153.89999104	0.00000000	-8.69832600	4.73671200
154.09999103	0.00000000	-9.11048200	4.73671200
154.29999102	0.00000000	-9.44266700	4.73671200
154.49999100	0.00000000	-9.48572700	4.73671200
154.69999099	0.00000000	-9.48572700	4.73671200
154.89999098	0.00000000	-9.44266700	4.69365100
155.09999097	0.00000000	-9.06742000	4.31840500
155.29999096	0.00000000	-8.32308000	3.57406500
155.49999094	0.00000000	-7.94783400	3.19881900
155.69999093	0.00000000	-7.90477300	3.15575800
155.89999092	0.00000000	-7.90477300	3.15575800
156.09999091	0.00000000	-7.90477300	3.19881900
156.29999090	0.00000000	-7.94783400	3.57406500
156.49999089	0.00000000	-8.32308000	4.31840500
156.69999087	0.00000000	-9.06742000	4.69365100
156.89999086	0.00000000	-9.44266700	4.77977300
157.09999085	0.00000000	-9.48572700	5.11195900
157.29999084	0.00000000	-9.48572700	5.47490100
157.49999083	0.00000000	-9.48572700	5.11195900
157.69999081	0.00000000	-9.48572700	4.77977300
157.89999080	0.00000000	-9.44266700	4.69365100
158.09999079	0.00000000	-9.06742000	4.31840500
158.29999078	0.00000000	-8.32308000	3.57406500
158.49999077	0.00000000	-7.94783400	3.19881900
158.69999075	0.00000000	-7.90477300	3.15575800
158.89999074	0.00000000	-7.90477300	3.15575800
159.09999073	0.00000000	-7.90477300	3.19881900
159.29999072	0.00000000	-7.90477300	3.57406500
159.49999071	0.00000000	-7.94783400	4.31840500
159.69999070	0.00000000	-8.32308000	4.69365100
159.89999068	0.00000000	-9.06742000	4.73671200
160.09999067	0.00000000	-9.44266700	4.73671200
160.29999066	0.00000000	-9.48572700	4.73671200
160.49999065	0.00000000	-9.48572700	4.73671200
160.69999064	0.00000000	-9.48572700	4.69365100
160.89999062	0.00000000	-9.48572700	4.31840500
161.09999061	0.00000000	-9.44266700	3.57406500
161.29999060	0.00000000	-9.06742000	3.19881900
161.49999059	0.00000000	-8.32308000	3.15575800
161.69999058	0.00000000	-7.94783400	3.15575800
161.89999056	0.00000000	-7.90477300	3.19881900
162.09999055	0.00000000	-7.90477300	3.57406500
162.29999054	0.00000000	-7.90477300	4.31840500
162.49999053	0.00000000	-7.90477300	4.69365100
162.69999052	0.00000000	-7.90477300	4.73671200
162.89999051	0.00000000	-7.94783400	4.73671200
163.09999049	0.00000000	-8.32308000	4.73671200
163.29999048	0.00000000	-9.06742000	4.73671200
163.49999047	0.00000000	-9.44266700	4.73671200
163.69999046	0.00000000	-9.48572700	4.69365100
163.89999045	0.00000000	-9.48572700	4.31840500
164.09999043	0.00000000	-9.48572700	3.57406500
164.29999042	0.00000000	-9.48572700	3.19881900
164.49999041	0.00000000	-9.44266700	3.15575800
164.69999040	0.00000000	-9.06742000	3.15575800
164.89999039	0.00000000	-8.32308000	3.19881900
165.09999037	0.00000000	-7.94783400	3.57406500
165.29999036	0.00000000	-7.90477300	4.31840500
165.49999035	0.00000000	-7.90477300	4.69365100
165.69999034	0.00000000	-7.90477300	4.73671200
165.89999033	0.00000000	-7.94783400	4.69365100
166.09999032	0.00000000	-8.32308000	4.36146600
166.29999030	0.00000000	-9.06742000	3.99237200
166.49999029	0.00000000	-9.44266700	4.36146600
166.69999028	0.00000000	-9.48572700	4.69365100
166.89999027	0.00000000	-9.48572700	4.69365100
167.09999026	0.00000000	-9.48572700	4.31840500
167.29999024	0.00000000	-9.44266700	3.62327700
167.49999023	0.00000000	-9.06742000	3.57406500
167.69999022	0.00000000	-8.32308000	3.90009800
167.89999021	0.00000000	-7.94783400	3.53100400
168.09999020	0.00000000	-7.90477300	3.24803100
168.29999018	0.00000000	-7.90477300	3.57406500
168.49999017	0.00000000	-7.90477300	4.31840500
168.69999016	0.00000000	-7.94783400	4.64443900
168.89999015	0.00000000	-8.28001900	4.36146600
169.09999014	0.00000000	-8.64911400	3.94931100
169.29999013	0.00000000	-8.32308000	3.98622000
169.49999011	0.00000000	-8.37229300	3.94931100
169.69999010	0.00000000	-9.06742000	4.36146600
169.89999009	0.00000000	-9.44266700	4.64443900
170.09999008	0.00000000	-9.48572700	4.36146600
170.29999007	0.00000000	-9.44266700	3.99237200
170.49999005	0.00000000	-9.06742000	4.36146600
170.69999004	0.00000000	-8.32308000	4.64443900
170.89999003	0.00000000	-7.94783400	4.36146600
171.09999002	0.00000000	-7.90477300	3.99237200
171.29999001	0.00000000	-7.90477300	4.31840500
171.49998999	0.00000000	-7.90477300	4.26919300
171.69998998	0.00000000	-7.90477300	3.62327700
171.89998997	0.00000000	-7.90477300	3.57406500
172.09998996	0.00000000	-7.90477300	3.90009800
172.29998995	0.00000000	-7.94783400	3.53100400
172.49998994	0.00000000	-8.32308000	3.24803100
172.69998992	0.00000000	-9.06742000	3.53100400
172.89998991	0.00000000	-9.39345400	3.94315900
173.09998990	0.00000000	-9.06742000	3.94931100
173.29998989	0.00000000	-8.32308000	4.36146600
173.49998988	0.00000000	-7.94783400	4.69365100
173.69998986	0.00000000	-7.90477300	4.73671200
173.89998985	0.00000000	-7.90477300	4.73671200
174.09998984	0.00000000	-7.90477300	4.73671200
174.29998983	0.00000000	-7.90477300	4.73671200
174.49998982	0.00000000	-7.90477300	4.73671200
174.69998980	0.00000000	-7.90477300	4.73671200
174.89998979	0.00000000	-7.90477300	4.69365100
175.09998978	0.00000000	-7.94783400	4.31840500
175.29998977	0.00000000	-8.32308000	3.57406500
175.49998976	0.00000000	-9.06742000	3.19881900
175.69998975	0.00000000	-9.39345400	3.19881900
175.89998973	0.00000000	-9.11048200	3.57406500
176.09998972	0.00000000	-8.69832600	4.31840500
176.29998971	0.00000000	-8.69217500	4.64443900
176.49998970	0.00000000	-8.28001900	4.36146600
176.69998969	0.00000000	-7.94783400	3.99237200
176.89998967	0.00000000	-7.90477300	4.31840500
177.09998966	0.00000000	-7.90477300	4.26919300
177.29998965	0.00000000	-7.90477300	3.57406500
177.49998964	0.00000000	-7.94783400	3.19881900
177.69998963	0.00000000	-8.32308000	3.15575800
177.89998961	0.00000000	-9.01820900	3.15575800
178.09998960	0.00000000	-9.06742000	3.15575800
178.29998959	0.00000000	-8.69832600	3.19881900
178.49998958	0.00000000	-8.69217500	3.57406500
178.69998957	0.00000000	-8.32308000	4.31840500
178.89998956	0.00000000	-8.32308000	4.69365100
179.09998954	0.00000000	-8.64911400	4.73671200
179.29998953	0.00000000	-8.28001900	4.73671200
179.49998952	0.00000000	-7.94783400	4.73671200
179.69998951	0.00000000	-7.90477300	4.69365100
179.89998950	0.00000000	-7.90477300	4.36146600
180.09998948	0.00000000	-7.90477300	3.94931100
180.29998947	0.00000000	-7.90477300	3.94315900
180.49998946	0.00000000	-7.90477300	3.53100400
180.69998945	0.00000000	-7.94783400	3.19881900
180.89998944	0.00000000	-8.28001900	3.19881900
181.09998942	0.00000000	-8.64911400	3.57406500
181.29998941	0.00000000	-8.28001900	4.31840500
181.49998940	0.00000000	-7.99704600	4.69365100
181.69998939	0.00000000	-8.28001900	4.73671200
181.89998938	0.00000000	-8.64911400	4.73671200
182.09998937	0.00000000	-8.28001900	4.73671200
182.29998935	0.00000000	-7.94783400	4.73671200
182.49998934	0.00000000	-7.90477300	4.73671200
182.69998933	0.00000000	-7.90477300	4.69365100
182.89998932	0.00000000	-7.90477300	4.31840500
183.09998931	0.00000000	-7.90477300	3.57406500
183.29998929	0.00000000	-7.90477300	3.19881900
183.49998928	0.00000000	-7.90477300	3.15575800
183.69998927	0.00000000	-7.90477300	3.15575800
183.89998926	0.00000000	-7.90477300	3.19881900
184.09998925	0.00000000	-7.94783400	3.57406500
184.29998923	0.00000000	-8.28001900	4.31840500
184.49998922	0.00000000	-8.64911400	4.69365100
184.69998921	0.00000000	-8.28001900	4.73671200
184.89998920	0.00000000	-7.94783400	4.73671200
185.09998919	0.00000000	-7.90477300	4.73671200
185.29998918	0.00000000	-7.90477300	4.73671200
185.49998916	0.00000000	-7.90477300	4.69365100
185.69998915	0.00000000	-7.90477300	4.31840500
185.89998914	0.00000000	-7.90477300	3.57406500
186.09998913	0.00000000	-7.90477300	3.19881900
186.29998912	0.00000000	-7.90477300	3.15575800
186.49998910	0.00000000	-7.90477300	3.15575800
186.69998909	0.00000000	-7.90477300	3.15575800
186.89998908	0.00000000	-7.90477300	3.19881900
187.09998907	0.00000000	-7.94783400	3.57406500
187.29998906	0.00000000	-8.32308000	4.31840500
187.49998904	0.00000000	-9.06742000	4.69365100
187.69998903	0.00000000	-9.39345400	4.73671200
187.89998902	0.00000000	-9.06742000	4.73671200
188.09998901	0.00000000	-8.32308000	4.73671200
188.29998900	0.00000000	-7.94783400	4.73671200
188.49998899	0.00000000	-7.90477300	4.73671200
188.69998897	0.00000000	-7.90477300	4.69365100
188.89998896	0.00000000	-7.90477300	4.31840500
189.09998895	0.00000000	-7.90477300	3.57406500
189.29998894	0.00000000	-7.90477300	3.19881900
189.49998893	0.00000000	-7.90477300	3.15575800
189.69998891	0.00000000	-7.90477300	3.15575800
189.89998890	0.00000000	-7.94783400	3.15575800
190.09998889	0.00000000	-8.28001900	3.19881900
190.29998888	0.00000000	-8.64911400	3.57406500
190.49998887	0.00000000	-8.28001900	4.31840500
190.69998885	0.00000000	-7.94783400	4.69365100
190.89998884	0.00000000	-7.90477300	4.73671200
191.09998883	0.00000000	-7.90477300	4.73671200
191.29998882	0.00000000	-7.90477300	4.73671200
191.49998881	0.00000000	-7.90477300	4.73671200
191.69998880	0.00000000	-7.90477300	4.69365100
191.89998878	0.00000000	-7.90477300	4.31840500
192.09998877	0.00000000	-7.90477300	3.57406500
192.29998876	0.00000000	-7.90477300	3.19881900
192.49998875	0.00000000	-7.90477300	3.15575800
192.69998874	0.00000000	-7.90477300	3.15575800
192.89998872	0.00000000	-7.90477300	3.15575800
193.09998871	0.00000000	-7.94783400	3.19881900
193.29998870	0.00000000	-8.32308000	3.57406500
193.49998869	0.00000000	-9.01820900	4.31840500
193.69998868	0.00000000	-9.01820900	4.69365100
193.89998866	0.00000000	-8.32308000	4.73671200
194.09998865	0.00000000	-7.94783400	4.73671200
194.29998864	0.00000000	-7.90477300	4.73671200
194.49998863	0.00000000	-7.90477300	4.73671200
194.69998862	0.00000000	-7.90477300	4.73671200
194.89998861	0.00000000	-7.90477300	4.73671200
195.09998859	0.00000000	-7.90477300	4.73671200
195.29998858	0.00000000	-7.90477300	4.73671200
195.49998857	0.00000000	-7.90477300	4.69365100
195.69998856	0.00000000	-7.90477300	4.31840500
195.89998855	0.00000000	-7.90477300	3.57406500
196.09998853	0.00000000	-7.90477300	3.24803100
