Time	Channel A	Channel B	Channel C
(us)	(V)	(mV)	(mV)

-4.49999956	0.00000000	-61.66338000	-16.20325000
-4.29999957	0.00000000	-61.66338000	-15.82800000
-4.09999958	0.00000000	-61.66338000	-15.78494000
-3.89999959	0.00000000	-61.75566000	-15.82800000
-3.69999960	0.00000000	-62.45694000	-16.16018000
-3.49999962	0.00000000	-63.56421000	-16.57234000
-3.29999963	0.00000000	-63.52731000	-16.53543000
-3.09999964	0.00000000	-62.86909000	-16.61540000
-2.89999965	0.00000000	-62.13090000	-16.57849000
-2.69999966	0.00000000	-62.08169000	-16.99065000
-2.49999968	0.00000000	-62.40772000	-17.32283000
-2.29999969	0.00000000	-62.03863000	-17.36589000
-2.09999970	0.00000000	-61.70644000	-17.36589000
-1.89999971	0.00000000	-61.66338000	-17.32283000
-1.69999972	0.00000000	-61.66338000	-16.94759000
-1.49999973	0.00000000	-61.66338000	-16.25246000
-1.29999975	0.00000000	-61.66338000	-16.25246000
-1.09999976	0.00000000	-61.66338000	-16.94759000
-0.89999977	0.00000000	-61.66338000	-17.27362000
-0.69999978	0.00000000	-61.70644000	-16.94759000
-0.49999979	0.00000000	-62.03863000	-16.20325000
-0.29999981	0.31803640	-62.40772000	-15.87721000
-0.09999982	0.63668800	-62.03863000	-16.20325000
0.10000017	0.95533960	-61.70644000	-16.94759000
0.30000016	1.11466500	-61.70644000	-17.32283000
0.50000015	0.79601380	-62.03863000	-17.32283000
0.70000013	0.31803640	-62.40772000	-16.99065000
0.90000012	-0.47736220	-62.03863000	-16.62155000
1.10000011	-1.43331700	-61.70644000	-16.94759000
1.30000010	-2.38927200	-61.66338000	-16.89837000
1.50000009	-2.70792300	-61.66338000	-16.20325000
1.70000008	-2.38927200	-61.66338000	-15.82800000
1.90000006	-1.27399100	-61.70644000	-15.82800000
2.10000005	0.63668800	-62.03863000	-16.16018000
2.30000004	2.70792300	-62.40772000	-16.52928000
2.50000003	4.45989200	-62.03863000	-16.20325000
2.70000002	5.25652100	-61.75566000	-16.25246000
2.90000000	4.77854300	-62.08169000	-16.94759000
3.09999999	2.86724900	-62.77681000	-17.32283000
3.29999998	-0.15871060	-62.77681000	-17.32283000
3.49999997	-3.50393700	-62.08169000	-16.94759000
3.69999996	-6.37180100	-61.70644000	-16.20325000
3.89999994	-7.96444400	-61.66338000	-15.82800000
4.09999993	-7.48646600	-61.66338000	-15.78494000
4.29999992	-4.93786900	-61.66338000	-15.78494000
4.49999991	-1.11466500	-61.66338000	-15.78494000
4.69999990	3.34522600	-61.66338000	-15.78494000
4.89999989	7.16781500	-61.66338000	-15.78494000
5.09999987	9.23905000	-61.70644000	-15.82800000
5.29999986	9.07972400	-62.08169000	-16.20325000
5.49999985	6.69045300	-62.77681000	-16.94759000
5.69999984	2.38927200	-62.77681000	-17.32283000
5.89999983	-2.38927200	-62.08169000	-17.36589000
6.09999981	-6.69045300	-61.70644000	-17.32283000
6.29999980	-9.07972400	-61.66338000	-16.94759000
6.49999979	-9.23905000	-61.66338000	-16.20325000
6.69999978	-7.16781500	-61.66338000	-15.82800000
6.89999977	-3.34522600	-61.66338000	-15.78494000
7.09999975	1.11466500	-61.66338000	-15.78494000
7.29999974	4.93786900	-61.66338000	-15.82800000
7.49999973	7.32714100	-61.66338000	-16.16018000
7.69999972	7.64579200	-61.66338000	-16.52928000
7.89999971	6.21247500	-61.66338000	-16.20325000
8.09999970	3.34522600	-61.66338000	-16.25246000
8.29999968	0.15871060	-61.66338000	-16.94759000
8.49999967	-2.86724900	-61.70644000	-17.32283000
8.69999966	-4.77854300	-62.03863000	-17.36589000
8.89999965	-5.25652100	-62.40772000	-17.32283000
9.09999964	-4.30056600	-62.03863000	-16.94759000
9.29999962	-2.54859700	-61.70644000	-16.20325000
9.49999961	-0.63668800	-61.66338000	-15.82800000
9.69999960	1.11466500	-61.66338000	-15.82800000
9.89999959	2.22994600	-61.66338000	-16.16018000
10.09999958	2.54859700	-61.66338000	-16.57234000
10.29999956	2.22994600	-61.66338000	-16.57849000
10.49999955	1.43331700	-61.66338000	-16.94759000
10.69999954	0.63668800	-61.66338000	-16.89837000
10.89999953	-0.31803640	-61.66338000	-16.20325000
11.09999952	-0.79601380	-61.66338000	-15.82800000
11.29999951	-0.95533960	-61.66338000	-15.78494000
11.49999949	-0.95533960	-61.66338000	-15.78494000
11.69999948	-0.79601380	-61.66338000	-15.78494000
11.89999947	-0.31803640	-61.66338000	-15.78494000
12.09999946	-0.15871060	-61.66338000	-15.82800000
12.29999945	-0.15871060	-61.66338000	-16.20325000
12.49999943	0.00000000	-61.66338000	-16.89837000
12.69999942	0.00000000	-61.66338000	-16.89837000
12.89999941	0.00000000	-61.66338000	-16.20325000
13.09999940	0.15871060	-61.66338000	-15.82800000
13.29999939	0.00000000	-61.66338000	-15.78494000
13.49999937	0.00000000	-61.66338000	-15.78494000
13.69999936	0.00000000	-61.66338000	-15.78494000
13.89999935	0.00000000	-61.66338000	-15.82800000
14.09999934	-0.15871060	-61.66338000	-16.20325000
14.29999933	-0.15871060	-61.66338000	-16.94759000
14.49999932	-0.15871060	-61.66338000	-17.32283000
14.69999930	0.00000000	-61.66338000	-17.36589000
14.89999929	0.00000000	-61.66338000	-17.36589000
15.09999928	0.00000000	-61.66338000	-17.32283000
15.29999927	0.00000000	-61.66338000	-16.99065000
15.49999926	0.00000000	-61.66338000	-16.57849000
15.69999924	0.00000000	-61.70644000	-16.61540000
15.89999923	0.00000000	-62.03863000	-16.53543000
16.09999922	0.00000000	-62.40772000	-16.57234000
16.29999921	0.00000000	-62.03863000	-16.20325000
16.49999920	-0.15871060	-61.70644000	-16.20325000
16.69999919	-0.15871060	-61.66338000	-16.52928000
16.89999917	0.00000000	-61.62032000	-16.16018000
17.09999916	0.00000000	-61.24508000	-15.82800000
17.29999915	0.00000000	-60.50073000	-15.78494000
17.49999914	0.00000000	-60.12549000	-15.78494000
17.69999913	0.00000000	-60.12549000	-15.78494000
17.89999911	0.00000000	-60.50073000	-15.78494000
18.09999910	0.00000000	-61.33120000	-15.78494000
18.29999909	0.00000000	-62.50000000	-15.78494000
18.49999908	0.00000000	-64.40699000	-15.78494000
18.69999907	0.00000000	-65.93873000	-15.78494000
18.89999905	0.00000000	-66.73843000	-15.78494000
19.09999904	0.00000000	-67.05831000	-15.78494000
19.29999903	0.00000000	-65.80955000	-15.78494000
19.49999902	0.00000000	-62.77681000	-15.78494000
19.69999901	0.00000000	-58.91978000	-15.78494000
19.89999900	0.00000000	-55.38263000	-15.78494000
20.09999898	0.00000000	-52.26993000	-15.78494000
20.29999897	0.00000000	-50.07997000	-15.78494000
20.49999896	0.00000000	-50.54749000	-15.78494000
20.69999895	0.00000000	-54.40452000	-15.78494000
20.89999894	0.00000000	-60.59301000	-15.78494000
21.09999892	0.00000000	-67.99335000	-15.78494000
21.29999891	0.00000000	-75.30142000	-15.78494000
21.49999890	0.00000000	-80.64714000	-15.78494000
21.69999889	0.00000000	-82.14198000	-15.82800000
21.89999888	0.00000000	-78.98006000	-16.16018000
22.09999886	0.00000000	-71.20448000	-16.57234000
22.29999885	0.00000000	-59.94709000	-16.57849000
22.49999884	0.00000000	-47.61319000	-16.94759000
22.69999883	0.00000000	-36.82332000	-16.89837000
22.89999882	0.00000000	-30.72096000	-16.20325000
23.09999881	0.00000000	-31.18848000	-15.82800000
23.29999879	0.00000000	-39.00713000	-15.74188000
23.49999878	0.00000000	-53.33415000	-15.36663000
23.69999877	0.00000000	-71.10605000	-14.62844000
23.89999876	0.00000000	-88.41658000	-14.30241000
24.09999875	0.00000000	-100.75050000	-14.62844000
24.29999873	0.00000000	-104.57060000	-15.40969000
24.49999872	0.00000000	-99.07726000	-16.20325000
24.69999871	0.00000000	-84.32578000	-17.40895000
24.89999870	0.00000000	-63.10900000	-18.94685000
25.09999869	0.00000000	-40.72957000	-20.47859000
25.29999867	0.00000000	-22.21334000	-21.59203000
25.49999866	0.00000000	-12.20472000	-21.59203000
25.69999865	0.00000000	-13.41043000	-20.39247000
25.89999864	0.00000000	-25.83661000	-18.06102000
26.09999863	0.00000000	-47.42864000	-14.53617000
26.29999862	0.00000000	-72.83464000	-10.72219000
26.49999860	0.00000000	-95.26328000	-7.24040300
26.69999859	0.00000000	-110.00860000	-5.37647600
26.89999858	0.00000000	-114.24090000	-5.75172200
27.09999857	0.00000000	-106.88980000	-8.53838500
27.29999856	0.00000000	-89.48695000	-13.60113000
27.49999854	0.00000000	-65.94488000	-20.57087000
27.69999853	0.00000000	-41.60925000	-27.86663000
27.89999852	0.00000000	-22.29946000	-33.63066000
28.09999851	0.00000000	-12.20472000	-36.31890000
28.29999850	0.00000000	-13.36737000	-35.07013000
28.49999848	0.00000000	-25.28297000	-29.53986000
28.69999847	0.00000000	-44.91880000	-19.50664000
28.89999846	0.00000000	-66.92913000	-7.24040300
29.09999845	0.00000000	-86.33120000	3.58636800
29.29999844	0.00000000	-99.53863000	10.96826000
29.49999843	0.00000000	-104.23840000	13.57037000
29.69999841	0.00000000	-100.00610000	9.99630800
29.89999840	0.00000000	-88.04749000	-0.08612204
30.09999839	0.00000000	-71.06299000	-14.76378000
30.29999838	0.00000000	-53.29109000	-30.93627000
30.49999837	0.00000000	-38.53961000	-44.77731000
30.69999835	0.00000000	-29.60753000	-52.49754000
30.89999834	0.00000000	-27.97736000	-52.49754000
31.09999833	0.00000000	-33.32923000	-44.73425000
31.29999832	0.00000000	-43.75615000	-30.42569000
31.49999831	0.00000000	-56.92052000	-12.67840000
31.69999829	0.00000000	-70.09104000	4.74286400
31.89999828	0.00000000	-80.56102000	18.22096000
32.09999827	0.00000000	-86.41732000	24.76624000
32.29999826	0.00000000	-86.83562000	22.44709000
32.49999825	0.00000000	-82.22810000	12.08784000
32.69999824	0.00000000	-73.71432000	-3.80167300
32.89999822	0.00000000	-63.24434000	-21.96727000
33.09999821	0.00000000	-52.82357000	-38.97022000
33.29999820	0.00000000	-44.72810000	-50.95964000
33.49999819	0.00000000	-41.24015000	-55.61023000
33.69999818	0.00000000	-42.68578000	-52.12229000
33.89999816	0.00000000	-48.08071000	-40.92643000
34.09999815	0.00000000	-55.80708000	-24.75394000
34.29999814	0.00000000	-64.31471000	-7.37573800
34.49999813	0.00000000	-71.57972000	7.35113100
34.69999812	0.00000000	-75.48597000	16.64001000
34.89999810	0.00000000	-75.20915000	18.95915000
35.09999809	0.00000000	-72.13951000	13.57037000
35.29999808	0.00000000	-67.06447000	2.00541300
35.49999807	0.00000000	-60.54995000	-13.04749000
35.69999806	0.00000000	-54.82283000	-28.42643000
35.89999805	0.00000000	-51.70398000	-39.99754000
36.09999803	0.00000000	-51.66092000	-45.06028000
36.29999802	0.00000000	-54.35531000	-43.20251000
36.49999801	0.00000000	-58.96899000	-35.11934000
36.69999800	0.00000000	-64.31471000	-23.22219000
36.89999799	0.00000000	-68.55315000	-10.49459000
37.09999797	0.00000000	-70.50935000	-0.12918310
37.29999796	0.00000000	-70.18331000	5.30265700
37.49999795	0.00000000	-67.81496000	4.56446800
37.69999794	0.00000000	-63.94562000	-1.52559000
37.89999793	0.00000000	-58.96899000	-11.14050000
38.09999791	0.00000000	-54.73056000	-21.45669000
38.29999790	0.00000000	-52.40526000	-29.49680000
38.49999789	0.00000000	-51.99311000	-32.60949000
38.69999788	0.00000000	-53.93700000	-30.33341000
38.89999787	0.00000000	-57.38804000	-23.82505000
39.09999786	0.00000000	-61.66338000	-14.62844000
39.29999784	0.00000000	-65.89567000	-5.84399600
39.49999783	0.00000000	-69.02066000	-0.12918310
39.69999782	0.00000000	-70.60162000	0.65821850
39.89999781	0.00000000	-70.60162000	-3.93700800
40.09999780	0.00000000	-69.02066000	-11.97711000
40.29999778	0.00000000	-65.89567000	-21.59203000
40.49999777	0.00000000	-61.66338000	-30.00123000
40.69999776	0.00000000	-57.43110000	-34.60876000
40.89999775	0.00000000	-54.31225000	-34.23351000
41.09999774	0.00000000	-52.73130000	-28.80167000
41.29999772	0.00000000	-52.73130000	-19.64198000
41.49999771	0.00000000	-54.26919000	-9.28887700
41.69999770	0.00000000	-57.01279000	-1.19955700
41.89999769	0.00000000	-60.45767000	3.07578700
42.09999768	0.00000000	-63.98867000	2.65748000
42.29999767	0.00000000	-66.69537000	-2.68208600
42.49999765	0.00000000	-68.64542000	-11.09744000
42.69999764	0.00000000	-69.02066000	-19.97416000
42.89999763	0.00000000	-67.90108000	-27.31299000
43.09999762	0.00000000	-65.98794000	-31.53912000
43.29999761	0.00000000	-63.61958000	-31.58218000
43.49999759	0.00000000	-61.33120000	-27.77436000
43.69999758	0.00000000	-59.38730000	-21.64124000
43.89999757	0.00000000	-58.54454000	-14.72072000
44.09999756	0.00000000	-58.12622000	-8.95669300
44.29999755	0.00000000	-57.75713000	-5.80093500
44.49999753	0.00000000	-58.08316000	-5.37647600
44.69999752	0.00000000	-58.08316000	-7.24040300
44.89999751	0.00000000	-57.75713000	-10.72219000
45.09999750	0.00000000	-58.16929000	-14.58538000
45.29999749	0.00000000	-58.91978000	-18.43627000
45.49999748	0.00000000	-60.17470000	-21.13066000
45.69999746	0.00000000	-62.17396000	-21.96727000
45.89999745	0.00000000	-65.24360000	-21.59203000
46.09999744	0.00000000	-68.68848000	-20.06029000
46.29999743	0.00000000	-70.97687000	-17.78420000
46.49999742	0.00000000	-71.76427000	-15.78494000
46.69999740	0.00000000	-70.50935000	-13.83489000
46.89999739	0.00000000	-67.01525000	-11.97711000
47.09999738	0.00000000	-61.52805000	-11.55881000
47.29999737	0.00000000	-55.00738000	-12.29700000
47.49999736	0.00000000	-48.87426000	-13.50886000
47.69999734	0.00000000	-45.42937000	-15.83415000
47.89999733	0.00000000	-45.42937000	-18.47933000
48.09999732	0.00000000	-48.96653000	-20.43553000
48.29999731	0.00000000	-55.93627000	-21.59203000
48.49999730	0.00000000	-64.78223000	-21.54897000
48.69999729	0.00000000	-73.25295000	-20.06029000
48.89999727	0.00000000	-79.06618000	-17.69808000
49.09999726	0.00000000	-80.97932000	-14.99139000
49.29999725	0.00000000	-78.60482000	-11.88484000
49.49999724	0.00000000	-71.67200000	-9.65182000
49.69999723	0.00000000	-62.03863000	-8.86441900
49.89999721	0.00000000	-52.40526000	-10.02707000
50.09999720	0.00000000	-44.68504000	-12.72146000
50.29999719	0.00000000	-41.24015000	-16.20325000
50.49999718	0.00000000	-42.72884000	-20.06029000
50.69999717	0.00000000	-48.54207000	-23.12992000
50.89999715	0.00000000	-57.38804000	-24.71087000
51.09999714	0.00000000	-67.01525000	-24.66781000
51.29999713	0.00000000	-74.69857000	-22.66855000
51.49999712	0.00000000	-78.55560000	-18.47933000
51.69999711	0.00000000	-77.44217000	-13.51501000
51.89999710	0.00000000	-72.09030000	-9.65182000
52.09999708	0.00000000	-64.40699000	-7.28346400
52.29999707	0.00000000	-56.31151000	-6.90821800
52.49999706	0.00000000	-50.17224000	-8.44611200
52.69999705	0.00000000	-47.42864000	-11.55881000
52.89999704	0.00000000	-48.59129000	-15.78494000
53.09999702	0.00000000	-53.14960000	-19.97416000
53.29999701	0.00000000	-59.70718000	-22.71161000
53.49999700	0.00000000	-66.22785000	-23.50517000
53.69999699	0.00000000	-71.25368000	-22.71161000
53.89999698	0.00000000	-73.11761000	-20.01722000
54.09999696	0.00000000	-71.29675000	-16.25246000
54.29999695	0.00000000	-66.69537000	-13.18282000
54.49999694	0.00000000	-61.33120000	-11.60187000
54.69999693	0.00000000	-56.26845000	-11.55881000
54.89999692	0.00000000	-52.82357000	-12.72146000
55.09999691	0.00000000	-51.66092000	-14.62844000
55.29999689	0.00000000	-53.19881000	-16.85531000
55.49999688	0.00000000	-57.05585000	-18.01796000
55.69999687	0.00000000	-61.99557000	-17.64887000
55.89999686	0.00000000	-66.59695000	-16.52928000
56.09999685	0.00000000	-68.92839000	-14.58538000
56.29999683	0.00000000	-68.97761000	-12.76452000
56.49999682	0.00000000	-67.01525000	-11.97711000
56.69999681	0.00000000	-63.20127000	-12.76452000
56.89999680	0.00000000	-59.01205000	-14.72072000
57.09999679	0.00000000	-55.89320000	-17.78420000
57.29999677	0.00000000	-54.31225000	-21.22293000
57.49999676	0.00000000	-54.31225000	-23.50517000
57.69999675	0.00000000	-55.85014000	-24.24335000
57.89999674	0.00000000	-58.59375000	-22.61934000
58.09999673	0.00000000	-61.94635000	-18.43627000
58.29999672	0.00000000	-64.68381000	-13.04749000
58.49999670	0.00000000	-65.44045000	-8.02780400
58.69999669	0.00000000	-65.14517000	-4.21998000
58.89999668	0.00000000	-63.57652000	-3.14960600
59.09999667	0.00000000	-61.70644000	-5.84399600
59.29999666	0.00000000	-60.12549000	-11.55881000
59.49999664	0.00000000	-58.96899000	-18.52854000
59.69999663	0.00000000	-58.59375000	-25.03691000
59.89999662	0.00000000	-58.96899000	-29.67520000
60.09999661	0.00000000	-60.08243000	-30.80093000
60.29999660	0.00000000	-61.24508000	-28.51870000
60.49999658	0.00000000	-62.03863000	-23.03765000
60.69999657	0.00000000	-62.77681000	-15.36663000
60.89999656	0.00000000	-62.73376000	-7.33267600
61.09999655	0.00000000	-61.62032000	-1.56865100
61.29999654	0.00000000	-60.12549000	0.38139760
61.49999653	0.00000000	-58.96899000	-1.52559000
61.69999651	0.00000000	-58.59375000	-6.95743000
61.89999650	0.00000000	-58.91978000	-14.62844000
62.09999649	0.00000000	-59.75024000	-22.75467000
62.29999648	0.00000000	-60.91904000	-29.31225000
62.49999647	0.00000000	-62.86909000	-33.12008000
62.69999645	0.00000000	-64.68996000	-32.70177000
62.89999644	0.00000000	-65.47736000	-27.78051000
63.09999643	0.00000000	-64.73302000	-20.47859000
63.29999642	0.00000000	-63.20127000	-12.72146000
63.49999641	0.00000000	-61.24508000	-5.75172200
63.69999639	0.00000000	-58.91978000	-1.15034400
63.89999638	0.00000000	-57.01279000	0.00615157
64.09999637	0.00000000	-55.85014000	-2.63902500
64.29999636	0.00000000	-55.85014000	-8.02780400
64.49999635	0.00000000	-57.05585000	-14.58538000
64.69999634	0.00000000	-59.33809000	-21.17372000
64.89999632	0.00000000	-62.40772000	-26.19955000
65.09999631	0.00000000	-64.68996000	-28.93701000
65.29999630	0.00000000	-65.89567000	-28.93701000
65.49999629	0.00000000	-65.85260000	-26.28568000
65.69999628	0.00000000	-64.31471000	-22.01033000
65.89999626	0.00000000	-61.70644000	-16.99065000
66.09999625	0.00000000	-59.38730000	-11.97711000
66.29999624	0.00000000	-58.21850000	-8.48917200
66.49999623	0.00000000	-57.80634000	-6.82209600
66.69999622	0.00000000	-58.54454000	-6.40378900
66.89999620	0.00000000	-59.75024000	-6.86515700
67.09999619	0.00000000	-61.29429000	-8.82135800
67.29999618	0.00000000	-63.52116000	-12.25394000
67.49999617	0.00000000	-64.22859000	-15.74188000
67.69999616	0.00000000	-63.15207000	-18.94685000
67.89999615	0.00000000	-61.24508000	-22.01649000
68.09999613	0.00000000	-58.91978000	-24.33563000
68.29999612	0.00000000	-57.01279000	-25.12918000
68.49999611	0.00000000	-55.89320000	-24.75394000
68.69999610	0.00000000	-56.31151000	-23.12992000
68.89999609	0.00000000	-58.59375000	-20.01722000
69.09999607	0.00000000	-61.70644000	-15.78494000
69.29999606	0.00000000	-65.15748000	-11.51575000
69.49999605	0.00000000	-68.22096000	-8.02780400
69.69999604	0.00000000	-69.34670000	-5.70866100
69.89999603	0.00000000	-68.59621000	-5.33341500
70.09999601	0.00000000	-65.85260000	-6.91437000
70.29999600	0.00000000	-61.62032000	-10.40231000
70.49999599	0.00000000	-56.96358000	-15.41585000
70.69999598	0.00000000	-52.73130000	-20.43553000
70.89999597	0.00000000	-50.07997000	-24.71087000
71.09999596	0.00000000	-50.07997000	-27.35605000
71.29999594	0.00000000	-52.77436000	-27.35605000
71.49999593	0.00000000	-57.38804000	-24.71087000
71.69999592	0.00000000	-62.82603000	-20.47859000
71.89999591	0.00000000	-67.85802000	-15.83415000
72.09999590	0.00000000	-71.71505000	-11.55881000
72.29999588	0.00000000	-73.20988000	-8.48917200
72.49999587	0.00000000	-71.71505000	-7.33267600
72.69999586	0.00000000	-67.85802000	-8.44611200
72.89999585	0.00000000	-62.82603000	-11.09744000
73.09999584	0.00000000	-57.38804000	-14.21014000
73.29999582	0.00000000	-52.77436000	-17.27977000
73.49999581	0.00000000	-50.07997000	-19.55585000
73.69999580	0.00000000	-50.07997000	-19.97416000
73.89999579	0.00000000	-52.73130000	-18.90379000
74.09999578	0.00000000	-56.96358000	-17.36589000
74.29999577	0.00000000	-61.62032000	-15.87721000
74.49999575	0.00000000	-65.85260000	-15.08981000
74.69999574	0.00000000	-68.55315000	-15.50197000
74.89999573	0.00000000	-68.97145000	-16.57849000
75.09999572	0.00000000	-67.48277000	-18.15330000
75.29999571	0.00000000	-64.78223000	-19.22982000
75.49999569	0.00000000	-61.70644000	-19.59892000
75.69999568	0.00000000	-58.96899000	-18.39321000
75.89999567	0.00000000	-57.05585000	-15.74188000
76.09999566	0.00000000	-56.26845000	-12.67224000
76.29999565	0.00000000	-56.96358000	-9.93479300
76.49999563	0.00000000	-58.08316000	-8.07086500
76.69999562	0.00000000	-58.91978000	-7.75098400
76.89999561	0.00000000	-60.08243000	-10.07013000
77.09999560	0.00000000	-61.19586000	-14.25320000
77.29999559	0.00000000	-61.57111000	-18.90379000
77.49999558	0.00000000	-61.24508000	-23.17298000
77.69999556	0.00000000	-60.54995000	-26.24262000
77.89999555	0.00000000	-60.54995000	-27.35605000
78.09999554	0.00000000	-61.28814000	-25.77510000
78.29999553	0.00000000	-62.03863000	-21.54897000
78.49999552	0.00000000	-62.82603000	-15.83415000
78.69999550	0.00000000	-63.20127000	-10.40231000
78.89999549	0.00000000	-63.20127000	-6.44685000
79.09999548	0.00000000	-62.73376000	-3.79552100
79.29999547	0.00000000	-61.19586000	-3.47564000
79.49999546	0.00000000	-58.91978000	-6.48991100
79.69999544	0.00000000	-57.01279000	-11.09129000
79.89999543	0.00000000	-55.85014000	-16.20325000
80.09999542	0.00000000	-55.85014000	-21.59203000
80.29999541	0.00000000	-57.01279000	-25.77510000
80.49999540	0.00000000	-58.96899000	-27.39911000
80.69999539	0.00000000	-61.66338000	-26.66092000
80.89999537	0.00000000	-64.31471000	-24.33563000
81.09999536	0.00000000	-65.89567000	-20.43553000
81.29999535	0.00000000	-66.27091000	-15.83415000
81.49999534	0.00000000	-65.47736000	-11.55881000
81.69999533	0.00000000	-63.20127000	-8.44611200
81.89999531	0.00000000	-60.50073000	-6.82209600
82.09999530	0.00000000	-58.16929000	-6.44685000
82.29999529	0.00000000	-56.26845000	-7.24040300
82.49999528	0.00000000	-55.89320000	-9.55954600
82.69999527	0.00000000	-56.96358000	-12.67224000
82.89999525	0.00000000	-58.50147000	-16.20325000
83.09999524	0.00000000	-60.08243000	-20.06029000
83.29999523	0.00000000	-61.62032000	-23.12992000
83.49999522	0.00000000	-62.77681000	-24.71087000
83.69999521	0.00000000	-63.20127000	-24.75394000
83.89999520	0.00000000	-63.20127000	-23.54823000
84.09999518	0.00000000	-62.82603000	-21.17372000
84.29999517	0.00000000	-62.08169000	-17.27362000
84.49999516	0.00000000	-61.66338000	-12.67224000
84.69999515	0.00000000	-61.24508000	-8.44611200
84.89999514	0.00000000	-60.50073000	-5.75172200
85.09999512	0.00000000	-60.12549000	-5.33341500
85.29999511	0.00000000	-60.03937000	-6.86515700
85.49999510	0.00000000	-59.66412000	-10.02707000
85.69999509	0.00000000	-58.91978000	-14.67766000
85.89999508	0.00000000	-58.54454000	-20.01722000
86.09999506	0.00000000	-58.50147000	-24.24335000
86.29999505	0.00000000	-58.54454000	-26.24262000
86.49999504	0.00000000	-58.96899000	-26.24262000
86.69999503	0.00000000	-60.12549000	-24.29257000
86.89999502	0.00000000	-61.66338000	-20.39247000
87.09999501	0.00000000	-63.20127000	-15.41585000
87.29999499	0.00000000	-64.31471000	-10.40231000
87.49999498	0.00000000	-64.31471000	-6.95743000
87.69999497	0.00000000	-63.20127000	-5.75172200
87.89999496	0.00000000	-61.62032000	-6.91437000
88.09999495	0.00000000	-59.70718000	-10.02707000
88.29999493	0.00000000	-57.80634000	-14.62844000
88.49999492	0.00000000	-57.01279000	-19.64198000
88.69999491	0.00000000	-56.96358000	-23.46210000
88.89999490	0.00000000	-57.38804000	-25.40600000
89.09999489	0.00000000	-58.59375000	-24.61860000
89.29999487	0.00000000	-60.45767000	-21.54897000
89.49999486	0.00000000	-62.35851000	-16.94759000
89.69999485	0.00000000	-63.15207000	-11.93405000
89.89999484	0.00000000	-63.24434000	-8.11392700
90.09999483	0.00000000	-63.20127000	-6.17002900
90.29999482	0.00000000	-62.73376000	-6.95743000
90.49999480	0.00000000	-61.24508000	-10.02707000
90.69999479	0.00000000	-59.38730000	-14.62844000
90.89999478	0.00000000	-58.59375000	-19.59892000
91.09999477	0.00000000	-58.50147000	-23.04380000
91.29999476	0.00000000	-58.54454000	-24.24335000
91.49999474	0.00000000	-58.91978000	-23.08686000
91.69999473	0.00000000	-59.66412000	-19.97416000
91.89999472	0.00000000	-60.03937000	-15.41585000
92.09999471	0.00000000	-60.08243000	-10.82062000
92.29999470	0.00000000	-60.08243000	-8.11392700
92.49999468	0.00000000	-60.12549000	-7.28346400
92.69999467	0.00000000	-60.50073000	-8.53223400
92.89999466	0.00000000	-61.24508000	-11.97711000
93.09999465	0.00000000	-61.66338000	-16.89837000
93.29999464	0.00000000	-62.08169000	-21.13066000
93.49999463	0.00000000	-62.82603000	-23.45595000
93.69999461	0.00000000	-63.15207000	-23.86811000
93.89999460	0.00000000	-62.77681000	-21.88115000
94.09999459	0.00000000	-61.57111000	-18.11024000
94.29999458	0.00000000	-59.66412000	-13.46580000
94.49999457	0.00000000	-57.38804000	-9.69488100
94.69999455	0.00000000	-55.85014000	-7.75098400
94.89999454	0.00000000	-55.43184000	-8.48917200
95.09999453	0.00000000	-55.85014000	-11.14050000
95.29999452	0.00000000	-57.43110000	-14.62844000
95.49999451	0.00000000	-60.08243000	-18.47933000
95.69999449	0.00000000	-62.82603000	-21.50590000
95.89999448	0.00000000	-65.15748000	-22.66240000
96.09999447	0.00000000	-67.06447000	-21.54897000
96.29999446	0.00000000	-67.39050000	-18.89764000
96.49999445	0.00000000	-65.89567000	-15.78494000
96.69999444	0.00000000	-63.20127000	-12.72146000
96.89999442	0.00000000	-60.08243000	-10.44537000
97.09999441	0.00000000	-56.92052000	-10.07013000
97.29999440	0.00000000	-53.89394000	-11.51575000
97.49999439	0.00000000	-51.99311000	-13.83489000
97.69999438	0.00000000	-52.35605000	-16.16018000
97.89999436	0.00000000	-54.26919000	-18.47933000
98.09999435	0.00000000	-57.38804000	-19.97416000
98.29999434	0.00000000	-61.24508000	-20.01722000
98.49999433	0.00000000	-64.73917000	-18.90379000
98.69999432	0.00000000	-67.48277000	-17.40895000
98.89999430	0.00000000	-68.92839000	-16.20325000
99.09999429	0.00000000	-68.22096000	-15.40969000
99.29999428	0.00000000	-65.53272000	-14.62844000
99.49999427	0.00000000	-62.45079000	-14.25320000
99.69999426	0.00000000	-58.87672000	-14.21014000
99.89999425	0.00000000	-55.47490000	-14.21014000
100.09999423	0.00000000	-53.14960000	-14.21014000
100.29999422	0.00000000	-52.73130000	-14.21014000
100.49999421	0.00000000	-53.85088000	-14.21014000
100.69999420	0.00000000	-55.80708000	-14.21014000
100.89999419	0.00000000	-58.54454000	-14.25320000
101.09999417	0.00000000	-61.62032000	-14.67150000
101.29999416	0.00000000	-64.31471000	-15.83415000
101.49999415	0.00000000	-65.89567000	-17.32283000
101.69999414	0.00000000	-66.31397000	-18.47933000
101.89999413	0.00000000	-65.89567000	-18.90379000
102.09999411	0.00000000	-64.31471000	-18.85458000
102.29999410	0.00000000	-61.66338000	-18.01796000
102.49999409	0.00000000	-58.96899000	-15.74188000
102.69999408	0.00000000	-57.01279000	-13.09055000
102.89999407	0.00000000	-55.80708000	-11.14050000
103.09999406	0.00000000	-55.43184000	-9.98400600
103.29999404	0.00000000	-55.80708000	-10.02707000
103.49999403	0.00000000	-57.01279000	-11.51575000
103.69999402	0.00000000	-58.91978000	-13.83489000
103.89999401	0.00000000	-61.19586000	-16.16018000
104.09999400	0.00000000	-62.77681000	-18.52854000
104.29999398	0.00000000	-63.57652000	-20.39247000
104.49999397	0.00000000	-63.93946000	-21.13066000
104.69999396	0.00000000	-63.15207000	-19.97416000
104.89999395	0.00000000	-61.66338000	-17.36589000
105.09999394	0.00000000	-60.12549000	-14.67150000
105.29999392	0.00000000	-58.91978000	-12.72146000
105.49999391	0.00000000	-58.16929000	-11.51575000
105.69999390	0.00000000	-57.75713000	-11.18356000
105.89999389	0.00000000	-58.16929000	-11.93405000
106.09999388	0.00000000	-58.91978000	-13.87795000
106.29999387	0.00000000	-60.08243000	-16.11712000
106.49999385	0.00000000	-61.19586000	-18.06102000
106.69999384	0.00000000	-61.62032000	-18.85458000
106.89999383	0.00000000	-61.62032000	-18.85458000
107.09999382	0.00000000	-61.19586000	-18.06102000
107.29999381	0.00000000	-60.08243000	-16.16018000
107.49999379	0.00000000	-58.96899000	-14.29626000
107.69999378	0.00000000	-58.54454000	-13.13976000
107.89999377	0.00000000	-58.54454000	-13.13976000
108.09999376	0.00000000	-58.96899000	-14.21014000
108.29999375	0.00000000	-60.08243000	-15.36663000
108.49999374	0.00000000	-61.19586000	-16.20325000
108.69999372	0.00000000	-61.66338000	-17.36589000
108.89999371	0.00000000	-62.03863000	-18.47933000
109.09999370	0.00000000	-62.35851000	-18.85458000
109.29999369	0.00000000	-61.57111000	-18.43627000
109.49999368	0.00000000	-60.12549000	-16.90453000
109.69999366	0.00000000	-58.91978000	-14.62844000
109.89999365	0.00000000	-58.12622000	-12.72146000
110.09999364	0.00000000	-57.38804000	-11.55881000
110.29999363	0.00000000	-57.38804000	-11.55881000
110.49999362	0.00000000	-58.16929000	-12.72146000
110.69999360	0.00000000	-59.29502000	-14.58538000
110.89999359	0.00000000	-60.86983000	-16.52928000
111.09999358	0.00000000	-61.94635000	-17.69808000
111.29999357	0.00000000	-62.40772000	-18.52854000
111.49999356	0.00000000	-61.99557000	-18.85458000
111.69999355	0.00000000	-61.28814000	-18.47933000
111.89999353	0.00000000	-60.45767000	-17.32283000
112.09999352	0.00000000	-59.70718000	-15.83415000
112.29999351	0.00000000	-58.91978000	-14.67150000
112.49999350	0.00000000	-58.54454000	-14.25320000
112.69999349	0.00000000	-58.50147000	-14.21014000
112.89999347	0.00000000	-58.54454000	-14.21014000
113.09999346	0.00000000	-58.91978000	-14.25320000
113.29999345	0.00000000	-59.66412000	-14.62844000
113.49999344	0.00000000	-60.03937000	-15.36663000
113.69999343	0.00000000	-60.08243000	-15.74188000
113.89999341	0.00000000	-60.08243000	-15.78494000
114.09999340	0.00000000	-60.08243000	-15.78494000
114.29999339	0.00000000	-60.08243000	-15.78494000
114.49999338	0.00000000	-60.08243000	-15.78494000
114.69999337	0.00000000	-60.03937000	-15.78494000
114.89999336	0.00000000	-59.70718000	-15.82800000
115.09999334	0.00000000	-59.29502000	-16.16018000
115.29999333	0.00000000	-59.33194000	-16.52928000
115.49999332	0.00000000	-59.29502000	-16.16018000
115.69999331	0.00000000	-59.70718000	-15.78494000
115.89999330	0.00000000	-60.03937000	-15.36663000
116.09999328	0.00000000	-60.08243000	-14.62844000
116.29999327	0.00000000	-60.12549000	-14.25320000
116.49999326	0.00000000	-60.50073000	-14.21014000
116.69999325	0.00000000	-61.19586000	-14.21014000
116.89999324	0.00000000	-61.19586000	-14.21014000
117.09999322	0.00000000	-60.50073000	-14.25320000
117.29999321	0.00000000	-60.08243000	-14.67150000
117.49999320	0.00000000	-59.66412000	-15.78494000
117.69999319	0.00000000	-58.91978000	-16.89837000
117.89999318	0.00000000	-58.54454000	-17.32283000
118.09999317	0.00000000	-58.50147000	-17.36589000
118.29999315	0.00000000	-58.54454000	-17.32283000
118.49999314	0.00000000	-58.96899000	-16.94759000
118.69999313	0.00000000	-60.08243000	-16.20325000
118.89999312	0.00000000	-61.24508000	-15.78494000
119.09999311	0.00000000	-61.99557000	-15.36663000
119.29999309	0.00000000	-62.40772000	-14.62844000
119.49999308	0.00000000	-62.03863000	-14.25320000
119.69999307	0.00000000	-61.66338000	-14.21014000
119.89999306	0.00000000	-61.19586000	-14.21014000
120.09999305	0.00000000	-60.03937000	-14.25320000
120.29999303	0.00000000	-58.54454000	-14.62844000
120.49999302	0.00000000	-57.38804000	-15.36663000
120.69999301	0.00000000	-56.96358000	-15.78494000
120.89999300	0.00000000	-56.96358000	-16.20325000
121.09999299	0.00000000	-57.38804000	-16.94759000
121.29999298	0.00000000	-58.54454000	-17.32283000
121.49999296	0.00000000	-60.03937000	-17.36589000
121.69999295	0.00000000	-61.24508000	-17.32283000
121.89999294	0.00000000	-61.99557000	-16.94759000
122.09999293	0.00000000	-62.45079000	-16.16018000
122.29999292	0.00000000	-62.41388000	-15.40969000
122.49999290	0.00000000	-62.40772000	-14.62844000
122.69999289	0.00000000	-61.57111000	-14.25320000
122.89999288	0.00000000	-60.12549000	-14.21014000
123.09999287	0.00000000	-58.96899000	-14.21014000
123.29999286	0.00000000	-58.50147000	-14.21014000
123.49999284	0.00000000	-58.12622000	-14.25320000
123.69999283	0.00000000	-57.75713000	-14.62844000
123.89999282	0.00000000	-58.12622000	-15.36663000
124.09999281	0.00000000	-58.50147000	-15.78494000
124.29999280	0.00000000	-58.91978000	-16.20325000
124.49999279	0.00000000	-59.66412000	-16.89837000
124.69999277	0.00000000	-60.08243000	-16.94759000
124.89999276	0.00000000	-60.50073000	-16.53543000
125.09999275	0.00000000	-61.24508000	-16.15404000
125.29999274	0.00000000	-61.62032000	-15.00369000
125.49999273	0.00000000	-61.62032000	-14.30241000
125.69999271	0.00000000	-61.24508000	-14.21014000
125.89999270	0.00000000	-60.45767000	-14.21014000
126.09999269	0.00000000	-59.66412000	-14.21014000
126.29999268	0.00000000	-58.50147000	-14.21014000
126.49999267	0.00000000	-57.38804000	-14.25320000
126.69999265	0.00000000	-57.01279000	-14.62844000
126.89999264	0.00000000	-57.33883000	-15.36663000
127.09999263	0.00000000	-58.12622000	-15.74188000
127.29999262	0.00000000	-58.91978000	-15.78494000
127.49999261	0.00000000	-60.08243000	-15.78494000
127.69999260	0.00000000	-61.19586000	-15.78494000
127.89999258	0.00000000	-61.62032000	-15.78494000
128.09999257	0.00000000	-61.62032000	-15.74188000
128.29999256	0.00000000	-61.24508000	-15.36663000
128.49999255	0.00000000	-60.45767000	-14.62844000
128.69999254	0.00000000	-59.66412000	-14.25320000
128.89999252	0.00000000	-58.50147000	-14.25320000
129.09999251	0.00000000	-57.43110000	-14.62844000
129.29999250	0.00000000	-57.38804000	-15.36663000
129.49999249	0.00000000	-58.12622000	-15.74188000
129.69999248	0.00000000	-58.87672000	-15.78494000
129.89999246	0.00000000	-59.70718000	-15.78494000
130.09999245	0.00000000	-60.45767000	-15.78494000
130.29999244	0.00000000	-61.24508000	-15.78494000
130.49999243	0.00000000	-61.62032000	-15.74188000
130.69999242	0.00000000	-61.57111000	-15.36663000
130.89999241	0.00000000	-60.77756000	-14.62844000
131.09999239	0.00000000	-58.96899000	-14.25320000
131.29999238	0.00000000	-57.80634000	-14.21014000
131.49999237	0.00000000	-57.75098000	-14.25320000
131.69999236	0.00000000	-57.71407000	-14.62844000
131.89999235	0.00000000	-58.16929000	-15.40969000
132.09999233	0.00000000	-58.87672000	-16.16018000
132.29999232	0.00000000	-59.66412000	-16.94759000
132.49999231	0.00000000	-60.03937000	-17.27362000
132.69999230	0.00000000	-60.08243000	-16.94759000
132.89999229	0.00000000	-60.08243000	-16.16018000
133.09999227	0.00000000	-60.08243000	-15.40969000
133.29999226	0.00000000	-60.08243000	-14.58538000
133.49999225	0.00000000	-60.08243000	-13.87795000
133.69999224	0.00000000	-60.08243000	-13.46580000
133.89999223	0.00000000	-60.08243000	-13.83489000
134.09999222	0.00000000	-60.08243000	-14.21014000
134.29999220	0.00000000	-60.08243000	-14.67150000
134.49999219	0.00000000	-60.08243000	-15.78494000
134.69999218	0.00000000	-60.03937000	-16.89837000
134.89999217	0.00000000	-59.66412000	-17.32283000
135.09999216	0.00000000	-58.91978000	-17.36589000
135.29999214	0.00000000	-58.54454000	-17.32283000
135.49999213	0.00000000	-58.50147000	-16.94759000
135.69999212	0.00000000	-58.54454000	-16.16018000
135.89999211	0.00000000	-58.91978000	-15.40969000
136.09999210	0.00000000	-59.66412000	-14.62844000
136.29999208	0.00000000	-60.08243000	-14.25320000
136.49999207	0.00000000	-60.50073000	-14.21014000
136.69999206	0.00000000	-61.24508000	-14.21014000
136.89999205	0.00000000	-61.57111000	-14.25320000
137.09999204	0.00000000	-61.19586000	-14.62844000
137.29999203	0.00000000	-60.08243000	-15.36663000
137.49999201	0.00000000	-58.91978000	-15.78494000
137.69999200	0.00000000	-58.16929000	-16.20325000
137.89999199	0.00000000	-57.75713000	-16.94759000
138.09999198	0.00000000	-58.12622000	-17.32283000
138.29999197	0.00000000	-58.50147000	-17.32283000
138.49999195	0.00000000	-58.91978000	-16.94759000
138.69999194	0.00000000	-59.66412000	-16.16018000
138.89999193	0.00000000	-60.08243000	-15.40969000
139.09999192	0.00000000	-60.45767000	-14.62844000
139.29999191	0.00000000	-60.82677000	-14.25320000
139.49999189	0.00000000	-60.45767000	-14.21014000
139.69999188	0.00000000	-60.08243000	-14.16708000
139.89999187	0.00000000	-59.66412000	-13.83489000
140.09999186	0.00000000	-58.91978000	-13.51501000
140.29999185	0.00000000	-58.54454000	-14.25320000
140.49999184	0.00000000	-58.50147000	-15.36663000
140.69999182	0.00000000	-58.54454000	-16.16018000
140.89999181	0.00000000	-58.91978000	-16.94759000
141.09999180	0.00000000	-59.66412000	-17.32283000
141.29999179	0.00000000	-60.03937000	-17.32283000
141.49999178	0.00000000	-60.08243000	-16.89837000
141.69999176	0.00000000	-60.08243000	-15.78494000
141.89999175	0.00000000	-60.03937000	-14.62844000
142.09999174	0.00000000	-59.66412000	-13.83489000
142.29999173	0.00000000	-58.91978000	-13.04749000
142.49999172	0.00000000	-58.54454000	-12.72146000
142.69999170	0.00000000	-58.50147000	-13.04749000
142.89999169	0.00000000	-58.50147000	-13.83489000
143.09999168	0.00000000	-58.54454000	-14.62844000
143.29999167	0.00000000	-58.91978000	-15.78494000
143.49999166	0.00000000	-59.66412000	-16.89837000
143.69999165	0.00000000	-60.03937000	-17.32283000
143.89999163	0.00000000	-60.08243000	-17.32283000
144.09999162	0.00000000	-60.03937000	-16.94759000
144.29999161	0.00000000	-59.66412000	-16.16018000
144.49999160	0.00000000	-58.91978000	-15.40969000
144.69999159	0.00000000	-58.54454000	-14.62844000
144.89999157	0.00000000	-58.50147000	-14.25320000
145.09999156	0.00000000	-58.54454000	-14.21014000
145.29999155	0.00000000	-58.91978000	-14.21014000
145.49999154	0.00000000	-59.66412000	-14.25320000
145.69999153	0.00000000	-60.03937000	-14.62844000
145.89999151	0.00000000	-60.08243000	-15.36663000
146.09999150	0.00000000	-60.08243000	-15.74188000
146.29999149	0.00000000	-60.03937000	-15.78494000
146.49999148	0.00000000	-59.66412000	-15.78494000
146.69999147	0.00000000	-58.91978000	-15.78494000
146.89999146	0.00000000	-58.54454000	-15.78494000
147.09999144	0.00000000	-58.50147000	-15.74188000
147.29999143	0.00000000	-58.50147000	-15.40969000
147.49999142	0.00000000	-58.50147000	-15.04675000
147.69999141	0.00000000	-58.54454000	-15.36663000
147.89999140	0.00000000	-58.91978000	-15.32357000
148.09999138	0.00000000	-59.66412000	-14.62844000
148.29999137	0.00000000	-60.03937000	-14.30241000
148.49999136	0.00000000	-60.08243000	-14.62844000
148.69999135	0.00000000	-60.08243000	-15.36663000
148.89999134	0.00000000	-60.08243000	-15.74188000
149.09999132	0.00000000	-60.03937000	-15.78494000
149.29999131	0.00000000	-59.66412000	-15.78494000
149.49999130	0.00000000	-58.91978000	-15.78494000
149.69999129	0.00000000	-58.54454000	-15.78494000
149.89999128	0.00000000	-58.50147000	-15.78494000
150.09999127	0.00000000	-58.50147000	-15.74188000
150.29999125	0.00000000	-58.50147000	-15.36663000
150.49999124	0.00000000	-58.54454000	-14.62844000
150.69999123	0.00000000	-58.91978000	-14.25320000
150.89999122	0.00000000	-59.66412000	-14.21014000
151.09999121	0.00000000	-60.03937000	-14.21014000
151.29999119	0.00000000	-60.08243000	-14.25320000
151.49999118	0.00000000	-60.08243000	-14.62844000
151.69999117	0.00000000	-60.08243000	-15.36663000
151.89999116	0.00000000	-60.03937000	-15.74188000
152.09999115	0.00000000	-59.66412000	-15.74188000
152.29999113	0.00000000	-58.91978000	-15.40969000
152.49999112	0.00000000	-58.54454000	-15.00369000
152.69999111	0.00000000	-58.50147000	-15.04060000
152.89999110	0.00000000	-58.50147000	-14.95448000
153.09999109	0.00000000	-58.50147000	-14.99139000
153.29999108	0.00000000	-58.50147000	-14.58538000
153.49999106	0.00000000	-58.54454000	-14.25320000
153.69999105	0.00000000	-58.91978000	-14.21014000
153.89999104	0.00000000	-59.61491000	-14.21014000
154.09999103	0.00000000	-59.66412000	-14.21014000
154.29999102	0.00000000	-59.33809000	-14.21014000
154.49999100	0.00000000	-59.70718000	-14.21014000
154.69999099	0.00000000	-60.03937000	-14.21014000
154.89999098	0.00000000	-60.03937000	-14.21014000
155.09999097	0.00000000	-59.66412000	-14.25320000
155.29999096	0.00000000	-58.91978000	-14.62844000
155.49999094	0.00000000	-58.54454000	-15.36663000
155.69999093	0.00000000	-58.50147000	-15.74188000
155.89999092	0.00000000	-58.50147000	-15.78494000
156.09999091	0.00000000	-58.50147000	-15.74188000
156.29999090	0.00000000	-58.50147000	-15.36663000
156.49999089	0.00000000	-58.50147000	-14.62844000
156.69999087	0.00000000	-58.54454000	-14.25320000
156.89999086	0.00000000	-58.91978000	-14.21014000
157.09999085	0.00000000	-59.66412000	-14.21014000
157.29999084	0.00000000	-60.03937000	-14.21014000
157.49999083	0.00000000	-60.08243000	-14.25320000
157.69999081	0.00000000	-60.08243000	-14.62844000
157.89999080	0.00000000	-60.03937000	-15.36663000
158.09999079	0.00000000	-59.66412000	-15.74188000
158.29999078	0.00000000	-58.91978000	-15.78494000
158.49999077	0.00000000	-58.54454000	-15.78494000
158.69999075	0.00000000	-58.50147000	-15.78494000
158.89999074	0.00000000	-58.50147000	-15.78494000
159.09999073	0.00000000	-58.50147000	-15.78494000
159.29999072	0.00000000	-58.50147000	-15.74188000
159.49999071	0.00000000	-58.54454000	-15.36663000
159.69999070	0.00000000	-58.91978000	-14.62844000
159.89999068	0.00000000	-59.66412000	-14.25320000
160.09999067	0.00000000	-60.03937000	-14.21014000
160.29999066	0.00000000	-60.08243000	-14.21014000
160.49999065	0.00000000	-60.08243000	-14.25320000
160.69999064	0.00000000	-60.08243000	-14.62844000
160.89999062	0.00000000	-60.08243000	-15.36663000
161.09999061	0.00000000	-60.03937000	-15.74188000
161.29999060	0.00000000	-59.66412000	-15.78494000
161.49999059	0.00000000	-58.91978000	-15.78494000
161.69999058	0.00000000	-58.54454000	-15.78494000
161.89999056	0.00000000	-58.50147000	-15.78494000
162.09999055	0.00000000	-58.50147000	-15.74188000
162.29999054	0.00000000	-58.50147000	-15.36663000
162.49999053	0.00000000	-58.50147000	-14.62844000
162.69999052	0.00000000	-58.50147000	-14.25320000
162.89999051	0.00000000	-58.50147000	-14.21014000
163.09999049	0.00000000	-58.54454000	-14.21014000
163.29999048	0.00000000	-58.91978000	-14.21014000
163.49999047	0.00000000	-59.66412000	-14.21014000
163.69999046	0.00000000	-60.03937000	-14.25320000
163.89999045	0.00000000	-60.08243000	-14.62844000
164.09999043	0.00000000	-60.08243000	-15.36663000
164.29999042	0.00000000	-60.03937000	-15.74188000
164.49999041	0.00000000	-59.66412000	-15.78494000
164.69999040	0.00000000	-58.91978000	-15.74188000
164.89999039	0.00000000	-58.54454000	-15.40969000
165.09999037	0.00000000	-58.50147000	-15.00369000
165.29999036	0.00000000	-58.50147000	-14.99139000
165.49999035	0.00000000	-58.50147000	-14.58538000
165.69999034	0.00000000	-58.50147000	-14.25320000
165.89999033	0.00000000	-58.50147000	-14.21014000
166.09999032	0.00000000	-58.54454000	-14.21014000
166.29999030	0.00000000	-58.91978000	-14.21014000
166.49999029	0.00000000	-59.66412000	-14.21014000
166.69999028	0.00000000	-59.99015000	-14.21014000
166.89999027	0.00000000	-59.70718000	-14.21014000
167.09999026	0.00000000	-59.29502000	-14.25320000
167.29999024	0.00000000	-59.28888000	-14.62844000
167.49999023	0.00000000	-58.87672000	-15.36663000
167.69999022	0.00000000	-58.54454000	-15.74188000
167.89999021	0.00000000	-58.50147000	-15.78494000
168.09999020	0.00000000	-58.50147000	-15.78494000
168.29999018	0.00000000	-58.50147000	-15.74188000
168.49999017	0.00000000	-58.50147000	-15.40969000
168.69999016	0.00000000	-58.50147000	-15.00369000
168.89999015	0.00000000	-58.50147000	-15.04060000
169.09999014	0.00000000	-58.50147000	-15.00369000
169.29999013	0.00000000	-58.54454000	-15.40969000
169.49999011	0.00000000	-58.91978000	-15.74188000
169.69999010	0.00000000	-59.66412000	-15.74188000
169.89999009	0.00000000	-59.99015000	-15.40969000
170.09999008	0.00000000	-59.66412000	-15.04675000
170.29999007	0.00000000	-58.91978000	-15.40969000
170.49999005	0.00000000	-58.54454000	-15.74188000
170.69999004	0.00000000	-58.50147000	-15.78494000
170.89999003	0.00000000	-58.50147000	-15.78494000
171.09999002	0.00000000	-58.50147000	-15.74188000
171.29999001	0.00000000	-58.50147000	-15.40969000
171.49998999	0.00000000	-58.50147000	-15.04675000
171.69998998	0.00000000	-58.50147000	-15.36663000
171.89998997	0.00000000	-58.50147000	-15.36663000
172.09998996	0.00000000	-58.50147000	-15.04675000
172.29998995	0.00000000	-58.50147000	-15.40969000
172.49998994	0.00000000	-58.50147000	-15.69267000
172.69998992	0.00000000	-58.50147000	-15.40969000
172.89998991	0.00000000	-58.50147000	-15.00369000
173.09998990	0.00000000	-58.50147000	-14.99139000
173.29998989	0.00000000	-58.50147000	-14.58538000
173.49998988	0.00000000	-58.50147000	-14.25320000
173.69998986	0.00000000	-58.50147000	-14.21014000
173.89998985	0.00000000	-58.50147000	-14.25320000
174.09998984	0.00000000	-58.50147000	-14.58538000
174.29998983	0.00000000	-58.50147000	-14.99139000
174.49998982	0.00000000	-58.50147000	-15.00369000
174.69998980	0.00000000	-58.50147000	-15.40969000
174.89998979	0.00000000	-58.50147000	-15.74188000
175.09998978	0.00000000	-58.50147000	-15.78494000
175.29998977	0.00000000	-58.50147000	-15.74188000
175.49998976	0.00000000	-58.50147000	-15.40969000
175.69998975	0.00000000	-58.50147000	-15.00369000
175.89998973	0.00000000	-58.50147000	-14.99139000
176.09998972	0.00000000	-58.50147000	-14.58538000
176.29998971	0.00000000	-58.50147000	-14.25320000
176.49998970	0.00000000	-58.50147000	-14.21014000
176.69998969	0.00000000	-58.50147000	-14.21014000
176.89998967	0.00000000	-58.50147000	-14.21014000
177.09998966	0.00000000	-58.50147000	-14.25320000
177.29998965	0.00000000	-58.50147000	-14.62844000
177.49998964	0.00000000	-58.50147000	-15.36663000
177.69998963	0.00000000	-58.50147000	-15.74188000
177.89998961	0.00000000	-58.50147000	-15.74188000
178.09998960	0.00000000	-58.54454000	-15.36663000
178.29998959	0.00000000	-58.87672000	-14.62844000
178.49998958	0.00000000	-59.24582000	-14.25320000
178.69998957	0.00000000	-58.87672000	-14.21014000
178.89998956	0.00000000	-58.54454000	-14.21014000
179.09998954	0.00000000	-58.50147000	-14.21014000
179.29998953	0.00000000	-58.50147000	-14.25320000
179.49998952	0.00000000	-58.50147000	-14.62844000
179.69998951	0.00000000	-58.50147000	-15.36663000
179.89998950	0.00000000	-58.50147000	-15.74188000
180.09998948	0.00000000	-58.50147000	-15.78494000
180.29998947	0.00000000	-58.50147000	-15.78494000
180.49998946	0.00000000	-58.50147000	-15.78494000
180.69998945	0.00000000	-58.50147000	-15.78494000
180.89998944	0.00000000	-58.50147000	-15.74188000
181.09998942	0.00000000	-58.50147000	-15.36663000
181.29998941	0.00000000	-58.54454000	-14.67150000
181.49998940	0.00000000	-58.87672000	-14.62844000
181.69998939	0.00000000	-59.24582000	-14.94833000
181.89998938	0.00000000	-58.87672000	-14.58538000
182.09998937	0.00000000	-58.54454000	-14.25320000
182.29998935	0.00000000	-58.50147000	-14.21014000
182.49998934	0.00000000	-58.50147000	-14.25320000
182.69998933	0.00000000	-58.50147000	-14.62844000
182.89998932	0.00000000	-58.50147000	-15.36663000
183.09998931	0.00000000	-58.50147000	-15.74188000
183.29998929	0.00000000	-58.50147000	-15.78494000
183.49998928	0.00000000	-58.50147000	-15.78494000
183.69998927	0.00000000	-58.50147000	-15.78494000
183.89998926	0.00000000	-58.54454000	-15.78494000
184.09998925	0.00000000	-58.87672000	-15.74188000
184.29998923	0.00000000	-59.24582000	-15.36663000
184.49998922	0.00000000	-58.87672000	-14.62844000
184.69998921	0.00000000	-58.54454000	-14.25320000
184.89998920	0.00000000	-58.50147000	-14.21014000
185.09998919	0.00000000	-58.50147000	-14.21014000
185.29998918	0.00000000	-58.50147000	-14.21014000
185.49998916	0.00000000	-58.50147000	-14.25320000
185.69998915	0.00000000	-58.50147000	-14.62844000
185.89998914	0.00000000	-58.50147000	-15.36663000
186.09998913	0.00000000	-58.50147000	-15.74188000
186.29998912	0.00000000	-58.50147000	-15.78494000
186.49998910	0.00000000	-58.50147000	-15.78494000
186.69998909	0.00000000	-58.50147000	-15.78494000
186.89998908	0.00000000	-58.50147000	-15.74188000
187.09998907	0.00000000	-58.54454000	-15.36663000
187.29998906	0.00000000	-58.87672000	-14.62844000
187.49998904	0.00000000	-59.24582000	-14.25320000
187.69998903	0.00000000	-58.87672000	-14.21014000
187.89998902	0.00000000	-58.54454000	-14.21014000
188.09998901	0.00000000	-58.50147000	-14.21014000
188.29998900	0.00000000	-58.50147000	-14.21014000
188.49998899	0.00000000	-58.50147000	-14.25320000
188.69998897	0.00000000	-58.50147000	-14.62844000
188.89998896	0.00000000	-58.50147000	-15.36663000
189.09998895	0.00000000	-58.50147000	-15.74188000
189.29998894	0.00000000	-58.50147000	-15.78494000
189.49998893	0.00000000	-58.50147000	-15.78494000
189.69998891	0.00000000	-58.50147000	-15.74188000
189.89998890	0.00000000	-58.50147000	-15.36663000
190.09998889	0.00000000	-58.50147000	-14.62844000
190.29998888	0.00000000	-58.50147000	-14.25320000
190.49998887	0.00000000	-58.50147000	-14.21014000
190.69998885	0.00000000	-58.50147000	-14.21014000
190.89998884	0.00000000	-58.50147000	-14.21014000
191.09998883	0.00000000	-58.50147000	-14.21014000
191.29998882	0.00000000	-58.50147000	-14.21014000
191.49998881	0.00000000	-58.50147000	-14.21014000
191.69998880	0.00000000	-58.50147000	-14.21014000
191.89998878	0.00000000	-58.50147000	-14.21014000
192.09998877	0.00000000	-58.50147000	-14.25320000
192.29998876	0.00000000	-58.50147000	-14.62844000
192.49998875	0.00000000	-58.50147000	-15.36663000
192.69998874	0.00000000	-58.50147000	-15.74188000
192.89998872	0.00000000	-58.50147000	-15.74188000
193.09998871	0.00000000	-58.50147000	-15.40969000
193.29998870	0.00000000	-58.50147000	-15.04675000
193.49998869	0.00000000	-58.50147000	-15.36663000
193.69998868	0.00000000	-58.50147000	-15.32357000
193.89998866	0.00000000	-58.50147000	-14.62844000
194.09998865	0.00000000	-58.50147000	-14.25320000
194.29998864	0.00000000	-58.50147000	-14.21014000
194.49998863	0.00000000	-58.50147000	-14.21014000
194.69998862	0.00000000	-58.50147000	-14.21014000
194.89998861	0.00000000	-58.50147000	-14.25320000
195.09998859	0.00000000	-58.45841000	-14.58538000
195.29998858	0.00000000	-58.12622000	-14.99139000
195.49998857	0.00000000	-57.75713000	-15.00369000
195.69998856	0.00000000	-58.12622000	-15.40969000
195.89998855	0.00000000	-58.45841000	-15.74188000
196.09998853	0.00000000	-58.50147000	-15.78494000
