Time	Channel A	Channel B	Channel C
(us)	(V)	(mV)	(mV)

-4.49999956	0.00000000	22.13336000	0.00000000
-4.29999957	0.00000000	22.13336000	0.00000000
-4.09999958	0.00000000	22.13336000	0.00000000
-3.89999959	0.00000000	22.09030000	0.00000000
-3.69999960	0.00000000	21.75812000	0.00000000
-3.49999962	0.00000000	21.38902000	0.00000000
-3.29999963	0.00000000	21.75812000	0.00000000
-3.09999964	0.00000000	22.09030000	0.00000000
-2.89999965	0.00000000	22.13336000	0.00000000
-2.69999966	0.00000000	22.13336000	0.04306102
-2.49999968	0.00000000	22.09030000	0.37524600
-2.29999969	0.00000000	21.75812000	0.73818890
-2.09999970	0.00000000	21.38902000	0.37524600
-1.89999971	0.00000000	21.75812000	0.04306102
-1.69999972	0.00000000	22.09030000	0.04306102
-1.49999973	0.00000000	22.13336000	0.37524600
-1.29999975	0.00000000	22.13336000	0.73818890
-1.09999976	0.00000000	22.09030000	0.37524600
-0.89999977	0.00000000	21.75812000	0.04306102
-0.69999978	0.00000000	21.38902000	0.04306102
-0.49999979	0.00000000	21.75812000	0.37524600
-0.29999981	0.15871060	22.09030000	0.73818890
-0.09999982	0.63668800	22.13336000	0.37524600
0.10000017	0.95533960	22.13336000	0.04306102
0.30000016	1.11466500	22.13336000	0.00000000
0.50000015	0.95533960	22.09030000	0.00000000
0.70000013	0.47736220	21.75812000	0.00000000
0.90000012	-0.31803640	21.38902000	0.00000000
1.10000011	-1.27399100	21.75812000	0.00000000
1.30000010	-2.22994600	22.09030000	0.04306102
1.50000009	-2.70792300	22.13336000	0.41830710
1.70000008	-2.54859700	22.13336000	1.15649600
1.90000006	-1.59264300	22.13336000	1.53174200
2.10000005	0.00000000	22.13336000	1.57480300
2.30000004	2.07062000	22.13336000	1.53174200
2.50000003	4.14124000	22.13336000	1.15649600
2.70000002	5.25652100	22.09030000	0.41830710
2.90000000	5.09719500	21.71506000	0.04306102
3.09999999	3.50393700	20.97072000	0.00000000
3.29999998	0.63668800	20.64468000	0.00000000
3.49999997	-2.70792300	20.97072000	0.04306102
3.69999996	-5.89382400	21.71506000	0.37524600
3.89999994	-7.64579200	22.09030000	0.78124990
4.09999993	-7.80511800	22.13336000	0.79355310
4.29999992	-5.89382400	22.13336000	1.19955700
4.49999991	-2.22994600	22.13336000	1.53174200
4.69999990	2.38927200	22.09030000	1.53174200
4.89999989	6.37180100	21.75812000	1.15649600
5.09999987	8.92039900	21.34596000	0.41830710
5.29999986	9.39837600	21.33981000	0.04306102
5.49999985	7.48646600	20.92766000	0.00000000
5.69999984	3.50393700	20.64468000	0.00000000
5.89999983	-1.27399100	20.97072000	0.00000000
6.09999981	-5.73449800	21.71506000	0.00000000
6.29999980	-8.60174700	22.09030000	0.00000000
6.49999979	-9.39837600	22.13336000	0.04306102
6.69999978	-7.80511800	22.13336000	0.41830710
6.89999977	-4.30056600	22.13336000	1.15649600
7.09999975	0.00000000	22.13336000	1.53174200
7.29999974	3.98191400	22.13336000	1.57480300
7.49999973	6.84916400	22.13336000	1.53174200
7.69999972	7.80511800	22.13336000	1.15649600
7.89999971	6.69045300	22.09030000	0.41830710
8.09999970	4.14124000	21.71506000	0.04306102
8.29999968	0.95533960	21.01993000	0.00000000
8.49999967	-2.07062000	20.97072000	0.00000000
8.69999966	-4.30056600	21.33981000	0.00000000
8.89999965	-5.25652100	21.34596000	0.00000000
9.09999964	-4.61921700	21.75812000	0.00000000
9.29999962	-3.18590100	22.09030000	0.00000000
9.49999961	-1.11466500	22.13336000	0.00000000
9.69999960	0.79601380	22.13336000	0.00000000
9.89999959	2.07062000	22.13336000	0.00000000
10.09999958	2.54859700	22.13336000	0.00000000
10.29999956	2.38927200	22.13336000	0.00000000
10.49999955	1.59264300	22.09030000	0.00000000
10.69999954	0.79601380	21.75812000	0.00000000
10.89999953	0.00000000	21.38902000	0.00000000
11.09999952	-0.63668800	21.71506000	0.00000000
11.29999951	-0.95533960	21.71506000	0.00000000
11.49999949	-0.95533960	21.38902000	0.00000000
11.69999948	-0.79601380	21.71506000	0.00000000
11.89999947	-0.47736220	21.71506000	0.00000000
12.09999946	-0.15871060	21.38902000	0.00000000
12.29999945	-0.15871060	21.75812000	0.00000000
12.49999943	0.00000000	22.09030000	0.00000000
12.69999942	0.00000000	22.13336000	0.00000000
12.89999941	0.00000000	22.13336000	0.00000000
13.09999940	0.15871060	22.13336000	0.00000000
13.29999939	0.15871060	22.13336000	0.04306102
13.49999937	0.00000000	22.13336000	0.37524600
13.69999936	0.00000000	22.13336000	0.73818890
13.89999935	0.00000000	22.13336000	0.37524600
14.09999934	-0.15871060	22.09030000	0.04306102
14.29999933	-0.15871060	21.75812000	0.04306102
14.49999932	-0.15871060	21.38902000	0.41830710
14.69999930	0.00000000	21.75812000	1.11343500
14.89999929	0.00000000	22.09030000	1.15649600
15.09999928	0.00000000	22.13336000	0.83661410
15.29999927	0.00000000	22.13336000	1.15649600
15.49999926	0.00000000	22.09030000	1.15649600
15.69999924	0.00000000	21.75812000	0.79355310
15.89999923	0.00000000	21.34596000	0.78124990
16.09999922	0.00000000	21.33981000	0.37524600
16.29999921	0.00000000	20.97072000	0.04306102
16.49999920	0.00000000	21.01993000	0.00000000
16.69999919	-0.15871060	21.71506000	0.00000000
16.89999917	-0.15871060	22.09030000	0.00000000
17.09999916	0.00000000	22.17643000	0.00000000
17.29999915	0.00000000	22.55167000	0.00000000
17.49999914	0.00000000	23.24680000	0.00000000
17.69999913	0.00000000	23.24680000	0.00000000
17.89999911	0.00000000	22.50861000	0.00000000
18.09999910	0.00000000	21.71506000	0.00000000
18.29999909	0.00000000	20.50935000	0.00000000
18.49999908	0.00000000	18.97145000	0.00000000
18.69999907	0.00000000	17.43356000	0.00000000
18.89999905	0.00000000	16.27707000	0.00000000
19.09999904	0.00000000	15.94488000	0.00000000
19.29999903	0.00000000	16.73843000	0.00000000
19.49999902	0.00000000	19.10679000	0.00000000
19.69999901	0.00000000	22.55167000	0.00000000
19.89999900	0.00000000	26.45792000	0.04306102
20.09999898	0.00000000	29.90280000	0.37524600
20.29999897	0.00000000	32.17888000	0.73818890
20.49999896	0.00000000	32.13582000	0.37524600
20.69999895	0.00000000	29.39222000	0.04306102
20.89999894	0.00000000	24.27411000	0.00000000
21.09999892	0.00000000	16.97219000	0.00000000
21.29999891	0.00000000	9.25196800	0.00000000
21.49999890	0.00000000	3.47564000	0.00000000
21.69999889	0.00000000	0.45521650	0.00000000
21.89999888	0.00000000	2.12844500	0.00000000
22.09999886	0.00000000	9.06126900	0.00000000
22.29999885	0.00000000	19.52510000	0.00000000
22.49999884	0.00000000	31.57603000	0.00000000
22.69999883	0.00000000	43.11638000	0.00000000
22.89999882	0.00000000	51.11958000	0.04306102
23.09999881	0.00000000	52.61442000	0.41830710
23.29999879	0.00000000	46.75196000	1.15649600
23.49999878	0.00000000	34.28272000	1.53174200
23.69999877	0.00000000	16.92913000	1.57480300
23.89999876	0.00000000	-1.16879900	1.57480300
24.09999875	0.00000000	-15.03445000	1.57480300
24.29999873	0.00000000	-21.54897000	1.53174200
24.49999872	0.00000000	-18.38706000	1.11343500
24.69999871	0.00000000	-5.59793300	-0.04306102
24.89999870	0.00000000	14.13017000	-1.57480300
25.09999869	0.00000000	36.88484000	-3.11269700
25.29999867	0.00000000	56.93897000	-4.26919300
25.49999866	0.00000000	69.27288000	-4.64443900
25.69999865	0.00000000	71.17371000	-4.22613100
25.89999864	0.00000000	61.49729000	-2.60211600
26.09999863	0.00000000	42.56274000	0.51058070
26.29999862	0.00000000	18.59621000	4.69365100
26.49999860	0.00000000	-5.30880900	8.58759800
26.69999859	0.00000000	-23.08686000	11.24508000
26.89999858	0.00000000	-30.81324000	12.35236000
27.09999857	0.00000000	-26.94390000	10.35925000
27.29999856	0.00000000	-11.87254000	5.75787400
27.49999854	0.00000000	10.46383000	-0.55364170
27.69999853	0.00000000	34.83636000	-8.22465500
27.89999852	0.00000000	55.68405000	-15.50812000
28.09999851	0.00000000	68.47932000	-19.70349000
28.29999850	0.00000000	70.43552000	-20.06643000
28.49999848	0.00000000	61.58956000	-15.70497000
28.69999847	0.00000000	44.27903000	-6.82824800
28.89999846	0.00000000	23.01919000	4.77977300
29.09999845	0.00000000	2.87278500	16.72613000
29.29999844	0.00000000	-12.65994000	26.34104000
29.49999843	0.00000000	-20.42938000	30.89321000
29.69999841	0.00000000	-19.27288000	28.94316000
29.89999840	0.00000000	-9.63336600	20.39862000
30.09999839	0.00000000	6.50221400	6.87746000
30.29999838	0.00000000	24.28026000	-8.96284400
30.49999837	0.00000000	39.81914000	-23.60359000
30.69999835	0.00000000	50.70127000	-33.63681000
30.89999834	0.00000000	54.61368000	-36.70644000
31.09999833	0.00000000	51.58710000	-32.01279000
31.29999832	0.00000000	42.69808000	-20.02337000
31.49999831	0.00000000	29.95201000	-3.02042300
31.69999829	0.00000000	16.40625000	15.10212000
31.89999828	0.00000000	4.73671200	30.56717000
32.09999827	0.00000000	-2.98966500	39.81914000
32.29999826	0.00000000	-5.35802100	40.97564000
32.49999825	0.00000000	-1.91929100	33.58760000
32.69999824	0.00000000	5.80708600	18.95300000
32.89999822	0.00000000	16.27707000	0.41830710
33.09999821	0.00000000	27.44217000	-17.74729000
33.29999820	0.00000000	36.33120000	-32.05585000
33.49999819	0.00000000	41.03100000	-39.40084000
33.69999818	0.00000000	41.07406000	-38.23819000
33.89999816	0.00000000	36.83563000	-29.03543000
34.09999815	0.00000000	29.52756000	-13.93947000
34.29999814	0.00000000	21.01993000	3.43873000
34.49999813	0.00000000	13.29355000	20.06643000
34.69999812	0.00000000	7.89862200	32.01279000
34.89999810	0.00000000	6.36072800	36.70644000
35.09999809	0.00000000	8.96899500	33.58760000
35.29999808	0.00000000	14.32087000	23.22835000
35.49999807	0.00000000	20.50935000	8.22465500
35.69999806	0.00000000	26.32259000	-7.20349400
35.89999805	0.00000000	30.51181000	-19.98031000
36.09999803	0.00000000	31.66830000	-27.31914000
36.29999802	0.00000000	29.44143000	-27.78666000
36.49999801	0.00000000	25.20300000	-21.97957000
36.69999800	0.00000000	20.17716000	-11.19587000
36.89999799	0.00000000	15.20054000	2.22687000
37.09999797	0.00000000	12.13091000	14.08095000
37.29999796	0.00000000	11.71260000	21.09375000
37.49999795	0.00000000	13.61959000	21.93036000
37.69999794	0.00000000	17.48277000	17.32899000
37.89999793	0.00000000	22.09030000	8.50147600
38.09999791	0.00000000	26.36565000	-2.22687000
38.29999790	0.00000000	29.44143000	-11.38656000
38.49999789	0.00000000	30.59793000	-16.40010000
38.69999788	0.00000000	29.44143000	-15.66191000
38.89999787	0.00000000	26.36565000	-9.94094400
39.09999786	0.00000000	22.13336000	-1.11343500
39.29999784	0.00000000	17.85802000	8.45841400
39.49999783	0.00000000	14.36393000	15.70497000
39.69999782	0.00000000	12.03863000	18.35630000
39.89999781	0.00000000	11.66339000	15.28666000
40.09999780	0.00000000	13.20128000	7.29576700
40.29999778	0.00000000	16.27707000	-2.69439000
40.49999777	0.00000000	20.13410000	-11.89715000
40.69999776	0.00000000	23.67126000	-18.02411000
40.89999775	0.00000000	26.83317000	-18.77460000
41.09999774	0.00000000	29.48450000	-14.21629000
41.29999772	0.00000000	30.59793000	-5.75787400
41.49999771	0.00000000	29.48450000	4.27534400
41.69999770	0.00000000	26.78395000	13.47810000
41.89999769	0.00000000	23.29601000	19.60507000
42.09999768	0.00000000	19.43897000	20.34941000
42.29999767	0.00000000	16.36319000	15.84030000
42.49999765	0.00000000	14.73917000	7.75713500
42.69999764	0.00000000	14.32087000	-1.43946800
42.89999763	0.00000000	14.69611000	-9.56569900
43.09999762	0.00000000	15.90182000	-14.58538000
43.29999761	0.00000000	17.80881000	-15.79109000
43.49999759	0.00000000	20.13410000	-13.14591000
43.69999758	0.00000000	22.04109000	-7.75713500
43.89999757	0.00000000	23.24680000	-1.20570900
44.09999756	0.00000000	23.67126000	5.33956700
44.29999755	0.00000000	23.71432000	9.94094400
44.49999753	0.00000000	23.75738000	11.56496000
44.69999752	0.00000000	24.13263000	10.45152000
44.89999751	0.00000000	24.87697000	7.38188900
45.09999750	0.00000000	25.20300000	3.15575800
45.29999749	0.00000000	24.82775000	-1.07037400
45.49999748	0.00000000	23.57899000	-4.18307100
45.69999746	0.00000000	21.24754000	-5.75787400
45.89999745	0.00000000	17.76575000	-5.80093500
46.09999744	0.00000000	14.32087000	-4.64443900
46.29999743	0.00000000	11.57726000	-2.73745100
46.49999742	0.00000000	10.08243000	-0.41830710
46.69999740	0.00000000	10.54995000	1.53174200
46.89999739	0.00000000	13.66880000	3.11269700
47.09999738	0.00000000	19.10679000	4.26919300
47.29999737	0.00000000	25.67052000	4.60137700
47.49999736	0.00000000	32.22810000	3.85088600
47.69999734	0.00000000	36.79257000	1.90698800
47.89999733	0.00000000	37.95522000	-0.37524600
48.09999732	0.00000000	35.25467000	-2.69439000
48.29999731	0.00000000	29.39837000	-4.22613100
48.49999730	0.00000000	21.24754000	-4.64443900
48.69999729	0.00000000	12.03863000	-4.22613100
48.89999727	0.00000000	4.73671200	-2.64517700
49.09999726	0.00000000	1.24261800	0.04306102
49.29999725	0.00000000	2.03617100	3.11269700
49.49999724	0.00000000	7.48031400	5.80093500
49.69999723	0.00000000	16.32013000	7.33882900
49.89999721	0.00000000	26.32259000	7.29576700
50.09999720	0.00000000	34.83636000	5.38262700
50.29999719	0.00000000	39.86835000	1.90698800
50.49999718	0.00000000	40.60654000	-1.90698800
50.69999717	0.00000000	36.37426000	-5.43184000
50.89999715	0.00000000	28.32185000	-7.71407400
51.09999714	0.00000000	19.06373000	-8.45226300
51.29999713	0.00000000	10.59301000	-6.92052100
51.49999712	0.00000000	5.19808000	-3.43873000
51.69999711	0.00000000	4.36146600	0.79355310
51.89999710	0.00000000	7.43110200	5.43184000
52.09999708	0.00000000	13.61959000	8.82750900
52.29999707	0.00000000	21.66585000	10.03322000
52.49999706	0.00000000	28.97392000	8.87057000
52.69999705	0.00000000	33.58760000	5.80093500
52.89999704	0.00000000	34.37500000	1.57480300
53.09999702	0.00000000	30.97933000	-2.64517700
53.29999701	0.00000000	25.25221000	-5.75787400
53.49999700	0.00000000	19.06373000	-7.29576700
53.69999699	0.00000000	13.66880000	-6.92052100
53.89999698	0.00000000	10.59301000	-4.64443900
54.09999696	0.00000000	10.59301000	-1.62401600
54.29999695	0.00000000	13.61959000	1.11343500
54.49999694	0.00000000	18.59621000	3.02042300
54.69999693	0.00000000	23.57899000	3.80782500
54.89999692	0.00000000	27.48524000	3.06348400
55.09999691	0.00000000	29.34916000	1.57480300
55.29999689	0.00000000	28.59867000	0.04306102
55.49999688	0.00000000	25.15994000	-1.06422200
55.69999687	0.00000000	20.59547000	-1.06422200
55.89999686	0.00000000	16.36319000	0.04306102
56.09999685	0.00000000	13.66880000	1.57480300
56.29999683	0.00000000	13.24434000	3.11269700
56.49999682	0.00000000	14.78223000	4.22613100
56.69999681	0.00000000	17.85802000	4.18307100
56.89999680	0.00000000	21.66585000	2.60211600
57.09999679	0.00000000	24.74163000	-0.46751960
57.29999677	0.00000000	26.36565000	-4.26919300
57.49999676	0.00000000	26.74089000	-7.29576700
57.69999675	0.00000000	25.94734000	-8.40920300
57.89999674	0.00000000	23.62205000	-6.87746000
58.09999673	0.00000000	20.59547000	-3.02042300
58.29999672	0.00000000	17.90108000	1.99311000
58.49999670	0.00000000	16.36319000	7.38188900
58.69999669	0.00000000	16.32013000	11.56496000
58.89999668	0.00000000	17.48277000	13.10285000
59.09999667	0.00000000	19.38976000	11.52190000
59.29999666	0.00000000	21.66585000	6.87746000
59.49999664	0.00000000	23.20374000	-0.04306102
59.69999663	0.00000000	23.62205000	-7.33882900
59.89999662	0.00000000	23.24680000	-13.10285000
60.09999661	0.00000000	22.09030000	-15.74803000
60.29999660	0.00000000	20.59547000	-14.21629000
60.49999658	0.00000000	19.43897000	-8.82750900
60.69999657	0.00000000	19.01451000	-1.15649600
60.89999656	0.00000000	19.01451000	6.96358300
61.09999655	0.00000000	19.43897000	13.52116000
61.29999654	0.00000000	20.59547000	17.32899000
61.49999653	0.00000000	22.13336000	16.95374000
61.69999651	0.00000000	23.62205000	12.31545000
61.89999650	0.00000000	24.36639000	5.01353300
62.09999649	0.00000000	23.62205000	-3.85703700
62.29999648	0.00000000	22.09030000	-11.52190000
62.49999647	0.00000000	20.13410000	-16.21555000
62.69999645	0.00000000	17.85802000	-17.32899000
62.89999644	0.00000000	16.32013000	-14.25935000
63.09999643	0.00000000	15.94488000	-7.71407400
63.29999642	0.00000000	16.73843000	0.33218500
63.49999641	0.00000000	19.01451000	8.08316900
63.69999639	0.00000000	21.71506000	13.47810000
63.89999638	0.00000000	24.04650000	15.84030000
64.09999637	0.00000000	25.99040000	14.67766000
64.29999636	0.00000000	26.69783000	10.45152000
64.49999635	0.00000000	25.94734000	4.26919300
64.69999634	0.00000000	23.62205000	-2.64517700
64.89999632	0.00000000	20.59547000	-8.45226300
65.09999631	0.00000000	17.90108000	-11.98942000
65.29999630	0.00000000	16.32013000	-13.14591000
65.49999629	0.00000000	15.90182000	-11.61417000
65.69999628	0.00000000	16.32013000	-7.80019600
65.89999626	0.00000000	17.85802000	-3.15575800
66.09999625	0.00000000	20.13410000	1.53174200
66.29999624	0.00000000	22.04109000	5.80093500
66.49999623	0.00000000	23.20374000	8.87057000
66.69999622	0.00000000	23.20374000	10.07628000
66.89999620	0.00000000	22.09030000	9.38115100
67.09999619	0.00000000	20.55241000	7.80019600
67.29999618	0.00000000	19.01451000	5.43184000
67.49999617	0.00000000	17.90108000	1.95004900
67.69999616	0.00000000	17.90108000	-1.53174200
67.89999615	0.00000000	19.06373000	-4.68750000
68.09999613	0.00000000	20.97072000	-7.43110200
68.29999612	0.00000000	23.24680000	-9.33809000
68.49999611	0.00000000	24.74163000	-10.07628000
68.69999610	0.00000000	24.78469000	-8.87057000
68.89999609	0.00000000	23.57899000	-5.80093500
69.09999607	0.00000000	21.24754000	-1.53174200
69.29999606	0.00000000	17.80881000	3.11269700
69.49999605	0.00000000	14.73917000	7.38188900
69.69999604	0.00000000	12.82603000	10.49459000
69.89999603	0.00000000	12.50615000	11.98327000
70.09999601	0.00000000	14.82529000	11.18971000
70.29999600	0.00000000	18.97145000	7.71407400
70.49999599	0.00000000	23.29601000	2.73745100
70.69999598	0.00000000	27.15920000	-2.69439000
70.89999597	0.00000000	30.22268000	-7.33882900
71.09999596	0.00000000	30.93012000	-10.40846000
71.29999594	0.00000000	29.06619000	-11.18971000
71.49999593	0.00000000	25.15994000	-9.24581600
71.69999592	0.00000000	20.13410000	-5.43184000
71.89999591	0.00000000	14.73917000	-0.41830710
72.09999590	0.00000000	10.50689000	4.18307100
72.29999588	0.00000000	8.55068800	7.29576700
72.49999587	0.00000000	8.96899500	8.50147600
72.69999586	0.00000000	12.03863000	7.75713500
72.89999585	0.00000000	17.05832000	5.80093500
73.09999584	0.00000000	22.46555000	2.73745100
73.29999582	0.00000000	27.48524000	-0.64591530
73.49999581	0.00000000	30.55487000	-2.60211600
73.69999580	0.00000000	30.97318000	-3.06348400
73.89999579	0.00000000	29.06619000	-2.68823800
74.09999578	0.00000000	25.25221000	-1.53174200
74.29999577	0.00000000	20.97072000	-0.04306102
74.49999575	0.00000000	17.10753000	1.06422200
74.69999574	0.00000000	13.99483000	1.06422200
74.89999573	0.00000000	12.82603000	-0.04306102
75.09999572	0.00000000	13.15822000	-1.57480300
75.29999571	0.00000000	14.78223000	-3.06348400
75.49999569	0.00000000	17.80881000	-3.80782500
75.69999568	0.00000000	21.24754000	-2.97736200
75.89999567	0.00000000	23.57899000	-0.69512790
76.09999566	0.00000000	24.78469000	2.78051200
76.29999565	0.00000000	24.78469000	6.17618100
76.49999563	0.00000000	23.71432000	8.54453700
76.69999562	0.00000000	22.55167000	9.24581600
76.89999561	0.00000000	21.75812000	8.08316900
77.09999560	0.00000000	20.97072000	4.51525500
77.29999559	0.00000000	20.59547000	-0.79355310
77.49999558	0.00000000	20.55241000	-6.54527500
77.69999556	0.00000000	20.55241000	-10.40846000
77.89999555	0.00000000	20.50935000	-12.03248000
78.09999554	0.00000000	20.13410000	-11.56496000
78.29999553	0.00000000	19.34670000	-8.45226300
78.49999552	0.00000000	18.59621000	-3.06963600
78.69999550	0.00000000	17.80881000	3.06963600
78.89999549	0.00000000	17.48277000	8.50147600
79.09999548	0.00000000	17.85802000	11.94021000
79.29999547	0.00000000	19.06373000	12.77067000
79.49999546	0.00000000	20.97072000	10.82677000
79.69999544	0.00000000	23.29601000	7.00664300
79.89999543	0.00000000	25.15994000	1.95004900
80.09999542	0.00000000	25.94734000	-3.06963600
80.29999541	0.00000000	25.15994000	-7.33882900
80.49999540	0.00000000	23.24680000	-10.03322000
80.69999539	0.00000000	20.55241000	-10.45152000
80.89999537	0.00000000	17.85802000	-8.91978400
81.09999536	0.00000000	15.90182000	-5.85014700
81.29999535	0.00000000	14.78223000	-1.95004900
81.49999534	0.00000000	15.15748000	1.95004900
81.69999533	0.00000000	17.05832000	5.80093500
81.89999531	0.00000000	19.34670000	8.50147600
82.09999530	0.00000000	21.71506000	9.33809000
82.29999529	0.00000000	23.62205000	8.96284400
82.49999528	0.00000000	24.82775000	7.33882900
82.69999527	0.00000000	25.15994000	4.26919300
82.89999525	0.00000000	24.40945000	0.41830710
83.09999524	0.00000000	22.50861000	-3.11269700
83.29999523	0.00000000	20.59547000	-6.26845500
83.49999522	0.00000000	19.01451000	-8.91978400
83.69999521	0.00000000	17.90108000	-10.07628000
83.89999520	0.00000000	17.85802000	-9.29502900
84.09999518	0.00000000	18.55315000	-6.96358300
84.29999517	0.00000000	18.92839000	-3.06963600
84.49999516	0.00000000	19.01451000	1.53174200
84.69999515	0.00000000	19.34670000	5.80093500
84.89999514	0.00000000	19.75886000	8.91978400
85.09999512	0.00000000	19.76501000	10.45152000
85.29999511	0.00000000	20.17716000	10.03322000
85.49999510	0.00000000	20.55241000	7.33882900
85.69999509	0.00000000	20.97072000	3.11269700
85.89999508	0.00000000	21.71506000	-1.57480300
86.09999506	0.00000000	22.09030000	-6.17618100
86.29999505	0.00000000	22.09030000	-9.65797200
86.49999504	0.00000000	21.66585000	-10.77756000
86.69999503	0.00000000	20.50935000	-9.65797200
86.89999502	0.00000000	18.97145000	-6.17618100
87.09999501	0.00000000	17.43356000	-1.57480300
87.29999499	0.00000000	16.27707000	3.11269700
87.49999498	0.00000000	15.90182000	7.33882900
87.69999497	0.00000000	16.32013000	9.98400600
87.89999496	0.00000000	17.85802000	9.98400600
88.09999495	0.00000000	20.13410000	7.33882900
88.29999493	0.00000000	22.09030000	3.11269700
88.49999492	0.00000000	23.62205000	-1.53174200
88.69999491	0.00000000	24.36639000	-5.75787400
88.89999490	0.00000000	23.62205000	-8.45226300
89.09999489	0.00000000	22.13336000	-8.82750900
89.29999487	0.00000000	20.55241000	-6.92052100
89.49999486	0.00000000	18.97145000	-3.06963600
89.69999485	0.00000000	17.43356000	1.53174200
89.89999484	0.00000000	16.32013000	5.75787400
90.09999483	0.00000000	16.32013000	8.45226300
90.29999482	0.00000000	17.43356000	8.82750900
90.49999480	0.00000000	18.97145000	6.92052100
90.69999479	0.00000000	20.50935000	3.06963600
90.89999478	0.00000000	21.66585000	-1.53174200
91.09999477	0.00000000	22.09030000	-5.75787400
91.29999476	0.00000000	22.13336000	-8.40920300
91.49999474	0.00000000	22.09030000	-8.40920300
91.69999473	0.00000000	21.71506000	-5.75787400
91.89999472	0.00000000	20.97072000	-1.53174200
92.09999471	0.00000000	20.59547000	3.06963600
92.29999470	0.00000000	20.55241000	6.87746000
92.49999468	0.00000000	20.55241000	8.40920300
92.69999467	0.00000000	20.50935000	7.29576700
92.89999466	0.00000000	20.13410000	4.26919300
93.09999465	0.00000000	19.34670000	0.37524600
93.29999464	0.00000000	18.59621000	-3.48794300
93.49999463	0.00000000	17.80881000	-6.92052100
93.69999461	0.00000000	17.43356000	-8.40920300
93.89999460	0.00000000	17.48277000	-7.25270600
94.09999459	0.00000000	18.27633000	-3.85703700
94.29999458	0.00000000	20.17716000	0.73818890
94.49999457	0.00000000	22.09030000	4.55831700
94.69999455	0.00000000	23.67126000	6.92052100
94.89999454	0.00000000	24.78469000	7.29576700
95.09999453	0.00000000	24.78469000	5.75787400
95.29999452	0.00000000	23.62205000	2.64517700
95.49999451	0.00000000	21.66585000	-1.53174200
95.69999449	0.00000000	18.92839000	-5.33956700
95.89999448	0.00000000	15.90182000	-7.24655500
96.09999447	0.00000000	13.57652000	-6.92052100
96.29999446	0.00000000	12.82603000	-4.64443900
96.49999445	0.00000000	13.57652000	-1.58095500
96.69999444	0.00000000	15.94488000	1.53174200
96.89999442	0.00000000	19.38976000	4.22613100
97.09999441	0.00000000	23.24680000	5.75787400
97.29999440	0.00000000	26.36565000	5.75787400
97.49999439	0.00000000	28.32185000	4.22613100
97.69999438	0.00000000	29.06619000	1.53174200
97.89999436	0.00000000	27.86048000	-1.48868100
98.09999435	0.00000000	24.78469000	-3.80782500
98.29999434	0.00000000	20.55241000	-4.60137700
98.49999433	0.00000000	16.27707000	-4.22613100
98.69999432	0.00000000	12.82603000	-2.73745100
98.89999430	0.00000000	10.88213000	-0.83661410
99.09999429	0.00000000	11.24508000	0.32603340
99.29999428	0.00000000	13.15822000	1.15649600
99.49999427	0.00000000	16.32013000	1.53174200
99.69999426	0.00000000	20.50935000	1.53174200
99.89999425	0.00000000	24.36639000	1.15649600
100.09999423	0.00000000	26.74089000	0.46136810
100.29999422	0.00000000	27.94660000	0.46136810
100.49999421	0.00000000	27.90354000	1.15649600
100.69999420	0.00000000	26.32259000	1.53174200
100.89999419	0.00000000	23.24680000	1.53174200
101.09999417	0.00000000	19.43897000	1.11343500
101.29999416	0.00000000	16.32013000	-0.04306102
101.49999415	0.00000000	14.32087000	-1.53174200
101.69999414	0.00000000	13.15822000	-2.68823800
101.89999413	0.00000000	13.20128000	-3.11269700
102.09999411	0.00000000	14.73917000	-3.11269700
102.29999410	0.00000000	17.39050000	-2.64517700
102.49999409	0.00000000	20.13410000	-1.07037400
102.69999408	0.00000000	22.46555000	1.58095500
102.89999407	0.00000000	24.40945000	4.22613100
103.09999406	0.00000000	25.15994000	5.75787400
103.29999404	0.00000000	24.82775000	5.80093500
103.49999403	0.00000000	23.62205000	4.64443900
103.69999402	0.00000000	21.71506000	2.69439000
103.89999401	0.00000000	19.38976000	-0.04306102
104.09999400	0.00000000	17.48277000	-3.06348400
104.29999398	0.00000000	16.27707000	-5.33956700
104.49999397	0.00000000	15.90182000	-5.75787400
104.69999396	0.00000000	16.27707000	-4.64443900
104.89999395	0.00000000	17.43356000	-2.69439000
105.09999394	0.00000000	18.97145000	0.00000000
105.29999392	0.00000000	20.50935000	2.64517700
105.49999391	0.00000000	21.66585000	4.22613100
105.69999390	0.00000000	22.09030000	4.64443900
105.89999389	0.00000000	22.09030000	4.22613100
106.09999388	0.00000000	21.66585000	2.69439000
106.29999387	0.00000000	20.50935000	0.41830710
106.49999385	0.00000000	19.01451000	-1.53174200
106.69999384	0.00000000	17.90108000	-3.06348400
106.89999383	0.00000000	17.85802000	-3.80782500
107.09999382	0.00000000	18.59621000	-3.06348400
107.29999381	0.00000000	19.38976000	-1.57480300
107.49999379	0.00000000	20.55241000	0.00000000
107.69999378	0.00000000	21.66585000	1.53174200
107.89999377	0.00000000	22.04109000	2.64517700
108.09999376	0.00000000	21.66585000	2.64517700
108.29999375	0.00000000	20.50935000	1.53174200
108.49999374	0.00000000	19.01451000	0.00000000
108.69999372	0.00000000	17.85802000	-1.53174200
108.89999371	0.00000000	17.43356000	-2.68823800
109.09999370	0.00000000	17.43356000	-3.06348400
109.29999369	0.00000000	17.85802000	-2.68823800
109.49999368	0.00000000	19.01451000	-1.48868100
109.69999366	0.00000000	20.50935000	0.37524600
109.89999365	0.00000000	21.66585000	2.31914400
110.09999364	0.00000000	22.09030000	3.43873000
110.29999363	0.00000000	22.09030000	3.85088600
110.49999362	0.00000000	21.66585000	3.06348400
110.69999360	0.00000000	20.50935000	1.57480300
110.89999359	0.00000000	19.01451000	0.00000000
111.09999358	0.00000000	17.85802000	-1.53174200
111.29999357	0.00000000	17.43356000	-2.68823800
111.49999356	0.00000000	17.43356000	-3.11269700
111.69999355	0.00000000	17.80881000	-3.11269700
111.89999353	0.00000000	18.59621000	-2.68823800
112.09999352	0.00000000	19.34670000	-1.53174200
112.29999351	0.00000000	20.17716000	-0.04306102
112.49999350	0.00000000	20.92766000	1.11343500
112.69999349	0.00000000	21.66585000	1.53174200
112.89999347	0.00000000	21.66585000	1.57480300
113.09999346	0.00000000	20.92766000	1.53174200
113.29999345	0.00000000	20.13410000	1.15649600
113.49999344	0.00000000	19.01451000	0.41830710
113.69999343	0.00000000	18.27633000	0.04306102
113.89999341	0.00000000	18.59621000	0.00000000
114.09999340	0.00000000	18.92839000	-0.04306102
114.29999339	0.00000000	18.97145000	-0.41830710
114.49999338	0.00000000	19.01451000	-1.11343500
114.69999337	0.00000000	19.38976000	-1.15649600
114.89999336	0.00000000	20.13410000	-0.79355310
115.09999334	0.00000000	20.50935000	-0.83046260
115.29999333	0.00000000	20.55241000	-0.79355310
115.49999332	0.00000000	20.55241000	-1.15649600
115.69999331	0.00000000	20.50935000	-1.11343500
115.89999330	0.00000000	20.13410000	-0.37524600
116.09999328	0.00000000	19.38976000	0.37524600
116.29999327	0.00000000	19.01451000	1.15649600
116.49999326	0.00000000	18.97145000	1.53174200
116.69999325	0.00000000	18.97145000	1.53174200
116.89999324	0.00000000	19.01451000	1.19955700
117.09999322	0.00000000	19.38976000	0.79355310
117.29999321	0.00000000	20.13410000	0.73818890
117.49999320	0.00000000	20.55241000	-0.04306102
117.69999319	0.00000000	20.97072000	-1.11343500
117.89999318	0.00000000	21.71506000	-1.53174200
118.09999317	0.00000000	22.09030000	-1.57480300
118.29999315	0.00000000	22.09030000	-1.57480300
118.49999314	0.00000000	21.66585000	-1.53174200
118.69999313	0.00000000	20.50935000	-1.15649600
118.89999312	0.00000000	19.01451000	-0.37524600
119.09999311	0.00000000	17.85802000	0.37524600
119.29999309	0.00000000	17.43356000	1.15649600
119.49999308	0.00000000	17.39050000	1.53174200
119.69999307	0.00000000	17.43356000	1.57480300
119.89999306	0.00000000	17.85802000	1.57480300
120.09999305	0.00000000	19.01451000	1.53174200
120.29999303	0.00000000	20.55241000	1.15649600
120.49999302	0.00000000	22.04109000	0.41830710
120.69999301	0.00000000	22.82849000	0.04306102
120.89999300	0.00000000	22.50861000	-0.04306102
121.09999299	0.00000000	22.13336000	-0.41830710
121.29999298	0.00000000	21.66585000	-1.15649600
121.49999296	0.00000000	20.50935000	-1.53174200
121.69999295	0.00000000	19.01451000	-1.57480300
121.89999294	0.00000000	17.85802000	-1.57480300
122.09999293	0.00000000	17.43356000	-1.53174200
122.29999292	0.00000000	17.39050000	-1.15649600
122.49999290	0.00000000	17.43356000	-0.37524600
122.69999289	0.00000000	17.85802000	0.37524600
122.89999288	0.00000000	18.97145000	1.15649600
123.09999287	0.00000000	20.13410000	1.53174200
123.29999286	0.00000000	20.92766000	1.53174200
123.49999284	0.00000000	21.71506000	1.15649600
123.69999283	0.00000000	22.04109000	0.41830710
123.89999282	0.00000000	21.71506000	0.00000000
124.09999281	0.00000000	20.97072000	-0.41830710
124.29999280	0.00000000	20.55241000	-1.15649600
124.49999279	0.00000000	20.13410000	-1.53174200
124.69999277	0.00000000	19.34670000	-1.53174200
124.89999276	0.00000000	18.59621000	-1.19955700
125.09999275	0.00000000	17.80881000	-0.79355310
125.29999274	0.00000000	17.43356000	-0.78124990
125.49999273	0.00000000	17.43356000	-0.32603340
125.69999271	0.00000000	17.80881000	0.32603340
125.89999270	0.00000000	18.63927000	0.78124990
126.09999269	0.00000000	19.72195000	0.79355310
126.29999268	0.00000000	20.92150000	1.15649600
126.49999267	0.00000000	21.30290000	1.11343500
126.69999265	0.00000000	21.71506000	0.41830710
126.89999264	0.00000000	21.66585000	0.00000000
127.09999263	0.00000000	20.92766000	-0.41830710
127.29999262	0.00000000	20.17716000	-1.11343500
127.49999261	0.00000000	19.34670000	-1.15649600
127.69999260	0.00000000	18.55315000	-0.79355310
127.89999258	0.00000000	17.43356000	-0.78124990
128.09999257	0.00000000	16.69537000	-0.37524600
128.29999256	0.00000000	17.05832000	-0.04306102
128.49999255	0.00000000	17.80881000	0.00000000
128.69999254	0.00000000	19.01451000	0.00000000
128.89999252	0.00000000	20.50935000	0.00000000
129.09999251	0.00000000	21.66585000	0.00000000
129.29999250	0.00000000	22.04109000	0.00000000
129.49999249	0.00000000	21.66585000	-0.04306102
129.69999248	0.00000000	20.55241000	-0.41830710
129.89999246	0.00000000	19.38976000	-1.11343500
130.09999245	0.00000000	18.59621000	-1.11343500
130.29999244	0.00000000	17.80881000	-0.41830710
130.49999243	0.00000000	17.43356000	-0.04306102
130.69999242	0.00000000	17.43356000	0.04306102
130.89999241	0.00000000	17.85802000	0.37524600
131.09999239	0.00000000	18.97145000	0.73818890
131.29999238	0.00000000	20.08489000	0.37524600
131.49999237	0.00000000	20.55241000	0.04306102
131.69999236	0.00000000	20.92766000	-0.04306102
131.89999235	0.00000000	21.29675000	-0.41830710
132.09999233	0.00000000	20.88459000	-1.15649600
132.29999232	0.00000000	20.17716000	-1.53174200
132.49999231	0.00000000	19.38976000	-1.57480300
132.69999230	0.00000000	18.97145000	-1.53174200
132.89999229	0.00000000	18.59621000	-1.15649600
133.09999227	0.00000000	18.22711000	-0.37524600
133.29999226	0.00000000	18.59621000	0.37524600
133.49999225	0.00000000	18.92839000	1.15649600
133.69999224	0.00000000	18.97145000	1.53174200
133.89999223	0.00000000	19.01451000	1.57480300
134.09999222	0.00000000	19.34670000	1.53174200
134.29999220	0.00000000	19.71580000	1.11343500
134.49999219	0.00000000	19.34670000	0.00000000
134.69999218	0.00000000	19.06373000	-1.11343500
134.89999217	0.00000000	19.38976000	-1.57480300
135.09999216	0.00000000	20.13410000	-1.95004900
135.29999214	0.00000000	20.50935000	-2.31914400
135.49999213	0.00000000	20.55241000	-1.95004900
135.69999212	0.00000000	20.55241000	-1.57480300
135.89999211	0.00000000	20.50935000	-1.15649600
136.09999210	0.00000000	20.13410000	-0.37524600
136.29999208	0.00000000	19.38976000	0.37524600
136.49999207	0.00000000	18.97145000	1.15649600
136.69999206	0.00000000	18.55315000	1.53174200
136.89999205	0.00000000	17.85802000	1.53174200
137.09999204	0.00000000	17.85802000	1.15649600
137.29999203	0.00000000	18.59621000	0.37524600
137.49999201	0.00000000	19.34670000	-0.37524600
137.69999200	0.00000000	20.13410000	-1.15649600
137.89999199	0.00000000	20.50935000	-1.53174200
138.09999198	0.00000000	20.55241000	-1.57480300
138.29999197	0.00000000	20.50935000	-1.57480300
138.49999195	0.00000000	20.13410000	-1.57480300
138.69999194	0.00000000	19.34670000	-1.53174200
138.89999193	0.00000000	18.59621000	-1.15649600
139.09999192	0.00000000	17.85802000	-0.37524600
139.29999191	0.00000000	17.80881000	0.37524600
139.49999189	0.00000000	18.17790000	1.15649600
139.69999188	0.00000000	18.18405000	1.53174200
139.89999187	0.00000000	18.63927000	1.57480300
140.09999186	0.00000000	19.34670000	1.53174200
140.29999185	0.00000000	20.13410000	1.11343500
140.49999184	0.00000000	20.50935000	0.00000000
140.69999182	0.00000000	20.50935000	-1.11343500
140.89999181	0.00000000	20.13410000	-1.53174200
141.09999180	0.00000000	19.38976000	-1.57480300
141.29999179	0.00000000	19.01451000	-1.57480300
141.49999178	0.00000000	18.97145000	-1.53174200
141.69999176	0.00000000	18.97145000	-1.15649600
141.89999175	0.00000000	18.97145000	-0.37524600
142.09999174	0.00000000	18.97145000	0.37524600
142.29999173	0.00000000	19.01451000	1.19955700
142.49999172	0.00000000	19.38976000	1.90698800
142.69999170	0.00000000	20.08489000	2.26993100
142.89999169	0.00000000	20.08489000	1.53174200
143.09999168	0.00000000	19.38976000	0.41830710
143.29999167	0.00000000	19.01451000	-0.37524600
143.49999166	0.00000000	18.97145000	-1.19955700
143.69999165	0.00000000	18.97145000	-1.90698800
143.89999163	0.00000000	18.97145000	-2.31914400
144.09999162	0.00000000	18.97145000	-1.90698800
144.29999161	0.00000000	18.97145000	-1.19955700
144.49999160	0.00000000	19.01451000	-0.41830710
144.69999159	0.00000000	19.38976000	0.00000000
144.89999157	0.00000000	20.13410000	0.41830710
145.09999156	0.00000000	20.46014000	1.11343500
145.29999155	0.00000000	20.13410000	1.15649600
145.49999154	0.00000000	19.38976000	0.79355310
145.69999153	0.00000000	19.01451000	0.73818890
145.89999151	0.00000000	18.97145000	-0.04306102
146.09999150	0.00000000	18.97145000	-1.11343500
146.29999149	0.00000000	18.97145000	-1.53174200
146.49999148	0.00000000	18.97145000	-1.57480300
146.69999147	0.00000000	18.97145000	-1.53174200
146.89999146	0.00000000	19.01451000	-1.15649600
147.09999144	0.00000000	19.38976000	-0.41830710
147.29999143	0.00000000	20.13410000	-0.04306102
147.49999142	0.00000000	20.46014000	0.00000000
147.69999141	0.00000000	20.13410000	0.00000000
147.89999140	0.00000000	19.38976000	0.00000000
148.09999138	0.00000000	18.97145000	0.00000000
148.29999137	0.00000000	18.59621000	0.00000000
148.49999136	0.00000000	18.22711000	0.00000000
148.69999135	0.00000000	18.59621000	0.00000000
148.89999134	0.00000000	18.92839000	-0.04306102
149.09999132	0.00000000	19.01451000	-0.41830710
149.29999131	0.00000000	19.38976000	-1.15649600
149.49999130	0.00000000	20.13410000	-1.53174200
149.69999129	0.00000000	20.50935000	-1.53174200
149.89999128	0.00000000	20.55241000	-1.15649600
150.09999127	0.00000000	20.55241000	-0.41830710
150.29999125	0.00000000	20.50935000	-0.04306102
150.49999124	0.00000000	20.13410000	0.00000000
150.69999123	0.00000000	19.38976000	0.00000000
150.89999122	0.00000000	18.97145000	0.00000000
151.09999121	0.00000000	18.59621000	0.00000000
151.29999119	0.00000000	18.22711000	0.00000000
151.49999118	0.00000000	18.59621000	0.00000000
151.69999117	0.00000000	18.92839000	0.00000000
151.89999116	0.00000000	18.97145000	-0.04306102
152.09999115	0.00000000	18.97145000	-0.41830710
152.29999113	0.00000000	19.01451000	-1.11343500
152.49999112	0.00000000	19.38976000	-1.11343500
152.69999111	0.00000000	20.13410000	-0.41830710
152.89999110	0.00000000	20.50935000	-0.04306102
153.09999109	0.00000000	20.55241000	0.00000000
153.29999108	0.00000000	20.50935000	0.00000000
153.49999106	0.00000000	20.13410000	0.00000000
153.69999105	0.00000000	19.38976000	0.00000000
153.89999104	0.00000000	18.97145000	0.00000000
154.09999103	0.00000000	18.59621000	0.00000000
154.29999102	0.00000000	18.18405000	0.00000000
154.49999100	0.00000000	18.22096000	0.00000000
154.69999099	0.00000000	18.18405000	0.00000000
154.89999098	0.00000000	18.59621000	0.00000000
155.09999097	0.00000000	18.92839000	0.00000000
155.29999096	0.00000000	19.01451000	0.00000000
155.49999094	0.00000000	19.38976000	0.00000000
155.69999093	0.00000000	20.13410000	0.00000000
155.89999092	0.00000000	20.50935000	0.00000000
156.09999091	0.00000000	20.50935000	0.00000000
156.29999090	0.00000000	20.13410000	0.00000000
156.49999089	0.00000000	19.38976000	0.00000000
156.69999087	0.00000000	18.97145000	0.00000000
156.89999086	0.00000000	18.59621000	0.00000000
157.09999085	0.00000000	18.18405000	0.00000000
157.29999084	0.00000000	18.22096000	0.00000000
157.49999083	0.00000000	18.18405000	0.00000000
157.69999081	0.00000000	18.59621000	0.00000000
157.89999080	0.00000000	18.97145000	0.00000000
158.09999079	0.00000000	19.34670000	-0.04306102
158.29999078	0.00000000	19.71580000	-0.41830710
158.49999077	0.00000000	19.38976000	-1.15649600
158.69999075	0.00000000	19.43897000	-1.53174200
158.89999074	0.00000000	20.08489000	-1.53174200
159.09999073	0.00000000	20.08489000	-1.15649600
159.29999072	0.00000000	19.38976000	-0.41830710
159.49999071	0.00000000	19.01451000	-0.04306102
159.69999070	0.00000000	18.97145000	0.00000000
159.89999068	0.00000000	18.97145000	0.00000000
160.09999067	0.00000000	18.97145000	0.00000000
160.29999066	0.00000000	18.97145000	0.00000000
160.49999065	0.00000000	18.97145000	0.00000000
160.69999064	0.00000000	18.97145000	0.00000000
160.89999062	0.00000000	18.97145000	-0.04306102
161.09999061	0.00000000	18.97145000	-0.41830710
161.29999060	0.00000000	18.97145000	-1.11343500
161.49999059	0.00000000	18.97145000	-1.15649600
161.69999058	0.00000000	19.01451000	-0.79355310
161.89999056	0.00000000	19.34670000	-0.78124990
162.09999055	0.00000000	19.71580000	-0.37524600
162.29999054	0.00000000	19.34670000	-0.04306102
162.49999053	0.00000000	19.01451000	0.00000000
162.69999052	0.00000000	18.97145000	0.00000000
162.89999051	0.00000000	18.97145000	0.00000000
163.09999049	0.00000000	18.97145000	0.00000000
163.29999048	0.00000000	18.97145000	0.00000000
163.49999047	0.00000000	18.92839000	0.00000000
163.69999046	0.00000000	18.55315000	0.00000000
163.89999045	0.00000000	17.80881000	-0.04306102
164.09999043	0.00000000	17.43356000	-0.37524600
164.29999042	0.00000000	17.43356000	-0.73818890
164.49999041	0.00000000	17.80881000	-0.37524600
164.69999040	0.00000000	18.55315000	-0.04306102
164.89999039	0.00000000	18.92839000	0.00000000
165.09999037	0.00000000	18.97145000	0.00000000
165.29999036	0.00000000	18.97145000	0.00000000
165.49999035	0.00000000	18.97145000	0.00000000
165.69999034	0.00000000	18.97145000	0.00000000
165.89999033	0.00000000	18.97145000	0.00000000
166.09999032	0.00000000	18.97145000	0.00000000
166.29999030	0.00000000	18.97145000	0.00000000
166.49999029	0.00000000	18.92839000	0.00000000
166.69999028	0.00000000	18.55315000	0.00000000
166.89999027	0.00000000	17.85802000	0.00000000
167.09999026	0.00000000	17.85802000	0.00000000
167.29999024	0.00000000	18.55315000	0.00000000
167.49999023	0.00000000	18.92839000	0.00000000
167.69999022	0.00000000	18.97145000	-0.04306102
167.89999021	0.00000000	18.97145000	-0.37524600
168.09999020	0.00000000	18.97145000	-0.73818890
168.29999018	0.00000000	19.01451000	-0.37524600
168.49999017	0.00000000	19.34670000	-0.04306102
168.69999016	0.00000000	19.71580000	0.00000000
168.89999015	0.00000000	19.34670000	0.00000000
169.09999014	0.00000000	19.01451000	0.00000000
169.29999013	0.00000000	18.97145000	0.00000000
169.49999011	0.00000000	18.97145000	0.00000000
169.69999010	0.00000000	18.97145000	0.00000000
169.89999009	0.00000000	18.97145000	0.00000000
170.09999008	0.00000000	18.97145000	0.00000000
170.29999007	0.00000000	18.97145000	0.00000000
170.49999005	0.00000000	18.97145000	0.00000000
170.69999004	0.00000000	18.97145000	0.00000000
170.89999003	0.00000000	18.97145000	0.00000000
171.09999002	0.00000000	18.97145000	0.00000000
171.29999001	0.00000000	18.97145000	0.00000000
171.49998999	0.00000000	18.97145000	0.00000000
171.69998998	0.00000000	18.97145000	-0.04306102
171.89998997	0.00000000	18.97145000	-0.41830710
172.09998996	0.00000000	18.97145000	-1.11343500
172.29998995	0.00000000	18.97145000	-1.11343500
172.49998994	0.00000000	18.97145000	-0.41830710
172.69998992	0.00000000	18.92839000	-0.04306102
172.89998991	0.00000000	18.59621000	0.00000000
173.09998990	0.00000000	18.22711000	0.00000000
173.29998989	0.00000000	18.59621000	0.00000000
173.49998988	0.00000000	18.92839000	0.00000000
173.69998986	0.00000000	18.97145000	-0.04306102
173.89998985	0.00000000	18.97145000	-0.37524600
174.09998984	0.00000000	18.97145000	-0.73818890
174.29998983	0.00000000	18.97145000	-0.41830710
174.49998982	0.00000000	18.97145000	-0.41830710
174.69998980	0.00000000	18.97145000	-0.73818890
174.89998979	0.00000000	18.97145000	-0.41830710
175.09998978	0.00000000	18.97145000	-0.46136810
175.29998977	0.00000000	18.97145000	-1.11343500
175.49998976	0.00000000	18.97145000	-1.11343500
175.69998975	0.00000000	18.97145000	-0.41830710
175.89998973	0.00000000	18.97145000	-0.04306102
176.09998972	0.00000000	18.97145000	0.00000000
176.29998971	0.00000000	18.97145000	0.00000000
176.49998970	0.00000000	18.97145000	0.00000000
176.69998969	0.00000000	18.97145000	0.00000000
176.89998967	0.00000000	18.97145000	-0.04306102
177.09998966	0.00000000	18.97145000	-0.37524600
177.29998965	0.00000000	18.97145000	-0.73818890
177.49998964	0.00000000	18.97145000	-0.41830710
177.69998963	0.00000000	18.97145000	-0.46136810
177.89998961	0.00000000	18.97145000	-1.15649600
178.09998960	0.00000000	18.92839000	-1.53174200
178.29998959	0.00000000	18.59621000	-1.53174200
178.49998958	0.00000000	18.22711000	-1.15649600
178.69998957	0.00000000	18.59621000	-0.41830710
178.89998956	0.00000000	18.92839000	-0.04306102
179.09998954	0.00000000	18.97145000	0.00000000
179.29998953	0.00000000	18.97145000	0.00000000
179.49998952	0.00000000	18.97145000	0.00000000
179.69998951	0.00000000	18.97145000	0.00000000
179.89998950	0.00000000	18.97145000	-0.04306102
180.09998948	0.00000000	18.97145000	-0.41830710
180.29998947	0.00000000	18.97145000	-1.15649600
180.49998946	0.00000000	18.97145000	-1.53174200
180.69998945	0.00000000	18.97145000	-1.57480300
180.89998944	0.00000000	18.97145000	-1.53174200
181.09998942	0.00000000	18.97145000	-1.15649600
181.29998941	0.00000000	18.97145000	-0.41830710
181.49998940	0.00000000	18.97145000	-0.04306102
181.69998939	0.00000000	18.97145000	0.00000000
181.89998938	0.00000000	18.97145000	0.00000000
182.09998937	0.00000000	18.97145000	0.00000000
182.29998935	0.00000000	18.97145000	0.00000000
182.49998934	0.00000000	18.97145000	0.00000000
182.69998933	0.00000000	18.97145000	0.00000000
182.89998932	0.00000000	18.97145000	0.00000000
183.09998931	0.00000000	18.97145000	-0.04306102
183.29998929	0.00000000	18.97145000	-0.41830710
183.49998928	0.00000000	18.97145000	-1.15649600
183.69998927	0.00000000	18.97145000	-1.53174200
183.89998926	0.00000000	18.97145000	-1.53174200
184.09998925	0.00000000	18.97145000	-1.15649600
184.29998923	0.00000000	18.97145000	-0.41830710
184.49998922	0.00000000	18.97145000	-0.04306102
184.69998921	0.00000000	18.97145000	0.00000000
184.89998920	0.00000000	18.97145000	0.00000000
185.09998919	0.00000000	18.97145000	0.00000000
185.29998918	0.00000000	18.97145000	0.00000000
185.49998916	0.00000000	18.97145000	0.00000000
185.69998915	0.00000000	18.97145000	-0.04306102
185.89998914	0.00000000	18.97145000	-0.41830710
186.09998913	0.00000000	18.97145000	-1.15649600
186.29998912	0.00000000	18.97145000	-1.53174200
186.49998910	0.00000000	18.97145000	-1.57480300
186.69998909	0.00000000	18.97145000	-1.57480300
186.89998908	0.00000000	18.97145000	-1.53174200
187.09998907	0.00000000	18.97145000	-1.15649600
187.29998906	0.00000000	18.97145000	-0.41830710
187.49998904	0.00000000	18.92839000	-0.04306102
187.69998903	0.00000000	18.59621000	0.00000000
187.89998902	0.00000000	18.22711000	0.00000000
188.09998901	0.00000000	18.59621000	0.00000000
188.29998900	0.00000000	18.92839000	0.00000000
188.49998899	0.00000000	18.97145000	0.00000000
188.69998897	0.00000000	18.97145000	-0.04306102
188.89998896	0.00000000	18.97145000	-0.41830710
189.09998895	0.00000000	18.97145000	-1.15649600
189.29998894	0.00000000	18.97145000	-1.53174200
189.49998893	0.00000000	18.97145000	-1.57480300
189.69998891	0.00000000	18.97145000	-1.57480300
189.89998890	0.00000000	18.97145000	-1.53174200
190.09998889	0.00000000	18.92839000	-1.19955700
190.29998888	0.00000000	18.59621000	-0.79355310
190.49998887	0.00000000	18.18405000	-0.78124990
190.69998885	0.00000000	18.17790000	-0.37524600
190.89998884	0.00000000	17.80881000	-0.04306102
191.09998883	0.00000000	17.85802000	0.00000000
191.29998882	0.00000000	18.55315000	0.00000000
191.49998881	0.00000000	18.92839000	0.00000000
191.69998880	0.00000000	18.97145000	0.00000000
191.89998878	0.00000000	18.97145000	0.00000000
192.09998877	0.00000000	18.97145000	-0.04306102
192.29998876	0.00000000	18.97145000	-0.41830710
192.49998875	0.00000000	18.92839000	-1.15649600
192.69998874	0.00000000	18.59621000	-1.53174200
192.89998872	0.00000000	18.22711000	-1.53174200
193.09998871	0.00000000	18.55315000	-1.15649600
193.29998870	0.00000000	18.50394000	-0.41830710
193.49998869	0.00000000	17.85802000	-0.04306102
193.69998868	0.00000000	17.80881000	-0.04306102
193.89998866	0.00000000	18.17790000	-0.37524600
194.09998865	0.00000000	18.18405000	-0.73818890
194.29998864	0.00000000	18.59621000	-0.37524600
194.49998863	0.00000000	18.92839000	-0.04306102
194.69998862	0.00000000	18.97145000	0.00000000
194.89998861	0.00000000	18.97145000	0.00000000
195.09998859	0.00000000	18.97145000	0.00000000
195.29998858	0.00000000	18.97145000	0.00000000
195.49998857	0.00000000	18.92839000	-0.04306102
195.69998856	0.00000000	18.55315000	-0.41830710
195.89998855	0.00000000	17.80881000	-1.15649600
196.09998853	0.00000000	17.43356000	-1.53174200
