Time	Channel A	Channel B	Channel C
(us)	(V)	(mV)	(mV)

-4.59999956	0.00000000	61.62032000	16.99065000
-4.39999957	0.00000000	61.66338000	17.27362000
-4.19999958	0.00000000	61.62032000	16.94759000
-3.99999959	0.00000000	61.28814000	16.20325000
-3.79999960	0.00000000	60.91904000	15.82800000
-3.59999962	0.00000000	61.24508000	15.78494000
-3.39999963	0.00000000	61.24508000	15.78494000
-3.19999964	0.00000000	60.91904000	15.78494000
-2.99999965	0.00000000	61.28814000	15.78494000
-2.79999966	0.00000000	61.62032000	15.82800000
-2.59999968	0.00000000	61.66338000	16.16018000
-2.39999969	0.00000000	61.62032000	16.52928000
-2.19999970	0.00000000	61.24508000	16.16018000
-1.99999971	0.00000000	60.50073000	15.82800000
-1.79999972	0.00000000	60.12549000	15.78494000
-1.59999973	0.00000000	60.08243000	15.78494000
-1.39999975	0.00000000	60.08243000	15.78494000
-1.19999976	0.00000000	60.08243000	15.78494000
-0.99999977	0.00000000	60.08243000	15.78494000
-0.79999978	0.00000000	60.08243000	15.78494000
-0.59999979	0.00000000	60.12549000	15.78494000
-0.39999981	0.00000000	60.45767000	15.78494000
-0.19999982	0.31803640	60.86983000	15.78494000
0.00000017	0.79601380	60.83292000	15.78494000
0.20000016	0.95533960	60.86983000	15.78494000
0.40000015	1.11466500	60.45767000	15.78494000
0.60000013	0.79601380	60.12549000	15.78494000
0.80000012	0.15871060	60.08243000	15.78494000
1.00000011	-0.79601380	60.08243000	15.78494000
1.20000010	-1.75196900	60.08243000	15.78494000
1.40000009	-2.54859700	60.08243000	15.78494000
1.60000008	-2.70792300	60.08243000	15.82800000
1.80000006	-2.22994600	60.12549000	16.20325000
2.00000005	-0.95533960	60.50073000	16.94759000
2.20000004	0.95533960	61.19586000	17.27362000
2.40000003	3.18590100	61.19586000	16.94759000
2.60000002	4.77854300	60.50073000	16.20325000
2.80000000	5.41584600	60.12549000	15.82800000
2.99999999	4.61921700	60.08243000	15.78494000
3.19999998	2.38927200	60.08243000	15.82800000
3.39999997	-0.79601380	60.08243000	16.16018000
3.59999996	-4.14124000	60.08243000	16.52928000
3.79999994	-6.84916400	60.12549000	16.20325000
3.99999993	-7.96444400	60.50073000	16.25246000
4.19999992	-7.00848900	61.19586000	16.94759000
4.39999991	-4.30056600	61.24508000	17.36589000
4.59999990	-0.15871060	60.87598000	17.74114000
4.79999989	4.30056600	60.91289000	18.06102000
4.99999987	7.80511800	60.83292000	17.32283000
5.19999986	9.39837600	60.86983000	16.25246000
5.39999985	8.76107300	60.45767000	15.82800000
5.59999984	5.89382400	60.12549000	15.78494000
5.79999983	1.43331700	60.08243000	15.78494000
5.99999981	-3.34522600	60.08243000	15.78494000
6.19999980	-7.32714100	60.08243000	15.82800000
6.39999979	-9.23905000	60.12549000	16.20325000
6.59999978	-8.92039900	60.45767000	16.94759000
6.79999977	-6.53112700	60.82677000	17.32283000
6.99999975	-2.54859700	60.50073000	17.36589000
7.19999974	1.91129400	60.50073000	17.36589000
7.39999973	5.57517200	60.82677000	17.36589000
7.59999972	7.48646600	60.45767000	17.32283000
7.79999971	7.48646600	60.12549000	16.94759000
7.99999970	5.73449800	60.08243000	16.20325000
8.19999968	2.70792300	60.08243000	15.82800000
8.39999967	-0.47736220	60.08243000	15.78494000
8.59999966	-3.18590100	60.08243000	15.82800000
8.79999965	-4.93786900	60.12549000	16.20325000
8.99999964	-5.09719500	60.45767000	16.89837000
9.19999962	-3.98191400	60.82677000	16.94759000
9.39999961	-2.22994600	60.45767000	16.57849000
9.59999960	-0.31803640	60.12549000	16.57234000
9.79999959	1.43331700	60.08243000	16.16018000
9.99999958	2.38927200	60.08243000	15.82800000
10.19999956	2.54859700	60.08243000	15.78494000
10.39999955	2.07062000	60.08243000	15.78494000
10.59999954	1.27399100	60.08243000	15.78494000
10.79999953	0.31803640	60.08243000	15.78494000
10.99999952	-0.31803640	60.08243000	15.78494000
11.19999951	-0.79601380	60.08243000	15.78494000
11.39999949	-0.95533960	60.08243000	15.78494000
11.59999948	-0.95533960	60.08243000	15.78494000
11.79999947	-0.63668800	60.08243000	15.78494000
11.99999946	-0.31803640	60.08243000	15.78494000
12.19999945	-0.15871060	60.08243000	15.78494000
12.39999943	-0.15871060	60.08243000	15.78494000
12.59999942	0.00000000	60.08243000	15.78494000
12.79999941	0.00000000	60.08243000	15.78494000
12.99999940	0.00000000	60.08243000	15.78494000
13.19999939	0.15871060	60.08243000	15.78494000
13.39999937	0.00000000	60.08243000	15.78494000
13.59999936	0.00000000	60.08243000	15.78494000
13.79999935	0.00000000	60.08243000	15.78494000
13.99999934	0.00000000	60.08243000	15.78494000
14.19999933	-0.15871060	60.08243000	15.78494000
14.39999932	-0.15871060	60.08243000	15.78494000
14.59999930	0.00000000	60.08243000	15.78494000
14.79999929	0.00000000	60.08243000	15.78494000
14.99999928	0.00000000	60.08243000	15.78494000
15.19999927	0.00000000	60.08243000	15.78494000
15.39999926	0.00000000	60.08243000	15.78494000
15.59999924	0.00000000	60.08243000	15.82800000
15.79999923	0.00000000	60.08243000	16.16018000
15.99999922	0.00000000	60.08243000	16.57234000
16.19999921	0.00000000	60.08243000	16.57849000
16.39999920	0.00000000	60.08243000	16.94759000
16.59999919	-0.15871060	60.08243000	16.89837000
16.79999917	0.00000000	60.12549000	16.20325000
16.99999916	-0.15871060	60.50073000	15.82800000
17.19999915	0.00000000	61.24508000	15.78494000
17.39999914	0.00000000	61.62032000	15.82800000
17.59999913	0.00000000	61.66338000	16.20325000
17.79999911	0.00000000	61.62032000	16.89837000
17.99999910	0.00000000	61.19586000	16.89837000
18.19999909	0.00000000	60.03937000	16.20325000
18.39999908	0.00000000	58.50147000	15.82800000
18.59999907	0.00000000	56.96358000	15.78494000
18.79999905	0.00000000	55.80708000	15.78494000
18.99999904	0.00000000	55.43184000	15.78494000
19.19999903	0.00000000	55.80708000	15.78494000
19.39999902	0.00000000	57.05585000	15.78494000
19.59999901	0.00000000	59.43036000	15.78494000
19.79999900	0.00000000	63.29355000	15.78494000
19.99999898	0.00000000	67.48277000	15.78494000
20.19999897	0.00000000	70.55856000	15.78494000
20.39999896	0.00000000	71.71505000	15.82800000
20.59999895	0.00000000	70.46629000	16.16018000
20.79999894	0.00000000	66.59695000	16.52928000
20.99999892	0.00000000	60.32234000	16.16018000
21.19999891	0.00000000	53.00812000	15.82800000
21.39999890	0.00000000	45.66929000	15.78494000
21.59999889	0.00000000	40.72957000	15.78494000
21.79999888	0.00000000	39.65920000	15.78494000
21.99999886	0.00000000	43.57160000	15.78494000
22.19999885	0.00000000	52.49139000	15.78494000
22.39999884	0.00000000	64.08710000	15.78494000
22.59999883	0.00000000	76.50098000	15.78494000
22.79999882	0.00000000	86.83562000	15.78494000
22.99999881	0.00000000	92.18749000	15.82800000
23.19999879	0.00000000	90.51427000	16.20325000
23.39999878	0.00000000	81.20693000	16.94759000
23.59999877	0.00000000	65.71727000	17.32283000
23.79999876	0.00000000	47.61319000	17.40895000
23.99999875	0.00000000	31.00393000	17.74114000
24.19999873	0.00000000	20.25098000	18.11024000
24.39999872	0.00000000	17.97490000	17.69808000
24.59999871	0.00000000	25.41831000	16.94759000
24.79999870	0.00000000	41.65846000	15.69882000
24.99999869	0.00000000	63.29355000	13.83489000
25.19999867	0.00000000	85.30388000	11.88484000
25.39999866	0.00000000	102.61440000	10.76525000
25.59999865	0.00000000	110.70370000	10.40231000
25.79999864	0.00000000	107.22190000	11.65108000
25.99999863	0.00000000	93.25787000	14.67150000
26.19999862	0.00000000	71.20448000	18.57160000
26.39999860	0.00000000	45.80462000	22.43479000
26.59999859	0.00000000	23.79429000	25.91043000
26.79999858	0.00000000	10.24852000	27.77436000
26.99999857	0.00000000	7.92937900	27.35605000
27.19999856	0.00000000	17.55659000	24.20029000
27.39999854	0.00000000	36.44808000	18.39321000
27.59999853	0.00000000	60.03937000	11.04823000
27.79999852	0.00000000	83.25540000	3.70939900
27.99999851	0.00000000	101.03350000	-2.04847400
28.19999850	0.00000000	109.54720000	-4.65059000
28.39999848	0.00000000	106.84670000	-2.65748000
28.59999847	0.00000000	93.76845000	4.31225400
28.79999846	0.00000000	73.71432000	14.72072000
28.99999845	0.00000000	51.70398000	26.37795000
29.19999844	0.00000000	32.72023000	37.16166000
29.39999843	0.00000000	20.67544000	44.82037000
29.59999841	0.00000000	17.51353000	46.64124000
29.79999840	0.00000000	23.28371000	41.62155000
29.99999839	0.00000000	36.40502000	30.37647000
30.19999838	0.00000000	53.75861000	15.32357000
30.39999837	0.00000000	71.16142000	-0.51673230
30.59999835	0.00000000	84.74409000	-13.61343000
30.79999834	0.00000000	92.18749000	-20.91535000
30.99999833	0.00000000	92.64886000	-20.49705000
31.19999832	0.00000000	86.88483000	-11.95251000
31.39999831	0.00000000	76.41486000	3.05733300
31.59999829	0.00000000	63.24434000	21.26599000
31.79999828	0.00000000	50.12303000	38.65034000
31.99999827	0.00000000	40.02829000	52.12229000
32.19999826	0.00000000	34.91019000	57.88631000
32.39999825	0.00000000	34.91019000	54.45374000
32.59999824	0.00000000	39.98523000	43.28863000
32.79999822	0.00000000	49.56939000	26.61786000
32.99999821	0.00000000	60.73450000	8.07086500
33.19999820	0.00000000	70.46629000	-8.92593500
33.39999819	0.00000000	77.44217000	-20.49089000
33.59999818	0.00000000	80.13657000	-24.02805000
33.79999816	0.00000000	77.86047000	-19.42667000
33.99999815	0.00000000	71.75812000	-7.81250000
34.19999814	0.00000000	63.61958000	8.44611200
34.39999813	0.00000000	55.51796000	26.19955000
34.59999812	0.00000000	48.91732000	41.57849000
34.79999810	0.00000000	45.47243000	50.49828000
34.99999809	0.00000000	45.80462000	51.33489000
35.19999808	0.00000000	49.66166000	44.82037000
35.39999807	0.00000000	55.80708000	32.42495000
35.59999806	0.00000000	62.73376000	16.99065000
35.79999805	0.00000000	68.46087000	1.57480300
35.99999803	0.00000000	71.20448000	-9.90403500
36.19999802	0.00000000	70.46629000	-14.22244000
36.39999801	0.00000000	67.06447000	-10.87598000
36.59999800	0.00000000	61.99557000	-2.04847400
36.79999799	0.00000000	56.63754000	9.94094400
36.99999797	0.00000000	52.03617000	22.61934000
37.19999796	0.00000000	50.12303000	32.60949000
37.39999795	0.00000000	51.19340000	37.26009000
37.59999794	0.00000000	54.26919000	35.77140000
37.79999793	0.00000000	58.54454000	28.89395000
37.99999791	0.00000000	63.15822000	18.94685000
38.19999790	0.00000000	67.01525000	8.95669300
38.39999789	0.00000000	68.97761000	1.66092500
38.59999788	0.00000000	68.97761000	-1.03346500
38.79999787	0.00000000	67.01525000	1.66092500
38.99999786	0.00000000	63.15822000	8.91363100
39.19999784	0.00000000	58.59375000	18.47933000
39.39999783	0.00000000	54.68750000	27.26993000
39.59999782	0.00000000	52.31299000	32.60949000
39.79999781	0.00000000	51.15034000	32.60949000
39.99999780	0.00000000	51.56865000	27.26993000
40.19999778	0.00000000	53.85088000	18.43627000
40.39999777	0.00000000	56.96358000	8.49532500
40.59999776	0.00000000	60.50073000	0.41215550
40.79999775	0.00000000	64.36392000	-3.40182100
40.99999774	0.00000000	67.43970000	-2.23917300
41.19999772	0.00000000	69.02066000	4.31225400
41.39999771	0.00000000	69.02066000	14.21014000
41.59999770	0.00000000	67.43970000	24.24335000
41.79999769	0.00000000	64.36392000	31.95743000
41.99999768	0.00000000	60.50073000	35.76525000
42.19999767	0.00000000	57.01279000	34.27657000
42.39999765	0.00000000	54.26919000	28.14960000
42.59999764	0.00000000	52.73130000	19.69119000
42.79999763	0.00000000	52.68823000	10.44537000
42.99999762	0.00000000	53.80167000	3.14960600
43.19999761	0.00000000	55.38263000	-0.33218500
43.39999759	0.00000000	57.33883000	0.36909450
43.59999758	0.00000000	59.66412000	4.96432100
43.79999757	0.00000000	61.57111000	11.42347000
43.99999756	0.00000000	62.77681000	18.01796000
44.19999755	0.00000000	63.20127000	23.08686000
44.39999753	0.00000000	63.24434000	26.19955000
44.59999752	0.00000000	63.24434000	26.98080000
44.79999751	0.00000000	63.28740000	25.08612000
44.99999750	0.00000000	63.61958000	21.64124000
45.19999749	0.00000000	63.93946000	17.36589000
45.39999748	0.00000000	63.10900000	13.18282000
45.59999746	0.00000000	61.19586000	10.44537000
45.79999745	0.00000000	58.45841000	9.65182000
45.99999744	0.00000000	55.33957000	10.35310000
46.19999743	0.00000000	52.22071000	12.30315000
46.39999742	0.00000000	49.56939000	14.58538000
46.59999740	0.00000000	48.49901000	16.94759000
46.79999739	0.00000000	50.07997000	18.85458000
46.99999738	0.00000000	54.35531000	20.06029000
47.19999737	0.00000000	60.50073000	20.43553000
47.39999736	0.00000000	67.10752000	20.01722000
47.59999734	0.00000000	72.50861000	18.47933000
47.79999733	0.00000000	75.99655000	16.16018000
47.99999732	0.00000000	76.23646000	13.87795000
48.19999731	0.00000000	72.36712000	11.88484000
48.39999730	0.00000000	64.64690000	10.76525000
48.59999729	0.00000000	55.47490000	10.40231000
48.79999727	0.00000000	47.29330000	11.60187000
48.99999726	0.00000000	41.89222000	14.25320000
49.19999725	0.00000000	39.98523000	17.36589000
49.39999724	0.00000000	42.77190000	20.43553000
49.59999723	0.00000000	50.03691000	22.75467000
49.79999721	0.00000000	59.70718000	23.50517000
49.99999720	0.00000000	69.30363000	22.66855000
50.19999719	0.00000000	76.64862000	19.59892000
50.39999718	0.00000000	79.34915000	15.04675000
50.59999717	0.00000000	77.44217000	11.18356000
50.79999715	0.00000000	71.25368000	8.40305000
50.99999714	0.00000000	62.03863000	6.90821800
51.19999713	0.00000000	52.82357000	7.28346400
51.39999712	0.00000000	45.80462000	9.65182000
51.59999711	0.00000000	42.35359000	13.46580000
51.79999710	0.00000000	43.14714000	18.11024000
51.99999708	0.00000000	48.49901000	21.92421000
52.19999707	0.00000000	56.50221000	24.29257000
52.39999706	0.00000000	64.22859000	24.61860000
52.59999705	0.00000000	70.04182000	22.71161000
52.79999704	0.00000000	72.74237000	18.90379000
52.99999702	0.00000000	71.62893000	14.67150000
53.19999701	0.00000000	67.39050000	11.18356000
53.39999700	0.00000000	61.24508000	8.86441900
53.59999699	0.00000000	54.73056000	8.48917200
53.79999698	0.00000000	50.12303000	9.98400600
53.99999696	0.00000000	48.54207000	12.67224000
54.19999695	0.00000000	50.07997000	15.74188000
54.39999694	0.00000000	54.26919000	18.43627000
54.59999693	0.00000000	59.66412000	19.97416000
54.79999692	0.00000000	64.64690000	20.01722000
54.99999691	0.00000000	68.13484000	18.85458000
55.19999689	0.00000000	68.88533000	16.99065000
55.39999688	0.00000000	66.97219000	15.08981000
55.59999687	0.00000000	62.78297000	14.34547000
55.79999686	0.00000000	57.80634000	14.72072000
55.99999685	0.00000000	53.98622000	16.25246000
56.19999683	0.00000000	51.99311000	18.47933000
56.39999682	0.00000000	52.35605000	20.01722000
56.59999681	0.00000000	54.26919000	20.39247000
56.79999680	0.00000000	57.38804000	19.55585000
56.99999679	0.00000000	61.19586000	16.85531000
57.19999677	0.00000000	64.27164000	13.04749000
57.39999676	0.00000000	65.80955000	9.60875900
57.59999675	0.00000000	65.43430000	7.33267600
57.79999674	0.00000000	63.20127000	7.37573800
57.99999673	0.00000000	60.50073000	10.07013000
58.19999672	0.00000000	58.16929000	14.72072000
58.39999670	0.00000000	56.22539000	20.47859000
58.59999669	0.00000000	55.47490000	25.82431000
58.79999668	0.00000000	55.85014000	28.89395000
58.99999667	0.00000000	57.38804000	28.89395000
59.19999666	0.00000000	59.61491000	25.78125000
59.39999664	0.00000000	61.19586000	19.97416000
59.59999663	0.00000000	61.99557000	12.67840000
59.79999662	0.00000000	62.35851000	5.75172200
59.99999661	0.00000000	61.57111000	1.15034400
60.19999660	0.00000000	60.08243000	0.03690945
60.39999658	0.00000000	58.54454000	3.10654500
60.59999657	0.00000000	57.38804000	9.60875900
60.79999656	0.00000000	57.01279000	17.32283000
60.99999655	0.00000000	57.38804000	24.71087000
61.19999654	0.00000000	58.54454000	30.42569000
61.39999653	0.00000000	60.08243000	32.70177000
61.59999651	0.00000000	61.62032000	30.38263000
61.79999650	0.00000000	62.73376000	24.28642000
61.99999649	0.00000000	62.69069000	16.16018000
62.19999648	0.00000000	61.19586000	8.07086500
62.39999647	0.00000000	58.87672000	1.48253000
62.59999645	0.00000000	56.58833000	-1.91314000
62.79999644	0.00000000	54.64444000	-1.16879900
62.99999643	0.00000000	53.89394000	3.84473400
63.19999642	0.00000000	54.26919000	11.46653000
63.39999641	0.00000000	55.85014000	19.59892000
63.59999639	0.00000000	58.54454000	26.19955000
63.79999638	0.00000000	61.57111000	30.46875000
63.99999637	0.00000000	63.89641000	31.58218000
64.19999636	0.00000000	64.68996000	28.93701000
64.39999635	0.00000000	64.31471000	23.54823000
64.59999634	0.00000000	62.77681000	16.99065000
64.79999632	0.00000000	60.45767000	10.40231000
64.99999631	0.00000000	58.12622000	5.37647600
65.19999630	0.00000000	55.80708000	2.63902500
65.39999629	0.00000000	54.31225000	2.63902500
65.59999628	0.00000000	54.26919000	5.33341500
65.79999626	0.00000000	55.43184000	9.93479300
65.99999625	0.00000000	57.33883000	15.32357000
66.19999624	0.00000000	59.66412000	20.01722000
66.39999623	0.00000000	61.52805000	23.54823000
66.59999622	0.00000000	62.31545000	25.86737000
66.79999620	0.00000000	61.57111000	26.24262000
66.99999619	0.00000000	60.08243000	24.75394000
67.19999618	0.00000000	58.50147000	22.10261000
67.39999617	0.00000000	57.01279000	19.32210000
67.59999616	0.00000000	56.26845000	16.52928000
67.79999615	0.00000000	57.05585000	13.04749000
67.99999613	0.00000000	58.91978000	9.98400600
68.19999612	0.00000000	61.24508000	7.98474400
68.39999611	0.00000000	63.10900000	6.82209600
68.59999610	0.00000000	63.89641000	6.86515700
68.79999609	0.00000000	63.10900000	8.44611200
68.99999607	0.00000000	61.15280000	11.55881000
69.19999606	0.00000000	58.03395000	15.83415000
69.39999605	0.00000000	54.26919000	20.47859000
69.59999604	0.00000000	51.56865000	24.71087000
69.79999603	0.00000000	50.77510000	27.40526000
69.99999601	0.00000000	51.56865000	27.73130000
70.19999600	0.00000000	54.31225000	25.44906000
70.39999599	0.00000000	58.54454000	20.81078000
70.59999598	0.00000000	63.20127000	15.45891000
70.79999597	0.00000000	67.43970000	10.35310000
70.99999596	0.00000000	70.09104000	6.53912400
71.19999594	0.00000000	70.04798000	4.54601300
71.39999593	0.00000000	67.01525000	4.95816900
71.59999592	0.00000000	61.99557000	7.28346400
71.79999591	0.00000000	56.58833000	11.55881000
71.99999590	0.00000000	51.52559000	16.85531000
72.19999588	0.00000000	48.08071000	21.13066000
72.39999587	0.00000000	46.91806000	23.50517000
72.59999586	0.00000000	48.49901000	24.29257000
72.79999585	0.00000000	52.68823000	23.08686000
72.99999584	0.00000000	58.08316000	20.10950000
73.19999582	0.00000000	63.15822000	16.67077000
73.39999581	0.00000000	67.39050000	14.29626000
73.59999580	0.00000000	69.67273000	12.72146000
73.79999579	0.00000000	68.92839000	11.97711000
73.99999578	0.00000000	65.89567000	12.72146000
74.19999577	0.00000000	61.66338000	14.16092000
74.39999575	0.00000000	57.38804000	15.32357000
74.59999574	0.00000000	53.89394000	15.74188000
74.79999573	0.00000000	51.56865000	15.69267000
74.99999572	0.00000000	51.15034000	14.90526000
75.19999571	0.00000000	52.26993000	13.04749000
75.39999569	0.00000000	54.22613000	11.60187000
75.59999568	0.00000000	56.96358000	11.60187000
75.79999567	0.00000000	59.99015000	13.13976000
75.99999566	0.00000000	62.31545000	15.83415000
76.19999565	0.00000000	63.10900000	18.94685000
76.39999563	0.00000000	62.77681000	21.96727000
76.59999562	0.00000000	61.62032000	23.86811000
76.79999561	0.00000000	60.12549000	23.50517000
76.99999560	0.00000000	58.96899000	21.54897000
77.19999559	0.00000000	58.54454000	18.01796000
77.39999558	0.00000000	58.50147000	13.00443000
77.59999556	0.00000000	58.50147000	8.07086500
77.79999555	0.00000000	58.50147000	4.59522600
77.99999554	0.00000000	58.45841000	3.84473400
78.19999553	0.00000000	58.08316000	5.75172200
78.39999552	0.00000000	57.29576000	10.02707000
78.59999550	0.00000000	56.54527000	15.78494000
78.79999549	0.00000000	55.80708000	21.59203000
78.99999548	0.00000000	55.85014000	26.19955000
79.19999547	0.00000000	57.01279000	28.51870000
79.39999546	0.00000000	58.91978000	27.78051000
79.59999544	0.00000000	61.24508000	24.75394000
79.79999543	0.00000000	63.15207000	20.43553000
79.99999542	0.00000000	64.31471000	15.36663000
80.19999541	0.00000000	64.31471000	9.98400600
80.39999540	0.00000000	63.15207000	5.80093500
80.59999539	0.00000000	61.19586000	4.21998000
80.79999537	0.00000000	58.45841000	5.29035400
80.99999536	0.00000000	55.43184000	7.98474400
81.19999535	0.00000000	53.14960000	11.46653000
81.39999534	0.00000000	52.77436000	15.36663000
81.59999533	0.00000000	54.22613000	18.89764000
81.79999531	0.00000000	56.54527000	22.01649000
81.99999530	0.00000000	58.87672000	24.33563000
82.19999529	0.00000000	61.19586000	25.08612000
82.39999528	0.00000000	62.69069000	24.33563000
82.59999527	0.00000000	62.77681000	21.96727000
82.79999525	0.00000000	62.03863000	18.52854000
82.99999524	0.00000000	61.24508000	14.62844000
83.19999523	0.00000000	60.03937000	11.14050000
83.39999522	0.00000000	58.54454000	8.35383800
83.59999521	0.00000000	57.38804000	6.44685000
83.79999520	0.00000000	56.96358000	5.70866100
83.99999518	0.00000000	56.92052000	6.91437000
84.19999517	0.00000000	56.96358000	9.98400600
84.39999516	0.00000000	57.33883000	14.21014000
84.59999515	0.00000000	58.08316000	18.47933000
84.79999514	0.00000000	58.45841000	22.01649000
84.99999512	0.00000000	58.50147000	24.71087000
85.19999511	0.00000000	58.54454000	25.82431000
85.39999510	0.00000000	58.91978000	24.66166000
85.59999509	0.00000000	59.70718000	21.54897000
85.79999508	0.00000000	60.45767000	16.89837000
85.99999506	0.00000000	61.24508000	11.55881000
86.19999505	0.00000000	61.57111000	7.33267600
86.39999504	0.00000000	61.19586000	5.33341500
86.59999503	0.00000000	60.03937000	5.33341500
86.79999502	0.00000000	58.50147000	7.28346400
86.99999501	0.00000000	56.92052000	11.18356000
87.19999499	0.00000000	55.43184000	16.16018000
87.39999498	0.00000000	54.64444000	21.17372000
87.59999497	0.00000000	55.00738000	24.61860000
87.79999496	0.00000000	55.80708000	25.78125000
87.99999495	0.00000000	57.38804000	24.24335000
88.19999493	0.00000000	59.66412000	20.43553000
88.39999492	0.00000000	61.57111000	15.83415000
88.59999491	0.00000000	62.77681000	11.55881000
88.79999490	0.00000000	63.10900000	8.44611200
88.99999489	0.00000000	62.35851000	6.90821800
89.19999487	0.00000000	60.45767000	7.33267600
89.39999486	0.00000000	58.54454000	10.02707000
89.59999485	0.00000000	56.96358000	14.25320000
89.79999484	0.00000000	55.80708000	18.85458000
89.99999483	0.00000000	55.43184000	22.66855000
90.19999482	0.00000000	55.80708000	24.20029000
90.39999480	0.00000000	56.96358000	23.08686000
90.59999479	0.00000000	58.45841000	20.01722000
90.79999478	0.00000000	59.61491000	15.78494000
90.99999477	0.00000000	60.03937000	11.55881000
91.19999476	0.00000000	60.08243000	8.48917200
91.39999474	0.00000000	60.08243000	7.33267600
91.59999473	0.00000000	60.03937000	8.48917200
91.79999472	0.00000000	59.66412000	11.55881000
91.99999471	0.00000000	58.91978000	15.78494000
92.19999470	0.00000000	58.54454000	20.01722000
92.39999468	0.00000000	58.50147000	23.04380000
92.59999467	0.00000000	58.50147000	23.82505000
92.79999466	0.00000000	58.45841000	21.92421000
92.99999465	0.00000000	58.08316000	18.47933000
93.19999464	0.00000000	57.29576000	14.21014000
93.39999463	0.00000000	56.54527000	10.02707000
93.59999461	0.00000000	55.80708000	7.37573800
93.79999460	0.00000000	55.85014000	7.37573800
93.99999459	0.00000000	56.96358000	10.02707000
94.19999458	0.00000000	58.50147000	14.21014000
94.39999457	0.00000000	60.08243000	18.43627000
94.59999455	0.00000000	61.66338000	21.54897000
94.79999454	0.00000000	63.20127000	23.08686000
94.99999453	0.00000000	64.27164000	22.66855000
95.19999452	0.00000000	63.85334000	19.97416000
95.39999451	0.00000000	61.57111000	15.78494000
95.59999449	0.00000000	58.50147000	11.60187000
95.79999448	0.00000000	55.38263000	8.86441900
95.99999447	0.00000000	52.68823000	8.07086500
96.19999446	0.00000000	51.15034000	8.86441900
96.39999445	0.00000000	51.15034000	11.55881000
96.59999444	0.00000000	52.73130000	15.36663000
96.79999442	0.00000000	55.80708000	18.81152000
96.99999441	0.00000000	59.66412000	21.17372000
97.19999440	0.00000000	63.15207000	21.92421000
97.39999439	0.00000000	65.89567000	21.13066000
97.59999438	0.00000000	67.39050000	18.47933000
97.79999436	0.00000000	67.01525000	15.08981000
97.99999435	0.00000000	64.73917000	12.80758000
98.19999434	0.00000000	61.57111000	11.88484000
98.39999433	0.00000000	57.70792000	11.87869000
98.59999432	0.00000000	53.48179000	11.93405000
98.79999430	0.00000000	50.82431000	13.09055000
98.99999429	0.00000000	49.94463000	14.94833000
99.19999428	0.00000000	50.77510000	16.11712000
99.39999427	0.00000000	53.06348000	16.89837000
99.59999426	0.00000000	56.58833000	16.89837000
99.79999425	0.00000000	60.41461000	16.20325000
99.99999423	0.00000000	63.89641000	15.82800000
100.19999422	0.00000000	65.85260000	15.78494000
100.39999421	0.00000000	66.27091000	15.82800000
100.59999420	0.00000000	65.47736000	16.20325000
100.79999419	0.00000000	63.15207000	16.89837000
100.99999417	0.00000000	60.08243000	16.89837000
101.19999416	0.00000000	56.96358000	16.16018000
101.39999415	0.00000000	54.26919000	15.36663000
101.59999414	0.00000000	52.68823000	14.16092000
101.79999413	0.00000000	52.31299000	12.72146000
101.99999411	0.00000000	53.06348000	11.93405000
102.19999410	0.00000000	55.00738000	12.29700000
102.39999409	0.00000000	57.29576000	13.09670000
102.59999408	0.00000000	59.66412000	14.72072000
102.79999407	0.00000000	61.57111000	17.36589000
102.99999406	0.00000000	62.77681000	20.01722000
103.19999404	0.00000000	63.15207000	21.54897000
103.39999403	0.00000000	62.73376000	21.54897000
103.59999402	0.00000000	61.19586000	20.01722000
103.79999401	0.00000000	58.91978000	17.32283000
103.99999400	0.00000000	56.96358000	14.25320000
104.19999398	0.00000000	55.43184000	11.55881000
104.39999397	0.00000000	54.64444000	10.02707000
104.59999396	0.00000000	55.00738000	10.02707000
104.79999395	0.00000000	55.75787000	11.55881000
104.99999394	0.00000000	56.96358000	14.21014000
105.19999392	0.00000000	58.50147000	16.90453000
105.39999391	0.00000000	59.99015000	18.85458000
105.59999390	0.00000000	60.77756000	20.06029000
105.79999389	0.00000000	60.45767000	20.39247000
105.99999388	0.00000000	60.08243000	19.59892000
106.19999387	0.00000000	59.61491000	17.32283000
106.39999385	0.00000000	58.45841000	14.67150000
106.59999384	0.00000000	57.01279000	12.76452000
106.79999383	0.00000000	56.22539000	11.93405000
106.99999382	0.00000000	56.58833000	12.34621000
107.19999381	0.00000000	57.33883000	13.46580000
107.39999379	0.00000000	58.50147000	15.40969000
107.59999378	0.00000000	59.61491000	17.27362000
107.79999377	0.00000000	59.99015000	18.43627000
107.99999376	0.00000000	59.66412000	18.43627000
108.19999375	0.00000000	58.87672000	17.32283000
108.39999374	0.00000000	58.08316000	15.78494000
108.59999372	0.00000000	56.92052000	14.21014000
108.79999371	0.00000000	55.80708000	12.67224000
108.99999370	0.00000000	55.43184000	11.55881000
109.19999369	0.00000000	55.80708000	11.55881000
109.39999368	0.00000000	56.96358000	12.67224000
109.59999366	0.00000000	58.45841000	14.25320000
109.79999365	0.00000000	59.66412000	16.16018000
109.99999364	0.00000000	60.45767000	18.06102000
110.19999363	0.00000000	61.19586000	18.85458000
110.39999362	0.00000000	61.15280000	18.85458000
110.59999360	0.00000000	60.03937000	18.06102000
110.79999359	0.00000000	58.50147000	16.16018000
110.99999358	0.00000000	56.96358000	14.25320000
111.19999357	0.00000000	55.80708000	12.67224000
111.39999356	0.00000000	55.38263000	11.51575000
111.59999355	0.00000000	55.38263000	11.18356000
111.79999353	0.00000000	55.80708000	11.88484000
111.99999352	0.00000000	56.92052000	13.41658000
112.19999351	0.00000000	58.08316000	14.58538000
112.39999350	0.00000000	58.87672000	15.78494000
112.59999349	0.00000000	59.66412000	16.89837000
112.79999347	0.00000000	59.99015000	17.27362000
112.99999346	0.00000000	59.66412000	16.99065000
113.19999345	0.00000000	58.87672000	16.57849000
113.39999344	0.00000000	58.12622000	16.52928000
113.59999343	0.00000000	57.38804000	15.78494000
113.79999341	0.00000000	57.33883000	15.04675000
113.99999340	0.00000000	57.66486000	14.99139000
114.19999339	0.00000000	57.33883000	14.58538000
114.39999338	0.00000000	57.38804000	14.25320000
114.59999337	0.00000000	58.08316000	14.21014000
114.79999336	0.00000000	58.45841000	14.21014000
114.99999334	0.00000000	58.50147000	14.21014000
115.19999333	0.00000000	58.50147000	14.21014000
115.39999332	0.00000000	58.50147000	14.21014000
115.59999331	0.00000000	58.50147000	14.25320000
115.79999330	0.00000000	58.50147000	14.62844000
115.99999328	0.00000000	58.45841000	15.40969000
116.19999327	0.00000000	58.08316000	16.16018000
116.39999326	0.00000000	57.33883000	16.94759000
116.59999325	0.00000000	56.96358000	17.32283000
116.79999324	0.00000000	56.92052000	17.32283000
116.99999322	0.00000000	56.96358000	16.89837000
117.19999321	0.00000000	57.33883000	15.78494000
117.39999320	0.00000000	58.12622000	14.67150000
117.59999319	0.00000000	58.87672000	14.25320000
117.79999318	0.00000000	59.66412000	14.16708000
117.99999317	0.00000000	60.03937000	13.83489000
118.19999315	0.00000000	60.03937000	13.46580000
118.39999314	0.00000000	59.66412000	13.83489000
118.59999313	0.00000000	58.87672000	14.21014000
118.79999312	0.00000000	58.08316000	14.62844000
118.99999311	0.00000000	56.92052000	15.36663000
119.19999309	0.00000000	55.80708000	15.78494000
119.39999308	0.00000000	55.38263000	16.16018000
119.59999307	0.00000000	55.38263000	16.52928000
119.79999306	0.00000000	55.80708000	16.16018000
119.99999305	0.00000000	56.92052000	15.82800000
120.19999303	0.00000000	58.12622000	15.78494000
120.39999302	0.00000000	59.29502000	15.78494000
120.59999301	0.00000000	60.82677000	15.78494000
120.79999300	0.00000000	61.52805000	15.74188000
120.99999299	0.00000000	61.19586000	15.36663000
121.19999298	0.00000000	60.08243000	14.62844000
121.39999296	0.00000000	58.91978000	14.25320000
121.59999295	0.00000000	58.08316000	14.21014000
121.79999294	0.00000000	56.92052000	14.21014000
121.99999293	0.00000000	55.80708000	14.21014000
122.19999292	0.00000000	55.38263000	14.25320000
122.39999290	0.00000000	55.38263000	14.67150000
122.59999289	0.00000000	55.75787000	15.78494000
122.79999288	0.00000000	56.54527000	16.89837000
122.99999287	0.00000000	57.33883000	17.32283000
123.19999286	0.00000000	58.50147000	17.32283000
123.39999284	0.00000000	59.61491000	16.94759000
123.59999283	0.00000000	60.03937000	16.16018000
123.79999282	0.00000000	60.08243000	15.40969000
123.99999281	0.00000000	60.03937000	14.62844000
124.19999280	0.00000000	59.61491000	14.25320000
124.39999279	0.00000000	58.50147000	14.21014000
124.59999277	0.00000000	57.38804000	14.21014000
124.79999276	0.00000000	56.92052000	14.21014000
124.99999275	0.00000000	56.50221000	14.25320000
125.19999274	0.00000000	55.75787000	14.62844000
125.39999273	0.00000000	55.43184000	15.36663000
125.59999271	0.00000000	55.75787000	15.74188000
125.79999270	0.00000000	56.54527000	15.82800000
125.99999269	0.00000000	57.33883000	16.16018000
126.19999268	0.00000000	58.50147000	16.52928000
126.39999267	0.00000000	59.61491000	16.16018000
126.59999265	0.00000000	60.03937000	15.82800000
126.79999264	0.00000000	60.08243000	15.78494000
126.99999263	0.00000000	60.03937000	15.74188000
127.19999262	0.00000000	59.61491000	15.36663000
127.39999261	0.00000000	58.50147000	14.62844000
127.59999260	0.00000000	57.33883000	14.25320000
127.79999258	0.00000000	56.54527000	14.21014000
127.99999257	0.00000000	55.75787000	14.25320000
128.19999256	0.00000000	55.43184000	14.62844000
128.39999255	0.00000000	55.80708000	15.36663000
128.59999254	0.00000000	56.92052000	15.74188000
128.79999252	0.00000000	58.08316000	15.78494000
128.99999251	0.00000000	58.87672000	15.78494000
129.19999250	0.00000000	59.66412000	15.78494000
129.39999249	0.00000000	59.99015000	15.74188000
129.59999248	0.00000000	59.61491000	15.36663000
129.79999246	0.00000000	58.50147000	14.62844000
129.99999245	0.00000000	57.33883000	14.25320000
130.19999244	0.00000000	56.54527000	14.21014000
130.39999243	0.00000000	55.75787000	14.25320000
130.59999242	0.00000000	55.43184000	14.62844000
130.79999241	0.00000000	55.75787000	15.36663000
130.99999239	0.00000000	56.54527000	15.74188000
131.19999238	0.00000000	57.29576000	15.74188000
131.39999237	0.00000000	58.12622000	15.40969000
131.59999236	0.00000000	58.87672000	15.04675000
131.79999235	0.00000000	59.61491000	15.36663000
131.99999233	0.00000000	59.61491000	15.32357000
132.19999232	0.00000000	58.87672000	14.58538000
132.39999231	0.00000000	58.12622000	13.87795000
132.59999230	0.00000000	57.33883000	13.46580000
132.79999229	0.00000000	56.96358000	13.83489000
132.99999227	0.00000000	56.92052000	14.21014000
133.19999226	0.00000000	56.92052000	14.62844000
133.39999225	0.00000000	56.92052000	15.40969000
133.59999224	0.00000000	56.96358000	16.16018000
133.79999223	0.00000000	57.33883000	16.89837000
133.99999222	0.00000000	58.08316000	16.89837000
134.19999220	0.00000000	58.40920000	16.20325000
134.39999219	0.00000000	58.08316000	15.78494000
134.59999218	0.00000000	57.38804000	15.36663000
134.79999217	0.00000000	57.33883000	14.58538000
134.99999216	0.00000000	57.70792000	13.83489000
135.19999214	0.00000000	57.71407000	13.09670000
135.39999213	0.00000000	58.12622000	13.09670000
135.59999212	0.00000000	58.45841000	13.79183000
135.79999211	0.00000000	58.50147000	14.21014000
135.99999210	0.00000000	58.45841000	14.67150000
136.19999208	0.00000000	58.08316000	15.74188000
136.39999207	0.00000000	57.29576000	16.52928000
136.59999206	0.00000000	56.54527000	16.57849000
136.79999205	0.00000000	55.80708000	16.94759000
136.99999204	0.00000000	55.80708000	16.89837000
137.19999203	0.00000000	56.54527000	16.16018000
137.39999201	0.00000000	57.29576000	15.40969000
137.59999200	0.00000000	58.08316000	14.62844000
137.79999199	0.00000000	58.45841000	14.25320000
137.99999198	0.00000000	58.50147000	14.21014000
138.19999197	0.00000000	58.50147000	14.21014000
138.39999195	0.00000000	58.45841000	14.21014000
138.59999194	0.00000000	58.08316000	14.21014000
138.79999193	0.00000000	57.33883000	14.25320000
138.99999192	0.00000000	56.96358000	14.62844000
139.19999191	0.00000000	56.92052000	15.36663000
139.39999189	0.00000000	56.92052000	15.78494000
139.59999188	0.00000000	56.92052000	16.20325000
139.79999187	0.00000000	56.96358000	16.94759000
139.99999186	0.00000000	57.33883000	17.27362000
140.19999185	0.00000000	58.08316000	16.94759000
140.39999184	0.00000000	58.45841000	16.16018000
140.59999182	0.00000000	58.50147000	15.36663000
140.79999181	0.00000000	58.45841000	14.21014000
140.99999180	0.00000000	58.08316000	13.09670000
141.19999179	0.00000000	57.33883000	12.67224000
141.39999178	0.00000000	56.96358000	12.67224000
141.59999176	0.00000000	56.92052000	13.09670000
141.79999175	0.00000000	56.92052000	14.21014000
141.99999174	0.00000000	56.92052000	15.36663000
142.19999173	0.00000000	56.96358000	16.16018000
142.39999172	0.00000000	57.33883000	16.94759000
142.59999170	0.00000000	58.08316000	17.32283000
142.79999169	0.00000000	58.45841000	17.32283000
142.99999168	0.00000000	58.50147000	16.89837000
143.19999167	0.00000000	58.45841000	15.78494000
143.39999166	0.00000000	58.08316000	14.62844000
143.59999165	0.00000000	57.33883000	13.83489000
143.79999163	0.00000000	56.96358000	13.04749000
143.99999162	0.00000000	56.92052000	12.72146000
144.19999161	0.00000000	56.92052000	13.04749000
144.39999160	0.00000000	56.92052000	13.83489000
144.59999159	0.00000000	56.96358000	14.62844000
144.79999157	0.00000000	57.33883000	15.78494000
144.99999156	0.00000000	58.08316000	16.89837000
145.19999155	0.00000000	58.40920000	17.27362000
145.39999154	0.00000000	58.08316000	16.94759000
145.59999153	0.00000000	57.33883000	16.16018000
145.79999151	0.00000000	56.96358000	15.40969000
145.99999150	0.00000000	56.92052000	14.62844000
146.19999149	0.00000000	56.92052000	14.21014000
146.39999148	0.00000000	56.92052000	13.79183000
146.59999147	0.00000000	56.92052000	13.04749000
146.79999146	0.00000000	56.92052000	12.72146000
146.99999144	0.00000000	56.96358000	13.04749000
147.19999143	0.00000000	57.33883000	13.79183000
147.39999142	0.00000000	58.03395000	14.21014000
147.59999141	0.00000000	58.03395000	14.62844000
147.79999140	0.00000000	57.33883000	15.36663000
147.99999138	0.00000000	56.96358000	15.74188000
148.19999137	0.00000000	56.92052000	15.74188000
148.39999136	0.00000000	56.92052000	15.40969000
148.59999135	0.00000000	56.92052000	15.00369000
148.79999134	0.00000000	56.92052000	14.99139000
148.99999132	0.00000000	56.96358000	14.58538000
149.19999131	0.00000000	57.29576000	14.25320000
149.39999130	0.00000000	57.70792000	14.21014000
149.59999129	0.00000000	57.71407000	14.21014000
149.79999128	0.00000000	58.12622000	14.21014000
149.99999127	0.00000000	58.45841000	14.25320000
150.19999125	0.00000000	58.50147000	14.62844000
150.39999124	0.00000000	58.45841000	15.36663000
150.59999123	0.00000000	58.08316000	15.74188000
150.79999122	0.00000000	57.33883000	15.78494000
150.99999121	0.00000000	56.96358000	15.78494000
151.19999119	0.00000000	56.92052000	15.78494000
151.39999118	0.00000000	56.92052000	15.78494000
151.59999117	0.00000000	56.92052000	15.74188000
151.79999116	0.00000000	56.92052000	15.36663000
151.99999115	0.00000000	56.92052000	14.62844000
152.19999113	0.00000000	56.96358000	14.30241000
152.39999112	0.00000000	57.33883000	14.62844000
152.59999111	0.00000000	58.08316000	15.36663000
152.79999110	0.00000000	58.45841000	15.74188000
152.99999109	0.00000000	58.50147000	15.78494000
153.19999108	0.00000000	58.45841000	15.78494000
153.39999106	0.00000000	58.08316000	15.78494000
153.59999105	0.00000000	57.33883000	15.78494000
153.79999104	0.00000000	56.96358000	15.78494000
153.99999103	0.00000000	56.92052000	15.78494000
154.19999102	0.00000000	56.92052000	15.78494000
154.39999100	0.00000000	56.92052000	15.78494000
154.59999099	0.00000000	56.92052000	15.78494000
154.79999098	0.00000000	56.92052000	15.74188000
154.99999097	0.00000000	56.92052000	15.36663000
155.19999096	0.00000000	56.96358000	14.62844000
155.39999094	0.00000000	57.33883000	14.25320000
155.59999093	0.00000000	58.08316000	14.21014000
155.79999092	0.00000000	58.45841000	14.21014000
155.99999091	0.00000000	58.50147000	14.21014000
156.19999090	0.00000000	58.45841000	14.21014000
156.39999089	0.00000000	58.08316000	14.21014000
156.59999087	0.00000000	57.33883000	14.25320000
156.79999086	0.00000000	56.92052000	14.62844000
156.99999085	0.00000000	56.50221000	15.36663000
157.19999084	0.00000000	55.75787000	15.74188000
157.39999083	0.00000000	55.38263000	15.78494000
157.59999081	0.00000000	55.38263000	15.78494000
157.79999080	0.00000000	55.75787000	15.74188000
157.99999079	0.00000000	56.50221000	15.36663000
158.19999078	0.00000000	56.87746000	14.62844000
158.39999077	0.00000000	56.92052000	14.25320000
158.59999075	0.00000000	56.92052000	14.21014000
158.79999074	0.00000000	56.92052000	14.21014000
158.99999073	0.00000000	56.92052000	14.21014000
159.19999072	0.00000000	56.92052000	14.21014000
159.39999071	0.00000000	56.92052000	14.21014000
159.59999070	0.00000000	56.92052000	14.25320000
159.79999068	0.00000000	56.92052000	14.58538000
159.99999067	0.00000000	56.92052000	14.99139000
160.19999066	0.00000000	56.92052000	15.00369000
160.39999065	0.00000000	56.87746000	15.40969000
160.59999064	0.00000000	56.50221000	15.69267000
160.79999062	0.00000000	55.80708000	15.36663000
160.99999061	0.00000000	55.80708000	14.62844000
161.19999060	0.00000000	56.50221000	14.25320000
161.39999059	0.00000000	56.87746000	14.21014000
161.59999058	0.00000000	56.92052000	14.21014000
161.79999056	0.00000000	56.96358000	14.21014000
161.99999055	0.00000000	57.29576000	14.21014000
162.19999054	0.00000000	57.70792000	14.21014000
162.39999053	0.00000000	57.67101000	14.25320000
162.59999052	0.00000000	57.70792000	14.62844000
162.79999051	0.00000000	57.29576000	15.36663000
162.99999049	0.00000000	56.96358000	15.74188000
163.19999048	0.00000000	56.92052000	15.78494000
163.39999047	0.00000000	56.92052000	15.78494000
163.59999046	0.00000000	56.87746000	15.78494000
163.79999045	0.00000000	56.54527000	15.74188000
163.99999043	0.00000000	56.17618000	15.36663000
164.19999042	0.00000000	56.54527000	14.62844000
164.39999041	0.00000000	56.87746000	14.30241000
164.59999040	0.00000000	56.92052000	14.58538000
164.79999039	0.00000000	56.96358000	14.94833000
164.99999037	0.00000000	57.29576000	14.58538000
165.19999036	0.00000000	57.70792000	14.25320000
165.39999035	0.00000000	57.67101000	14.25320000
165.59999034	0.00000000	57.70792000	14.62844000
165.79999033	0.00000000	57.29576000	15.36663000
165.99999032	0.00000000	56.96358000	15.69267000
166.19999030	0.00000000	56.87746000	15.36663000
166.39999029	0.00000000	56.50221000	14.67150000
166.59999028	0.00000000	55.80708000	14.67150000
166.79999027	0.00000000	55.80708000	15.32357000
166.99999026	0.00000000	56.50221000	15.32357000
167.19999024	0.00000000	56.87746000	14.62844000
167.39999023	0.00000000	56.92052000	14.25320000
167.59999022	0.00000000	56.92052000	14.21014000
167.79999021	0.00000000	56.96358000	14.21014000
167.99999020	0.00000000	57.29576000	14.21014000
168.19999018	0.00000000	57.66486000	14.21014000
168.39999017	0.00000000	57.29576000	14.21014000
168.59999016	0.00000000	56.96358000	14.21014000
168.79999015	0.00000000	56.92052000	14.21014000
168.99999014	0.00000000	56.92052000	14.21014000
169.19999013	0.00000000	56.92052000	14.21014000
169.39999011	0.00000000	56.92052000	14.21014000
169.59999010	0.00000000	56.92052000	14.21014000
169.79999009	0.00000000	56.87746000	14.21014000
169.99999008	0.00000000	56.54527000	14.21014000
170.19999007	0.00000000	56.17618000	14.21014000
170.39999005	0.00000000	56.54527000	14.21014000
170.59999004	0.00000000	56.87746000	14.21014000
170.79999003	0.00000000	56.92052000	14.21014000
170.99999002	0.00000000	56.92052000	14.21014000
171.19999001	0.00000000	56.92052000	14.21014000
171.39998999	0.00000000	56.92052000	14.21014000
171.59998998	0.00000000	56.92052000	14.21014000
171.79998997	0.00000000	56.92052000	14.21014000
171.99998996	0.00000000	56.92052000	14.21014000
172.19998995	0.00000000	56.92052000	14.21014000
172.39998994	0.00000000	56.92052000	14.21014000
172.59998992	0.00000000	56.92052000	14.21014000
172.79998991	0.00000000	56.92052000	14.21014000
172.99998990	0.00000000	56.92052000	14.25320000
173.19998989	0.00000000	56.92052000	14.58538000
173.39998988	0.00000000	56.92052000	14.99139000
173.59998986	0.00000000	56.92052000	14.95448000
173.79998985	0.00000000	56.92052000	14.99139000
173.99998984	0.00000000	56.92052000	14.58538000
174.19998983	0.00000000	56.92052000	14.30241000
174.39998982	0.00000000	56.92052000	14.58538000
174.59998980	0.00000000	56.92052000	14.94833000
174.79998979	0.00000000	56.92052000	14.62844000
174.99998978	0.00000000	56.92052000	14.62844000
175.19998977	0.00000000	56.92052000	14.94833000
175.39998976	0.00000000	56.92052000	14.58538000
175.59998975	0.00000000	56.92052000	14.25320000
175.79998973	0.00000000	56.92052000	14.21014000
175.99998972	0.00000000	56.92052000	14.25320000
176.19998971	0.00000000	56.92052000	14.62844000
176.39998970	0.00000000	56.92052000	15.36663000
176.59998969	0.00000000	56.92052000	15.69267000
176.79998967	0.00000000	56.92052000	15.36663000
176.99998966	0.00000000	56.92052000	14.62844000
177.19998965	0.00000000	56.92052000	14.25320000
177.39998964	0.00000000	56.92052000	14.21014000
177.59998963	0.00000000	56.92052000	14.21014000
177.79998961	0.00000000	56.92052000	14.21014000
177.99998960	0.00000000	56.92052000	14.21014000
178.19998959	0.00000000	56.92052000	14.21014000
178.39998958	0.00000000	56.92052000	14.21014000
178.59998957	0.00000000	56.92052000	14.21014000
178.79998956	0.00000000	56.92052000	14.25320000
178.99998954	0.00000000	56.92052000	14.62844000
179.19998953	0.00000000	56.92052000	15.32357000
179.39998952	0.00000000	56.92052000	15.32357000
179.59998951	0.00000000	56.92052000	14.62844000
179.79998950	0.00000000	56.92052000	14.25320000
179.99998948	0.00000000	56.92052000	14.21014000
180.19998947	0.00000000	56.92052000	14.21014000
180.39998946	0.00000000	56.92052000	14.21014000
180.59998945	0.00000000	56.92052000	14.21014000
180.79998944	0.00000000	56.92052000	14.21014000
180.99998942	0.00000000	56.92052000	14.21014000
181.19998941	0.00000000	56.92052000	14.21014000
181.39998940	0.00000000	56.92052000	14.25320000
181.59998939	0.00000000	56.92052000	14.62844000
181.79998938	0.00000000	56.92052000	15.36663000
181.99998937	0.00000000	56.92052000	15.74188000
182.19998935	0.00000000	56.92052000	15.78494000
182.39998934	0.00000000	56.92052000	15.74188000
182.59998933	0.00000000	56.92052000	15.36663000
182.79998932	0.00000000	56.92052000	14.62844000
182.99998931	0.00000000	56.92052000	14.25320000
183.19998929	0.00000000	56.92052000	14.21014000
183.39998928	0.00000000	56.92052000	14.21014000
183.59998927	0.00000000	56.92052000	14.21014000
183.79998926	0.00000000	56.92052000	14.21014000
183.99998925	0.00000000	56.92052000	14.21014000
184.19998923	0.00000000	56.92052000	14.25320000
184.39998922	0.00000000	56.92052000	14.62844000
184.59998921	0.00000000	56.87746000	15.36663000
184.79998920	0.00000000	56.50221000	15.74188000
184.99998919	0.00000000	55.80708000	15.78494000
185.19998918	0.00000000	55.80708000	15.78494000
185.39998916	0.00000000	56.50221000	15.78494000
185.59998915	0.00000000	56.87746000	15.74188000
185.79998914	0.00000000	56.92052000	15.36663000
185.99998913	0.00000000	56.92052000	14.62844000
186.19998912	0.00000000	56.92052000	14.25320000
186.39998910	0.00000000	56.92052000	14.21014000
186.59998909	0.00000000	56.92052000	14.21014000
186.79998908	0.00000000	56.92052000	14.21014000
186.99998907	0.00000000	56.92052000	14.21014000
187.19998906	0.00000000	56.87746000	14.25320000
187.39998904	0.00000000	56.50221000	14.62844000
187.59998903	0.00000000	55.80708000	15.36663000
187.79998902	0.00000000	55.75787000	15.74188000
187.99998901	0.00000000	56.12696000	15.78494000
188.19998900	0.00000000	56.13312000	15.74188000
188.39998899	0.00000000	56.54527000	15.36663000
188.59998897	0.00000000	56.87746000	14.67150000
188.79998896	0.00000000	56.92052000	14.62844000
188.99998895	0.00000000	56.92052000	14.94833000
189.19998894	0.00000000	56.92052000	14.58538000
189.39998893	0.00000000	56.92052000	14.25320000
189.59998891	0.00000000	56.92052000	14.21014000
189.79998890	0.00000000	56.87746000	14.21014000
189.99998889	0.00000000	56.50221000	14.21014000
190.19998888	0.00000000	55.75787000	14.21014000
190.39998887	0.00000000	55.43184000	14.25320000
190.59998885	0.00000000	55.71481000	14.62844000
190.79998884	0.00000000	56.12696000	15.32357000
190.99998883	0.00000000	56.13312000	15.32357000
191.19998882	0.00000000	56.54527000	14.62844000
191.39998881	0.00000000	56.87746000	14.25320000
191.59998880	0.00000000	56.92052000	14.21014000
191.79998878	0.00000000	56.92052000	14.21014000
191.99998877	0.00000000	56.92052000	14.21014000
192.19998876	0.00000000	56.92052000	14.21014000
192.39998875	0.00000000	56.87746000	14.21014000
192.59998874	0.00000000	56.54527000	14.21014000
192.79998872	0.00000000	56.13312000	14.21014000
192.99998871	0.00000000	56.12696000	14.21014000
193.19998870	0.00000000	55.71481000	14.21014000
193.39998869	0.00000000	55.38263000	14.21014000
193.59998868	0.00000000	55.33957000	14.21014000
193.79998866	0.00000000	55.38263000	14.21014000
193.99998865	0.00000000	55.71481000	14.21014000
194.19998864	0.00000000	56.12696000	14.21014000
194.39998863	0.00000000	56.13312000	14.25320000
194.59998862	0.00000000	56.54527000	14.58538000
194.79998861	0.00000000	56.87746000	14.94833000
194.99998859	0.00000000	56.92052000	14.58538000
195.19998858	0.00000000	56.92052000	14.25320000
195.39998857	0.00000000	56.92052000	14.21014000
195.59998856	0.00000000	56.87746000	14.21014000
195.79998855	0.00000000	56.54527000	14.21014000
195.99998853	0.00000000	56.13312000	14.21014000
