Time	Channel A	Channel B	Channel C
(us)	(V)	(mV)	(mV)

-4.49999956	0.00000000	30.03814000	3.98622000
-4.29999957	0.00000000	30.03814000	3.90625000
-4.09999958	0.00000000	30.03814000	3.94315900
-3.89999959	0.00000000	30.03814000	3.53100400
-3.69999960	0.00000000	30.03814000	3.19881900
-3.49999962	0.00000000	30.03814000	3.15575800
-3.29999963	0.00000000	30.03814000	3.15575800
-3.09999964	0.00000000	30.03814000	3.19881900
-2.89999965	0.00000000	30.03814000	3.53100400
-2.69999966	0.00000000	30.03814000	3.90009800
-2.49999968	0.00000000	30.03814000	3.53100400
-2.29999969	0.00000000	30.03814000	3.19881900
-2.09999970	0.00000000	30.03814000	3.15575800
-1.89999971	0.00000000	30.03814000	3.19881900
-1.69999972	0.00000000	30.03814000	3.53100400
-1.49999973	0.00000000	30.03814000	3.90009800
-1.29999975	0.00000000	30.03814000	3.53100400
-1.09999976	0.00000000	30.03814000	3.19881900
-0.89999977	0.00000000	30.03814000	3.15575800
-0.69999978	0.00000000	30.03814000	3.19881900
-0.49999979	0.00000000	30.03814000	3.53100400
-0.29999981	0.31803640	30.03814000	3.94315900
-0.09999982	0.63668800	30.03814000	3.90625000
0.10000017	0.95533960	30.03814000	3.98622000
0.30000016	1.11466500	30.03814000	3.90625000
0.50000015	0.79601380	30.03814000	3.94315900
0.70000013	0.31803640	30.03814000	3.53100400
0.90000012	-0.47736220	30.03814000	3.19881900
1.10000011	-1.43331700	30.03814000	3.15575800
1.30000010	-2.22994600	30.03814000	3.19881900
1.50000009	-2.70792300	30.03814000	3.57406500
1.70000008	-2.54859700	30.03814000	4.31840500
1.90000006	-1.43331700	30.03814000	4.64443900
2.10000005	0.47736220	30.03814000	4.36146600
2.30000004	2.54859700	30.03814000	3.94931100
2.50000003	4.30056600	30.03814000	3.94315900
2.70000002	5.25652100	30.03814000	3.53100400
2.90000000	4.93786900	30.03814000	3.19881900
3.09999999	3.18590100	30.03814000	3.15575800
3.29999998	0.15871060	30.03814000	3.15575800
3.49999997	-3.34522600	30.03814000	3.15575800
3.69999996	-6.21247500	30.03814000	3.19881900
3.89999994	-7.80511800	30.03814000	3.57406500
4.09999993	-7.48646600	30.08120000	4.31840500
4.29999992	-5.25652100	30.41338000	4.69365100
4.49999991	-1.27399100	30.78248000	4.73671200
4.69999990	3.02657500	30.41338000	4.69365100
4.89999989	6.84916400	30.08120000	4.31840500
5.09999987	9.23905000	30.03814000	3.57406500
5.29999986	9.23905000	30.03814000	3.19881900
5.49999985	6.84916400	30.03814000	3.15575800
5.69999984	2.70792300	30.03814000	3.15575800
5.89999983	-1.91129400	30.03814000	3.19881900
6.09999981	-6.37180100	30.03814000	3.53100400
6.29999980	-8.92039900	30.03814000	3.94315900
6.49999979	-9.23905000	30.03814000	3.94931100
6.69999978	-7.32714100	30.03814000	4.36146600
6.89999977	-3.82258900	30.03814000	4.69365100
7.09999975	0.63668800	30.03814000	4.69365100
7.29999974	4.61921700	30.03814000	4.31840500
7.49999973	7.16781500	30.03814000	3.57406500
7.69999972	7.80511800	30.03814000	3.19881900
7.89999971	6.53112700	30.03814000	3.15575800
8.09999970	3.66326300	30.03814000	3.15575800
8.29999968	0.31803640	30.03814000	3.15575800
8.49999967	-2.70792300	30.03814000	3.15575800
8.69999966	-4.61921700	30.03814000	3.15575800
8.89999965	-5.25652100	30.03814000	3.19881900
9.09999964	-4.45989200	30.03814000	3.53100400
9.29999962	-2.70792300	30.03814000	3.94315900
9.49999961	-0.79601380	30.03814000	3.90625000
9.69999960	0.95533960	30.03814000	3.94315900
9.89999959	2.07062000	30.03814000	3.53100400
10.09999958	2.54859700	30.03814000	3.19881900
10.29999956	2.22994600	30.03814000	3.15575800
10.49999955	1.43331700	30.03814000	3.15575800
10.69999954	0.63668800	30.03814000	3.15575800
10.89999953	-0.15871060	30.03814000	3.15575800
11.09999952	-0.63668800	30.03814000	3.19881900
11.29999951	-0.95533960	30.03814000	3.53100400
11.49999949	-0.95533960	30.03814000	3.90009800
11.69999948	-0.79601380	30.03814000	3.53100400
11.89999947	-0.47736220	30.03814000	3.19881900
12.09999946	-0.15871060	30.03814000	3.15575800
12.29999945	-0.15871060	30.03814000	3.15575800
12.49999943	-0.15871060	30.03814000	3.15575800
12.69999942	0.00000000	30.03814000	3.15575800
12.89999941	0.00000000	30.03814000	3.15575800
13.09999940	0.00000000	30.03814000	3.15575800
13.29999939	0.00000000	30.03814000	3.15575800
13.49999937	0.00000000	30.03814000	3.15575800
13.69999936	0.00000000	30.03814000	3.15575800
13.89999935	0.00000000	30.03814000	3.15575800
14.09999934	-0.15871060	30.03814000	3.15575800
14.29999933	-0.15871060	30.03814000	3.19881900
14.49999932	-0.15871060	30.03814000	3.53100400
14.69999930	0.00000000	30.03814000	3.90009800
14.89999929	0.00000000	30.03814000	3.53100400
15.09999928	0.00000000	30.03814000	3.19881900
15.29999927	0.00000000	30.03814000	3.15575800
15.49999926	0.15871060	30.03814000	3.15575800
15.69999924	0.00000000	30.03814000	3.15575800
15.89999923	0.00000000	30.03814000	3.15575800
16.09999922	0.00000000	29.99508000	3.15575800
16.29999921	0.00000000	29.66289000	3.15575800
16.49999920	0.00000000	29.29380000	3.15575800
16.69999919	0.00000000	29.70595000	3.15575800
16.89999917	0.00000000	30.41338000	3.15575800
17.09999916	0.00000000	31.20078000	3.15575800
17.29999915	0.00000000	31.57603000	3.15575800
17.49999914	0.00000000	31.61909000	3.15575800
17.69999913	0.00000000	31.61909000	3.15575800
17.89999911	0.00000000	31.52682000	3.15575800
18.09999910	0.00000000	30.73326000	3.15575800
18.29999909	0.00000000	28.83243000	3.15575800
18.49999908	0.00000000	26.91929000	3.15575800
18.69999907	0.00000000	25.33834000	3.15575800
18.89999905	0.00000000	24.22490000	3.19881900
19.09999904	0.00000000	24.26796000	3.53100400
19.29999903	0.00000000	25.80585000	3.90009800
19.49999902	0.00000000	28.54946000	3.53100400
19.69999901	0.00000000	32.03740000	3.19881900
19.89999900	0.00000000	35.94980000	3.15575800
20.09999898	0.00000000	39.35162000	3.15575800
20.29999897	0.00000000	41.25246000	3.15575800
20.49999896	0.00000000	40.46506000	3.15575800
20.69999895	0.00000000	37.34621000	3.15575800
20.89999894	0.00000000	32.18504000	3.15575800
21.09999892	0.00000000	24.82775000	3.15575800
21.29999891	0.00000000	16.83071000	3.15575800
21.49999890	0.00000000	11.06053000	3.15575800
21.69999889	0.00000000	9.14739100	3.15575800
21.89999888	0.00000000	11.52190000	3.15575800
22.09999886	0.00000000	18.59006000	3.15575800
22.29999885	0.00000000	29.43528000	3.15575800
22.49999884	0.00000000	42.18134000	3.15575800
22.69999883	0.00000000	53.67864000	3.15575800
22.89999882	0.00000000	60.56225000	3.15575800
23.09999881	0.00000000	60.51919000	3.19881900
23.29999879	0.00000000	53.11884000	3.57406500
23.49999878	0.00000000	39.53617000	4.31840500
23.69999877	0.00000000	22.13336000	4.69365100
23.89999876	0.00000000	4.82283400	4.73671200
24.09999875	0.00000000	-7.87401500	4.73671200
24.29999873	0.00000000	-12.48154000	4.69365100
24.49999872	0.00000000	-7.78174200	4.26919300
24.69999871	0.00000000	5.80093500	3.11269700
24.89999870	0.00000000	25.94119000	1.57480300
25.09999869	0.00000000	48.28371000	0.04306102
25.29999867	0.00000000	67.58735000	-1.11343500
25.49999866	0.00000000	78.71555000	-1.48253000
25.69999865	0.00000000	79.08464000	-1.02116100
25.89999864	0.00000000	67.82726000	0.97194880
26.09999863	0.00000000	47.39788000	4.77977300
26.29999862	0.00000000	22.68701000	9.00590400
26.49999860	0.00000000	-0.47982280	12.49385000
26.69999859	0.00000000	-16.71383000	14.81299000
26.89999858	0.00000000	-22.52707000	15.09596000
27.09999857	0.00000000	-16.71383000	12.77067000
27.29999856	0.00000000	-0.52288380	7.67101300
27.49999854	0.00000000	22.26870000	0.73818890
27.69999853	0.00000000	46.23523000	-7.01279500
27.89999852	0.00000000	66.33243000	-13.47810000
28.09999851	0.00000000	77.92199000	-16.95374000
28.29999850	0.00000000	78.34030000	-16.08022000
28.49999848	0.00000000	67.96260000	-10.68528000
28.69999847	0.00000000	49.48942000	-1.30413400
28.89999846	0.00000000	27.85433000	10.26698000
29.09999845	0.00000000	8.07701800	22.20103000
29.29999844	0.00000000	-6.29306100	30.98548000
29.49999843	0.00000000	-12.48154000	34.09818000
29.69999841	0.00000000	-9.45496900	30.94242000
29.89999840	0.00000000	1.71013800	21.60433000
30.09999839	0.00000000	17.90108000	7.29576700
30.29999838	0.00000000	35.34695000	-8.87672100
30.49999837	0.00000000	50.46752000	-23.13607000
30.69999835	0.00000000	60.56225000	-32.01279000
30.89999834	0.00000000	63.68110000	-33.50147000
31.09999833	0.00000000	59.49188000	-26.94390000
31.29999832	0.00000000	49.48942000	-13.43504000
31.49999831	0.00000000	36.31890000	3.57406500
31.69999829	0.00000000	22.77928000	21.03838000
31.89999828	0.00000000	11.52190000	35.63607000
32.09999827	0.00000000	4.91510800	43.71309000
32.29999826	0.00000000	3.70939900	42.97490000
32.49999825	0.00000000	7.94168200	34.09818000
32.69999824	0.00000000	16.40625000	19.00221000
32.89999822	0.00000000	26.87623000	0.46751960
33.09999821	0.00000000	37.30315000	-17.28592000
33.29999820	0.00000000	45.44168000	-30.43184000
33.49999819	0.00000000	49.30487000	-36.23893000
33.69999818	0.00000000	48.60359000	-33.58760000
33.89999816	0.00000000	43.58390000	-23.55438000
34.09999815	0.00000000	35.90059000	-8.45841400
34.29999814	0.00000000	27.38681000	8.91978400
34.49999813	0.00000000	20.07874000	24.76009000
34.69999812	0.00000000	15.80339000	35.54380000
34.89999810	0.00000000	15.38509000	39.06865000
35.09999809	0.00000000	18.45472000	34.47342000
35.29999808	0.00000000	24.18184000	23.68971000
35.49999807	0.00000000	30.73942000	9.01205700
35.69999806	0.00000000	36.14050000	-6.40994000
35.89999805	0.00000000	39.62844000	-18.73154000
36.09999803	0.00000000	40.00369000	-25.31988000
36.29999802	0.00000000	37.34621000	-24.58169000
36.49999801	0.00000000	32.73868000	-17.32899000
36.69999800	0.00000000	27.34375000	-5.75787400
36.89999799	0.00000000	22.73007000	7.29576700
37.09999797	0.00000000	20.03568000	18.44242000
37.29999796	0.00000000	20.03568000	24.62475000
37.49999795	0.00000000	22.68701000	24.66781000
37.69999794	0.00000000	26.91929000	18.95300000
37.89999793	0.00000000	31.57603000	9.38730200
38.09999791	0.00000000	35.81446000	-0.97810030
38.29999790	0.00000000	38.50886000	-9.43036400
38.49999789	0.00000000	38.93332000	-13.61343000
38.69999788	0.00000000	37.39542000	-12.12475000
38.89999787	0.00000000	34.27657000	-5.62253900
39.09999786	0.00000000	30.03814000	3.53100400
39.29999784	0.00000000	25.80585000	12.77067000
39.49999783	0.00000000	22.68701000	19.24212000
39.69999782	0.00000000	21.10605000	21.13681000
39.89999781	0.00000000	21.10605000	17.28592000
40.09999780	0.00000000	22.64394000	8.91978400
40.29999778	0.00000000	25.38755000	-1.06422200
40.49999777	0.00000000	28.87549000	-9.89788300
40.69999776	0.00000000	32.73868000	-15.23745000
40.89999775	0.00000000	35.81446000	-15.23745000
41.09999774	0.00000000	37.43848000	-9.89788300
41.29999772	0.00000000	37.81373000	-1.06422200
41.49999771	0.00000000	37.02018000	8.96284400
41.69999770	0.00000000	34.65182000	17.79650000
41.89999769	0.00000000	31.20078000	23.13607000
42.09999768	0.00000000	27.34375000	23.13607000
42.29999767	0.00000000	24.26796000	17.79650000
42.49999765	0.00000000	22.64394000	9.05511800
42.69999764	0.00000000	22.22564000	-0.22760820
42.89999763	0.00000000	22.64394000	-7.57874000
43.09999762	0.00000000	24.18184000	-12.26624000
43.29999761	0.00000000	26.50098000	-12.96752000
43.49999759	0.00000000	28.78937000	-9.61491000
43.69999758	0.00000000	30.73326000	-3.48794300
43.89999757	0.00000000	31.57603000	3.06963600
44.09999756	0.00000000	32.03740000	8.91978400
44.29999755	0.00000000	32.78174000	13.14591000
44.49999753	0.00000000	33.15699000	14.67766000
44.69999752	0.00000000	33.20005000	13.18898000
44.89999751	0.00000000	33.20005000	9.43036400
45.09999750	0.00000000	33.15699000	5.19808000
45.29999749	0.00000000	32.73252000	1.66707700
45.49999748	0.00000000	31.48376000	-1.07037400
45.69999746	0.00000000	29.15231000	-2.60211600
45.89999745	0.00000000	25.67052000	-2.64517700
46.09999744	0.00000000	22.22564000	-1.48868100
46.29999743	0.00000000	19.52510000	0.46751960
46.49999742	0.00000000	18.36245000	3.15575800
46.69999740	0.00000000	19.19906000	5.80093500
46.89999739	0.00000000	21.99188000	7.38188900
47.09999738	0.00000000	27.47908000	7.80019600
47.29999737	0.00000000	34.69488000	7.42495000
47.49999736	0.00000000	41.25246000	6.22539300
47.69999734	0.00000000	45.12180000	4.31840500
47.89999733	0.00000000	45.85999000	1.99311000
48.09999732	0.00000000	42.74114000	0.09227362
48.29999731	0.00000000	36.18971000	-1.11343500
48.49999730	0.00000000	28.03888000	-1.48253000
48.69999729	0.00000000	19.52510000	-1.06422200
48.89999727	0.00000000	12.64149000	0.51058070
49.09999726	0.00000000	9.56569900	3.19881900
49.29999725	0.00000000	11.10359000	6.26845500
49.49999724	0.00000000	16.91683000	8.96284400
49.69999723	0.00000000	25.80585000	10.45152000
49.89999721	0.00000000	35.81446000	10.07628000
50.09999720	0.00000000	44.27903000	7.75713500
50.29999719	0.00000000	48.88656000	4.31840500
50.49999718	0.00000000	48.51131000	0.41830710
50.69999717	0.00000000	43.16560000	-3.02042300
50.89999715	0.00000000	34.69488000	-5.29650500
51.09999714	0.00000000	25.43061000	-5.29650500
51.29999713	0.00000000	17.34129000	-3.02042300
51.49999712	0.00000000	12.72761000	0.46751960
51.69999711	0.00000000	12.68455000	4.73671200
51.89999710	0.00000000	16.87377000	8.96284400
52.09999708	0.00000000	23.80659000	11.98942000
52.29999707	0.00000000	31.53297000	12.77067000
52.49999706	0.00000000	38.46580000	10.91289000
52.69999705	0.00000000	42.65502000	7.84940900
52.89999704	0.00000000	42.69808000	4.31840500
53.09999702	0.00000000	38.88410000	0.46751960
53.29999701	0.00000000	32.78174000	-2.55905500
53.49999700	0.00000000	26.22416000	-3.76476400
53.69999699	0.00000000	21.24139000	-3.02042300
53.89999698	0.00000000	18.87303000	-1.07037400
54.09999696	0.00000000	19.66043000	1.99311000
54.29999695	0.00000000	23.06225000	5.38262700
54.49999694	0.00000000	28.08194000	7.29576700
54.69999693	0.00000000	33.06471000	7.38188900
54.89999692	0.00000000	36.92790000	6.26845500
55.09999691	0.00000000	38.42273000	4.73671200
55.29999689	0.00000000	36.92790000	3.19881900
55.49999688	0.00000000	33.11393000	2.08538400
55.69999687	0.00000000	28.50024000	2.08538400
55.89999686	0.00000000	24.26796000	3.24803100
56.09999685	0.00000000	21.57357000	5.11195900
56.29999683	0.00000000	21.19833000	7.01279500
56.49999682	0.00000000	23.06225000	7.71407400
56.69999681	0.00000000	26.54404000	6.96358300
56.89999680	0.00000000	30.37032000	4.60137700
57.09999679	0.00000000	33.85827000	1.15649600
57.29999677	0.00000000	35.77140000	-2.64517700
57.49999676	0.00000000	35.81446000	-5.29650500
57.69999675	0.00000000	34.27657000	-5.67175200
57.89999674	0.00000000	31.57603000	-3.71555100
58.09999673	0.00000000	28.50024000	0.55364170
58.29999672	0.00000000	25.84892000	6.26845500
58.49999670	0.00000000	24.64321000	11.65723000
58.69999669	0.00000000	25.01230000	15.14518000
58.89999668	0.00000000	26.13189000	16.25861000
59.09999667	0.00000000	28.08194000	14.25935000
59.29999666	0.00000000	29.94586000	8.87057000
59.49999664	0.00000000	31.15157000	1.62401600
59.69999663	0.00000000	31.52682000	-5.33956700
59.89999662	0.00000000	31.15157000	-10.35925000
60.09999661	0.00000000	29.99508000	-12.59227000
60.29999660	0.00000000	28.50024000	-10.64222000
60.49999658	0.00000000	27.34375000	-4.55831700
60.69999657	0.00000000	26.96850000	3.15575800
60.89999656	0.00000000	27.34375000	10.91289000
61.09999655	0.00000000	28.50024000	17.42126000
61.29999654	0.00000000	30.03814000	20.48474000
61.49999653	0.00000000	31.57603000	19.32825000
61.69999651	0.00000000	32.68946000	14.30241000
61.89999650	0.00000000	32.68946000	6.22539300
62.09999649	0.00000000	31.52682000	-2.55905500
62.29999648	0.00000000	29.61983000	-9.56569900
62.49999647	0.00000000	27.29453000	-13.42889000
62.69999645	0.00000000	25.38755000	-13.79798000
62.89999644	0.00000000	24.22490000	-9.94094400
63.09999643	0.00000000	24.22490000	-3.06348400
63.29999642	0.00000000	25.38755000	4.69365100
63.49999641	0.00000000	27.34375000	12.03248000
63.69999639	0.00000000	30.03814000	17.42126000
63.89999638	0.00000000	32.68946000	19.37131000
64.09999637	0.00000000	34.23351000	17.83957000
64.29999636	0.00000000	34.27657000	13.18898000
64.49999635	0.00000000	33.11393000	6.31766700
64.69999634	0.00000000	31.15157000	-0.64591530
64.89999632	0.00000000	28.45718000	-6.09005900
65.09999631	0.00000000	25.80585000	-9.56569900
65.29999630	0.00000000	24.22490000	-9.98400600
65.49999629	0.00000000	23.84965000	-7.75713500
65.69999628	0.00000000	24.64321000	-4.22613100
65.89999626	0.00000000	26.91929000	0.41830710
66.09999625	0.00000000	29.52756000	5.43184000
66.29999624	0.00000000	31.10851000	9.33809000
66.49999623	0.00000000	31.57603000	12.07554000
66.69999622	0.00000000	31.52682000	13.23819000
66.89999620	0.00000000	30.69020000	12.49385000
67.09999619	0.00000000	28.50024000	10.58686000
67.29999618	0.00000000	26.64247000	7.84940900
67.49999617	0.00000000	26.54404000	4.73671200
67.69999616	0.00000000	26.91929000	1.58095500
67.89999615	0.00000000	27.76206000	-1.53174200
68.09999613	0.00000000	29.66289000	-4.22613100
68.29999612	0.00000000	31.52682000	-5.80093500
68.49999611	0.00000000	32.68946000	-6.13312000
68.69999610	0.00000000	32.64640000	-4.96432100
68.89999609	0.00000000	31.10851000	-1.86392700
69.09999607	0.00000000	28.41412000	2.04232300
69.29999606	0.00000000	25.33834000	6.72982200
69.49999605	0.00000000	22.64394000	11.65723000
69.69999604	0.00000000	21.10605000	14.72072000
69.89999603	0.00000000	21.14911000	15.18824000
70.09999601	0.00000000	23.15453000	13.60728000
70.29999600	0.00000000	27.34375000	10.07628000
70.49999599	0.00000000	32.32037000	4.69365100
70.69999598	0.00000000	36.23277000	-1.06422200
70.89999597	0.00000000	38.93332000	-5.71481200
71.09999596	0.00000000	39.62844000	-8.40920300
71.29999594	0.00000000	37.34621000	-8.40920300
71.49999593	0.00000000	33.11393000	-5.75787400
71.69999592	0.00000000	28.03888000	-1.53174200
71.89999591	0.00000000	22.64394000	3.11269700
72.09999590	0.00000000	18.45472000	7.38188900
72.29999588	0.00000000	16.87377000	10.45152000
72.49999587	0.00000000	17.98720000	11.60802000
72.69999586	0.00000000	21.10605000	10.49459000
72.89999585	0.00000000	25.76279000	7.84940900
73.09999584	0.00000000	31.15772000	4.77977300
73.29999582	0.00000000	35.76525000	2.04232300
73.49999581	0.00000000	38.55807000	0.13533460
73.69999580	0.00000000	39.25935000	-0.65206690
73.89999579	0.00000000	37.71530000	0.09227362
74.09999578	0.00000000	33.48917000	1.57480300
74.29999577	0.00000000	28.54946000	3.11269700
74.49999575	0.00000000	24.26796000	4.22613100
74.69999574	0.00000000	21.52436000	4.18307100
74.89999573	0.00000000	20.73080000	2.69439000
75.09999572	0.00000000	21.48130000	0.46751960
75.29999571	0.00000000	23.80659000	-1.02116100
75.49999569	0.00000000	26.83317000	-1.06422200
75.69999568	0.00000000	29.57062000	0.13533460
75.89999567	0.00000000	31.52682000	2.46063000
76.09999566	0.00000000	32.68946000	5.89320800
76.29999565	0.00000000	32.73252000	8.96284400
76.49999563	0.00000000	31.99434000	10.91289000
76.69999562	0.00000000	31.20078000	11.60802000
76.89999561	0.00000000	30.03814000	10.03322000
77.09999560	0.00000000	28.92470000	6.21924200
77.29999559	0.00000000	28.50024000	1.57480300
77.49999558	0.00000000	28.45718000	-3.06963600
77.69999556	0.00000000	28.45718000	-6.87746000
77.89999555	0.00000000	28.45718000	-8.40920300
78.09999554	0.00000000	28.41412000	-7.29576700
78.29999553	0.00000000	27.98966000	-4.14000900
78.49999552	0.00000000	26.87623000	0.87967510
78.69999550	0.00000000	25.80585000	7.01279500
78.89999549	0.00000000	25.76279000	11.98327000
79.09999548	0.00000000	26.54404000	14.76993000
79.29999547	0.00000000	27.71284000	15.14518000
79.49999546	0.00000000	29.70595000	13.23819000
79.69999544	0.00000000	31.90822000	9.33809000
79.89999543	0.00000000	33.47687000	4.31840500
80.09999542	0.00000000	33.48917000	-1.06422200
80.29999541	0.00000000	32.73252000	-5.29650500
80.49999540	0.00000000	31.10851000	-7.29576700
80.69999539	0.00000000	28.45718000	-7.33882900
80.89999537	0.00000000	25.76279000	-5.75787400
81.09999536	0.00000000	23.84965000	-2.64517700
81.29999535	0.00000000	23.06225000	1.57480300
81.49999534	0.00000000	23.84965000	5.85014700
81.69999533	0.00000000	25.76279000	9.38115100
81.89999531	0.00000000	28.41412000	12.07554000
82.09999530	0.00000000	30.73326000	13.18898000
82.29999529	0.00000000	31.95128000	12.07554000
82.49999528	0.00000000	32.73252000	9.42421200
82.69999527	0.00000000	32.68946000	6.31151500
82.89999525	0.00000000	31.57603000	3.15575800
83.09999524	0.00000000	30.03814000	0.00000000
83.29999523	0.00000000	28.50024000	-3.11269700
83.49999522	0.00000000	27.34375000	-5.75787400
83.69999521	0.00000000	26.91929000	-6.87130900
83.89999520	0.00000000	26.87623000	-5.75787400
84.09999518	0.00000000	26.91929000	-3.06348400
84.29999517	0.00000000	27.29453000	0.46751960
84.49999516	0.00000000	28.03888000	4.73671200
84.69999515	0.00000000	28.41412000	8.96284400
84.89999514	0.00000000	28.45718000	12.07554000
85.09999512	0.00000000	28.45718000	13.61343000
85.29999511	0.00000000	28.50024000	13.18898000
85.49999510	0.00000000	28.87549000	10.45152000
85.69999509	0.00000000	29.66289000	5.85014700
85.89999508	0.00000000	30.41338000	0.46136810
86.09999506	0.00000000	31.15157000	-4.18307100
86.29999505	0.00000000	31.10851000	-7.25270600
86.49999504	0.00000000	29.99508000	-8.03395600
86.69999503	0.00000000	28.45718000	-6.13312000
86.89999502	0.00000000	26.87623000	-2.64517700
87.09999501	0.00000000	25.33834000	1.99311000
87.29999499	0.00000000	24.22490000	7.00664300
87.49999498	0.00000000	24.22490000	10.86983000
87.69999497	0.00000000	25.33834000	13.18898000
87.89999496	0.00000000	26.91929000	13.14591000
88.09999495	0.00000000	28.83243000	10.45152000
88.29999493	0.00000000	30.78248000	5.85014700
88.49999492	0.00000000	31.90207000	0.51058070
88.69999491	0.00000000	32.31422000	-3.71555100
88.89999490	0.00000000	31.52682000	-5.71481200
89.09999489	0.00000000	30.03814000	-5.71481200
89.29999487	0.00000000	28.45718000	-3.76476400
89.49999486	0.00000000	26.91929000	0.13533460
89.69999485	0.00000000	25.76279000	5.06274600
89.89999484	0.00000000	25.33834000	9.65797200
90.09999483	0.00000000	25.38755000	11.94021000
90.29999482	0.00000000	26.13189000	11.61417000
90.49999480	0.00000000	27.66363000	8.91978400
90.69999479	0.00000000	28.78937000	4.69365100
90.89999478	0.00000000	29.66289000	0.13533460
91.09999477	0.00000000	30.37032000	-3.38951800
91.29999476	0.00000000	30.73326000	-4.88435000
91.49999474	0.00000000	29.99508000	-4.54601300
91.69999473	0.00000000	28.92470000	-1.77165300
91.89999472	0.00000000	28.50024000	2.36835600
92.09999471	0.00000000	28.45718000	7.00664300
92.29999470	0.00000000	28.45718000	10.40846000
92.49999468	0.00000000	28.45718000	11.60802000
92.69999467	0.00000000	28.41412000	10.45152000
92.89999466	0.00000000	28.03888000	7.38188900
93.09999465	0.00000000	27.25147000	3.15575800
93.29999464	0.00000000	26.50098000	-1.07037400
93.49999463	0.00000000	25.76279000	-4.09079700
93.69999461	0.00000000	25.76279000	-4.87819900
93.89999460	0.00000000	26.50098000	-2.97736200
94.09999459	0.00000000	27.29453000	0.46751960
94.29999458	0.00000000	28.54946000	4.69365100
94.49999457	0.00000000	30.41338000	8.50147600
94.69999455	0.00000000	32.31422000	10.45152000
94.89999454	0.00000000	33.06471000	10.45152000
95.09999453	0.00000000	32.73252000	8.50147600
95.29999452	0.00000000	31.52682000	4.69365100
95.49999451	0.00000000	29.57062000	0.51058070
95.69999449	0.00000000	26.83317000	-2.60211600
95.89999448	0.00000000	23.80659000	-4.14000900
96.09999447	0.00000000	21.52436000	-3.76476400
96.29999446	0.00000000	21.10605000	-1.44562000
96.49999445	0.00000000	22.22564000	1.99311000
96.69999444	0.00000000	24.22490000	5.80093500
96.89999442	0.00000000	27.34375000	8.45226300
97.09999441	0.00000000	31.20078000	8.91978400
97.29999440	0.00000000	34.65182000	7.80019600
97.49999439	0.00000000	36.97712000	5.85014700
97.69999438	0.00000000	37.30315000	3.15575800
97.89999436	0.00000000	35.43922000	0.51058070
98.09999435	0.00000000	31.95128000	-1.06422200
98.29999434	0.00000000	28.08194000	-1.48253000
98.49999433	0.00000000	24.18184000	-1.06422200
98.69999432	0.00000000	21.10605000	0.41830710
98.89999430	0.00000000	19.52510000	2.31914400
99.09999429	0.00000000	19.56816000	3.48794300
99.29999428	0.00000000	21.52436000	4.31840500
99.49999427	0.00000000	25.33834000	4.64443900
99.69999426	0.00000000	29.57062000	4.31840500
99.89999425	0.00000000	33.06471000	3.62327700
100.09999423	0.00000000	35.43922000	3.62327700
100.29999422	0.00000000	36.23277000	4.31840500
100.49999421	0.00000000	35.81446000	4.69365100
100.69999420	0.00000000	33.85827000	4.73671200
100.89999419	0.00000000	30.41338000	4.69365100
101.09999417	0.00000000	26.96850000	4.26919300
101.29999416	0.00000000	24.18184000	3.11269700
101.49999415	0.00000000	22.26870000	1.57480300
101.69999414	0.00000000	21.48130000	0.09227362
101.89999413	0.00000000	22.22564000	-0.69512790
102.09999411	0.00000000	23.75738000	-0.28297240
102.29999410	0.00000000	25.76279000	0.83661410
102.49999409	0.00000000	28.45718000	2.78051200
102.69999408	0.00000000	31.10851000	4.73671200
102.89999407	0.00000000	32.68946000	6.68676100
103.09999406	0.00000000	33.10777000	8.54453700
103.29999404	0.00000000	32.73252000	8.87672100
103.49999403	0.00000000	31.52682000	7.38188900
103.69999402	0.00000000	29.61983000	4.68750000
103.89999401	0.00000000	27.29453000	1.62401600
104.09999400	0.00000000	25.38755000	-1.07037400
104.29999398	0.00000000	24.22490000	-2.60211600
104.49999397	0.00000000	24.18184000	-2.64517700
104.69999396	0.00000000	24.96309000	-1.48868100
104.89999395	0.00000000	26.08883000	0.46751960
105.09999394	0.00000000	27.66363000	3.15575800
105.29999392	0.00000000	28.83243000	5.80093500
105.49999391	0.00000000	29.99508000	7.38188900
105.69999390	0.00000000	30.73326000	7.75713500
105.89999389	0.00000000	30.37032000	7.01279500
106.09999388	0.00000000	29.61983000	5.06274600
106.29999387	0.00000000	28.41412000	2.78051200
106.49999385	0.00000000	26.91929000	0.46751960
106.69999384	0.00000000	25.80585000	-1.02116100
106.89999383	0.00000000	25.76279000	-1.06422200
107.09999382	0.00000000	26.50098000	0.04306102
107.29999381	0.00000000	27.29453000	1.62401600
107.49999379	0.00000000	28.45718000	3.53100400
107.69999378	0.00000000	29.52756000	5.43184000
107.89999377	0.00000000	29.61983000	6.17618100
108.09999376	0.00000000	29.20767000	5.85014700
108.29999375	0.00000000	28.82628000	4.68750000
108.49999374	0.00000000	27.62672000	3.15575800
108.69999372	0.00000000	26.54404000	1.62401600
108.89999371	0.00000000	25.71358000	0.46136810
109.09999370	0.00000000	25.38755000	0.09227362
109.29999369	0.00000000	25.76279000	0.46136810
109.49999368	0.00000000	26.91929000	1.66707700
109.69999366	0.00000000	28.41412000	3.53100400
109.89999365	0.00000000	29.61983000	5.43184000
110.09999364	0.00000000	30.37032000	6.21924200
110.29999363	0.00000000	30.73326000	6.26845500
110.49999362	0.00000000	29.94586000	5.85014700
110.69999360	0.00000000	28.45718000	4.68750000
110.89999359	0.00000000	26.91929000	3.15575800
111.09999358	0.00000000	25.76279000	1.57480300
111.29999357	0.00000000	25.38755000	0.09227362
111.49999356	0.00000000	25.71358000	-0.69512790
111.69999355	0.00000000	26.50098000	-0.32603340
111.89999353	0.00000000	27.25147000	0.41830710
112.09999352	0.00000000	28.08194000	1.62401600
112.29999351	0.00000000	28.83243000	3.11269700
112.49999350	0.00000000	29.61983000	4.26919300
112.69999349	0.00000000	29.94586000	4.69365100
112.89999347	0.00000000	29.61983000	4.73671200
113.09999346	0.00000000	28.83243000	4.69365100
113.29999345	0.00000000	28.08194000	4.31840500
113.49999344	0.00000000	27.29453000	3.57406500
113.69999343	0.00000000	26.91929000	3.15575800
113.89999341	0.00000000	26.87623000	2.78051200
114.09999340	0.00000000	26.91929000	2.36835600
114.29999339	0.00000000	27.29453000	2.36220500
114.49999338	0.00000000	28.03888000	1.95004900
114.69999337	0.00000000	28.41412000	1.61786400
114.89999336	0.00000000	28.45718000	1.57480300
115.09999334	0.00000000	28.45718000	1.57480300
115.29999333	0.00000000	28.45718000	1.57480300
115.49999332	0.00000000	28.45718000	1.61786400
115.69999331	0.00000000	28.41412000	1.99311000
115.89999330	0.00000000	28.03888000	2.78051200
116.09999328	0.00000000	27.29453000	3.53100400
116.29999327	0.00000000	26.91929000	4.31840500
116.49999326	0.00000000	26.87623000	4.69365100
116.69999325	0.00000000	26.87623000	4.73671200
116.89999324	0.00000000	26.87623000	4.69365100
117.09999322	0.00000000	26.91929000	4.31840500
117.29999321	0.00000000	27.34375000	3.53100400
117.49999320	0.00000000	28.45718000	2.78051200
117.69999319	0.00000000	29.57062000	1.95004900
117.89999318	0.00000000	29.99508000	1.24877000
118.09999317	0.00000000	30.03814000	0.83661410
118.29999315	0.00000000	29.99508000	1.19955700
118.49999314	0.00000000	29.57062000	1.57480300
118.69999313	0.00000000	28.41412000	1.99311000
118.89999312	0.00000000	26.91929000	2.78051200
119.09999311	0.00000000	25.76279000	3.53100400
119.29999309	0.00000000	25.33834000	4.31840500
119.49999308	0.00000000	25.29527000	4.69365100
119.69999307	0.00000000	25.33834000	4.73671200
119.89999306	0.00000000	25.76279000	4.69365100
120.09999305	0.00000000	26.91929000	4.31840500
120.29999303	0.00000000	28.45718000	3.57406500
120.49999302	0.00000000	29.99508000	3.15575800
120.69999301	0.00000000	31.10851000	2.73745100
120.89999300	0.00000000	31.15157000	1.99311000
121.09999299	0.00000000	30.41338000	1.61786400
121.29999298	0.00000000	29.61983000	1.57480300
121.49999296	0.00000000	28.41412000	1.57480300
121.69999295	0.00000000	26.91929000	1.61786400
121.89999294	0.00000000	25.76279000	1.99311000
122.09999293	0.00000000	25.33834000	2.73745100
122.29999292	0.00000000	25.29527000	3.11269700
122.49999290	0.00000000	25.33834000	3.19881900
122.69999289	0.00000000	25.76279000	3.57406500
122.89999288	0.00000000	26.87623000	4.31840500
123.09999287	0.00000000	28.03888000	4.69365100
123.29999286	0.00000000	28.83243000	4.69365100
123.49999284	0.00000000	29.61983000	4.31840500
123.69999283	0.00000000	29.99508000	3.53100400
123.89999282	0.00000000	29.99508000	2.78051200
124.09999281	0.00000000	29.61983000	1.99311000
124.29999280	0.00000000	28.83243000	1.61786400
124.49999279	0.00000000	28.08194000	1.57480300
124.69999277	0.00000000	27.25147000	1.57480300
124.89999276	0.00000000	26.50098000	1.61786400
125.09999275	0.00000000	25.71358000	1.99311000
125.29999274	0.00000000	25.33834000	2.73745100
125.49999273	0.00000000	25.33834000	3.11269700
125.69999271	0.00000000	25.71358000	3.19881900
125.89999270	0.00000000	26.50098000	3.57406500
126.09999269	0.00000000	27.25147000	4.31840500
126.29999268	0.00000000	28.08194000	4.64443900
126.49999267	0.00000000	28.83243000	4.31840500
126.69999265	0.00000000	29.61983000	3.57406500
126.89999264	0.00000000	29.94586000	3.15575800
127.09999263	0.00000000	29.57062000	2.73745100
127.29999262	0.00000000	28.41412000	1.99311000
127.49999261	0.00000000	26.91929000	1.61786400
127.69999260	0.00000000	25.76279000	1.57480300
127.89999258	0.00000000	25.33834000	1.61786400
128.09999257	0.00000000	25.33834000	1.99311000
128.29999256	0.00000000	25.71358000	2.73745100
128.49999255	0.00000000	26.50098000	3.11269700
128.69999254	0.00000000	27.29453000	3.15575800
128.89999252	0.00000000	28.50024000	3.15575800
129.09999251	0.00000000	29.94586000	3.15575800
129.29999250	0.00000000	30.69020000	3.15575800
129.49999249	0.00000000	29.94586000	3.11269700
129.69999248	0.00000000	28.50024000	2.73745100
129.89999246	0.00000000	27.29453000	1.99311000
130.09999245	0.00000000	26.50098000	1.66707700
130.29999244	0.00000000	25.71358000	1.99311000
130.49999243	0.00000000	25.33834000	2.73745100
130.69999242	0.00000000	25.33834000	3.11269700
130.89999241	0.00000000	25.80585000	3.19881900
131.09999239	0.00000000	27.25147000	3.57406500
131.29999238	0.00000000	28.77707000	4.26919300
131.49999237	0.00000000	29.20767000	4.26919300
131.69999236	0.00000000	29.61983000	3.53100400
131.89999235	0.00000000	29.57062000	2.78051200
132.09999233	0.00000000	28.83243000	1.99311000
132.29999232	0.00000000	28.08194000	1.61786400
132.49999231	0.00000000	27.29453000	1.57480300
132.69999230	0.00000000	26.91929000	1.57480300
132.89999229	0.00000000	26.87623000	1.61786400
133.09999227	0.00000000	26.87623000	1.99311000
133.29999226	0.00000000	26.87623000	2.78051200
133.49999225	0.00000000	26.91929000	3.53100400
133.69999224	0.00000000	27.29453000	4.31840500
133.89999223	0.00000000	28.03888000	4.69365100
134.09999222	0.00000000	28.36491000	4.69365100
134.29999220	0.00000000	28.03888000	4.26919300
134.49999219	0.00000000	27.29453000	3.15575800
134.69999218	0.00000000	26.91929000	1.99311000
134.89999217	0.00000000	26.87623000	1.19955700
135.09999216	0.00000000	26.91929000	0.46136810
135.29999214	0.00000000	27.29453000	0.46136810
135.49999213	0.00000000	28.03888000	1.19955700
135.69999212	0.00000000	28.41412000	1.95004900
135.89999211	0.00000000	28.41412000	2.73745100
136.09999210	0.00000000	28.03888000	3.15575800
136.29999208	0.00000000	27.29453000	3.57406500
136.49999207	0.00000000	26.87623000	4.31840500
136.69999206	0.00000000	26.50098000	4.64443900
136.89999205	0.00000000	26.13189000	4.31840500
137.09999204	0.00000000	26.50098000	3.53100400
137.29999203	0.00000000	26.87623000	2.78051200
137.49999201	0.00000000	27.29453000	1.99311000
137.69999200	0.00000000	28.03888000	1.61786400
137.89999199	0.00000000	28.41412000	1.53174200
138.09999198	0.00000000	28.45718000	1.19955700
138.29999197	0.00000000	28.41412000	0.83661410
138.49999195	0.00000000	28.03888000	1.19955700
138.69999194	0.00000000	27.25147000	1.57480300
138.89999193	0.00000000	26.50098000	1.99311000
139.09999192	0.00000000	25.71358000	2.78051200
139.29999191	0.00000000	25.38755000	3.53100400
139.49999189	0.00000000	25.71358000	4.31840500
139.69999188	0.00000000	26.50098000	4.69365100
139.89999187	0.00000000	27.25147000	4.73671200
140.09999186	0.00000000	27.98966000	4.69365100
140.29999185	0.00000000	28.03888000	4.26919300
140.49999184	0.00000000	27.71284000	3.11269700
140.69999182	0.00000000	28.03888000	1.62401600
140.89999181	0.00000000	27.98966000	0.46136810
141.09999180	0.00000000	27.29453000	0.04306102
141.29999179	0.00000000	26.91929000	0.04306102
141.49999178	0.00000000	26.87623000	0.46136810
141.69999176	0.00000000	26.87623000	1.57480300
141.89999175	0.00000000	26.87623000	2.73745100
142.09999174	0.00000000	26.91929000	3.53100400
142.29999173	0.00000000	27.29453000	4.31840500
142.49999172	0.00000000	28.03888000	4.69365100
142.69999170	0.00000000	28.41412000	4.69365100
142.89999169	0.00000000	28.41412000	4.26919300
143.09999168	0.00000000	28.03888000	3.15575800
143.29999167	0.00000000	27.29453000	1.99311000
143.49999166	0.00000000	26.91929000	1.19955700
143.69999165	0.00000000	26.87623000	0.41830710
143.89999163	0.00000000	26.87623000	0.09227362
144.09999162	0.00000000	26.87623000	0.41830710
144.29999161	0.00000000	26.91929000	1.19955700
144.49999160	0.00000000	27.25147000	1.95004900
144.69999159	0.00000000	27.66363000	2.78051200
144.89999157	0.00000000	27.66978000	3.48794300
145.09999156	0.00000000	28.08194000	3.90009800
145.29999155	0.00000000	28.36491000	3.53100400
145.49999154	0.00000000	28.03888000	3.15575800
145.69999153	0.00000000	27.29453000	2.73745100
145.89999151	0.00000000	26.91929000	1.99311000
146.09999150	0.00000000	26.87623000	1.61786400
146.29999149	0.00000000	26.87623000	1.57480300
146.49999148	0.00000000	26.87623000	1.57480300
146.69999147	0.00000000	26.91929000	1.57480300
146.89999146	0.00000000	27.29453000	1.61786400
147.09999144	0.00000000	28.03888000	1.99311000
147.29999143	0.00000000	28.41412000	2.73745100
147.49999142	0.00000000	28.41412000	3.11269700
147.69999141	0.00000000	28.03888000	3.15575800
147.89999140	0.00000000	27.29453000	3.15575800
148.09999138	0.00000000	26.91929000	3.15575800
148.29999137	0.00000000	26.83317000	3.15575800
148.49999136	0.00000000	26.50098000	3.15575800
148.69999135	0.00000000	26.13189000	3.11269700
148.89999134	0.00000000	26.50098000	2.73745100
149.09999132	0.00000000	26.83317000	1.99311000
149.29999131	0.00000000	26.91929000	1.61786400
149.49999130	0.00000000	27.29453000	1.57480300
149.69999129	0.00000000	28.03888000	1.57480300
149.89999128	0.00000000	28.41412000	1.61786400
150.09999127	0.00000000	28.41412000	1.99311000
150.29999125	0.00000000	28.03888000	2.73745100
150.49999124	0.00000000	27.29453000	3.11269700
150.69999123	0.00000000	26.91929000	3.15575800
150.89999122	0.00000000	26.87623000	3.15575800
151.09999121	0.00000000	26.87623000	3.15575800
151.29999119	0.00000000	26.87623000	3.15575800
151.49999118	0.00000000	26.87623000	3.11269700
151.69999117	0.00000000	26.87623000	2.73745100
151.89999116	0.00000000	26.87623000	1.99311000
152.09999115	0.00000000	26.87623000	1.61786400
152.29999113	0.00000000	26.87623000	1.57480300
152.49999112	0.00000000	26.91929000	1.61786400
152.69999111	0.00000000	27.29453000	1.99311000
152.89999110	0.00000000	28.03888000	2.73745100
153.09999109	0.00000000	28.41412000	3.11269700
153.29999108	0.00000000	28.41412000	3.15575800
153.49999106	0.00000000	28.03888000	3.15575800
153.69999105	0.00000000	27.29453000	3.15575800
153.89999104	0.00000000	26.87623000	3.15575800
154.09999103	0.00000000	26.50098000	3.15575800
154.29999102	0.00000000	26.08883000	3.15575800
154.49999100	0.00000000	26.12574000	3.15575800
154.69999099	0.00000000	26.08883000	3.15575800
154.89999098	0.00000000	26.50098000	3.15575800
155.09999097	0.00000000	26.83317000	3.11269700
155.29999096	0.00000000	26.91929000	2.78051200
155.49999094	0.00000000	27.29453000	2.36835600
155.69999093	0.00000000	28.03888000	2.36220500
155.89999092	0.00000000	28.36491000	1.95004900
156.09999091	0.00000000	28.03888000	1.61786400
156.29999090	0.00000000	27.29453000	1.57480300
156.49999089	0.00000000	26.91929000	1.61786400
156.69999087	0.00000000	26.87623000	1.99311000
156.89999086	0.00000000	26.87623000	2.73745100
157.09999085	0.00000000	26.83317000	3.11269700
157.29999084	0.00000000	26.45792000	3.15575800
157.49999083	0.00000000	25.76279000	3.15575800
157.69999081	0.00000000	25.76279000	3.15575800
157.89999080	0.00000000	26.45792000	3.11269700
158.09999079	0.00000000	26.87623000	2.73745100
158.29999078	0.00000000	27.25147000	1.99311000
158.49999077	0.00000000	27.66363000	1.61786400
158.69999075	0.00000000	27.66978000	1.57480300
158.89999074	0.00000000	28.03888000	1.57480300
159.09999073	0.00000000	27.98966000	1.57480300
159.29999072	0.00000000	27.29453000	1.61786400
159.49999071	0.00000000	26.91929000	1.99311000
159.69999070	0.00000000	26.87623000	2.73745100
159.89999068	0.00000000	26.87623000	3.11269700
160.09999067	0.00000000	26.87623000	3.15575800
160.29999066	0.00000000	26.87623000	3.15575800
160.49999065	0.00000000	26.87623000	3.15575800
160.69999064	0.00000000	26.87623000	3.11269700
160.89999062	0.00000000	26.87623000	2.73745100
161.09999061	0.00000000	26.87623000	1.99311000
161.29999060	0.00000000	26.87623000	1.61786400
161.49999059	0.00000000	26.87623000	1.57480300
161.69999058	0.00000000	26.87623000	1.61786400
161.89999056	0.00000000	26.87623000	1.95004900
162.09999055	0.00000000	26.87623000	2.31914400
162.29999054	0.00000000	26.87623000	1.99311000
162.49999053	0.00000000	26.87623000	2.04232300
162.69999052	0.00000000	26.87623000	2.73745100
162.89999051	0.00000000	26.87623000	3.11269700
163.09999049	0.00000000	26.87623000	3.15575800
163.29999048	0.00000000	26.83317000	3.15575800
163.49999047	0.00000000	26.45792000	3.15575800
163.69999046	0.00000000	25.76279000	3.15575800
163.89999045	0.00000000	25.76279000	3.11269700
164.09999043	0.00000000	26.45792000	2.73745100
164.29999042	0.00000000	26.83317000	1.99311000
164.49999041	0.00000000	26.87623000	1.61786400
164.69999040	0.00000000	26.91929000	1.57480300
164.89999039	0.00000000	27.29453000	1.57480300
165.09999037	0.00000000	27.98966000	1.57480300
165.29999036	0.00000000	27.98966000	1.61786400
165.49999035	0.00000000	27.29453000	1.99311000
165.69999034	0.00000000	26.91929000	2.73745100
165.89999033	0.00000000	26.87623000	3.11269700
166.09999032	0.00000000	26.87623000	3.15575800
166.29999030	0.00000000	26.83317000	3.15575800
166.49999029	0.00000000	26.50098000	3.15575800
166.69999028	0.00000000	26.13189000	3.15575800
166.89999027	0.00000000	26.50098000	3.11269700
167.09999026	0.00000000	26.83317000	2.78051200
167.29999024	0.00000000	26.87623000	2.36835600
167.49999023	0.00000000	26.87623000	2.36220500
167.69999022	0.00000000	26.87623000	1.99311000
167.89999021	0.00000000	26.87623000	1.99311000
168.09999020	0.00000000	26.87623000	2.31914400
168.29999018	0.00000000	26.87623000	1.95004900
168.49999017	0.00000000	26.87623000	1.66707700
168.69999016	0.00000000	26.87623000	1.95004900
168.89999015	0.00000000	26.87623000	2.31914400
169.09999014	0.00000000	26.87623000	1.95004900
169.29999013	0.00000000	26.87623000	1.66707700
169.49999011	0.00000000	26.87623000	1.95004900
169.69999010	0.00000000	26.83317000	2.36220500
169.89999009	0.00000000	26.45792000	2.36835600
170.09999008	0.00000000	25.76279000	2.78051200
170.29999007	0.00000000	25.76279000	3.11269700
170.49999005	0.00000000	26.45792000	3.15575800
170.69999004	0.00000000	26.83317000	3.11269700
170.89999003	0.00000000	26.87623000	2.73745100
171.09999002	0.00000000	26.87623000	1.99311000
171.29999001	0.00000000	26.87623000	1.61786400
171.49998999	0.00000000	26.87623000	1.57480300
171.69998998	0.00000000	26.87623000	1.57480300
171.89998997	0.00000000	26.91929000	1.61786400
172.09998996	0.00000000	27.25147000	1.99311000
172.29998995	0.00000000	27.57136000	2.73745100
172.49998994	0.00000000	26.87623000	3.11269700
172.69998992	0.00000000	26.18110000	3.11269700
172.89998991	0.00000000	26.50098000	2.78051200
173.09998990	0.00000000	26.83317000	2.41141700
173.29998989	0.00000000	26.87623000	2.78051200
173.49998988	0.00000000	26.87623000	3.06348400
173.69998986	0.00000000	26.87623000	2.78051200
173.89998985	0.00000000	26.87623000	2.41141700
174.09998984	0.00000000	26.87623000	2.73745100
174.29998983	0.00000000	26.87623000	2.68823800
174.49998982	0.00000000	26.87623000	1.99311000
174.69998980	0.00000000	26.87623000	1.61786400
174.89998979	0.00000000	26.87623000	1.57480300
175.09998978	0.00000000	26.83317000	1.57480300
175.29998977	0.00000000	26.50098000	1.57480300
175.49998976	0.00000000	26.13189000	1.57480300
175.69998975	0.00000000	26.50098000	1.57480300
175.89998973	0.00000000	26.83317000	1.61786400
176.09998972	0.00000000	26.87623000	1.99311000
176.29998971	0.00000000	26.87623000	2.73745100
176.49998970	0.00000000	26.87623000	3.11269700
176.69998969	0.00000000	26.87623000	3.11269700
176.89998967	0.00000000	26.87623000	2.78051200
177.09998966	0.00000000	26.87623000	2.36835600
177.29998965	0.00000000	26.87623000	2.36220500
177.49998964	0.00000000	26.87623000	1.95004900
177.69998963	0.00000000	26.87623000	1.61786400
177.89998961	0.00000000	26.83317000	1.57480300
178.09998960	0.00000000	26.45792000	1.57480300
178.29998959	0.00000000	25.76279000	1.57480300
178.49998958	0.00000000	25.76279000	1.61786400
178.69998957	0.00000000	26.45792000	1.99311000
178.89998956	0.00000000	26.83317000	2.73745100
179.09998954	0.00000000	26.87623000	3.11269700
179.29998953	0.00000000	26.87623000	3.15575800
179.49998952	0.00000000	26.87623000	3.15575800
179.69998951	0.00000000	26.87623000	3.11269700
179.89998950	0.00000000	26.87623000	2.73745100
180.09998948	0.00000000	26.87623000	1.99311000
180.29998947	0.00000000	26.87623000	1.61786400
180.49998946	0.00000000	26.87623000	1.57480300
180.69998945	0.00000000	26.83317000	1.57480300
180.89998944	0.00000000	26.45792000	1.57480300
181.09998942	0.00000000	25.71358000	1.61786400
181.29998941	0.00000000	25.38755000	1.99311000
181.49998940	0.00000000	25.71358000	2.73745100
181.69998939	0.00000000	26.45792000	3.11269700
181.89998938	0.00000000	26.83317000	3.15575800
182.09998937	0.00000000	26.87623000	3.15575800
182.29998935	0.00000000	26.87623000	3.15575800
182.49998934	0.00000000	26.87623000	3.15575800
182.69998933	0.00000000	26.87623000	3.15575800
182.89998932	0.00000000	26.87623000	3.11269700
183.09998931	0.00000000	26.87623000	2.73745100
183.29998929	0.00000000	26.87623000	1.99311000
183.49998928	0.00000000	26.87623000	1.61786400
183.69998927	0.00000000	26.87623000	1.57480300
183.89998926	0.00000000	26.83317000	1.57480300
184.09998925	0.00000000	26.45792000	1.57480300
184.29998923	0.00000000	25.71358000	1.61786400
184.49998922	0.00000000	25.38755000	1.99311000
184.69998921	0.00000000	25.71358000	2.73745100
184.89998920	0.00000000	26.45792000	3.11269700
185.09998919	0.00000000	26.83317000	3.15575800
185.29998918	0.00000000	26.87623000	3.15575800
185.49998916	0.00000000	26.87623000	3.11269700
185.69998915	0.00000000	26.87623000	2.73745100
185.89998914	0.00000000	26.87623000	1.99311000
186.09998913	0.00000000	26.87623000	1.61786400
186.29998912	0.00000000	26.87623000	1.57480300
186.49998910	0.00000000	26.87623000	1.57480300
186.69998909	0.00000000	26.87623000	1.57480300
186.89998908	0.00000000	26.87623000	1.57480300
187.09998907	0.00000000	26.83317000	1.61786400
187.29998906	0.00000000	26.45792000	1.99311000
187.49998904	0.00000000	25.71358000	2.73745100
187.69998903	0.00000000	25.38755000	3.11269700
187.89998902	0.00000000	25.71358000	3.15575800
188.09998901	0.00000000	26.45792000	3.15575800
188.29998900	0.00000000	26.83317000	3.11269700
188.49998899	0.00000000	26.87623000	2.73745100
188.69998897	0.00000000	26.87623000	1.99311000
188.89998896	0.00000000	26.87623000	1.61786400
189.09998895	0.00000000	26.87623000	1.57480300
189.29998894	0.00000000	26.87623000	1.57480300
189.49998893	0.00000000	26.87623000	1.57480300
189.69998891	0.00000000	26.83317000	1.57480300
189.89998890	0.00000000	26.45792000	1.61786400
190.09998889	0.00000000	25.76279000	1.99311000
190.29998888	0.00000000	25.71358000	2.73745100
190.49998887	0.00000000	26.08268000	3.11269700
190.69998885	0.00000000	26.08883000	3.15575800
190.89998884	0.00000000	26.45792000	3.15575800
191.09998883	0.00000000	26.45792000	3.15575800
191.29998882	0.00000000	26.13189000	3.11269700
191.49998881	0.00000000	26.50098000	2.73745100
191.69998880	0.00000000	26.83317000	1.99311000
191.89998878	0.00000000	26.87623000	1.61786400
192.09998877	0.00000000	26.87623000	1.57480300
192.29998876	0.00000000	26.87623000	1.57480300
192.49998875	0.00000000	26.87623000	1.61786400
192.69998874	0.00000000	26.87623000	1.95004900
192.89998872	0.00000000	26.83317000	2.31914400
193.09998871	0.00000000	26.45792000	1.95004900
193.29998870	0.00000000	25.71358000	1.61786400
193.49998869	0.00000000	25.33834000	1.57480300
193.69998868	0.00000000	25.33834000	1.57480300
193.89998866	0.00000000	25.71358000	1.61786400
194.09998865	0.00000000	26.45792000	1.99311000
194.29998864	0.00000000	26.83317000	2.73745100
194.49998863	0.00000000	26.87623000	3.11269700
194.69998862	0.00000000	26.87623000	3.15575800
194.89998861	0.00000000	26.87623000	3.11269700
195.09998859	0.00000000	26.83317000	2.73745100
195.29998858	0.00000000	26.50098000	1.99311000
195.49998857	0.00000000	26.08883000	1.61786400
195.69998856	0.00000000	26.08268000	1.57480300
195.89998855	0.00000000	25.67052000	1.57480300
196.09998853	0.00000000	25.33834000	1.61786400
