Time	Channel A	Channel B	Channel C
(us)	(V)	(mV)	(mV)

-4.49999956	0.00000000	16.64616000	-1.57480300
-4.29999957	0.00000000	17.01525000	-1.57480300
-4.09999958	0.00000000	17.34744000	-1.57480300
-3.89999959	0.00000000	17.39050000	-1.57480300
-3.69999960	0.00000000	17.39050000	-1.57480300
-3.49999962	0.00000000	17.34744000	-1.57480300
-3.29999963	0.00000000	17.01525000	-1.57480300
-3.09999964	0.00000000	16.64616000	-1.57480300
-2.89999965	0.00000000	17.01525000	-1.57480300
-2.69999966	0.00000000	17.34744000	-1.57480300
-2.49999968	0.00000000	17.39050000	-1.57480300
-2.29999969	0.00000000	17.39050000	-1.57480300
-2.09999970	0.00000000	17.39050000	-1.57480300
-1.89999971	0.00000000	17.39050000	-1.57480300
-1.69999972	0.00000000	17.34744000	-1.57480300
-1.49999973	0.00000000	17.01525000	-1.57480300
-1.29999975	0.00000000	16.64616000	-1.57480300
-1.09999976	0.00000000	17.01525000	-1.57480300
-0.89999977	0.00000000	17.34744000	-1.57480300
-0.69999978	0.00000000	17.39050000	-1.57480300
-0.49999979	0.00000000	17.34744000	-1.57480300
-0.29999981	0.31803640	17.01525000	-1.57480300
-0.09999982	0.63668800	16.64616000	-1.57480300
0.10000017	0.95533960	17.01525000	-1.57480300
0.30000016	1.11466500	17.34744000	-1.57480300
0.50000015	0.79601380	17.39050000	-1.57480300
0.70000013	0.31803640	17.34744000	-1.57480300
0.90000012	-0.47736220	17.01525000	-1.53174200
1.10000011	-1.59264300	16.64616000	-1.19955700
1.30000010	-2.38927200	17.01525000	-0.79355310
1.50000009	-2.70792300	17.29823000	-0.83046260
1.70000008	-2.38927200	17.01525000	-0.74434050
1.90000006	-1.27399100	16.64616000	-0.83046260
2.10000005	0.63668800	16.97219000	-0.79355310
2.30000004	2.70792300	16.97219000	-1.19955700
2.50000003	4.45989200	16.60310000	-1.53174200
2.70000002	5.41584600	16.59695000	-1.57480300
2.90000000	4.77854300	16.18479000	-1.57480300
3.09999999	2.86724900	15.85261000	-1.57480300
3.29999998	-0.15871060	15.80955000	-1.57480300
3.49999997	-3.66326300	15.85261000	-1.57480300
3.69999996	-6.53112700	16.18479000	-1.53174200
3.89999994	-7.96444400	16.59695000	-1.15649600
4.09999993	-7.32714100	16.60310000	-0.41830710
4.29999992	-4.93786900	17.01525000	-0.04306102
4.49999991	-0.79601380	17.34744000	0.00000000
4.69999990	3.50393700	17.34744000	-0.04306102
4.89999989	7.32714100	16.97219000	-0.41830710
5.09999987	9.23905000	16.27707000	-1.15649600
5.29999986	9.07972400	16.22785000	-1.53174200
5.49999985	6.37180100	16.55389000	-1.57480300
5.69999984	2.22994600	16.18479000	-1.57480300
5.89999983	-2.54859700	15.90182000	-1.57480300
6.09999981	-6.69045300	16.22785000	-1.57480300
6.29999980	-9.07972400	16.97219000	-1.53174200
6.49999979	-9.23905000	17.34744000	-1.15649600
6.69999978	-7.00848900	17.39050000	-0.41830710
6.89999977	-3.18590100	17.34744000	-0.04306102
7.09999975	1.11466500	16.97219000	-0.04306102
7.29999974	4.93786900	16.27707000	-0.41830710
7.49999973	7.32714100	16.27707000	-1.15649600
7.69999972	7.64579200	16.92298000	-1.53174200
7.89999971	6.21247500	16.97219000	-1.57480300
8.09999970	3.34522600	16.60310000	-1.57480300
8.29999968	0.00000000	16.64001000	-1.53174200
8.49999967	-2.86724900	16.60310000	-1.19955700
8.69999966	-4.77854300	17.01525000	-0.79355310
8.89999965	-5.25652100	17.29823000	-0.83046260
9.09999964	-4.30056600	17.01525000	-0.79355310
9.29999962	-2.54859700	16.64616000	-1.19955700
9.49999961	-0.63668800	16.97219000	-1.53174200
9.69999960	1.11466500	16.97219000	-1.57480300
9.89999959	2.22994600	16.60310000	-1.57480300
10.09999958	2.54859700	16.59695000	-1.57480300
10.29999956	2.22994600	16.22785000	-1.57480300
10.49999955	1.43331700	16.27707000	-1.57480300
10.69999954	0.47736220	16.97219000	-1.57480300
10.89999953	-0.31803640	17.34744000	-1.57480300
11.09999952	-0.79601380	17.34744000	-1.57480300
11.29999951	-0.95533960	16.97219000	-1.57480300
11.49999949	-0.95533960	16.27707000	-1.57480300
11.69999948	-0.63668800	16.22785000	-1.57480300
11.89999947	-0.47736220	16.55389000	-1.57480300
12.09999946	-0.15871060	16.18479000	-1.57480300
12.29999945	-0.15871060	15.85261000	-1.57480300
12.49999943	-0.15871060	15.80955000	-1.57480300
12.69999942	0.00000000	15.85261000	-1.57480300
12.89999941	0.00000000	16.18479000	-1.57480300
13.09999940	0.00000000	16.59695000	-1.57480300
13.29999939	0.15871060	16.56004000	-1.57480300
13.49999937	0.00000000	16.59695000	-1.57480300
13.69999936	0.00000000	16.18479000	-1.57480300
13.89999935	0.00000000	15.90182000	-1.57480300
14.09999934	-0.15871060	16.18479000	-1.57480300
14.29999933	-0.15871060	16.55389000	-1.57480300
14.49999932	-0.15871060	16.22785000	-1.57480300
14.69999930	-0.15871060	16.22785000	-1.57480300
14.89999929	0.00000000	16.55389000	-1.57480300
15.09999928	0.00000000	16.18479000	-1.57480300
15.29999927	0.00000000	15.85261000	-1.57480300
15.49999926	0.00000000	15.80955000	-1.57480300
15.69999924	0.00000000	15.80955000	-1.57480300
15.89999923	0.00000000	15.80955000	-1.57480300
16.09999922	0.00000000	15.80955000	-1.57480300
16.29999921	0.00000000	15.85261000	-1.57480300
16.49999920	-0.15871060	16.22785000	-1.57480300
16.69999919	-0.15871060	16.97219000	-1.57480300
16.89999917	-0.15871060	17.39050000	-1.57480300
17.09999916	0.00000000	17.76575000	-1.57480300
17.29999915	0.00000000	18.17790000	-1.57480300
17.49999914	0.00000000	18.14099000	-1.57480300
17.69999913	0.00000000	18.17790000	-1.57480300
17.89999911	0.00000000	17.72268000	-1.57480300
18.09999910	0.00000000	16.97219000	-1.57480300
18.29999909	0.00000000	15.76649000	-1.57480300
18.49999908	0.00000000	14.22859000	-1.57480300
18.69999907	0.00000000	12.69070000	-1.57480300
18.89999905	0.00000000	11.57726000	-1.57480300
19.09999904	0.00000000	11.57726000	-1.57480300
19.29999903	0.00000000	12.78297000	-1.57480300
19.49999902	0.00000000	15.11442000	-1.57480300
19.69999901	0.00000000	18.63927000	-1.57480300
19.89999900	0.00000000	22.46555000	-1.57480300
20.09999898	0.00000000	25.94734000	-1.57480300
20.29999897	0.00000000	27.76821000	-1.57480300
20.49999896	0.00000000	27.01772000	-1.57480300
20.69999895	0.00000000	23.44365000	-1.57480300
20.89999894	0.00000000	17.62426000	-1.57480300
21.09999892	0.00000000	9.86097400	-1.57480300
21.29999891	0.00000000	2.22687000	-1.57480300
21.49999890	0.00000000	-3.16806100	-1.57480300
21.69999889	0.00000000	-4.66289300	-1.57480300
21.89999888	0.00000000	-1.50098400	-1.57480300
22.09999886	0.00000000	6.31766700	-1.57480300
22.29999885	0.00000000	17.90108000	-1.57480300
22.49999884	0.00000000	30.64714000	-1.57480300
22.69999883	0.00000000	41.40009000	-1.57480300
22.89999882	0.00000000	47.53936000	-1.53174200
23.09999881	0.00000000	46.65969000	-1.15649600
23.29999879	0.00000000	38.51501000	-0.41830710
23.49999878	0.00000000	24.18799000	-0.04306102
23.69999877	0.00000000	6.79133800	0.00000000
23.89999876	0.00000000	-9.82406400	0.00000000
24.09999875	0.00000000	-22.10261000	0.00000000
24.29999873	0.00000000	-26.24877000	-0.04306102
24.49999872	0.00000000	-20.38632000	-0.46136810
24.69999871	0.00000000	-5.35802100	-1.66707700
24.89999870	0.00000000	15.52657000	-3.53100400
25.09999869	0.00000000	37.16781000	-5.43184000
25.29999867	0.00000000	55.35802000	-6.21924200
25.49999866	0.00000000	65.64345000	-6.26845500
25.69999865	0.00000000	64.84989000	-5.75787400
25.89999864	0.00000000	52.47908000	-3.80782500
26.09999863	0.00000000	31.62524000	-0.33218500
26.29999862	0.00000000	6.87746000	3.53100400
26.49999860	0.00000000	-16.24631000	7.38188900
26.69999859	0.00000000	-32.06201000	9.98400600
26.89999858	0.00000000	-36.71875000	9.98400600
27.09999857	0.00000000	-29.36762000	7.24655500
27.29999856	0.00000000	-11.63263000	2.18380900
27.49999854	0.00000000	12.27239000	-4.82898600
27.69999853	0.00000000	36.23893000	-12.49385000
27.89999852	0.00000000	55.22268000	-19.00221000
28.09999851	0.00000000	65.26820000	-22.06570000
28.29999850	0.00000000	64.15477000	-20.85999000
28.49999848	0.00000000	52.61442000	-15.37278000
28.69999847	0.00000000	33.72293000	-5.67175200
28.89999846	0.00000000	12.08784000	6.26845500
29.09999845	0.00000000	-7.31422200	17.83957000
29.29999844	0.00000000	-20.85384000	26.24877000
29.49999843	0.00000000	-25.91658000	28.90010000
29.69999841	0.00000000	-21.35827000	24.62475000
29.89999840	0.00000000	-9.44881800	14.16708000
30.09999839	0.00000000	6.83439900	-0.51058070
30.29999838	0.00000000	24.23105000	-16.30167000
30.49999837	0.00000000	38.93332000	-29.45374000
30.69999835	0.00000000	47.91462000	-37.16781000
30.89999834	0.00000000	49.91388000	-37.91216000
31.09999833	0.00000000	45.26328000	-30.89936000
31.29999832	0.00000000	34.88558000	-17.32899000
31.49999831	0.00000000	21.34596000	0.41830710
31.69999829	0.00000000	8.17544300	18.53469000
31.89999828	0.00000000	-2.70669300	32.43110000
32.09999827	0.00000000	-8.89517700	39.40084000
32.29999826	0.00000000	-9.35654400	37.81988000
32.49999825	0.00000000	-4.74901600	27.82972000
32.69999824	0.00000000	3.75861200	11.98942000
32.89999822	0.00000000	14.22859000	-6.22539300
33.09999821	0.00000000	24.65551000	-23.64665000
33.29999820	0.00000000	32.74483000	-36.70644000
33.49999819	0.00000000	36.23893000	-42.13828000
33.69999818	0.00000000	34.79330000	-38.66264000
33.89999816	0.00000000	29.39837000	-27.49754000
34.09999815	0.00000000	21.66585000	-10.91905000
34.29999814	0.00000000	13.20128000	6.83439900
34.49999813	0.00000000	6.22539300	21.97957000
34.69999812	0.00000000	2.36220500	32.01279000
34.89999810	0.00000000	1.95004900	34.70718000
35.09999809	0.00000000	5.38877900	29.31840000
35.29999808	0.00000000	11.10974000	17.42126000
35.49999807	0.00000000	17.34744000	1.99311000
35.69999806	0.00000000	23.11762000	-13.05979000
35.89999805	0.00000000	26.92544000	-24.66781000
36.09999803	0.00000000	27.30069000	-30.47490000
36.29999802	0.00000000	24.32333000	-29.31840000
36.49999801	0.00000000	19.30364000	-21.64739000
36.69999800	0.00000000	13.94562000	-9.38115100
36.89999799	0.00000000	9.30118100	3.67249000
37.09999797	0.00000000	7.01279500	14.12401000
37.29999796	0.00000000	7.34498000	19.88804000
37.49999795	0.00000000	10.03937000	19.51279000
37.69999794	0.00000000	14.27165000	13.05364000
37.89999793	0.00000000	18.92839000	3.11269700
38.09999791	0.00000000	23.16068000	-7.25270600
38.29999790	0.00000000	25.81201000	-15.32972000
38.49999789	0.00000000	25.85507000	-18.77460000
38.69999788	0.00000000	23.57899000	-16.86762000
38.89999787	0.00000000	20.08489000	-9.99015700
39.09999786	0.00000000	15.80955000	-0.41830710
39.29999784	0.00000000	11.57726000	8.74138700
39.49999783	0.00000000	8.45841400	14.86836000
39.69999782	0.00000000	6.87746000	15.61270000
39.89999781	0.00000000	6.92052100	11.06053000
40.09999780	0.00000000	8.83366100	2.60211600
40.29999778	0.00000000	12.31545000	-7.33882900
40.49999777	0.00000000	16.18479000	-15.79724000
40.69999776	0.00000000	20.08489000	-20.39862000
40.89999775	0.00000000	23.16068000	-20.02337000
41.09999774	0.00000000	24.74163000	-14.58538000
41.29999772	0.00000000	24.74163000	-5.38262700
41.49999771	0.00000000	23.20374000	5.33956700
41.69999770	0.00000000	20.50935000	14.12401000
41.89999769	0.00000000	17.39050000	18.39936000
42.09999768	0.00000000	14.27165000	17.28592000
42.29999767	0.00000000	11.53420000	11.56496000
42.49999765	0.00000000	9.62106200	3.11269700
42.69999764	0.00000000	8.83366100	-5.75787400
42.89999763	0.00000000	9.62106200	-13.10285000
43.09999762	0.00000000	11.48499000	-17.32899000
43.29999761	0.00000000	13.81028000	-17.37205000
43.49999759	0.00000000	15.76649000	-13.56422000
43.69999758	0.00000000	17.34744000	-7.43110200
43.89999757	0.00000000	18.50394000	-0.51058070
44.09999756	0.00000000	18.92839000	5.29650500
44.29999755	0.00000000	18.97145000	8.82750900
44.49999753	0.00000000	19.01451000	9.99015700
44.69999752	0.00000000	19.38976000	8.45226300
44.89999751	0.00000000	20.13410000	4.64443900
45.09999750	0.00000000	20.46014000	0.09227362
45.29999749	0.00000000	20.04183000	-3.80782500
45.49999748	0.00000000	18.46087000	-6.17618100
45.69999746	0.00000000	15.76649000	-7.38188900
45.89999745	0.00000000	12.60458000	-7.38188900
46.09999744	0.00000000	9.11048200	-6.22539300
46.29999743	0.00000000	5.71481200	-4.26919300
46.49999742	0.00000000	4.26919300	-1.58095500
46.69999740	0.00000000	5.80708600	1.07037400
46.89999739	0.00000000	10.03937000	2.64517700
47.09999738	0.00000000	15.85261000	3.06348400
47.29999737	0.00000000	22.09030000	2.68823800
47.49999736	0.00000000	27.90354000	1.48868100
47.69999734	0.00000000	32.04970000	-0.41830710
47.89999733	0.00000000	32.78789000	-2.73745100
48.09999732	0.00000000	29.30610000	-4.64443900
48.29999731	0.00000000	22.74237000	-5.85014700
48.49999730	0.00000000	14.18553000	-6.17618100
48.69999729	0.00000000	5.33956700	-5.43184000
48.89999727	0.00000000	-1.54404500	-3.43873000
49.09999726	0.00000000	-4.23843500	-0.78124990
49.29999725	0.00000000	-1.91929100	2.31914400
49.49999724	0.00000000	4.64443900	4.60137700
49.69999723	0.00000000	14.27165000	5.75787400
49.89999721	0.00000000	24.27411000	5.33956700
50.09999720	0.00000000	32.00049000	3.02042300
50.29999719	0.00000000	35.86368000	-0.41830710
50.49999718	0.00000000	34.70103000	-4.31840500
50.69999717	0.00000000	28.97392000	-7.75713500
50.89999715	0.00000000	20.46014000	-10.03322000
51.09999714	0.00000000	11.20202000	-10.03322000
51.29999713	0.00000000	3.15575800	-7.75713500
51.49999712	0.00000000	-1.07652500	-4.26919300
51.69999711	0.00000000	-0.38139760	0.00000000
51.89999710	0.00000000	4.22613100	4.18307100
52.09999708	0.00000000	11.53420000	6.87746000
52.29999707	0.00000000	19.58046000	7.29576700
52.49999706	0.00000000	25.76895000	5.75787400
52.69999705	0.00000000	28.88164000	2.64517700
52.89999704	0.00000000	28.50640000	-1.53174200
53.09999702	0.00000000	24.64936000	-5.38262700
53.29999701	0.00000000	18.55315000	-7.71407400
53.49999700	0.00000000	12.03863000	-8.50147600
53.69999699	0.00000000	7.38804100	-7.33882900
53.89999698	0.00000000	5.43184000	-4.68750000
54.09999696	0.00000000	6.22539300	-1.66707700
54.29999695	0.00000000	10.03937000	0.69512790
54.49999694	0.00000000	15.39124000	1.85777500
54.69999693	0.00000000	20.37401000	2.26993100
54.89999692	0.00000000	23.85581000	1.43946800
55.09999691	0.00000000	24.60630000	-0.37524600
55.29999689	0.00000000	22.74237000	-2.27608300
55.49999688	0.00000000	18.87918000	-3.02042300
55.69999687	0.00000000	14.32087000	-2.68823800
55.89999686	0.00000000	10.41462000	-1.53174200
56.09999685	0.00000000	8.13238100	0.00000000
56.29999683	0.00000000	7.76328700	1.48868100
56.49999682	0.00000000	10.03937000	2.22687000
56.69999681	0.00000000	13.85334000	1.43946800
56.89999680	0.00000000	17.67347000	-0.51058070
57.09999679	0.00000000	20.82923000	-3.62327700
57.29999677	0.00000000	22.33022000	-7.38188900
57.49999676	0.00000000	22.36712000	-10.03322000
57.69999675	0.00000000	20.41708000	-10.40846000
57.89999674	0.00000000	17.43356000	-8.45226300
58.09999673	0.00000000	14.69611000	-4.18307100
58.29999672	0.00000000	12.73991000	1.57480300
58.49999670	0.00000000	11.57726000	7.29576700
58.69999669	0.00000000	11.62032000	11.10359000
58.89999668	0.00000000	13.11516000	11.52190000
59.09999667	0.00000000	15.39124000	8.82750900
59.29999666	0.00000000	17.29823000	3.72170300
59.49999664	0.00000000	18.46087000	-3.57406500
59.69999663	0.00000000	18.50394000	-11.18971000
59.89999662	0.00000000	17.76575000	-16.16634000
60.09999661	0.00000000	16.97219000	-17.37205000
60.29999660	0.00000000	15.76649000	-14.67766000
60.49999658	0.00000000	14.32087000	-8.87057000
60.69999657	0.00000000	13.57652000	-1.15649600
60.89999656	0.00000000	14.32087000	6.92052100
61.09999655	0.00000000	15.80955000	13.05364000
61.29999654	0.00000000	17.34744000	15.74803000
61.49999653	0.00000000	18.55315000	14.21629000
61.69999651	0.00000000	19.25443000	8.78444900
61.89999650	0.00000000	19.24828000	0.73818890
62.09999649	0.00000000	17.72268000	-8.12622900
62.29999648	0.00000000	15.85261000	-15.05290000
62.49999647	0.00000000	14.22859000	-18.95300000
62.69999645	0.00000000	12.64764000	-18.90994000
62.89999644	0.00000000	11.20202000	-14.67766000
63.09999643	0.00000000	10.83292000	-7.38188900
63.29999642	0.00000000	12.36466000	1.07037400
63.49999641	0.00000000	14.64690000	8.40920300
63.69999639	0.00000000	17.39050000	13.05364000
63.89999638	0.00000000	20.04183000	14.25935000
64.09999637	0.00000000	21.57972000	11.94021000
64.29999636	0.00000000	21.57972000	6.96358300
64.49999635	0.00000000	20.04183000	0.37524600
64.69999634	0.00000000	17.39050000	-6.17618100
64.89999632	0.00000000	14.64690000	-11.60802000
65.09999631	0.00000000	12.31545000	-14.67766000
65.29999630	0.00000000	10.41462000	-14.72072000
65.49999629	0.00000000	10.08243000	-12.03248000
65.69999628	0.00000000	11.53420000	-7.47416300
65.89999626	0.00000000	13.85334000	-2.41756900
66.09999625	0.00000000	16.14173000	1.86392700
66.29999624	0.00000000	18.08563000	5.38262700
66.49999623	0.00000000	18.83612000	7.33882900
66.69999622	0.00000000	18.50394000	7.80019600
66.89999620	0.00000000	17.34744000	7.38188900
67.09999619	0.00000000	15.80955000	5.80093500
67.29999618	0.00000000	14.27165000	3.06348400
67.49999617	0.00000000	13.15822000	-0.41830710
67.69999616	0.00000000	13.20128000	-4.26919300
67.89999615	0.00000000	14.69611000	-7.38188900
68.09999613	0.00000000	16.97219000	-9.38115100
68.29999612	0.00000000	18.87918000	-10.53765000
68.49999611	0.00000000	20.04183000	-10.49459000
68.69999610	0.00000000	19.99877000	-8.91978400
68.89999609	0.00000000	18.41781000	-5.80093500
69.09999607	0.00000000	15.34203000	-1.53174200
69.29999606	0.00000000	11.53420000	3.06963600
69.49999605	0.00000000	8.50147600	6.96358300
69.69999604	0.00000000	7.29576700	9.29502900
69.89999603	0.00000000	8.08316900	10.03322000
70.09999601	0.00000000	10.41462000	8.45226300
70.29999600	0.00000000	14.32087000	4.60137700
70.49999599	0.00000000	18.92839000	-0.41830710
70.69999598	0.00000000	23.16068000	-5.85014700
70.89999597	0.00000000	25.85507000	-10.40846000
71.09999596	0.00000000	26.23031000	-12.77067000
71.29999594	0.00000000	24.27411000	-12.40157000
71.49999593	0.00000000	19.99877000	-10.11934000
71.69999592	0.00000000	14.27165000	-6.21924200
71.89999591	0.00000000	8.87672100	-1.62401600
72.09999590	0.00000000	5.38877900	2.64517700
72.29999588	0.00000000	4.18307100	5.71481200
72.49999587	0.00000000	5.38877900	6.87130900
72.69999586	0.00000000	8.83366100	5.75787400
72.89999585	0.00000000	13.85334000	3.11269700
73.09999584	0.00000000	18.87918000	0.04306102
73.29999582	0.00000000	23.16068000	-2.64517700
73.49999581	0.00000000	25.85507000	-4.22613100
73.69999580	0.00000000	26.23031000	-4.64443900
73.89999579	0.00000000	24.32333000	-4.26919300
74.09999578	0.00000000	20.46014000	-3.11269700
74.29999577	0.00000000	15.85261000	-1.66707700
74.49999575	0.00000000	11.57726000	-0.87967510
74.69999574	0.00000000	8.50147600	-1.24877000
74.89999573	0.00000000	7.34498000	-2.04232300
75.09999572	0.00000000	8.45841400	-3.57406500
75.29999571	0.00000000	11.10974000	-5.38262700
75.49999569	0.00000000	14.18553000	-5.71481200
75.69999568	0.00000000	16.92298000	-4.22613100
75.89999567	0.00000000	18.87918000	-1.53174200
76.09999566	0.00000000	20.04183000	1.58095500
76.29999565	0.00000000	20.04183000	4.64443900
76.49999563	0.00000000	18.92839000	6.92052100
76.69999562	0.00000000	17.43356000	7.24655500
76.89999561	0.00000000	16.27707000	5.33956700
77.09999560	0.00000000	15.85261000	1.43946800
77.29999559	0.00000000	15.80955000	-3.53100400
77.49999558	0.00000000	15.80955000	-8.54453700
77.69999556	0.00000000	15.80955000	-11.98942000
77.89999555	0.00000000	15.76649000	-13.18898000
78.09999554	0.00000000	15.34203000	-11.98942000
78.29999553	0.00000000	14.22859000	-8.50147600
78.49999552	0.00000000	13.11516000	-3.11269700
78.69999550	0.00000000	12.69070000	2.64517700
78.89999549	0.00000000	12.69070000	7.29576700
79.09999548	0.00000000	13.15822000	10.03322000
79.29999547	0.00000000	14.69611000	10.40846000
79.49999546	0.00000000	16.97219000	8.45226300
79.69999544	0.00000000	18.87918000	4.22613100
79.89999543	0.00000000	20.08489000	-1.15649600
80.09999542	0.00000000	20.46014000	-6.17618100
80.29999541	0.00000000	19.99877000	-10.11934000
80.49999540	0.00000000	18.08563000	-12.40157000
80.69999539	0.00000000	15.06521000	-12.81373000
80.89999537	0.00000000	12.73991000	-10.86983000
81.09999536	0.00000000	11.15896000	-7.43110200
81.29999535	0.00000000	10.41462000	-3.15575800
81.49999534	0.00000000	11.20202000	1.11343500
81.69999533	0.00000000	13.06594000	4.60137700
81.89999531	0.00000000	15.43430000	6.96358300
82.09999530	0.00000000	17.72268000	7.71407400
82.29999529	0.00000000	19.66658000	6.96358300
82.49999528	0.00000000	20.41708000	4.64443900
82.69999527	0.00000000	20.08489000	1.58095500
82.89999525	0.00000000	18.87918000	-1.62401600
83.09999524	0.00000000	16.97219000	-5.11195900
83.29999523	0.00000000	14.69611000	-8.58759800
83.49999522	0.00000000	13.15822000	-10.86983000
83.69999521	0.00000000	12.73991000	-11.65723000
83.89999520	0.00000000	13.06594000	-10.45152000
84.09999518	0.00000000	13.81028000	-7.38188900
84.29999517	0.00000000	14.22859000	-3.15575800
84.49999516	0.00000000	14.64690000	1.15649600
84.69999515	0.00000000	15.39124000	5.01968500
84.89999514	0.00000000	15.76649000	8.12622900
85.09999512	0.00000000	15.80955000	9.20275500
85.29999511	0.00000000	15.85261000	8.08316900
85.49999510	0.00000000	16.22785000	4.60137700
85.69999509	0.00000000	16.97219000	0.00000000
85.89999508	0.00000000	17.39050000	-4.69365100
86.09999506	0.00000000	17.76575000	-8.96284400
86.29999505	0.00000000	18.08563000	-11.98942000
86.49999504	0.00000000	17.29823000	-12.77067000
86.69999503	0.00000000	15.80955000	-10.82677000
86.89999502	0.00000000	14.22859000	-7.00664300
87.09999501	0.00000000	12.69070000	-1.95004900
87.29999499	0.00000000	11.57726000	3.02042300
87.49999498	0.00000000	11.57726000	6.87746000
87.69999497	0.00000000	12.73991000	8.45226300
87.89999496	0.00000000	14.64690000	7.67101300
88.09999495	0.00000000	16.92298000	4.96432100
88.29999493	0.00000000	18.50394000	0.32603340
88.49999492	0.00000000	19.30364000	-4.60137700
88.69999491	0.00000000	19.62352000	-8.50147600
88.89999490	0.00000000	18.50394000	-10.40846000
89.09999489	0.00000000	16.64616000	-10.07628000
89.29999487	0.00000000	15.39124000	-7.71407400
89.49999486	0.00000000	13.81028000	-3.90009800
89.69999485	0.00000000	11.95251000	0.73818890
89.89999484	0.00000000	11.20202000	4.55831700
90.09999483	0.00000000	11.53420000	6.87746000
90.29999482	0.00000000	12.69070000	6.82824800
90.49999480	0.00000000	14.22859000	4.14000900
90.69999479	0.00000000	15.76649000	-0.41830710
90.89999478	0.00000000	16.92298000	-5.38262700
91.09999477	0.00000000	17.34744000	-8.82750900
91.29999476	0.00000000	17.34744000	-10.03322000
91.49999474	0.00000000	16.97219000	-8.87057000
91.69999473	0.00000000	16.22785000	-5.80093500
91.89999472	0.00000000	15.85261000	-1.57480300
92.09999471	0.00000000	15.80955000	2.64517700
92.29999470	0.00000000	15.80955000	5.71481200
92.49999468	0.00000000	15.76649000	6.82824800
92.69999467	0.00000000	15.39124000	5.29650500
92.89999466	0.00000000	14.64690000	1.48868100
93.09999465	0.00000000	14.22859000	-3.06963600
93.29999464	0.00000000	13.81028000	-6.96358300
93.49999463	0.00000000	13.06594000	-9.24581600
93.69999461	0.00000000	12.73991000	-9.65797200
93.89999460	0.00000000	13.11516000	-7.71407400
94.09999459	0.00000000	14.32087000	-4.26919300
94.29999458	0.00000000	16.22785000	-0.04306102
94.49999457	0.00000000	18.50394000	3.76476400
94.69999455	0.00000000	20.04183000	5.67175200
94.89999454	0.00000000	20.46014000	5.33956700
95.09999453	0.00000000	20.04183000	3.02042300
95.29999452	0.00000000	18.46087000	-0.41830710
95.49999451	0.00000000	15.80955000	-4.26919300
95.69999449	0.00000000	13.06594000	-7.33882900
95.89999448	0.00000000	10.73450000	-8.87672100
96.09999447	0.00000000	8.79060000	-8.45226300
96.29999446	0.00000000	8.08316900	-5.80093500
96.49999445	0.00000000	8.83366100	-2.04232300
96.69999444	0.00000000	11.20202000	1.07037400
96.89999442	0.00000000	14.64690000	3.02042300
97.09999441	0.00000000	18.55315000	3.80782500
97.29999440	0.00000000	21.99803000	3.02042300
97.49999439	0.00000000	24.27411000	1.11343500
97.69999438	0.00000000	24.32333000	-1.58095500
97.89999436	0.00000000	22.37328000	-4.22613100
98.09999435	0.00000000	19.24828000	-5.75787400
98.29999434	0.00000000	14.60384000	-5.85014700
98.49999433	0.00000000	10.08243000	-5.06274600
98.69999432	0.00000000	7.29576700	-3.90009800
98.89999430	0.00000000	6.45915300	-1.99311000
99.09999429	0.00000000	6.87746000	-0.51058070
99.29999428	0.00000000	8.87672100	-0.04306102
99.49999427	0.00000000	12.69070000	0.00000000
99.69999426	0.00000000	16.92298000	-0.04306102
99.89999425	0.00000000	20.41708000	-0.41830710
100.09999423	0.00000000	22.78543000	-1.11343500
100.29999422	0.00000000	23.53592000	-1.11343500
100.49999421	0.00000000	22.78543000	-0.41830710
100.69999420	0.00000000	20.46014000	-0.09227362
100.89999419	0.00000000	17.39050000	-0.41830710
101.09999417	0.00000000	14.27165000	-1.19955700
101.29999416	0.00000000	11.53420000	-1.99311000
101.49999415	0.00000000	9.62106200	-3.15575800
101.69999414	0.00000000	8.83366100	-4.31840500
101.89999413	0.00000000	9.62106200	-5.06274600
102.09999411	0.00000000	11.48499000	-5.38262700
102.29999410	0.00000000	13.85334000	-4.22613100
102.49999409	0.00000000	16.18479000	-1.95004900
102.69999408	0.00000000	18.50394000	0.37524600
102.89999407	0.00000000	20.04183000	2.69439000
103.09999406	0.00000000	20.46014000	4.18307100
103.29999404	0.00000000	20.04183000	4.18307100
103.49999403	0.00000000	18.50394000	2.64517700
103.69999402	0.00000000	16.22785000	0.00000000
103.89999401	0.00000000	14.27165000	-2.73745100
104.09999400	0.00000000	12.69070000	-5.06274600
104.29999398	0.00000000	11.53420000	-6.96358300
104.49999397	0.00000000	11.15896000	-7.33882900
104.69999396	0.00000000	11.53420000	-6.22539300
104.89999395	0.00000000	12.69070000	-4.26919300
105.09999394	0.00000000	14.22859000	-1.58095500
105.29999392	0.00000000	15.76649000	1.07037400
105.49999391	0.00000000	16.92298000	2.64517700
105.69999390	0.00000000	17.29823000	3.02042300
105.89999389	0.00000000	16.92298000	2.22687000
106.09999388	0.00000000	15.80955000	-0.04306102
106.29999387	0.00000000	14.69611000	-2.64517700
106.49999385	0.00000000	14.22859000	-4.26919300
106.69999384	0.00000000	13.85334000	-5.06274600
106.89999383	0.00000000	13.48425000	-5.43184000
107.09999382	0.00000000	13.89641000	-4.60137700
107.29999381	0.00000000	14.64690000	-2.73745100
107.49999379	0.00000000	15.80955000	-0.46751960
107.69999378	0.00000000	16.87992000	1.06422200
107.89999377	0.00000000	16.92298000	1.48253000
108.09999376	0.00000000	16.18479000	1.11343500
108.29999375	0.00000000	15.39124000	-0.09227362
108.49999374	0.00000000	14.22859000	-1.95004900
108.69999372	0.00000000	13.11516000	-3.90009800
108.89999371	0.00000000	12.69070000	-5.01968500
109.09999370	0.00000000	12.69070000	-5.43184000
109.29999369	0.00000000	13.11516000	-4.60137700
109.49999368	0.00000000	14.27165000	-2.73745100
109.69999366	0.00000000	15.76649000	-0.46751960
109.89999365	0.00000000	16.92298000	1.06422200
110.09999364	0.00000000	17.34744000	1.53174200
110.29999363	0.00000000	17.34744000	1.53174200
110.49999362	0.00000000	16.92298000	1.11343500
110.69999360	0.00000000	15.76649000	-0.09227362
110.89999359	0.00000000	14.27165000	-1.95004900
111.09999358	0.00000000	13.11516000	-3.90009800
111.29999357	0.00000000	12.69070000	-5.01968500
111.49999356	0.00000000	12.69070000	-5.43184000
111.69999355	0.00000000	13.11516000	-4.68750000
111.89999353	0.00000000	14.22859000	-3.53100400
112.09999352	0.00000000	15.34203000	-2.36220500
112.29999351	0.00000000	15.80955000	-0.83661410
112.49999350	0.00000000	16.18479000	-0.09227362
112.69999349	0.00000000	16.55389000	0.00000000
112.89999347	0.00000000	16.18479000	-0.04306102
113.09999346	0.00000000	15.80955000	-0.41830710
113.29999345	0.00000000	15.39124000	-1.15649600
113.49999344	0.00000000	14.64690000	-1.57480300
113.69999343	0.00000000	14.27165000	-1.95004900
113.89999341	0.00000000	14.22859000	-2.36220500
114.09999340	0.00000000	14.22859000	-2.36835600
114.29999339	0.00000000	14.27165000	-2.78051200
114.49999338	0.00000000	14.64690000	-3.11269700
114.69999337	0.00000000	15.39124000	-3.15575800
114.89999336	0.00000000	15.76649000	-3.15575800
115.09999334	0.00000000	15.80955000	-3.15575800
115.29999333	0.00000000	15.80955000	-3.15575800
115.49999332	0.00000000	15.80955000	-3.11269700
115.69999331	0.00000000	15.76649000	-2.73745100
115.89999330	0.00000000	15.39124000	-1.95004900
116.09999328	0.00000000	14.64690000	-1.19955700
116.29999327	0.00000000	14.27165000	-0.41830710
116.49999326	0.00000000	14.18553000	-0.04306102
116.69999325	0.00000000	13.85334000	0.00000000
116.89999324	0.00000000	13.48425000	-0.04306102
117.09999322	0.00000000	13.89641000	-0.46136810
117.29999321	0.00000000	14.64690000	-1.57480300
117.49999320	0.00000000	15.80955000	-2.68823800
117.69999319	0.00000000	16.92298000	-3.11269700
117.89999318	0.00000000	17.34744000	-3.15575800
118.09999317	0.00000000	17.34744000	-3.15575800
118.29999315	0.00000000	16.97219000	-3.11269700
118.49999314	0.00000000	16.18479000	-2.73745100
118.69999313	0.00000000	15.39124000	-1.99311000
118.89999312	0.00000000	14.18553000	-1.61786400
119.09999311	0.00000000	12.73991000	-1.53174200
119.29999309	0.00000000	11.95251000	-1.15649600
119.49999308	0.00000000	12.31545000	-0.41830710
119.69999307	0.00000000	13.06594000	-0.09227362
119.89999306	0.00000000	14.22859000	-0.41830710
120.09999305	0.00000000	15.39124000	-1.15649600
120.29999303	0.00000000	16.22785000	-1.53174200
120.49999302	0.00000000	17.39050000	-1.61786400
120.69999301	0.00000000	18.46087000	-1.99311000
120.89999300	0.00000000	18.46087000	-2.73745100
121.09999299	0.00000000	17.39050000	-3.11269700
121.29999298	0.00000000	16.18479000	-3.15575800
121.49999296	0.00000000	15.01599000	-3.15575800
121.69999295	0.00000000	13.48425000	-3.15575800
121.89999294	0.00000000	12.73991000	-3.11269700
122.09999293	0.00000000	12.64764000	-2.73745100
122.29999292	0.00000000	12.69070000	-1.95004900
122.49999290	0.00000000	13.06594000	-1.19955700
122.69999289	0.00000000	13.85334000	-0.41830710
122.89999288	0.00000000	14.60384000	-0.04306102
123.09999287	0.00000000	15.43430000	0.00000000
123.29999286	0.00000000	16.18479000	-0.04306102
123.49999284	0.00000000	16.97219000	-0.41830710
123.69999283	0.00000000	17.29823000	-1.19955700
123.89999282	0.00000000	16.97219000	-1.95004900
124.09999281	0.00000000	16.22785000	-2.73745100
124.29999280	0.00000000	15.80955000	-3.11269700
124.49999279	0.00000000	15.39124000	-3.15575800
124.69999277	0.00000000	14.60384000	-3.11269700
124.89999276	0.00000000	13.85334000	-2.73745100
125.09999275	0.00000000	13.06594000	-1.99311000
125.29999274	0.00000000	12.69070000	-1.57480300
125.49999273	0.00000000	12.69070000	-1.15649600
125.69999271	0.00000000	13.06594000	-0.41830710
125.89999270	0.00000000	13.85334000	-0.04306102
126.09999269	0.00000000	14.64690000	0.00000000
126.29999268	0.00000000	15.80955000	-0.04306102
126.49999267	0.00000000	16.92298000	-0.41830710
126.69999265	0.00000000	17.34744000	-1.15649600
126.89999264	0.00000000	17.34744000	-1.57480300
127.09999263	0.00000000	16.92298000	-1.99311000
127.29999262	0.00000000	15.76649000	-2.73745100
127.49999261	0.00000000	14.27165000	-3.11269700
127.69999260	0.00000000	13.11516000	-3.11269700
127.89999258	0.00000000	12.69070000	-2.73745100
128.09999257	0.00000000	12.69070000	-1.99311000
128.29999256	0.00000000	13.06594000	-1.61786400
128.49999255	0.00000000	13.85334000	-1.57480300
128.69999254	0.00000000	14.64690000	-1.53174200
128.89999252	0.00000000	15.80955000	-1.19955700
129.09999251	0.00000000	16.92298000	-0.83661410
129.29999250	0.00000000	17.29823000	-1.19955700
129.49999249	0.00000000	16.92298000	-1.57480300
129.69999248	0.00000000	15.80955000	-1.99311000
129.89999246	0.00000000	14.64690000	-2.73745100
130.09999245	0.00000000	13.85334000	-3.06348400
130.29999244	0.00000000	13.06594000	-2.73745100
130.49999243	0.00000000	12.73991000	-1.99311000
130.69999242	0.00000000	13.06594000	-1.61786400
130.89999241	0.00000000	13.85334000	-1.57480300
131.09999239	0.00000000	14.60384000	-1.57480300
131.29999238	0.00000000	15.43430000	-1.57480300
131.49999237	0.00000000	16.14173000	-1.61786400
131.69999236	0.00000000	16.55389000	-1.99311000
131.89999235	0.00000000	16.14173000	-2.73745100
132.09999233	0.00000000	15.43430000	-3.11269700
132.29999232	0.00000000	14.64690000	-3.15575800
132.49999231	0.00000000	14.27165000	-3.15575800
132.69999230	0.00000000	14.22859000	-3.11269700
132.89999229	0.00000000	14.22859000	-2.73745100
133.09999227	0.00000000	14.22859000	-1.95004900
133.29999226	0.00000000	14.27165000	-1.19955700
133.49999225	0.00000000	14.60384000	-0.41830710
133.69999224	0.00000000	15.01599000	-0.04306102
133.89999223	0.00000000	15.02214000	-0.04306102
134.09999222	0.00000000	15.43430000	-0.41830710
134.29999220	0.00000000	15.71727000	-1.19955700
134.49999219	0.00000000	15.39124000	-1.95004900
134.69999218	0.00000000	14.64690000	-2.78051200
134.89999217	0.00000000	14.32087000	-3.53100400
135.09999216	0.00000000	14.64690000	-4.26919300
135.29999214	0.00000000	15.39124000	-4.26919300
135.49999213	0.00000000	15.76649000	-3.53100400
135.69999212	0.00000000	15.76649000	-2.78051200
135.89999211	0.00000000	15.39124000	-1.95004900
136.09999210	0.00000000	14.64690000	-1.19955700
136.29999208	0.00000000	14.22859000	-0.41830710
136.49999207	0.00000000	13.81028000	-0.04306102
136.69999206	0.00000000	13.06594000	-0.04306102
136.89999205	0.00000000	12.73991000	-0.41830710
137.09999204	0.00000000	13.06594000	-1.15649600
137.29999203	0.00000000	13.85334000	-1.53174200
137.49999201	0.00000000	14.60384000	-1.61786400
137.69999200	0.00000000	15.43430000	-1.99311000
137.89999199	0.00000000	16.18479000	-2.73745100
138.09999198	0.00000000	16.92298000	-3.11269700
138.29999197	0.00000000	16.92298000	-3.15575800
138.49999195	0.00000000	16.18479000	-3.11269700
138.69999194	0.00000000	15.43430000	-2.73745100
138.89999193	0.00000000	14.60384000	-1.99311000
139.09999192	0.00000000	13.85334000	-1.61786400
139.29999191	0.00000000	13.11516000	-1.53174200
139.49999189	0.00000000	13.11516000	-1.15649600
139.69999188	0.00000000	13.81028000	-0.41830710
139.89999187	0.00000000	14.22859000	-0.09227362
140.09999186	0.00000000	14.64690000	-0.41830710
140.29999185	0.00000000	15.39124000	-1.19955700
140.49999184	0.00000000	15.76649000	-1.95004900
140.69999182	0.00000000	15.76649000	-2.78051200
140.89999181	0.00000000	15.39124000	-3.53100400
141.09999180	0.00000000	14.64690000	-4.26919300
141.29999179	0.00000000	14.27165000	-4.26919300
141.49999178	0.00000000	14.22859000	-3.53100400
141.69999176	0.00000000	14.22859000	-2.78051200
141.89999175	0.00000000	14.22859000	-1.95004900
142.09999174	0.00000000	14.27165000	-1.19955700
142.29999173	0.00000000	14.64690000	-0.41830710
142.49999172	0.00000000	15.39124000	-0.04306102
142.69999170	0.00000000	15.76649000	-0.04306102
142.89999169	0.00000000	15.76649000	-0.46136810
143.09999168	0.00000000	15.39124000	-1.57480300
143.29999167	0.00000000	14.64690000	-2.73745100
143.49999166	0.00000000	14.27165000	-3.53100400
143.69999165	0.00000000	14.22859000	-4.26919300
143.89999163	0.00000000	14.22859000	-4.26919300
144.09999162	0.00000000	14.22859000	-3.57406500
144.29999161	0.00000000	14.27165000	-3.15575800
144.49999160	0.00000000	14.64690000	-2.68823800
144.69999159	0.00000000	15.39124000	-1.57480300
144.89999157	0.00000000	15.76649000	-0.46136810
145.09999156	0.00000000	15.76649000	-0.04306102
145.29999155	0.00000000	15.39124000	-0.04306102
145.49999154	0.00000000	14.64690000	-0.41830710
145.69999153	0.00000000	14.22859000	-1.19955700
145.89999151	0.00000000	13.85334000	-1.95004900
146.09999150	0.00000000	13.48425000	-2.73745100
146.29999149	0.00000000	13.85334000	-3.11269700
146.49999148	0.00000000	14.18553000	-3.15575800
146.69999147	0.00000000	14.27165000	-3.15575800
146.89999146	0.00000000	14.64690000	-3.11269700
147.09999144	0.00000000	15.39124000	-2.73745100
147.29999143	0.00000000	15.76649000	-1.99311000
147.49999142	0.00000000	15.76649000	-1.57480300
147.69999141	0.00000000	15.39124000	-1.19955700
147.89999140	0.00000000	14.64690000	-0.83661410
148.09999138	0.00000000	14.27165000	-1.19955700
148.29999137	0.00000000	14.22859000	-1.53174200
148.49999136	0.00000000	14.22859000	-1.57480300
148.69999135	0.00000000	14.22859000	-1.57480300
148.89999134	0.00000000	14.22859000	-1.57480300
149.09999132	0.00000000	14.22859000	-1.61786400
149.29999131	0.00000000	14.27165000	-1.99311000
149.49999130	0.00000000	14.64690000	-2.73745100
149.69999129	0.00000000	15.39124000	-3.06348400
149.89999128	0.00000000	15.76649000	-2.73745100
150.09999127	0.00000000	15.76649000	-1.99311000
150.29999125	0.00000000	15.39124000	-1.61786400
150.49999124	0.00000000	14.64690000	-1.57480300
150.69999123	0.00000000	14.27165000	-1.57480300
150.89999122	0.00000000	14.22859000	-1.57480300
151.09999121	0.00000000	14.22859000	-1.57480300
151.29999119	0.00000000	14.22859000	-1.57480300
151.49999118	0.00000000	14.22859000	-1.57480300
151.69999117	0.00000000	14.22859000	-1.61786400
151.89999116	0.00000000	14.22859000	-1.99311000
152.09999115	0.00000000	14.22859000	-2.68823800
152.29999113	0.00000000	14.27165000	-2.68823800
152.49999112	0.00000000	14.64690000	-1.99311000
152.69999111	0.00000000	15.39124000	-1.61786400
152.89999110	0.00000000	15.71727000	-1.57480300
153.09999109	0.00000000	15.43430000	-1.57480300
153.29999108	0.00000000	15.02214000	-1.57480300
153.49999106	0.00000000	15.01599000	-1.57480300
153.69999105	0.00000000	14.60384000	-1.57480300
153.89999104	0.00000000	14.27165000	-1.57480300
154.09999103	0.00000000	14.22859000	-1.57480300
154.29999102	0.00000000	14.22859000	-1.57480300
154.49999100	0.00000000	14.22859000	-1.57480300
154.69999099	0.00000000	14.22859000	-1.57480300
154.89999098	0.00000000	14.22859000	-1.57480300
155.09999097	0.00000000	14.27165000	-1.57480300
155.29999096	0.00000000	14.64690000	-1.61786400
155.49999094	0.00000000	15.39124000	-1.99311000
155.69999093	0.00000000	15.76649000	-2.73745100
155.89999092	0.00000000	15.80955000	-3.11269700
156.09999091	0.00000000	15.76649000	-3.11269700
156.29999090	0.00000000	15.39124000	-2.73745100
156.49999089	0.00000000	14.64690000	-1.99311000
156.69999087	0.00000000	14.27165000	-1.61786400
156.89999086	0.00000000	14.18553000	-1.57480300
157.09999085	0.00000000	13.85334000	-1.53174200
157.29999084	0.00000000	13.44119000	-1.19955700
157.49999083	0.00000000	13.47810000	-0.83661410
157.69999081	0.00000000	13.44119000	-1.19955700
157.89999080	0.00000000	13.85334000	-1.53174200
158.09999079	0.00000000	14.18553000	-1.61786400
158.29999078	0.00000000	14.27165000	-1.99311000
158.49999077	0.00000000	14.64690000	-2.73745100
158.69999075	0.00000000	15.39124000	-3.11269700
158.89999074	0.00000000	15.76649000	-3.11269700
159.09999073	0.00000000	15.76649000	-2.73745100
159.29999072	0.00000000	15.39124000	-1.99311000
159.49999071	0.00000000	14.64690000	-1.61786400
159.69999070	0.00000000	14.27165000	-1.57480300
159.89999068	0.00000000	14.22859000	-1.57480300
160.09999067	0.00000000	14.22859000	-1.57480300
160.29999066	0.00000000	14.22859000	-1.57480300
160.49999065	0.00000000	14.22859000	-1.57480300
160.69999064	0.00000000	14.22859000	-1.57480300
160.89999062	0.00000000	14.22859000	-1.61786400
161.09999061	0.00000000	14.22859000	-1.99311000
161.29999060	0.00000000	14.22859000	-2.73745100
161.49999059	0.00000000	14.22859000	-3.06348400
161.69999058	0.00000000	14.27165000	-2.73745100
161.89999056	0.00000000	14.60384000	-1.99311000
162.09999055	0.00000000	14.97293000	-1.61786400
162.29999054	0.00000000	14.64690000	-1.57480300
162.49999053	0.00000000	14.64690000	-1.57480300
162.69999052	0.00000000	14.97293000	-1.57480300
162.89999051	0.00000000	14.60384000	-1.57480300
163.09999049	0.00000000	14.22859000	-1.57480300
163.29999048	0.00000000	13.85334000	-1.57480300
163.49999047	0.00000000	13.48425000	-1.57480300
163.69999046	0.00000000	13.85334000	-1.57480300
163.89999045	0.00000000	14.18553000	-1.57480300
164.09999043	0.00000000	14.22859000	-1.61786400
164.29999042	0.00000000	14.22859000	-1.95004900
164.49999041	0.00000000	14.22859000	-2.36220500
164.69999040	0.00000000	14.22859000	-2.36835600
164.89999039	0.00000000	14.22859000	-2.73745100
165.09999037	0.00000000	14.27165000	-2.68823800
165.29999036	0.00000000	14.60384000	-1.99311000
165.49999035	0.00000000	14.97293000	-1.61786400
165.69999034	0.00000000	14.60384000	-1.57480300
165.89999033	0.00000000	14.27165000	-1.57480300
166.09999032	0.00000000	14.22859000	-1.57480300
166.29999030	0.00000000	14.22859000	-1.57480300
166.49999029	0.00000000	14.22859000	-1.57480300
166.69999028	0.00000000	14.22859000	-1.57480300
166.89999027	0.00000000	14.22859000	-1.57480300
167.09999026	0.00000000	14.22859000	-1.57480300
167.29999024	0.00000000	14.22859000	-1.61786400
167.49999023	0.00000000	14.22859000	-1.95004900
167.69999022	0.00000000	14.22859000	-2.31914400
167.89999021	0.00000000	14.22859000	-1.95004900
168.09999020	0.00000000	14.22859000	-1.61786400
168.29999018	0.00000000	14.22859000	-1.57480300
168.49999017	0.00000000	14.27165000	-1.57480300
168.69999016	0.00000000	14.60384000	-1.57480300
168.89999015	0.00000000	14.97293000	-1.57480300
169.09999014	0.00000000	14.60384000	-1.57480300
169.29999013	0.00000000	14.27165000	-1.57480300
169.49999011	0.00000000	14.22859000	-1.57480300
169.69999010	0.00000000	14.22859000	-1.57480300
169.89999009	0.00000000	14.22859000	-1.61786400
170.09999008	0.00000000	14.22859000	-1.95004900
170.29999007	0.00000000	14.22859000	-2.31914400
170.49999005	0.00000000	14.22859000	-1.95004900
170.69999004	0.00000000	14.22859000	-1.61786400
170.89999003	0.00000000	14.22859000	-1.57480300
171.09999002	0.00000000	14.22859000	-1.57480300
171.29999001	0.00000000	14.22859000	-1.57480300
171.49998999	0.00000000	14.22859000	-1.61786400
171.69998998	0.00000000	14.22859000	-1.95004900
171.89998997	0.00000000	14.22859000	-2.31914400
172.09998996	0.00000000	14.22859000	-1.99311000
172.29998995	0.00000000	14.22859000	-1.99311000
172.49998994	0.00000000	14.22859000	-2.31914400
172.69998992	0.00000000	14.22859000	-1.95004900
172.89998991	0.00000000	14.22859000	-1.61786400
173.09998990	0.00000000	14.22859000	-1.57480300
173.29998989	0.00000000	14.22859000	-1.57480300
173.49998988	0.00000000	14.22859000	-1.57480300
173.69998986	0.00000000	14.22859000	-1.57480300
173.89998985	0.00000000	14.22859000	-1.57480300
174.09998984	0.00000000	14.22859000	-1.57480300
174.29998983	0.00000000	14.22859000	-1.57480300
174.49998982	0.00000000	14.22859000	-1.61786400
174.69998980	0.00000000	14.22859000	-1.99311000
174.89998979	0.00000000	14.22859000	-2.68823800
175.09998978	0.00000000	14.22859000	-2.73745100
175.29998977	0.00000000	14.22859000	-2.36835600
175.49998976	0.00000000	14.22859000	-2.36220500
175.69998975	0.00000000	14.22859000	-1.95004900
175.89998973	0.00000000	14.22859000	-1.61786400
176.09998972	0.00000000	14.22859000	-1.57480300
176.29998971	0.00000000	14.22859000	-1.57480300
176.49998970	0.00000000	14.22859000	-1.57480300
176.69998969	0.00000000	14.22859000	-1.57480300
176.89998967	0.00000000	14.22859000	-1.57480300
177.09998966	0.00000000	14.22859000	-1.61786400
177.29998965	0.00000000	14.22859000	-1.95004900
177.49998964	0.00000000	14.22859000	-2.36220500
177.69998963	0.00000000	14.22859000	-2.32529500
177.89998961	0.00000000	14.22859000	-2.36220500
178.09998960	0.00000000	14.22859000	-1.95004900
178.29998959	0.00000000	14.22859000	-1.61786400
178.49998958	0.00000000	14.22859000	-1.57480300
178.69998957	0.00000000	14.22859000	-1.57480300
178.89998956	0.00000000	14.22859000	-1.57480300
179.09998954	0.00000000	14.22859000	-1.57480300
179.29998953	0.00000000	14.22859000	-1.57480300
179.49998952	0.00000000	14.22859000	-1.57480300
179.69998951	0.00000000	14.22859000	-1.61786400
179.89998950	0.00000000	14.22859000	-1.99311000
180.09998948	0.00000000	14.22859000	-2.73745100
180.29998947	0.00000000	14.22859000	-3.11269700
180.49998946	0.00000000	14.22859000	-3.15575800
180.69998945	0.00000000	14.22859000	-3.15575800
180.89998944	0.00000000	14.22859000	-3.11269700
181.09998942	0.00000000	14.22859000	-2.73745100
181.29998941	0.00000000	14.22859000	-1.99311000
181.49998940	0.00000000	14.22859000	-1.61786400
181.69998939	0.00000000	14.22859000	-1.57480300
181.89998938	0.00000000	14.22859000	-1.57480300
182.09998937	0.00000000	14.22859000	-1.57480300
182.29998935	0.00000000	14.22859000	-1.57480300
182.49998934	0.00000000	14.22859000	-1.61786400
182.69998933	0.00000000	14.22859000	-1.99311000
182.89998932	0.00000000	14.22859000	-2.73745100
183.09998931	0.00000000	14.22859000	-3.11269700
183.29998929	0.00000000	14.18553000	-3.15575800
183.49998928	0.00000000	13.85334000	-3.15575800
183.69998927	0.00000000	13.48425000	-3.15575800
183.89998926	0.00000000	13.85334000	-3.11269700
184.09998925	0.00000000	14.18553000	-2.73745100
184.29998923	0.00000000	14.22859000	-1.99311000
184.49998922	0.00000000	14.22859000	-1.61786400
184.69998921	0.00000000	14.22859000	-1.57480300
184.89998920	0.00000000	14.18553000	-1.57480300
185.09998919	0.00000000	13.85334000	-1.57480300
185.29998918	0.00000000	13.48425000	-1.57480300
185.49998916	0.00000000	13.85334000	-1.57480300
185.69998915	0.00000000	14.18553000	-1.61786400
185.89998914	0.00000000	14.22859000	-1.99311000
186.09998913	0.00000000	14.22859000	-2.73745100
186.29998912	0.00000000	14.22859000	-3.11269700
186.49998910	0.00000000	14.22859000	-3.15575800
186.69998909	0.00000000	14.22859000	-3.15575800
186.89998908	0.00000000	14.22859000	-3.11269700
187.09998907	0.00000000	14.18553000	-2.73745100
187.29998906	0.00000000	13.85334000	-1.99311000
187.49998904	0.00000000	13.48425000	-1.61786400
187.69998903	0.00000000	13.81028000	-1.57480300
187.89998902	0.00000000	13.81028000	-1.57480300
188.09998901	0.00000000	13.48425000	-1.57480300
188.29998900	0.00000000	13.85334000	-1.57480300
188.49998899	0.00000000	14.18553000	-1.61786400
188.69998897	0.00000000	14.22859000	-1.99311000
188.89998896	0.00000000	14.22859000	-2.73745100
189.09998895	0.00000000	14.22859000	-3.11269700
189.29998894	0.00000000	14.18553000	-3.15575800
189.49998893	0.00000000	13.85334000	-3.15575800
189.69998891	0.00000000	13.48425000	-3.11269700
189.89998890	0.00000000	13.85334000	-2.73745100
190.09998889	0.00000000	14.18553000	-1.99311000
190.29998888	0.00000000	14.22859000	-1.61786400
190.49998887	0.00000000	14.18553000	-1.57480300
190.69998885	0.00000000	13.85334000	-1.57480300
190.89998884	0.00000000	13.48425000	-1.57480300
191.09998883	0.00000000	13.85334000	-1.57480300
191.29998882	0.00000000	14.18553000	-1.57480300
191.49998881	0.00000000	14.22859000	-1.57480300
191.69998880	0.00000000	14.22859000	-1.57480300
191.89998878	0.00000000	14.22859000	-1.57480300
192.09998877	0.00000000	14.22859000	-1.61786400
192.29998876	0.00000000	14.22859000	-1.95004900
192.49998875	0.00000000	14.22859000	-2.36220500
192.69998874	0.00000000	14.22859000	-2.32529500
192.89998872	0.00000000	14.18553000	-2.36220500
193.09998871	0.00000000	13.81028000	-1.99311000
193.29998870	0.00000000	13.11516000	-2.04232300
193.49998869	0.00000000	13.06594000	-2.68823800
193.69998868	0.00000000	13.43504000	-2.68823800
193.89998866	0.00000000	13.39813000	-1.99311000
194.09998865	0.00000000	13.47810000	-1.61786400
194.29998864	0.00000000	13.44119000	-1.57480300
194.49998863	0.00000000	13.85334000	-1.57480300
194.69998862	0.00000000	14.18553000	-1.57480300
194.89998861	0.00000000	14.22859000	-1.57480300
195.09998859	0.00000000	14.22859000	-1.57480300
195.29998858	0.00000000	14.22859000	-1.57480300
195.49998857	0.00000000	14.22859000	-1.57480300
195.69998856	0.00000000	14.22859000	-1.61786400
195.89998855	0.00000000	14.18553000	-1.99311000
196.09998853	0.00000000	13.81028000	-2.68823800
