Time	Channel A	Channel B	Channel C
(us)	(V)	(mV)	(mV)

-4.59999956	0.00000000	31.61909000	11.04823000
-4.39999957	0.00000000	31.61909000	11.04823000
-4.19999958	0.00000000	31.61909000	11.04823000
-3.99999959	0.00000000	31.61909000	11.04823000
-3.79999960	0.00000000	31.61909000	11.04823000
-3.59999962	0.00000000	31.61909000	11.04823000
-3.39999963	0.00000000	31.61909000	11.04823000
-3.19999964	0.00000000	31.61909000	11.04823000
-2.99999965	0.00000000	31.61909000	11.04823000
-2.79999966	0.00000000	31.61909000	11.04823000
-2.59999968	0.00000000	31.61909000	11.04823000
-2.39999969	0.00000000	31.61909000	11.04823000
-2.19999970	0.00000000	31.61909000	11.04823000
-1.99999971	0.00000000	31.61909000	11.04823000
-1.79999972	0.00000000	31.61909000	11.04823000
-1.59999973	0.00000000	31.57603000	11.04823000
-1.39999975	0.00000000	31.24384000	11.04823000
-1.19999976	0.00000000	30.87475000	11.04823000
-0.99999977	0.00000000	31.24384000	11.04823000
-0.79999978	0.00000000	31.57603000	11.04823000
-0.59999979	0.00000000	31.61909000	11.04823000
-0.39999981	0.15871060	31.61909000	11.04823000
-0.19999982	0.47736220	31.66215000	11.04823000
0.00000017	0.79601380	31.99434000	11.04823000
0.20000016	0.95533960	32.36343000	11.00517000
0.40000015	0.95533960	31.99434000	10.62992000
0.60000013	0.63668800	31.66215000	9.93479300
0.80000012	-0.15871060	31.61909000	9.93479300
1.00000011	-1.11466500	31.61909000	10.58686000
1.20000010	-2.07062000	31.61909000	10.62992000
1.40000009	-2.70792300	31.61909000	10.35310000
1.60000008	-2.70792300	31.61909000	11.04823000
1.80000006	-1.91129400	31.61909000	11.74336000
2.00000005	-0.31803640	31.61909000	11.42347000
2.20000004	1.75196900	31.61909000	11.09129000
2.40000003	3.66326300	31.61909000	11.00517000
2.60000002	5.09719500	31.57603000	10.62992000
2.80000000	5.25652100	31.24384000	9.89173200
2.99999999	3.98191400	30.87475000	9.51648500
3.19999998	1.27399100	31.20078000	9.51648500
3.39999997	-1.91129400	31.20078000	9.84867000
3.59999996	-5.25652100	30.87475000	10.25467000
3.79999994	-7.48646600	31.24384000	10.26698000
3.99999993	-7.96444400	31.57603000	10.72219000
4.19999992	-6.37180100	31.61909000	11.38041000
4.39999991	-3.02657500	31.61909000	11.79257000
4.59999990	1.27399100	31.61909000	11.42347000
4.79999989	5.41584600	31.61909000	11.09129000
4.99999987	8.60174700	31.61909000	11.00517000
5.19999986	9.39837600	31.57603000	10.62992000
5.39999985	7.96444400	31.24384000	9.89173200
5.59999984	4.45989200	30.83169000	9.51648500
5.79999983	-0.15871060	30.82554000	9.51648500
5.99999981	-4.77854300	30.45644000	9.89173200
6.19999980	-8.28309500	30.50566000	10.62992000
6.39999979	-9.55770200	31.20078000	11.00517000
6.59999978	-8.44242100	31.57603000	11.04823000
6.79999977	-5.41584600	31.61909000	11.04823000
6.99999975	-1.11466500	31.61909000	11.04823000
7.19999974	3.18590100	31.61909000	11.04823000
7.39999973	6.37180100	31.57603000	11.00517000
7.59999972	7.80511800	31.24384000	10.67298000
7.79999971	7.16781500	30.87475000	10.26698000
7.99999970	4.93786900	31.24384000	10.25467000
8.19999968	1.59264300	31.57603000	9.84867000
8.39999967	-1.59264300	31.61909000	9.51648500
8.59999966	-3.98191400	31.61909000	9.51648500
8.79999965	-5.09719500	31.61909000	9.89173200
8.99999964	-4.93786900	31.61909000	10.62992000
9.19999962	-3.50393700	31.61909000	11.00517000
9.39999961	-1.59264300	31.61909000	11.04823000
9.59999960	0.31803640	31.57603000	11.04823000
9.79999959	1.75196900	31.20078000	11.04823000
9.99999958	2.38927200	30.50566000	11.04823000
10.19999956	2.38927200	30.50566000	11.04823000
10.39999955	1.75196900	31.20078000	11.00517000
10.59999954	0.95533960	31.52682000	10.67298000
10.79999953	0.00000000	31.24384000	10.31004000
10.99999952	-0.47736220	30.87475000	10.67298000
11.19999951	-0.95533960	31.20078000	10.95595000
11.39999949	-0.95533960	31.20078000	10.62992000
11.59999948	-0.79601380	30.87475000	9.93479300
11.79999947	-0.47736220	31.24384000	9.93479300
11.99999946	-0.31803640	31.57603000	10.62992000
12.19999945	-0.15871060	31.61909000	11.00517000
12.39999943	-0.15871060	31.57603000	11.00517000
12.59999942	0.00000000	31.20078000	10.62992000
12.79999941	0.00000000	30.45644000	9.89173200
12.99999940	0.00000000	30.13041000	9.56569900
13.19999939	0.00000000	30.45644000	9.89173200
13.39999937	0.00000000	31.20078000	10.62992000
13.59999936	0.00000000	31.57603000	11.00517000
13.79999935	0.00000000	31.61909000	11.04823000
13.99999934	-0.15871060	31.61909000	11.04823000
14.19999933	-0.15871060	31.61909000	11.04823000
14.39999932	-0.15871060	31.57603000	11.00517000
14.59999930	-0.15871060	31.20078000	10.62992000
14.79999929	0.00000000	30.45644000	9.93479300
14.99999928	0.00000000	30.13041000	9.89173200
15.19999927	0.00000000	30.41338000	10.21161000
15.39999926	0.00000000	30.78248000	9.89173200
15.59999924	0.00000000	30.41338000	9.93479300
15.79999923	0.00000000	30.08120000	10.62992000
15.99999922	0.00000000	30.08120000	10.95595000
16.19999921	0.00000000	30.45644000	10.67298000
16.39999920	-0.15871060	31.20078000	10.31004000
16.59999919	0.00000000	31.57603000	10.67298000
16.79999917	-0.15871060	31.61909000	11.00517000
16.99999916	0.00000000	31.61909000	11.04823000
17.19999915	0.00000000	31.61909000	11.04823000
17.39999914	0.00000000	31.66215000	11.04823000
17.59999913	0.00000000	31.99434000	11.04823000
17.79999911	0.00000000	32.31422000	11.04823000
17.99999910	0.00000000	31.52682000	11.04823000
18.19999909	0.00000000	30.03814000	11.00517000
18.39999908	0.00000000	28.45718000	10.67298000
18.59999907	0.00000000	26.91929000	10.31004000
18.79999905	0.00000000	25.80585000	10.67298000
18.99999904	0.00000000	25.80585000	11.00517000
19.19999903	0.00000000	26.96850000	11.04823000
19.39999902	0.00000000	28.96776000	11.00517000
19.59999901	0.00000000	32.08661000	10.67298000
19.79999900	0.00000000	35.94980000	10.31004000
19.99999898	0.00000000	39.39468000	10.67298000
20.19999897	0.00000000	41.71998000	11.00517000
20.39999896	0.00000000	42.04601000	11.04823000
20.59999895	0.00000000	40.04675000	11.04823000
20.79999894	0.00000000	35.30389000	11.04823000
20.99999892	0.00000000	27.99582000	11.04823000
21.19999891	0.00000000	19.90034000	11.04823000
21.39999890	0.00000000	13.37967000	11.00517000
21.59999889	0.00000000	9.94094400	10.62992000
21.79999888	0.00000000	11.19587000	9.89173200
21.99999886	0.00000000	17.42741000	9.56569900
22.19999885	0.00000000	27.89739000	9.84867000
22.39999884	0.00000000	40.64345000	10.21161000
22.59999883	0.00000000	52.60211000	9.89173200
22.79999882	0.00000000	61.02362000	9.93479300
22.99999881	0.00000000	63.25664000	10.62992000
23.19999879	0.00000000	57.81865000	11.04823000
23.39999878	0.00000000	45.76772000	11.46653000
23.59999877	0.00000000	29.10925000	12.21087000
23.79999876	0.00000000	10.96826000	12.58612000
23.99999875	0.00000000	-3.96776600	12.58612000
24.19999873	0.00000000	-11.68799000	12.16166000
24.39999872	0.00000000	-9.65182000	11.04823000
24.59999871	0.00000000	1.94389800	9.84867000
24.79999870	0.00000000	21.33366000	8.63681000
24.99999869	0.00000000	44.04527000	6.72982200
25.19999867	0.00000000	64.88680000	5.24729300
25.39999866	0.00000000	78.34030000	4.87204700
25.59999865	0.00000000	81.03469000	5.66560000
25.79999864	0.00000000	72.15181000	7.98474400
25.99999863	0.00000000	53.58636000	11.09744000
26.19999862	0.00000000	29.61983000	14.62844000
26.39999860	0.00000000	5.29035400	18.43627000
26.59999859	0.00000000	-13.60113000	21.08760000
26.79999858	0.00000000	-22.48400000	21.46284000
26.99999857	0.00000000	-19.36516000	19.46358000
27.19999856	0.00000000	-4.75516700	14.76993000
27.39999854	0.00000000	17.66117000	7.80019600
27.59999853	0.00000000	42.37820000	0.13533460
27.79999852	0.00000000	64.42545000	-6.40994000
27.99999851	0.00000000	78.29724000	-9.84867000
28.19999850	0.00000000	81.08390000	-9.43036400
28.39999848	0.00000000	72.61318000	-4.65059000
28.59999847	0.00000000	55.25959000	4.59522600
28.79999846	0.00000000	33.24926000	16.52928000
28.99999845	0.00000000	11.61417000	27.73130000
29.19999844	0.00000000	-4.66904500	36.23277000
29.39999843	0.00000000	-12.48154000	39.99754000
29.59999841	0.00000000	-10.99286000	37.26009000
29.79999840	0.00000000	-0.94119090	28.34030000
29.99999839	0.00000000	15.24975000	14.81299000
30.19999838	0.00000000	33.76599000	-0.64591530
30.39999837	0.00000000	50.04921000	-14.49926000
30.59999835	0.00000000	60.98056000	-23.73892000
30.79999834	0.00000000	65.26205000	-25.65207000
30.99999833	0.00000000	62.18627000	-19.84498000
31.19999832	0.00000000	52.60211000	-7.43725300
31.39999831	0.00000000	39.43774000	9.51648500
31.59999829	0.00000000	25.47367000	26.93774000
31.79999828	0.00000000	13.10285000	41.20940000
31.99999827	0.00000000	5.38262700	49.70472000
32.19999826	0.00000000	3.75246000	49.66781000
32.39999825	0.00000000	7.94168200	41.62155000
32.59999824	0.00000000	16.45546000	27.26993000
32.79999822	0.00000000	27.25147000	9.51648500
32.99999821	0.00000000	38.09055000	-7.89862200
33.19999820	0.00000000	46.23523000	-21.42593000
33.39999819	0.00000000	50.55979000	-28.38951000
33.59999818	0.00000000	50.51673000	-27.18381000
33.79999816	0.00000000	45.90305000	-17.98105000
33.99999815	0.00000000	37.85679000	-2.93430100
34.19999814	0.00000000	29.01082000	14.03174000
34.39999813	0.00000000	21.61663000	29.53986000
34.59999812	0.00000000	16.96604000	40.37278000
34.79999810	0.00000000	15.80339000	44.64198000
34.99999809	0.00000000	18.49778000	41.52928000
35.19999808	0.00000000	24.22490000	31.53912000
35.39999807	0.00000000	31.10851000	17.27362000
35.59999806	0.00000000	36.92790000	2.26377900
35.79999805	0.00000000	40.42199000	-10.13164000
35.99999803	0.00000000	41.20940000	-17.05832000
36.19999802	0.00000000	38.88410000	-17.47047000
36.39999801	0.00000000	34.31963000	-10.96826000
36.59999800	0.00000000	28.92470000	0.13533460
36.79999799	0.00000000	24.31102000	12.49385000
36.99999797	0.00000000	21.61663000	23.64665000
37.19999796	0.00000000	21.61663000	30.56717000
37.39999795	0.00000000	24.26796000	31.40379000
37.59999794	0.00000000	28.50024000	26.80241000
37.79999793	0.00000000	33.15699000	17.97490000
37.99999791	0.00000000	37.39542000	7.28961600
38.19999790	0.00000000	40.08981000	-1.49483300
38.39999789	0.00000000	40.46506000	-5.76402500
38.59999788	0.00000000	38.55807000	-4.65059000
38.79999787	0.00000000	34.69488000	1.10728300
38.99999786	0.00000000	30.08735000	9.89173200
39.19999784	0.00000000	25.80585000	19.08834000
39.39999783	0.00000000	22.68701000	25.55364000
39.59999782	0.00000000	21.14911000	27.49754000
39.79999781	0.00000000	21.52436000	24.02190000
39.99999780	0.00000000	23.84965000	16.39395000
40.19999778	0.00000000	27.29453000	6.77903500
40.39999777	0.00000000	31.20078000	-2.04847400
40.59999776	0.00000000	34.73794000	-7.76328700
40.79999775	0.00000000	37.85679000	-8.50762700
40.99999774	0.00000000	40.13902000	-3.53715500
41.19999772	0.00000000	40.51427000	5.19808000
41.39999771	0.00000000	38.97638000	14.85605000
41.59999770	0.00000000	35.85752000	22.95152000
41.79999769	0.00000000	31.61909000	27.96506000
41.99999768	0.00000000	27.38681000	28.34030000
42.19999767	0.00000000	24.26796000	24.15723000
42.39999765	0.00000000	22.68701000	16.85531000
42.59999764	0.00000000	22.64394000	8.35998900
42.79999763	0.00000000	23.80659000	0.64591530
42.99999762	0.00000000	25.76279000	-4.74286400
43.19999761	0.00000000	28.45718000	-6.27460600
43.39999759	0.00000000	31.15157000	-3.62942900
43.59999758	0.00000000	33.11393000	2.08538400
43.79999757	0.00000000	34.31963000	9.00590400
43.99999756	0.00000000	34.69488000	15.18824000
44.19999755	0.00000000	34.36884000	19.42052000
44.39999753	0.00000000	33.57529000	20.62008000
44.59999752	0.00000000	32.86786000	18.76845000
44.79999751	0.00000000	32.41265000	15.36663000
44.99999750	0.00000000	32.40649000	11.46653000
45.19999749	0.00000000	31.95128000	7.98474400
45.39999748	0.00000000	31.15157000	5.24729300
45.59999746	0.00000000	29.57062000	3.70939900
45.79999745	0.00000000	27.25147000	3.70939900
45.99999744	0.00000000	24.92003000	5.24729300
46.19999743	0.00000000	22.60088000	7.89247000
46.39999742	0.00000000	21.14911000	10.62992000
46.59999740	0.00000000	21.57357000	12.95522000
46.79999739	0.00000000	24.31102000	14.85605000
46.99999738	0.00000000	29.01082000	15.23130000
47.19999737	0.00000000	35.16240000	14.16092000
47.39999736	0.00000000	41.29552000	12.58612000
47.59999734	0.00000000	45.12180000	10.62992000
47.79999733	0.00000000	45.90305000	8.31077700
47.99999732	0.00000000	43.11638000	6.40378900
48.19999731	0.00000000	36.97096000	5.24729300
48.39999730	0.00000000	28.83243000	5.24729300
48.59999729	0.00000000	20.73080000	6.40378900
48.79999727	0.00000000	14.17938000	8.40305000
48.99999726	0.00000000	11.19587000	11.46653000
49.19999725	0.00000000	13.10285000	14.90526000
49.39999724	0.00000000	19.66043000	17.18750000
49.59999723	0.00000000	28.87549000	17.97490000
49.79999721	0.00000000	38.55192000	16.81225000
49.99999720	0.00000000	46.23523000	14.11786000
50.19999719	0.00000000	50.09227000	10.62992000
50.39999718	0.00000000	48.93578000	6.77903500
50.59999717	0.00000000	43.20866000	3.70939900
50.79999715	0.00000000	34.69488000	2.17150600
50.99999714	0.00000000	25.43061000	2.54675200
51.19999713	0.00000000	17.38435000	4.87204700
51.39999712	0.00000000	13.15207000	8.35998900
51.59999711	0.00000000	13.89025000	12.62918000
51.79999710	0.00000000	18.82997000	16.81225000
51.99999708	0.00000000	26.55019000	19.50664000
52.19999707	0.00000000	34.65182000	19.93110000
52.39999706	0.00000000	41.58464000	18.39321000
52.59999705	0.00000000	45.34940000	15.27436000
52.79999704	0.00000000	44.23597000	11.04823000
52.99999702	0.00000000	38.92716000	6.86515700
53.19999701	0.00000000	31.66830000	4.12770700
53.39999700	0.00000000	24.68627000	3.33415300
53.59999699	0.00000000	19.70349000	4.08464600
53.79999698	0.00000000	17.75960000	6.40378900
53.99999696	0.00000000	19.66043000	9.42421200
54.19999695	0.00000000	24.26796000	12.11860000
54.39999694	0.00000000	30.41338000	13.65650000
54.59999693	0.00000000	36.55265000	13.69956000
54.79999692	0.00000000	40.37893000	12.58612000
54.99999691	0.00000000	41.20940000	11.04823000
55.19999689	0.00000000	38.88410000	9.51648500
55.39999688	0.00000000	34.27657000	8.35998900
55.59999687	0.00000000	28.50640000	8.02780400
55.79999686	0.00000000	23.15453000	8.77214500
55.99999685	0.00000000	20.07874000	10.67298000
56.19999683	0.00000000	19.99262000	12.53691000
56.39999682	0.00000000	22.31176000	13.65650000
56.59999681	0.00000000	26.18110000	13.28125000
56.79999680	0.00000000	31.20078000	11.33735000
56.99999679	0.00000000	35.76525000	8.63681000
57.19999677	0.00000000	38.46580000	5.19808000
57.39999676	0.00000000	38.50886000	2.54675200
57.59999675	0.00000000	36.27584000	1.80241100
57.79999674	0.00000000	33.15699000	2.96505900
57.99999673	0.00000000	29.66289000	6.48991100
58.19999672	0.00000000	26.22416000	11.46653000
58.39999670	0.00000000	24.31102000	16.81225000
58.59999669	0.00000000	24.22490000	20.62008000
58.79999668	0.00000000	25.38755000	21.41363000
58.99999667	0.00000000	27.29453000	19.50664000
59.19999666	0.00000000	29.61983000	15.18824000
59.39999664	0.00000000	31.52682000	9.05511800
59.59999663	0.00000000	32.73252000	2.50369100
59.79999662	0.00000000	33.10777000	-2.46678100
59.99999661	0.00000000	32.73252000	-4.74286400
60.19999660	0.00000000	31.57603000	-3.16190900
60.39999658	0.00000000	30.08120000	2.17765700
60.59999657	0.00000000	28.92470000	9.47342500
60.79999656	0.00000000	28.54946000	16.81225000
60.99999655	0.00000000	28.87549000	22.61934000
61.19999654	0.00000000	29.66289000	25.68897000
61.39999653	0.00000000	30.41338000	25.27067000
61.59999651	0.00000000	31.15157000	20.99532000
61.79999650	0.00000000	31.15157000	13.74262000
61.99999649	0.00000000	30.41338000	5.66560000
62.19999648	0.00000000	29.66289000	-0.93503930
62.39999647	0.00000000	28.83243000	-5.16117100
62.59999645	0.00000000	28.12500000	-5.89936000
62.79999644	0.00000000	27.71284000	-2.42372000
62.99999643	0.00000000	28.12500000	4.08464600
63.19999642	0.00000000	28.87549000	12.16781000
63.39999641	0.00000000	30.08120000	19.46358000
63.59999639	0.00000000	31.61909000	24.15723000
63.79999638	0.00000000	33.11393000	25.73203000
63.99999637	0.00000000	33.85211000	24.20029000
64.19999636	0.00000000	33.11393000	19.93110000
64.39999635	0.00000000	31.61909000	13.74262000
64.59999634	0.00000000	30.08120000	6.82209600
64.79999632	0.00000000	28.87549000	1.06422200
64.99999631	0.00000000	28.12500000	-2.09153500
65.19999630	0.00000000	27.71284000	-2.50984200
65.39999629	0.00000000	28.12500000	-0.60285430
65.59999628	0.00000000	28.87549000	3.29109200
65.79999626	0.00000000	30.08120000	8.26771600
65.99999625	0.00000000	31.52682000	13.32431000
66.19999624	0.00000000	32.27116000	17.18750000
66.39999623	0.00000000	31.57603000	19.59892000
66.59999622	0.00000000	30.41338000	20.34941000
66.79999620	0.00000000	29.24459000	19.59892000
66.99999619	0.00000000	27.71284000	17.27977000
67.19999618	0.00000000	27.01156000	14.21014000
67.39999617	0.00000000	27.38681000	11.04823000
67.59999616	0.00000000	28.96776000	7.89247000
67.79999615	0.00000000	31.61909000	4.77977300
67.99999613	0.00000000	34.27657000	2.08538400
68.19999612	0.00000000	35.81446000	0.55364170
68.39999611	0.00000000	35.81446000	0.55364170
68.59999610	0.00000000	34.27657000	2.12844500
68.79999609	0.00000000	31.53297000	5.24729300
68.99999607	0.00000000	28.03888000	9.47342500
69.19999606	0.00000000	24.18184000	13.74262000
69.39999605	0.00000000	21.14911000	17.27977000
69.59999604	0.00000000	20.03568000	19.97416000
69.79999603	0.00000000	21.57357000	21.08760000
69.99999601	0.00000000	25.38755000	19.88189000
70.19999600	0.00000000	30.08735000	16.39395000
70.39999599	0.00000000	35.11319000	11.00517000
70.59999598	0.00000000	39.71457000	5.29035400
70.79999597	0.00000000	42.00295000	1.02116100
70.99999596	0.00000000	41.62770000	-0.97810030
71.19999594	0.00000000	38.50886000	-0.97810030
71.39999593	0.00000000	33.11393000	0.97194880
71.59999592	0.00000000	26.91929000	4.82898600
71.79999591	0.00000000	21.14911000	9.43036400
71.99999590	0.00000000	17.29208000	13.74262000
72.19999588	0.00000000	16.54158000	17.18750000
72.39999587	0.00000000	18.78691000	19.08834000
72.59999586	0.00000000	23.43135000	18.30093000
72.79999585	0.00000000	28.83243000	15.32357000
72.99999584	0.00000000	34.31963000	11.51575000
73.19999582	0.00000000	38.88410000	8.40305000
73.39999581	0.00000000	41.20940000	6.44685000
73.59999580	0.00000000	40.46506000	5.66560000
73.79999579	0.00000000	37.43848000	6.40378900
73.99999578	0.00000000	33.15699000	7.89247000
74.19999577	0.00000000	28.50024000	9.42421200
74.39999575	0.00000000	24.26796000	10.58686000
74.59999574	0.00000000	21.57357000	10.91289000
74.79999573	0.00000000	21.14911000	10.16855000
74.99999572	0.00000000	22.64394000	8.35383800
75.19999571	0.00000000	25.38755000	7.24040300
75.39999569	0.00000000	28.83243000	7.56028500
75.59999568	0.00000000	32.32037000	8.35998900
75.79999567	0.00000000	34.60876000	9.98400600
75.99999566	0.00000000	35.43922000	12.67224000
76.19999565	0.00000000	34.69488000	15.69882000
76.39999563	0.00000000	33.20005000	17.92569000
76.59999562	0.00000000	31.61909000	17.88263000
76.79999561	0.00000000	30.08120000	15.23130000
76.99999560	0.00000000	28.92470000	11.00517000
77.19999559	0.00000000	28.54946000	6.40378900
77.39999558	0.00000000	28.87549000	2.50369100
77.59999556	0.00000000	29.61983000	0.17839570
77.79999555	0.00000000	29.99508000	-0.55979330
77.99999554	0.00000000	29.94586000	1.02116100
78.19999553	0.00000000	29.20152000	4.87204700
78.39999552	0.00000000	27.71284000	9.89173200
78.59999550	0.00000000	26.91929000	15.28051000
78.79999549	0.00000000	26.59326000	19.50664000
78.99999548	0.00000000	27.01772000	21.46284000
79.19999547	0.00000000	29.33686000	21.08760000
79.39999546	0.00000000	31.95128000	18.35015000
79.59999544	0.00000000	34.31963000	13.74262000
79.79999543	0.00000000	35.81446000	8.40305000
79.99999542	0.00000000	35.81446000	4.12770700
80.19999541	0.00000000	34.27657000	1.71013800
80.39999540	0.00000000	31.57603000	0.55364170
80.59999539	0.00000000	28.50024000	1.01501000
80.79999537	0.00000000	25.80585000	3.66633800
80.99999536	0.00000000	24.26796000	7.47416300
81.19999535	0.00000000	24.26796000	11.00517000
81.39999534	0.00000000	25.80585000	14.16092000
81.59999533	0.00000000	28.45718000	16.85531000
81.79999531	0.00000000	31.15157000	18.39321000
81.99999530	0.00000000	33.11393000	18.39321000
82.19999529	0.00000000	34.31963000	16.85531000
82.39999528	0.00000000	34.65182000	14.21014000
82.59999527	0.00000000	33.90133000	11.46653000
82.79999525	0.00000000	31.99434000	9.05511800
82.99999524	0.00000000	30.08120000	6.36072800
83.19999523	0.00000000	28.50024000	4.03543200
83.39999522	0.00000000	27.34375000	2.87278500
83.59999521	0.00000000	26.96850000	2.50369100
83.79999520	0.00000000	27.34375000	3.70939900
83.99999518	0.00000000	28.45718000	6.36072800
84.19999517	0.00000000	29.57062000	9.47342500
84.39999516	0.00000000	30.03814000	12.62918000
84.59999515	0.00000000	30.41338000	15.69882000
84.79999514	0.00000000	30.78248000	17.97490000
84.99999512	0.00000000	30.41338000	18.39321000
85.19999511	0.00000000	30.13041000	17.23056000
85.39999510	0.00000000	30.41338000	14.81299000
85.59999509	0.00000000	30.78248000	10.58686000
85.79999508	0.00000000	30.41338000	5.66560000
85.99999506	0.00000000	30.08120000	2.12844500
86.19999505	0.00000000	30.03814000	0.17839570
86.39999504	0.00000000	29.99508000	-0.14148620
86.59999503	0.00000000	29.61983000	2.17765700
86.79999502	0.00000000	28.83243000	6.35457700
86.99999501	0.00000000	28.08194000	11.00517000
87.19999499	0.00000000	27.34375000	15.27436000
87.39999498	0.00000000	27.34375000	18.35015000
87.59999497	0.00000000	28.08194000	19.46358000
87.79999496	0.00000000	28.87549000	17.88263000
87.99999495	0.00000000	30.08120000	13.69956000
88.19999493	0.00000000	31.57603000	8.35998900
88.39999492	0.00000000	32.68946000	3.70939900
88.59999491	0.00000000	32.68946000	0.59670270
88.79999490	0.00000000	31.57603000	-0.51673230
88.99999489	0.00000000	30.03814000	1.02116100
89.19999487	0.00000000	28.50024000	4.82898600
89.39999486	0.00000000	27.34375000	9.47342500
89.59999485	0.00000000	26.91929000	14.07480000
89.79999484	0.00000000	26.91929000	17.50738000
89.99999483	0.00000000	27.29453000	18.30093000
90.19999482	0.00000000	28.08194000	16.81225000
90.39999480	0.00000000	28.87549000	13.69956000
90.59999479	0.00000000	29.99508000	9.43036400
90.79999478	0.00000000	30.73326000	4.82898600
90.99999477	0.00000000	30.41338000	1.06422200
91.19999476	0.00000000	30.08120000	-0.04921259
91.39999474	0.00000000	30.03814000	2.17765700
91.59999473	0.00000000	30.03814000	6.40378900
91.79999472	0.00000000	30.03814000	11.38041000
91.99999471	0.00000000	30.03814000	16.01870000
92.19999470	0.00000000	30.03814000	18.67618000
92.39999468	0.00000000	30.03814000	19.13140000
92.59999467	0.00000000	29.99508000	17.14444000
92.79999466	0.00000000	29.61983000	13.32431000
92.99999465	0.00000000	28.83243000	8.31077700
93.19999464	0.00000000	28.08194000	3.75246000
93.39999463	0.00000000	27.29453000	1.06422200
93.59999461	0.00000000	26.91929000	1.06422200
93.79999460	0.00000000	26.96850000	3.75246000
93.99999459	0.00000000	27.80512000	8.26771600
94.19999458	0.00000000	30.08120000	12.90600000
94.39999457	0.00000000	32.68946000	16.02485000
94.59999455	0.00000000	34.27657000	17.97490000
94.79999454	0.00000000	34.74409000	17.88263000
94.99999453	0.00000000	34.69488000	15.23130000
95.19999452	0.00000000	33.80905000	11.04823000
95.39999451	0.00000000	31.15772000	6.82209600
95.59999449	0.00000000	27.71284000	3.75246000
95.79999448	0.00000000	24.96309000	2.59596400
95.99999447	0.00000000	22.64394000	3.70939900
96.19999446	0.00000000	21.57357000	6.36072800
96.39999445	0.00000000	22.68701000	9.42421200
96.59999444	0.00000000	25.38755000	12.16781000
96.79999442	0.00000000	28.87549000	14.07480000
96.99999441	0.00000000	32.78174000	14.85605000
97.19999440	0.00000000	36.18971000	14.07480000
97.39999439	0.00000000	38.13361000	12.21087000
97.59999438	0.00000000	37.77067000	9.89173200
97.79999436	0.00000000	35.85752000	7.98474400
97.99999435	0.00000000	32.73868000	6.77903500
98.19999434	0.00000000	28.83243000	6.40378900
98.39999433	0.00000000	25.01230000	6.77903500
98.59999432	0.00000000	21.89960000	7.89247000
98.79999430	0.00000000	20.78002000	9.05511800
98.99999429	0.00000000	21.48130000	9.84867000
99.19999428	0.00000000	23.84965000	10.62992000
99.39999427	0.00000000	27.29453000	11.00517000
99.59999426	0.00000000	31.15772000	11.04823000
99.79999425	0.00000000	34.27657000	11.04823000
99.99999423	0.00000000	36.23277000	11.09129000
100.19999422	0.00000000	37.02018000	11.46653000
100.39999421	0.00000000	36.23277000	12.21087000
100.59999420	0.00000000	34.31963000	12.53691000
100.79999419	0.00000000	31.57603000	12.16166000
100.99999417	0.00000000	28.50024000	10.96211000
101.19999416	0.00000000	25.76279000	9.05511800
101.39999415	0.00000000	23.84965000	6.77903500
101.59999414	0.00000000	23.06225000	5.24729300
101.79999413	0.00000000	23.80659000	4.82898600
101.99999411	0.00000000	25.33834000	5.24729300
102.19999410	0.00000000	27.29453000	6.82209600
102.39999409	0.00000000	29.61983000	9.51648500
102.59999408	0.00000000	31.57603000	12.53691000
102.79999407	0.00000000	33.15699000	14.90526000
102.99999406	0.00000000	34.27657000	16.02485000
103.19999404	0.00000000	34.23351000	16.01870000
103.39999403	0.00000000	32.73868000	14.07480000
103.59999402	0.00000000	30.45644000	11.04823000
103.79999401	0.00000000	28.50024000	7.93553100
103.99999400	0.00000000	26.91929000	5.24729300
104.19999398	0.00000000	25.76279000	3.70939900
104.39999397	0.00000000	25.38755000	3.70939900
104.59999396	0.00000000	25.76279000	5.19808000
104.79999395	0.00000000	26.91929000	7.51722400
104.99999394	0.00000000	28.45718000	9.89173200
105.19999392	0.00000000	29.99508000	12.58612000
105.39999391	0.00000000	31.15157000	14.81299000
105.59999390	0.00000000	31.52682000	15.18824000
105.79999389	0.00000000	31.20078000	13.74262000
105.99999388	0.00000000	30.41338000	11.42347000
106.19999387	0.00000000	29.61983000	9.09817800
106.39999385	0.00000000	28.45718000	6.77903500
106.59999384	0.00000000	27.34375000	5.29035400
106.79999383	0.00000000	26.96850000	5.24729300
106.99999382	0.00000000	27.34375000	6.36072800
107.19999381	0.00000000	28.45718000	7.93553100
107.39999379	0.00000000	29.57062000	9.84867000
107.59999378	0.00000000	29.99508000	11.74951000
107.79999377	0.00000000	30.03814000	12.49385000
107.99999376	0.00000000	30.03814000	12.16166000
108.19999375	0.00000000	29.99508000	11.00517000
108.39999374	0.00000000	29.57062000	9.47342500
108.59999372	0.00000000	28.45718000	7.93553100
108.79999371	0.00000000	27.34375000	6.77903500
108.99999370	0.00000000	26.96850000	6.40378900
109.19999369	0.00000000	27.34375000	6.77903500
109.39999368	0.00000000	28.45718000	7.93553100
109.59999366	0.00000000	29.61983000	9.47342500
109.79999365	0.00000000	30.41338000	11.00517000
109.99999364	0.00000000	31.20078000	12.16166000
110.19999363	0.00000000	31.52682000	12.53691000
110.39999362	0.00000000	31.15157000	12.16166000
110.59999360	0.00000000	30.03814000	11.00517000
110.79999359	0.00000000	28.87549000	9.51648500
110.99999358	0.00000000	28.08194000	8.31077700
111.19999357	0.00000000	27.29453000	7.51722400
111.39999356	0.00000000	26.96850000	6.77903500
111.59999355	0.00000000	27.29453000	6.77903500
111.79999353	0.00000000	28.03888000	7.51722400
111.99999352	0.00000000	28.45718000	8.31077700
112.19999351	0.00000000	28.87549000	9.47342500
112.39999350	0.00000000	29.61983000	10.58686000
112.59999349	0.00000000	29.94586000	11.00517000
112.79999347	0.00000000	29.66289000	11.04823000
112.99999346	0.00000000	29.29380000	11.04823000
113.19999345	0.00000000	29.61983000	11.00517000
113.39999344	0.00000000	29.57062000	10.62992000
113.59999343	0.00000000	28.87549000	9.89173200
113.79999341	0.00000000	28.50024000	9.47342500
113.99999340	0.00000000	28.45718000	9.05511800
114.19999339	0.00000000	28.45718000	8.31077700
114.39999338	0.00000000	28.45718000	7.93553100
114.59999337	0.00000000	28.45718000	7.89247000
114.79999336	0.00000000	28.50024000	7.89247000
114.99999334	0.00000000	28.83243000	7.89247000
115.19999333	0.00000000	29.24459000	7.89247000
115.39999332	0.00000000	29.25074000	7.93553100
115.59999331	0.00000000	29.66289000	8.35998900
115.79999330	0.00000000	29.94586000	9.47342500
115.99999328	0.00000000	29.61983000	10.58686000
116.19999327	0.00000000	28.87549000	11.00517000
116.39999326	0.00000000	28.50024000	11.04823000
116.59999325	0.00000000	28.45718000	11.04823000
116.79999324	0.00000000	28.45718000	11.00517000
116.99999322	0.00000000	28.45718000	10.58686000
117.19999321	0.00000000	28.50024000	9.47342500
117.39999320	0.00000000	28.87549000	8.35998900
117.59999319	0.00000000	29.66289000	7.89247000
117.79999318	0.00000000	30.41338000	7.51722400
117.99999317	0.00000000	31.15157000	7.14812900
118.19999315	0.00000000	31.15157000	7.56028500
118.39999314	0.00000000	30.45644000	8.26771600
118.59999313	0.00000000	30.03814000	9.09817800
118.79999312	0.00000000	29.52756000	9.84867000
118.99999311	0.00000000	28.03888000	10.62992000
119.19999309	0.00000000	26.22416000	11.00517000
119.39999308	0.00000000	25.80585000	11.04823000
119.59999307	0.00000000	26.50098000	11.04823000
119.79999306	0.00000000	27.29453000	11.00517000
119.99999305	0.00000000	28.50024000	10.62992000
120.19999303	0.00000000	29.99508000	9.89173200
120.39999302	0.00000000	31.15157000	9.47342500
120.59999301	0.00000000	31.57603000	9.05511800
120.79999300	0.00000000	31.57603000	8.31077700
120.99999299	0.00000000	31.15157000	7.93553100
121.19999298	0.00000000	30.03814000	7.89247000
121.39999296	0.00000000	28.87549000	7.93553100
121.59999295	0.00000000	28.03888000	8.31077700
121.79999294	0.00000000	26.87623000	9.05511800
121.99999293	0.00000000	25.80585000	9.47342500
122.19999292	0.00000000	25.76279000	9.89173200
122.39999290	0.00000000	26.50098000	10.62992000
122.59999289	0.00000000	27.29453000	11.00517000
122.79999288	0.00000000	28.45718000	11.04823000
122.99999287	0.00000000	29.61983000	11.04823000
123.19999286	0.00000000	30.41338000	11.00517000
123.39999284	0.00000000	31.20078000	10.62992000
123.59999283	0.00000000	31.52682000	9.84867000
123.79999282	0.00000000	31.20078000	9.09817800
123.99999281	0.00000000	30.41338000	8.31077700
124.19999280	0.00000000	29.66289000	7.93553100
124.39999279	0.00000000	28.83243000	7.89247000
124.59999277	0.00000000	28.08194000	7.93553100
124.79999276	0.00000000	27.29453000	8.31077700
124.99999275	0.00000000	26.91929000	9.09817800
125.19999274	0.00000000	26.87623000	9.84867000
125.39999273	0.00000000	26.87623000	10.62992000
125.59999271	0.00000000	26.96850000	11.00517000
125.79999270	0.00000000	27.71284000	11.04823000
125.99999269	0.00000000	29.24459000	11.04823000
126.19999268	0.00000000	30.37032000	11.04823000
126.39999267	0.00000000	31.20078000	11.00517000
126.59999265	0.00000000	31.52682000	10.58686000
126.79999264	0.00000000	31.15157000	9.47342500
126.99999263	0.00000000	30.03814000	8.35998900
127.19999262	0.00000000	28.87549000	7.93553100
127.39999261	0.00000000	28.08194000	7.89247000
127.59999260	0.00000000	27.29453000	7.93553100
127.79999258	0.00000000	26.91929000	8.31077700
127.99999257	0.00000000	26.87623000	9.05511800
128.19999256	0.00000000	26.91929000	9.43036400
128.39999255	0.00000000	27.34375000	9.47342500
128.59999254	0.00000000	28.50024000	9.51648500
128.79999252	0.00000000	29.94586000	9.84867000
128.99999251	0.00000000	30.73326000	10.21161000
129.19999250	0.00000000	30.41338000	9.84867000
129.39999249	0.00000000	30.03814000	9.47342500
129.59999248	0.00000000	29.57062000	9.09817800
129.79999246	0.00000000	28.45718000	8.68602300
129.99999245	0.00000000	27.34375000	8.72293300
130.19999244	0.00000000	26.91929000	8.68602300
130.39999243	0.00000000	26.91929000	9.09817800
130.59999242	0.00000000	27.29453000	9.43036400
130.79999241	0.00000000	28.03888000	9.47342500
130.99999239	0.00000000	28.45718000	9.47342500
131.19999238	0.00000000	28.87549000	9.47342500
131.39999237	0.00000000	29.61983000	9.47342500
131.59999236	0.00000000	29.99508000	9.43036400
131.79999235	0.00000000	29.99508000	9.05511800
131.99999233	0.00000000	29.61983000	8.31077700
132.19999232	0.00000000	28.83243000	7.93553100
132.39999231	0.00000000	28.08194000	7.89247000
132.59999230	0.00000000	27.29453000	7.93553100
132.79999229	0.00000000	26.96850000	8.31077700
132.99999227	0.00000000	27.29453000	9.09817800
133.19999226	0.00000000	28.03888000	9.84867000
133.39999225	0.00000000	28.41412000	10.62992000
133.59999224	0.00000000	28.45718000	11.00517000
133.79999223	0.00000000	28.45718000	11.00517000
133.99999222	0.00000000	28.45718000	10.62992000
134.19999220	0.00000000	28.45718000	9.84867000
134.39999219	0.00000000	28.45718000	9.09817800
134.59999218	0.00000000	28.45718000	8.31077700
134.79999217	0.00000000	28.45718000	7.93553100
134.99999216	0.00000000	28.50024000	7.89247000
135.19999214	0.00000000	28.87549000	7.89247000
135.39999213	0.00000000	29.57062000	7.89247000
135.59999212	0.00000000	29.57062000	7.93553100
135.79999211	0.00000000	28.83243000	8.31077700
135.99999210	0.00000000	28.08194000	9.09817800
136.19999208	0.00000000	27.29453000	9.84867000
136.39999207	0.00000000	26.91929000	10.58686000
136.59999206	0.00000000	26.87623000	10.58686000
136.79999205	0.00000000	26.91929000	9.89173200
136.99999204	0.00000000	27.29453000	9.47342500
137.19999203	0.00000000	28.08194000	9.05511800
137.39999201	0.00000000	28.83243000	8.31077700
137.59999200	0.00000000	29.61983000	7.93553100
137.79999199	0.00000000	29.99508000	7.89247000
137.99999198	0.00000000	29.99508000	7.89247000
138.19999197	0.00000000	29.61983000	7.89247000
138.39999195	0.00000000	28.87549000	7.89247000
138.59999194	0.00000000	28.50024000	7.93553100
138.79999193	0.00000000	28.41412000	8.31077700
138.99999192	0.00000000	28.03888000	9.09817800
139.19999191	0.00000000	27.29453000	9.84867000
139.39999189	0.00000000	26.96850000	10.62992000
139.59999188	0.00000000	27.34375000	11.00517000
139.79999187	0.00000000	28.45718000	11.00517000
139.99999186	0.00000000	29.57062000	10.62992000
140.19999185	0.00000000	29.94586000	9.84867000
140.39999184	0.00000000	29.61983000	9.09817800
140.59999182	0.00000000	28.87549000	8.31077700
140.79999181	0.00000000	28.50024000	7.93553100
140.99999180	0.00000000	28.45718000	7.89247000
141.19999179	0.00000000	28.41412000	7.89247000
141.39999178	0.00000000	28.08194000	7.93553100
141.59999176	0.00000000	27.71284000	8.35998900
141.79999175	0.00000000	28.08194000	9.47342500
141.99999174	0.00000000	28.41412000	10.53765000
142.19999173	0.00000000	28.45718000	10.62992000
142.39999172	0.00000000	28.45718000	10.26698000
142.59999170	0.00000000	28.45718000	10.21161000
142.79999169	0.00000000	28.45718000	9.47342500
142.99999168	0.00000000	28.41412000	8.72908400
143.19999167	0.00000000	28.08194000	8.67987200
143.39999166	0.00000000	27.66978000	8.22465500
143.59999165	0.00000000	27.70669000	7.56028500
143.79999163	0.00000000	27.66978000	7.14812900
143.99999162	0.00000000	28.08194000	7.56028500
144.19999161	0.00000000	28.41412000	8.26771600
144.39999160	0.00000000	28.45718000	9.09817800
144.59999159	0.00000000	28.45718000	9.84867000
144.79999157	0.00000000	28.45718000	10.62992000
144.99999156	0.00000000	28.45718000	10.95595000
145.19999155	0.00000000	28.45718000	10.62992000
145.39999154	0.00000000	28.41412000	9.89173200
145.59999153	0.00000000	28.03888000	9.47342500
145.79999151	0.00000000	27.29453000	9.05511800
145.99999150	0.00000000	26.96850000	8.31077700
146.19999149	0.00000000	27.29453000	7.93553100
146.39999148	0.00000000	28.03888000	7.89247000
146.59999147	0.00000000	28.41412000	7.89247000
146.79999146	0.00000000	28.45718000	7.93553100
146.99999144	0.00000000	28.50024000	8.31077700
147.19999143	0.00000000	28.83243000	9.05511800
147.39999142	0.00000000	29.20152000	9.43036400
147.59999141	0.00000000	28.83243000	9.47342500
147.79999140	0.00000000	28.45718000	9.47342500
147.99999138	0.00000000	28.03888000	9.47342500
148.19999137	0.00000000	27.29453000	9.47342500
148.39999136	0.00000000	26.91929000	9.43036400
148.59999135	0.00000000	26.91929000	9.05511800
148.79999134	0.00000000	27.29453000	8.31077700
148.99999132	0.00000000	28.03888000	7.93553100
149.19999131	0.00000000	28.41412000	7.89247000
149.39999130	0.00000000	28.45718000	7.89247000
149.59999129	0.00000000	28.45718000	7.93553100
149.79999128	0.00000000	28.45718000	8.31077700
149.99999127	0.00000000	28.45718000	9.05511800
150.19999125	0.00000000	28.50024000	9.47342500
150.39999124	0.00000000	28.83243000	9.84867000
150.59999123	0.00000000	29.15231000	10.21161000
150.79999122	0.00000000	28.45718000	9.84867000
150.99999121	0.00000000	27.76206000	9.51648500
151.19999119	0.00000000	28.03888000	9.47342500
151.39999118	0.00000000	27.98966000	9.43036400
151.59999117	0.00000000	27.29453000	9.05511800
151.79999116	0.00000000	26.91929000	8.31077700
151.99999115	0.00000000	26.91929000	7.93553100
152.19999113	0.00000000	27.29453000	7.89247000
152.39999112	0.00000000	28.03888000	7.93553100
152.59999111	0.00000000	28.41412000	8.31077700
152.79999110	0.00000000	28.45718000	9.05511800
152.99999109	0.00000000	28.45718000	9.43036400
153.19999108	0.00000000	28.45718000	9.47342500
153.39999106	0.00000000	28.41412000	9.47342500
153.59999105	0.00000000	28.03888000	9.47342500
153.79999104	0.00000000	27.29453000	9.47342500
153.99999103	0.00000000	26.91929000	9.47342500
154.19999102	0.00000000	26.87623000	9.47342500
154.39999100	0.00000000	26.87623000	9.47342500
154.59999099	0.00000000	26.91929000	9.47342500
154.79999098	0.00000000	27.29453000	9.43036400
154.99999097	0.00000000	28.03888000	9.05511800
155.19999096	0.00000000	28.41412000	8.31077700
155.39999094	0.00000000	28.45718000	7.93553100
155.59999093	0.00000000	28.45718000	7.93553100
155.79999092	0.00000000	28.45718000	8.31077700
155.99999091	0.00000000	28.41412000	9.05511800
156.19999090	0.00000000	28.03888000	9.43036400
156.39999089	0.00000000	27.29453000	9.47342500
156.59999087	0.00000000	26.91929000	9.47342500
156.79999086	0.00000000	26.87623000	9.47342500
156.99999085	0.00000000	26.87623000	9.47342500
157.19999084	0.00000000	26.87623000	9.47342500
157.39999083	0.00000000	26.87623000	9.47342500
157.59999081	0.00000000	26.87623000	9.43036400
157.79999080	0.00000000	26.91929000	9.05511800
157.99999079	0.00000000	27.29453000	8.31077700
158.19999078	0.00000000	28.03888000	7.93553100
158.39999077	0.00000000	28.41412000	7.89247000
158.59999075	0.00000000	28.45718000	7.89247000
158.79999074	0.00000000	28.45718000	7.93553100
158.99999073	0.00000000	28.45718000	8.31077700
159.19999072	0.00000000	28.45718000	9.05511800
159.39999071	0.00000000	28.41412000	9.43036400
159.59999070	0.00000000	28.03888000	9.47342500
159.79999068	0.00000000	27.29453000	9.47342500
159.99999067	0.00000000	26.91929000	9.47342500
160.19999066	0.00000000	26.87623000	9.47342500
160.39999065	0.00000000	26.87623000	9.47342500
160.59999064	0.00000000	26.87623000	9.43036400
160.79999062	0.00000000	26.87623000	9.05511800
160.99999061	0.00000000	26.91929000	8.31077700
161.19999060	0.00000000	27.29453000	7.93553100
161.39999059	0.00000000	28.03888000	7.89247000
161.59999058	0.00000000	28.41412000	7.89247000
161.79999056	0.00000000	28.45718000	7.93553100
161.99999055	0.00000000	28.45718000	8.31077700
162.19999054	0.00000000	28.45718000	9.05511800
162.39999053	0.00000000	28.45718000	9.43036400
162.59999052	0.00000000	28.41412000	9.47342500
162.79999051	0.00000000	28.03888000	9.47342500
162.99999049	0.00000000	27.29453000	9.47342500
163.19999048	0.00000000	26.91929000	9.47342500
163.39999047	0.00000000	26.87623000	9.47342500
163.59999046	0.00000000	26.87623000	9.47342500
163.79999045	0.00000000	26.87623000	9.43036400
163.99999043	0.00000000	26.87623000	9.05511800
164.19999042	0.00000000	26.91929000	8.31077700
164.39999041	0.00000000	27.29453000	7.93553100
164.59999040	0.00000000	28.03888000	7.89247000
164.79999039	0.00000000	28.41412000	7.93553100
164.99999037	0.00000000	28.45718000	8.26771600
165.19999036	0.00000000	28.45718000	8.67987200
165.39999035	0.00000000	28.45718000	8.68602300
165.59999034	0.00000000	28.41412000	9.09817800
165.79999033	0.00000000	28.03888000	9.43036400
165.99999032	0.00000000	27.29453000	9.47342500
166.19999030	0.00000000	26.91929000	9.43036400
166.39999029	0.00000000	26.87623000	9.09817800
166.59999028	0.00000000	26.87623000	8.72908400
166.79999027	0.00000000	26.87623000	9.05511800
166.99999026	0.00000000	26.91929000	9.05511800
167.19999024	0.00000000	27.29453000	8.68602300
167.39999023	0.00000000	28.03888000	8.67987200
167.59999022	0.00000000	28.41412000	8.31077700
167.79999021	0.00000000	28.45718000	8.31077700
167.99999020	0.00000000	28.45718000	8.63681000
168.19999018	0.00000000	28.45718000	8.26771600
168.39999017	0.00000000	28.45718000	7.98474400
168.59999016	0.00000000	28.41412000	8.31077700
168.79999015	0.00000000	28.03888000	9.05511800
168.99999014	0.00000000	27.29453000	9.43036400
169.19999013	0.00000000	26.91929000	9.43036400
169.39999011	0.00000000	26.87623000	9.05511800
169.59999010	0.00000000	26.87623000	8.35998900
169.79999009	0.00000000	26.87623000	8.35998900
169.99999008	0.00000000	26.87623000	9.05511800
170.19999007	0.00000000	26.91929000	9.38115100
170.39999005	0.00000000	27.29453000	9.05511800
170.59999004	0.00000000	28.03888000	8.31077700
170.79999003	0.00000000	28.36491000	7.93553100
170.99999002	0.00000000	28.08194000	7.89247000
171.19999001	0.00000000	27.71284000	7.93553100
171.39998999	0.00000000	28.08194000	8.31077700
171.59998998	0.00000000	28.41412000	9.00590400
171.79998997	0.00000000	28.41412000	9.00590400
171.99998996	0.00000000	28.08194000	8.31077700
172.19998995	0.00000000	27.71284000	7.98474400
172.39998994	0.00000000	28.03888000	8.31077700
172.59998992	0.00000000	27.98966000	9.00590400
172.79998991	0.00000000	27.29453000	9.05511800
172.99998990	0.00000000	26.91929000	8.68602300
173.19998989	0.00000000	26.87623000	8.67987200
173.39998988	0.00000000	26.87623000	8.26771600
173.59998986	0.00000000	26.91929000	7.98474400
173.79998985	0.00000000	27.25147000	8.26771600
173.99998984	0.00000000	27.62057000	8.63681000
174.19998983	0.00000000	27.25147000	8.26771600
174.39998982	0.00000000	26.96850000	7.93553100
174.59998980	0.00000000	27.25147000	7.93553100
174.79998979	0.00000000	27.62057000	8.26771600
174.99998978	0.00000000	27.29453000	8.63681000
175.19998977	0.00000000	27.29453000	8.31077700
175.39998976	0.00000000	27.62057000	8.31077700
175.59998975	0.00000000	27.25147000	8.67987200
175.79998973	0.00000000	26.91929000	8.64296200
175.99998972	0.00000000	26.87623000	8.67987200
176.19998971	0.00000000	26.87623000	8.31077700
176.39998970	0.00000000	26.87623000	8.31077700
176.59998969	0.00000000	26.87623000	8.63681000
176.79998967	0.00000000	26.87623000	8.31077700
176.99998966	0.00000000	26.91929000	8.31077700
177.19998965	0.00000000	27.25147000	8.63681000
177.39998964	0.00000000	27.62057000	8.26771600
177.59998963	0.00000000	27.25147000	7.93553100
177.79998961	0.00000000	26.91929000	7.89247000
177.99998960	0.00000000	26.87623000	7.89247000
178.19998959	0.00000000	26.87623000	7.89247000
178.39998958	0.00000000	26.87623000	7.93553100
178.59998957	0.00000000	26.87623000	8.31077700
178.79998956	0.00000000	26.87623000	9.05511800
178.99998954	0.00000000	26.87623000	9.38115100
179.19998953	0.00000000	26.87623000	9.05511800
179.39998952	0.00000000	26.91929000	8.31077700
179.59998951	0.00000000	27.29453000	7.93553100
179.79998950	0.00000000	27.98966000	7.89247000
179.99998948	0.00000000	27.98966000	7.89247000
180.19998947	0.00000000	27.29453000	7.89247000
180.39998946	0.00000000	26.91929000	7.89247000
180.59998945	0.00000000	26.87623000	7.89247000
180.79998944	0.00000000	26.87623000	7.93553100
180.99998942	0.00000000	26.87623000	8.26771600
181.19998941	0.00000000	26.87623000	8.67987200
181.39998940	0.00000000	26.87623000	8.68602300
181.59998939	0.00000000	26.87623000	9.09817800
181.79998938	0.00000000	26.87623000	9.43036400
181.99998937	0.00000000	26.87623000	9.47342500
182.19998935	0.00000000	26.91929000	9.47342500
182.39998934	0.00000000	27.25147000	9.43036400
182.59998933	0.00000000	27.66363000	9.05511800
182.79998932	0.00000000	27.62672000	8.31077700
182.99998931	0.00000000	27.70669000	7.93553100
183.19998929	0.00000000	27.62672000	7.89247000
183.39998928	0.00000000	27.66363000	7.89247000
183.59998927	0.00000000	27.29453000	7.93553100
183.79998926	0.00000000	27.29453000	8.26771600
183.99998925	0.00000000	27.62057000	8.67987200
184.19998923	0.00000000	27.25147000	8.68602300
184.39998922	0.00000000	26.91929000	9.09817800
184.59998921	0.00000000	26.87623000	9.43036400
184.79998920	0.00000000	26.87623000	9.47342500
184.99998919	0.00000000	26.91929000	9.43036400
185.19998918	0.00000000	27.25147000	9.09817800
185.39998916	0.00000000	27.62057000	8.68602300
185.59998915	0.00000000	27.29453000	8.67987200
185.79998914	0.00000000	27.29453000	8.26771600
185.99998913	0.00000000	27.62057000	7.93553100
186.19998912	0.00000000	27.25147000	7.89247000
186.39998910	0.00000000	26.91929000	7.89247000
186.59998909	0.00000000	26.87623000	7.89247000
186.79998908	0.00000000	26.87623000	7.93553100
186.99998907	0.00000000	26.87623000	8.31077700
187.19998906	0.00000000	26.87623000	9.05511800
187.39998904	0.00000000	26.87623000	9.43036400
187.59998903	0.00000000	26.87623000	9.47342500
187.79998902	0.00000000	26.87623000	9.47342500
187.99998901	0.00000000	26.87623000	9.43036400
188.19998900	0.00000000	26.87623000	9.05511800
188.39998899	0.00000000	26.87623000	8.31077700
188.59998897	0.00000000	26.91929000	7.93553100
188.79998896	0.00000000	27.25147000	7.89247000
188.99998895	0.00000000	27.62057000	7.89247000
189.19998894	0.00000000	27.25147000	7.89247000
189.39998893	0.00000000	26.91929000	7.89247000
189.59998891	0.00000000	26.87623000	7.89247000
189.79998890	0.00000000	26.87623000	7.89247000
189.99998889	0.00000000	26.87623000	7.93553100
190.19998888	0.00000000	26.87623000	8.26771600
190.39998887	0.00000000	26.87623000	8.63681000
190.59998885	0.00000000	26.87623000	8.31077700
190.79998884	0.00000000	26.87623000	8.31077700
190.99998883	0.00000000	26.87623000	8.63681000
191.19998882	0.00000000	26.87623000	8.26771600
191.39998881	0.00000000	26.87623000	7.93553100
191.59998880	0.00000000	26.87623000	7.89247000
191.79998878	0.00000000	26.87623000	7.89247000
191.99998877	0.00000000	26.91929000	7.89247000
192.19998876	0.00000000	27.25147000	7.89247000
192.39998875	0.00000000	27.62057000	7.89247000
192.59998874	0.00000000	27.25147000	7.89247000
192.79998872	0.00000000	26.91929000	7.89247000
192.99998871	0.00000000	26.87623000	7.89247000
193.19998870	0.00000000	26.87623000	7.89247000
193.39998869	0.00000000	26.87623000	7.93553100
193.59998868	0.00000000	26.87623000	8.31077700
193.79998866	0.00000000	26.87623000	9.00590400
193.99998865	0.00000000	26.87623000	9.00590400
194.19998864	0.00000000	26.87623000	8.35998900
194.39998863	0.00000000	26.87623000	8.35998900
194.59998862	0.00000000	26.87623000	9.00590400
194.79998861	0.00000000	26.87623000	9.00590400
194.99998859	0.00000000	26.87623000	8.31077700
195.19998858	0.00000000	26.87623000	7.93553100
195.39998857	0.00000000	26.87623000	7.89247000
195.59998856	0.00000000	26.87623000	7.89247000
195.79998855	0.00000000	26.87623000	7.89247000
195.99998853	0.00000000	26.87623000	7.89247000
