Time	Channel A	Channel B	Channel C
(us)	(V)	(mV)	(mV)

-4.49999956	0.00000000	24.92003000	7.89247000
-4.29999957	0.00000000	25.25221000	7.89247000
-4.09999958	0.00000000	25.29527000	7.89247000
-3.89999959	0.00000000	25.29527000	7.89247000
-3.69999960	0.00000000	25.29527000	7.89247000
-3.49999962	0.00000000	25.29527000	7.89247000
-3.29999963	0.00000000	25.29527000	7.89247000
-3.09999964	0.00000000	25.29527000	7.89247000
-2.89999965	0.00000000	25.29527000	7.89247000
-2.69999966	0.00000000	25.29527000	7.89247000
-2.49999968	0.00000000	25.29527000	7.89247000
-2.29999969	0.00000000	25.29527000	7.89247000
-2.09999970	0.00000000	25.29527000	7.89247000
-1.89999971	0.00000000	25.29527000	7.89247000
-1.69999972	0.00000000	25.29527000	7.89247000
-1.49999973	0.00000000	25.29527000	7.89247000
-1.29999975	0.00000000	25.29527000	7.89247000
-1.09999976	0.00000000	25.25221000	7.89247000
-0.89999977	0.00000000	24.92003000	7.84940900
-0.69999978	0.00000000	24.55093000	7.51722400
-0.49999979	0.00000000	24.92003000	7.10506800
-0.29999981	0.31803640	25.25221000	7.14197800
-0.09999982	0.63668800	25.29527000	7.10506800
0.10000017	0.95533960	25.29527000	7.47416300
0.30000016	1.11466500	25.29527000	7.42495000
0.50000015	0.79601380	25.29527000	6.77903500
0.70000013	0.31803640	25.29527000	6.72982200
0.90000012	-0.47736220	25.29527000	7.09891700
1.10000011	-1.43331700	25.29527000	7.10506800
1.30000010	-2.38927200	25.29527000	7.51722400
1.50000009	-2.70792300	25.29527000	7.84940900
1.70000008	-2.38927200	25.29527000	7.89247000
1.90000006	-1.27399100	25.29527000	7.89247000
2.10000005	0.63668800	25.29527000	7.89247000
2.30000004	2.70792300	25.29527000	7.89247000
2.50000003	4.45989200	25.29527000	7.84940900
2.70000002	5.25652100	25.29527000	7.47416300
2.90000000	4.77854300	25.25221000	6.72982200
3.09999999	2.86724900	24.87697000	6.35457700
3.29999998	-0.15871060	24.13263000	6.31151500
3.49999997	-3.66326300	23.75738000	6.31151500
3.69999996	-6.53112700	23.75738000	6.35457700
3.89999994	-7.96444400	24.13263000	6.72982200
4.09999993	-7.48646600	24.87697000	7.47416300
4.29999992	-4.93786900	25.25221000	7.84940900
4.49999991	-0.95533960	25.29527000	7.89247000
4.69999990	3.50393700	25.29527000	7.89247000
4.89999989	7.32714100	25.29527000	7.84940900
5.09999987	9.39837600	25.29527000	7.47416300
5.29999986	9.07972400	25.25221000	6.72982200
5.49999985	6.53112700	24.87697000	6.35457700
5.69999984	2.22994600	24.18184000	6.31151500
5.89999983	-2.54859700	24.18184000	6.31151500
6.09999981	-6.69045300	24.87697000	6.35457700
6.29999980	-9.07972400	25.25221000	6.72982200
6.49999979	-9.23905000	25.29527000	7.47416300
6.69999978	-7.00848900	25.29527000	7.84940900
6.89999977	-3.18590100	25.29527000	7.89247000
7.09999975	1.11466500	25.29527000	7.89247000
7.29999974	4.93786900	25.29527000	7.84940900
7.49999973	7.32714100	25.25221000	7.47416300
7.69999972	7.64579200	24.87697000	6.72982200
7.89999971	6.21247500	24.18184000	6.35457700
8.09999970	3.34522600	24.18184000	6.31151500
8.29999968	0.00000000	24.82775000	6.31151500
8.49999967	-2.86724900	24.87697000	6.31151500
8.69999966	-4.77854300	24.55093000	6.35457700
8.89999965	-5.09719500	24.92003000	6.72982200
9.09999964	-4.30056600	25.25221000	7.47416300
9.29999962	-2.70792300	25.29527000	7.80019600
9.49999961	-0.63668800	25.29527000	7.51722400
9.69999960	1.11466500	25.29527000	7.14812900
9.89999959	2.22994600	25.25221000	7.51722400
10.09999958	2.54859700	24.92003000	7.84940900
10.29999956	2.22994600	24.55093000	7.84940900
10.49999955	1.43331700	24.87697000	7.47416300
10.69999954	0.47736220	24.87697000	6.77903500
10.89999953	-0.31803640	24.50787000	6.77903500
11.09999952	-0.79601380	24.54478000	7.42495000
11.29999951	-0.95533960	24.50787000	7.47416300
11.49999949	-0.95533960	24.87697000	7.14812900
11.69999948	-0.79601380	24.87697000	7.51722400
11.89999947	-0.31803640	24.55093000	7.80019600
12.09999946	-0.15871060	24.87697000	7.47416300
12.29999945	-0.15871060	24.82775000	6.77903500
12.49999943	-0.15871060	24.13263000	6.77903500
12.69999942	0.00000000	23.75738000	7.47416300
12.89999941	0.00000000	23.75738000	7.84940900
13.09999940	0.15871060	24.13263000	7.84940900
13.29999939	0.00000000	24.87697000	7.47416300
13.49999937	0.00000000	25.25221000	6.72982200
13.69999936	0.00000000	25.29527000	6.35457700
13.89999935	0.00000000	25.29527000	6.31151500
14.09999934	-0.15871060	25.25221000	6.31151500
14.29999933	-0.15871060	24.92003000	6.35457700
14.49999932	-0.15871060	24.55093000	6.72982200
14.69999930	0.00000000	24.92003000	7.47416300
14.89999929	0.00000000	25.20300000	7.84940900
15.09999928	0.00000000	24.87697000	7.89247000
15.29999927	0.00000000	24.13263000	7.89247000
15.49999926	0.00000000	23.75738000	7.89247000
15.69999924	0.00000000	23.71432000	7.89247000
15.89999923	0.00000000	23.71432000	7.84940900
16.09999922	0.00000000	23.71432000	7.47416300
16.29999921	0.00000000	23.71432000	6.72982200
16.49999920	-0.15871060	23.75738000	6.40378900
16.69999919	-0.15871060	24.13263000	6.68676100
16.89999917	0.00000000	24.87697000	7.05585600
17.09999916	0.00000000	25.29527000	6.68676100
17.29999915	0.00000000	25.71358000	6.35457700
17.49999914	0.00000000	26.40871000	6.31151500
17.69999913	0.00000000	26.36565000	6.31151500
17.89999911	0.00000000	25.29527000	6.31151500
18.09999910	0.00000000	24.13263000	6.31151500
18.29999909	0.00000000	23.29601000	6.31151500
18.49999908	0.00000000	22.09030000	6.31151500
18.69999907	0.00000000	20.59547000	6.31151500
18.89999905	-0.15871060	19.48204000	6.31151500
19.09999904	0.00000000	19.48204000	6.31151500
19.29999903	0.00000000	20.68774000	6.35457700
19.49999902	0.00000000	23.06225000	6.68676100
19.69999901	0.00000000	26.91929000	7.05585600
19.89999900	0.00000000	31.10851000	6.68676100
20.09999898	0.00000000	34.23351000	6.35457700
20.29999897	0.00000000	35.72219000	6.35457700
20.49999896	0.00000000	34.88558000	6.68676100
20.69999895	0.00000000	30.97933000	7.05585600
20.89999894	0.00000000	24.78469000	6.68676100
21.09999892	0.00000000	17.39050000	6.35457700
21.29999891	0.00000000	10.08243000	6.31151500
21.49999890	0.00000000	4.73671200	6.31151500
21.69999889	0.00000000	3.29109200	6.31151500
21.89999888	0.00000000	6.82824800	6.31151500
22.09999886	0.00000000	15.38509000	6.31151500
22.29999885	0.00000000	27.34375000	6.31151500
22.49999884	0.00000000	40.08981000	6.35457700
22.69999883	0.00000000	50.46752000	6.72982200
22.89999882	0.00000000	55.81939000	7.47416300
23.09999881	0.00000000	54.19537000	7.84940900
23.29999879	0.00000000	45.25713000	7.89247000
23.49999878	0.00000000	30.51181000	7.93553100
23.69999877	0.00000000	12.73991000	8.31077700
23.89999876	0.00000000	-4.19537400	9.00590400
24.09999875	0.00000000	-15.68651000	9.00590400
24.29999873	0.00000000	-18.34400000	8.22465500
24.49999872	0.00000000	-10.99286000	7.09891700
24.69999871	0.00000000	4.91510800	5.53026500
24.89999870	0.00000000	26.18110000	4.36146600
25.09999869	0.00000000	48.56053000	3.15575800
25.29999867	0.00000000	66.24631000	2.08538400
25.49999866	0.00000000	74.71087000	2.08538400
25.69999865	0.00000000	71.59202000	3.29109200
25.89999864	0.00000000	57.31422000	5.66560000
26.09999863	0.00000000	35.25467000	9.51648500
26.29999862	0.00000000	10.17470000	13.69956000
26.49999860	0.00000000	-12.19857000	16.81225000
26.69999859	0.00000000	-26.11343000	18.35015000
26.89999858	0.00000000	-28.85088000	17.88263000
27.09999857	0.00000000	-19.92495000	14.72687000
27.29999856	0.00000000	-0.99040350	8.91978400
27.49999854	0.00000000	23.67126000	1.58095500
27.69999853	0.00000000	48.00074000	-5.75787400
27.89999852	0.00000000	66.20325000	-11.47884000
28.09999851	0.00000000	74.71087000	-13.70571000
28.29999850	0.00000000	71.68430000	-10.96826000
28.49999848	0.00000000	58.19389000	-3.62942900
28.69999847	0.00000000	38.13361000	6.82209600
28.89999846	0.00000000	15.71112000	18.43627000
29.09999845	0.00000000	-3.59867100	28.80167000
29.29999844	0.00000000	-15.68651000	35.30389000
29.49999843	0.00000000	-18.84842000	35.67913000
29.69999841	0.00000000	-13.03519000	29.82899000
29.89999840	0.00000000	0.45521650	18.57775000
30.09999839	0.00000000	18.55315000	3.53100400
30.29999838	0.00000000	36.33120000	-11.47884000
30.49999837	0.00000000	49.95694000	-23.09301000
30.69999835	0.00000000	57.35728000	-28.85088000
30.89999834	0.00000000	57.44340000	-27.27608000
31.09999833	0.00000000	50.88582000	-18.31324000
31.29999832	0.00000000	39.67150000	-3.25418300
31.49999831	0.00000000	25.71358000	14.85605000
31.69999829	0.00000000	12.22318000	31.40379000
31.89999828	0.00000000	2.12844500	42.69193000
32.09999827	0.00000000	-2.57135800	46.55511000
32.29999826	0.00000000	-1.45177200	42.69193000
32.49999825	0.00000000	4.73671200	31.40379000
32.69999824	0.00000000	14.73917000	14.85605000
32.89999822	0.00000000	25.94734000	-3.30339500
33.09999821	0.00000000	35.62992000	-18.77460000
33.29999820	0.00000000	42.23671000	-28.85088000
33.49999819	0.00000000	44.19291000	-31.54527000
33.69999818	0.00000000	41.49237000	-26.16265000
33.89999816	0.00000000	34.97170000	-14.17323000
34.09999815	0.00000000	26.13804000	2.04232300
34.29999814	0.00000000	18.03642000	19.00221000
34.49999813	0.00000000	12.17397000	32.56643000
34.69999812	0.00000000	9.47957600	40.32357000
34.89999810	0.00000000	10.64222000	41.06791000
35.09999809	0.00000000	15.20054000	34.14124000
35.29999808	0.00000000	21.75812000	21.50590000
35.49999807	0.00000000	28.23573000	6.77903500
35.69999806	0.00000000	32.92938000	-7.11737200
35.89999805	0.00000000	34.47342000	-17.51968000
36.09999803	0.00000000	33.34769000	-21.37672000
36.29999802	0.00000000	29.48450000	-18.35630000
36.49999801	0.00000000	24.13263000	-9.52263600
36.69999800	0.00000000	19.14985000	2.78051200
36.89999799	0.00000000	15.66806000	15.05290000
37.09999797	0.00000000	14.87451000	24.29257000
37.29999796	0.00000000	16.36319000	27.78666000
37.49999795	0.00000000	19.48204000	25.17839000
37.69999794	0.00000000	23.75738000	17.88263000
37.89999793	0.00000000	28.36491000	7.89247000
38.09999791	0.00000000	32.18504000	-2.00541300
38.29999790	0.00000000	33.71678000	-8.55068800
38.49999789	0.00000000	32.60334000	-9.71948700
38.69999788	0.00000000	29.52756000	-5.94857300
38.89999787	0.00000000	25.29527000	1.75319900
39.09999786	0.00000000	21.01993000	10.91289000
39.29999784	0.00000000	17.48277000	19.00221000
39.49999783	0.00000000	14.78223000	23.56053000
39.69999782	0.00000000	13.66880000	23.13607000
39.89999781	0.00000000	14.82529000	17.42126000
40.09999780	0.00000000	17.90108000	8.22465500
40.29999778	0.00000000	22.13336000	-1.35334600
40.49999777	0.00000000	26.40871000	-9.01205700
40.69999776	0.00000000	29.94586000	-12.08169000
40.89999775	0.00000000	32.64640000	-9.80561000
41.09999774	0.00000000	33.76599000	-3.29724400
41.29999772	0.00000000	32.64640000	5.98548200
41.49999771	0.00000000	29.94586000	15.51427000
41.69999770	0.00000000	26.45792000	22.85310000
41.89999769	0.00000000	22.55167000	25.55364000
42.09999768	0.00000000	19.10679000	23.68971000
42.29999767	0.00000000	16.69537000	17.88263000
42.49999765	0.00000000	15.56963000	9.47342500
42.69999764	0.00000000	15.57579000	0.97194880
42.89999763	0.00000000	17.52584000	-5.53641700
43.09999762	0.00000000	20.55241000	-8.63681000
43.29999761	0.00000000	23.62205000	-7.16043300
43.49999759	0.00000000	25.99040000	-2.64517700
43.69999758	0.00000000	27.20841000	3.20497000
43.89999757	0.00000000	27.98966000	9.33809000
44.09999756	0.00000000	27.98966000	14.39468000
44.29999755	0.00000000	27.29453000	17.09523000
44.49999753	0.00000000	26.87623000	17.50738000
44.69999752	0.00000000	26.45792000	15.18824000
44.89999751	0.00000000	25.71358000	11.04823000
45.09999750	0.00000000	25.33834000	6.77903500
45.29999749	0.00000000	25.20300000	3.29109200
45.49999748	0.00000000	24.40945000	0.92888770
45.69999746	0.00000000	22.46555000	0.17839570
45.89999745	0.00000000	20.13410000	0.92888770
46.09999744	0.00000000	17.39050000	3.19881900
46.29999743	0.00000000	14.78223000	5.89320800
46.49999742	0.00000000	13.71186000	8.26771600
46.69999740	0.00000000	15.29281000	10.58686000
46.89999739	0.00000000	19.52510000	12.07554000
47.09999738	0.00000000	25.33834000	12.07554000
47.29999737	0.00000000	31.48376000	10.58686000
47.49999736	0.00000000	36.50959000	8.26771600
47.69999734	0.00000000	38.79798000	5.93626900
47.89999733	0.00000000	37.99828000	3.57406500
48.09999732	0.00000000	33.67372000	1.71013800
48.29999731	0.00000000	26.36565000	0.92888770
48.49999730	0.00000000	17.85802000	1.71013800
48.69999729	0.00000000	10.17470000	3.61712600
48.89999727	0.00000000	5.19808000	6.36072800
49.09999726	0.00000000	4.82283400	9.42421200
49.29999725	0.00000000	9.06126900	12.11860000
49.49999724	0.00000000	16.78149000	13.65650000
49.69999723	0.00000000	26.41486000	13.65650000
49.89999721	0.00000000	35.25467000	12.07554000
50.09999720	0.00000000	41.07406000	8.96284400
50.29999719	0.00000000	42.61196000	4.77977300
50.49999718	0.00000000	39.53617000	0.92888770
50.69999717	0.00000000	32.56028000	-1.39640700
50.89999715	0.00000000	23.33907000	-2.18380900
51.09999714	0.00000000	14.08710000	-0.97810030
51.29999713	0.00000000	7.56643700	2.08538400
51.49999712	0.00000000	5.24729300	6.31151500
51.69999711	0.00000000	7.94168200	10.53765000
51.89999710	0.00000000	14.82529000	13.65650000
52.09999708	0.00000000	23.67126000	15.23130000
52.29999707	0.00000000	32.09276000	15.18824000
52.49999706	0.00000000	37.48769000	13.23819000
52.69999705	0.00000000	38.28740000	9.43036400
52.89999704	0.00000000	34.88558000	5.19808000
53.09999702	0.00000000	28.37106000	1.71013800
53.29999701	0.00000000	21.06299000	-0.55979330
53.49999700	0.00000000	14.87451000	-0.55979330
53.69999699	0.00000000	11.06053000	1.66707700
53.89999698	0.00000000	11.01747000	4.68750000
54.09999696	0.00000000	14.45620000	7.43110200
54.29999695	0.00000000	19.85728000	9.38115100
54.49999694	0.00000000	26.40871000	10.53765000
54.69999693	0.00000000	32.09276000	10.53765000
54.89999692	0.00000000	34.83636000	9.38115100
55.09999691	0.00000000	34.09818000	7.51722400
55.29999689	0.00000000	30.64714000	5.61638700
55.49999688	0.00000000	25.25221000	4.87204700
55.69999687	0.00000000	19.52510000	5.24729300
55.89999686	0.00000000	15.24975000	6.77903500
56.09999685	0.00000000	13.33661000	9.00590400
56.29999683	0.00000000	14.08710000	10.49459000
56.49999682	0.00000000	17.52584000	10.53765000
56.69999681	0.00000000	22.13336000	9.33809000
56.89999680	0.00000000	26.78395000	7.01279500
57.09999679	0.00000000	30.59793000	3.57406500
57.29999677	0.00000000	32.13582000	0.55364170
57.49999676	0.00000000	31.06545000	-1.02116100
57.69999675	0.00000000	28.36491000	-0.97810030
57.89999674	0.00000000	24.92003000	1.02116100
58.09999673	0.00000000	21.43824000	5.29035400
58.29999672	0.00000000	19.10679000	10.96211000
58.49999670	0.00000000	17.94414000	15.92642000
58.69999669	0.00000000	18.31939000	18.25787000
58.89999668	0.00000000	20.13410000	17.92569000
59.09999667	0.00000000	21.71506000	15.09596000
59.29999666	0.00000000	22.96998000	9.70103300
59.49999664	0.00000000	24.87697000	2.46063000
59.69999663	0.00000000	26.32259000	-3.67249000
59.89999662	0.00000000	26.36565000	-7.16043300
60.09999661	0.00000000	25.29527000	-7.52952700
60.29999660	0.00000000	24.13263000	-4.04773600
60.49999658	0.00000000	23.33907000	2.08538400
60.69999657	0.00000000	22.55167000	9.42421200
60.89999656	0.00000000	22.22564000	16.35089000
61.09999655	0.00000000	22.55167000	20.99532000
61.29999654	0.00000000	23.33907000	22.48400000
61.49999653	0.00000000	24.04650000	20.15871000
61.69999651	0.00000000	24.45866000	13.98253000
61.89999650	0.00000000	24.04650000	5.94242000
62.09999649	0.00000000	23.29601000	-2.14074800
62.29999648	0.00000000	22.13336000	-7.89862200
62.49999647	0.00000000	21.01993000	-9.89788300
62.69999645	0.00000000	20.59547000	-8.36614100
62.89999644	0.00000000	20.59547000	-3.67249000
63.09999643	0.00000000	21.01993000	3.62327700
63.29999642	0.00000000	22.17643000	11.70029000
63.49999641	0.00000000	23.71432000	18.25787000
63.69999639	0.00000000	25.25221000	22.10876000
63.89999638	0.00000000	26.36565000	22.10876000
64.09999637	0.00000000	26.36565000	18.35015000
64.29999636	0.00000000	25.25221000	12.58612000
64.49999635	0.00000000	23.71432000	6.36072800
64.69999634	0.00000000	22.17643000	0.51058070
64.89999632	0.00000000	21.01993000	-4.09079700
65.09999631	0.00000000	20.59547000	-6.40994000
65.29999630	0.00000000	20.59547000	-5.67175200
65.49999629	0.00000000	21.01993000	-2.60211600
65.69999628	0.00000000	22.17643000	2.04232300
65.89999626	0.00000000	23.67126000	7.38188900
66.09999625	0.00000000	24.82775000	11.65723000
66.29999624	0.00000000	25.15994000	14.07480000
66.49999623	0.00000000	24.40945000	15.32357000
66.69999622	0.00000000	22.55167000	15.64960000
66.89999620	0.00000000	21.06299000	14.85605000
67.09999619	0.00000000	20.59547000	12.53691000
67.29999618	0.00000000	20.59547000	9.47342500
67.49999617	0.00000000	21.06299000	6.31151500
67.69999616	0.00000000	22.64394000	3.19881900
67.89999615	0.00000000	25.29527000	0.46751960
68.09999613	0.00000000	27.90354000	-1.48868100
68.29999612	0.00000000	29.06619000	-2.60211600
68.49999611	0.00000000	28.32185000	-2.18380900
68.69999610	0.00000000	26.36565000	0.13533460
68.89999609	0.00000000	23.24680000	3.62327700
69.09999607	0.00000000	19.38976000	7.89247000
69.29999606	0.00000000	15.94488000	12.16166000
69.49999605	0.00000000	13.66880000	15.60654000
69.69999604	0.00000000	13.71186000	17.55044000
69.89999603	0.00000000	16.36319000	17.13829000
70.09999601	0.00000000	20.64468000	14.81299000
70.29999600	0.00000000	25.67052000	10.53765000
70.49999599	0.00000000	30.69020000	5.15501900
70.69999598	0.00000000	34.14124000	0.13533460
70.89999597	0.00000000	35.26082000	-3.71555100
71.09999596	0.00000000	33.34769000	-5.25344500
71.29999594	0.00000000	28.74631000	-4.09079700
71.49999593	0.00000000	23.29601000	-0.64591530
71.69999592	0.00000000	17.48277000	4.31840500
71.89999591	0.00000000	12.50615000	8.96284400
72.09999590	0.00000000	10.17470000	12.49385000
72.29999588	0.00000000	10.54995000	14.81299000
72.49999587	0.00000000	13.66880000	15.18824000
72.69999586	0.00000000	19.06373000	13.65650000
72.89999585	0.00000000	25.20300000	10.58686000
73.09999584	0.00000000	30.64714000	6.77903500
73.29999582	0.00000000	34.09818000	3.70939900
73.49999581	0.00000000	34.92864000	2.12844500
73.69999580	0.00000000	32.97859000	2.08538400
73.89999579	0.00000000	29.15231000	3.19881900
74.09999578	0.00000000	24.08957000	4.73671200
74.29999577	0.00000000	19.10679000	6.22539300
74.49999575	0.00000000	15.20054000	7.00664300
74.69999574	0.00000000	13.33661000	6.64370100
74.89999573	0.00000000	14.04404000	5.89320800
75.09999572	0.00000000	17.05832000	4.73671200
75.29999571	0.00000000	20.50935000	3.66633800
75.49999569	0.00000000	23.71432000	3.70939900
75.69999568	0.00000000	26.74089000	5.24729300
75.89999567	0.00000000	28.64173000	7.93553100
76.09999566	0.00000000	28.32185000	10.96211000
76.29999565	0.00000000	26.87623000	13.23819000
76.49999563	0.00000000	25.29527000	13.65650000
76.69999562	0.00000000	23.71432000	12.49385000
76.89999561	0.00000000	22.22564000	10.11934000
77.09999560	0.00000000	21.43824000	6.21924200
77.29999559	0.00000000	21.75812000	1.66707700
77.49999558	0.00000000	22.13336000	-2.18380900
77.69999556	0.00000000	22.50861000	-4.09079700
77.89999555	0.00000000	22.87770000	-3.71555100
78.09999554	0.00000000	22.46555000	-0.97810030
78.29999553	0.00000000	21.75812000	3.62327700
78.49999552	0.00000000	20.97072000	9.05511800
78.69999550	0.00000000	20.64468000	14.03174000
78.89999549	0.00000000	21.01993000	17.50738000
79.09999548	0.00000000	22.17643000	18.25787000
79.29999547	0.00000000	23.71432000	16.39395000
79.49999546	0.00000000	25.29527000	12.49385000
79.69999544	0.00000000	26.83317000	7.51722400
79.89999543	0.00000000	27.90354000	2.50369100
80.09999542	0.00000000	27.52830000	-0.97810030
80.29999541	0.00000000	25.62746000	-2.60211600
80.49999540	0.00000000	23.29601000	-2.60211600
80.69999539	0.00000000	20.55241000	-1.07037400
80.89999537	0.00000000	17.94414000	1.66707700
81.09999536	0.00000000	16.78149000	5.15501900
81.29999535	0.00000000	17.52584000	9.00590400
81.49999534	0.00000000	19.43897000	12.07554000
81.69999533	0.00000000	22.17643000	13.69956000
81.89999531	0.00000000	25.20300000	14.11786000
82.09999530	0.00000000	27.52830000	13.74262000
82.29999529	0.00000000	28.32185000	12.53691000
82.49999528	0.00000000	27.94660000	10.58686000
82.69999527	0.00000000	26.40871000	7.84940900
82.89999525	0.00000000	24.08957000	4.77977300
83.09999524	0.00000000	21.80118000	2.04232300
83.29999523	0.00000000	19.85728000	0.09227362
83.49999522	0.00000000	19.10679000	-1.06422200
83.69999521	0.00000000	19.43897000	-1.02116100
83.89999520	0.00000000	20.55241000	0.51058070
84.09999518	0.00000000	21.71506000	3.24803100
84.29999517	0.00000000	22.55167000	6.72982200
84.49999516	0.00000000	23.67126000	10.58686000
84.69999515	0.00000000	24.40945000	13.65650000
84.89999514	0.00000000	24.08957000	15.18824000
85.09999512	0.00000000	23.75738000	14.76993000
85.29999511	0.00000000	23.71432000	12.11860000
85.49999510	0.00000000	23.71432000	8.26771600
85.69999509	0.00000000	23.71432000	4.36146600
85.89999508	0.00000000	23.71432000	0.46751960
86.09999506	0.00000000	23.71432000	-2.55905500
86.29999505	0.00000000	23.67126000	-3.71555100
86.49999504	0.00000000	23.24680000	-2.55905500
86.69999503	0.00000000	22.13336000	0.55364170
86.89999502	0.00000000	20.97072000	5.15501900
87.09999501	0.00000000	20.22022000	10.16855000
87.29999499	0.00000000	19.80807000	13.98253000
87.49999498	0.00000000	20.22022000	15.92642000
87.69999497	0.00000000	20.97072000	15.14518000
87.89999496	0.00000000	22.17643000	12.11860000
88.09999495	0.00000000	23.67126000	7.84940900
88.29999493	0.00000000	24.82775000	3.24803100
88.49999492	0.00000000	25.20300000	-0.60285430
88.69999491	0.00000000	24.82775000	-2.50984200
88.89999490	0.00000000	23.71432000	-2.14074800
89.09999489	0.00000000	22.55167000	0.55364170
89.29999487	0.00000000	21.75812000	4.77977300
89.49999486	0.00000000	20.97072000	9.38115100
89.69999485	0.00000000	20.59547000	13.18898000
89.89999484	0.00000000	20.59547000	14.76993000
90.09999483	0.00000000	21.01993000	14.07480000
90.29999482	0.00000000	22.13336000	12.07554000
90.49999480	0.00000000	23.24680000	8.54453700
90.69999479	0.00000000	23.67126000	3.62327700
90.89999478	0.00000000	23.71432000	-0.55979330
91.09999477	0.00000000	23.71432000	-2.50984200
91.29999476	0.00000000	23.67126000	-2.14074800
91.49999474	0.00000000	23.29601000	0.55364170
91.69999473	0.00000000	22.60088000	4.77977300
91.89999472	0.00000000	22.60088000	9.43036400
92.09999471	0.00000000	23.29601000	13.61343000
92.29999470	0.00000000	23.67126000	15.88336000
92.49999468	0.00000000	23.67126000	15.14518000
92.69999467	0.00000000	23.24680000	12.07554000
92.89999466	0.00000000	22.13336000	7.47416300
93.09999465	0.00000000	20.97072000	2.50369100
93.29999464	0.00000000	20.17716000	-0.93503930
93.49999463	0.00000000	19.43897000	-2.13459600
93.69999461	0.00000000	19.48204000	-0.97810030
93.89999460	0.00000000	20.59547000	2.08538400
94.09999459	0.00000000	22.13336000	6.31151500
94.29999458	0.00000000	23.75738000	10.49459000
94.49999457	0.00000000	25.67052000	13.18898000
94.69999455	0.00000000	27.52830000	13.61343000
94.89999454	0.00000000	27.90354000	12.07554000
95.09999453	0.00000000	26.78395000	9.00590400
95.29999452	0.00000000	24.82775000	5.15501900
95.49999451	0.00000000	22.09030000	1.71013800
95.69999449	0.00000000	19.01451000	-0.60285430
95.89999448	0.00000000	16.36319000	-0.97810030
96.09999447	0.00000000	15.20054000	0.55364170
96.29999446	0.00000000	15.94488000	3.62327700
96.49999445	0.00000000	17.85802000	7.42495000
96.69999444	0.00000000	20.64468000	10.49459000
96.89999442	0.00000000	24.13263000	12.07554000
97.09999441	0.00000000	27.94660000	12.07554000
97.29999440	0.00000000	30.64714000	10.58686000
97.49999439	0.00000000	31.44069000	8.26771600
97.69999438	0.00000000	30.64714000	5.93626900
97.89999436	0.00000000	27.90354000	3.66633800
98.09999435	0.00000000	23.71432000	2.50369100
98.29999434	0.00000000	19.43897000	2.82357300
98.49999433	0.00000000	15.94488000	3.57406500
98.69999432	0.00000000	13.61959000	4.73671200
98.89999430	0.00000000	13.24434000	5.89320800
99.09999429	0.00000000	14.73917000	6.68676100
99.29999428	0.00000000	17.48277000	7.47416300
99.49999427	0.00000000	20.97072000	7.84940900
99.69999426	0.00000000	24.82775000	7.89247000
99.89999425	0.00000000	27.90354000	7.89247000
100.09999423	0.00000000	29.48450000	7.93553100
100.29999422	0.00000000	29.52756000	8.26771600
100.49999421	0.00000000	28.32185000	8.63681000
100.69999420	0.00000000	25.99040000	8.22465500
100.89999419	0.00000000	22.55167000	7.47416300
101.09999417	0.00000000	19.48204000	6.26845500
101.29999416	0.00000000	17.48277000	4.73671200
101.49999415	0.00000000	16.32013000	3.19881900
101.69999414	0.00000000	16.32013000	2.04232300
101.89999413	0.00000000	17.48277000	1.71013800
102.09999411	0.00000000	19.38976000	2.50369100
102.29999410	0.00000000	21.71506000	4.82283400
102.49999409	0.00000000	23.67126000	7.84940900
102.69999408	0.00000000	25.25221000	10.53765000
102.89999407	0.00000000	26.40871000	12.11860000
103.09999406	0.00000000	26.78395000	12.49385000
103.29999404	0.00000000	26.36565000	11.70029000
103.49999403	0.00000000	24.82775000	9.33809000
103.69999402	0.00000000	22.55167000	5.98548200
103.89999401	0.00000000	20.64468000	2.87893700
104.09999400	0.00000000	19.38976000	1.29183100
104.29999398	0.00000000	18.63927000	0.46136810
104.49999397	0.00000000	18.27633000	0.55364170
104.69999396	0.00000000	19.06373000	2.08538400
104.89999395	0.00000000	20.55241000	4.77977300
105.09999394	0.00000000	22.13336000	7.84940900
105.29999392	0.00000000	23.67126000	10.49459000
105.49999391	0.00000000	24.78469000	11.65723000
105.69999390	0.00000000	24.82775000	10.96211000
105.89999389	0.00000000	24.08957000	9.42421200
106.09999388	0.00000000	23.29601000	7.47416300
106.29999387	0.00000000	22.13336000	5.15501900
106.49999385	0.00000000	21.01993000	3.24803100
106.69999384	0.00000000	20.59547000	2.08538400
106.89999383	0.00000000	20.59547000	2.12844500
107.09999382	0.00000000	20.97072000	3.61712600
107.29999381	0.00000000	21.75812000	5.89320800
107.49999379	0.00000000	22.50861000	7.80019600
107.69999378	0.00000000	23.33907000	8.96284400
107.89999377	0.00000000	23.99729000	9.00590400
108.09999376	0.00000000	24.03420000	8.22465500
108.29999375	0.00000000	22.88386000	7.05585600
108.49999374	0.00000000	21.75812000	5.11195900
108.69999372	0.00000000	20.59547000	3.29109200
108.89999371	0.00000000	19.85728000	2.46063000
109.09999370	0.00000000	20.22022000	2.82357300
109.29999369	0.00000000	20.92766000	3.62327700
109.49999368	0.00000000	21.75812000	5.19808000
109.69999366	0.00000000	22.50861000	7.43110200
109.89999365	0.00000000	23.33907000	8.96284400
110.09999364	0.00000000	24.04650000	9.38115100
110.29999363	0.00000000	24.40945000	9.00590400
110.49999362	0.00000000	23.67126000	7.84940900
110.69999360	0.00000000	22.55167000	6.31151500
110.89999359	0.00000000	21.75812000	4.77977300
111.09999358	0.00000000	20.97072000	3.62327700
111.29999357	0.00000000	20.59547000	3.19881900
111.49999356	0.00000000	20.55241000	3.19881900
111.69999355	0.00000000	20.59547000	3.57406500
111.89999353	0.00000000	20.97072000	4.36146600
112.09999352	0.00000000	21.75812000	5.15501900
112.29999351	0.00000000	22.50861000	6.31151500
112.49999350	0.00000000	23.29601000	7.42495000
112.69999349	0.00000000	23.62205000	7.84940900
112.89999347	0.00000000	23.29601000	7.84940900
113.09999346	0.00000000	22.55167000	7.47416300
113.29999345	0.00000000	22.17643000	6.72982200
113.49999344	0.00000000	22.13336000	6.35457700
113.69999343	0.00000000	22.13336000	6.26845500
113.89999341	0.00000000	22.09030000	5.89320800
114.09999340	0.00000000	21.75812000	5.15501900
114.29999339	0.00000000	21.38902000	4.77977300
114.49999338	0.00000000	21.75812000	4.73671200
114.69999337	0.00000000	22.09030000	4.73671200
114.89999336	0.00000000	22.13336000	4.73671200
115.09999334	0.00000000	22.13336000	4.73671200
115.29999333	0.00000000	22.13336000	4.73671200
115.49999332	0.00000000	22.13336000	4.77977300
115.69999331	0.00000000	22.13336000	5.19808000
115.89999330	0.00000000	22.13336000	6.31151500
116.09999328	0.00000000	22.13336000	7.42495000
116.29999327	0.00000000	22.13336000	7.84940900
116.49999326	0.00000000	22.09030000	7.89247000
116.69999325	0.00000000	21.75812000	7.84940900
116.89999324	0.00000000	21.38902000	7.47416300
117.09999322	0.00000000	21.75812000	6.68676100
117.29999321	0.00000000	22.09030000	5.89320800
117.49999320	0.00000000	22.13336000	4.73671200
117.69999319	0.00000000	22.17643000	3.62327700
117.89999318	0.00000000	22.55167000	3.24803100
118.09999317	0.00000000	23.29601000	3.57406500
118.29999315	0.00000000	23.62205000	4.36146600
118.49999314	0.00000000	23.24680000	5.11195900
118.69999313	0.00000000	22.13336000	5.93626900
118.89999312	0.00000000	20.97072000	6.68676100
119.09999311	0.00000000	20.17716000	7.47416300
119.29999309	0.00000000	19.38976000	7.84940900
119.49999308	0.00000000	19.06373000	7.89247000
119.69999307	0.00000000	19.43897000	7.84940900
119.89999306	0.00000000	20.59547000	7.47416300
120.09999305	0.00000000	22.09030000	6.72982200
120.29999303	0.00000000	23.29601000	6.31151500
120.49999302	0.00000000	24.08957000	5.89320800
120.69999301	0.00000000	24.82775000	5.15501900
120.89999300	0.00000000	24.82775000	4.77977300
121.09999299	0.00000000	24.08957000	4.73671200
121.29999298	0.00000000	23.29601000	4.73671200
121.49999296	0.00000000	22.09030000	4.77977300
121.69999295	0.00000000	20.59547000	5.15501900
121.89999294	0.00000000	19.43897000	5.89320800
122.09999293	0.00000000	19.06373000	6.31151500
122.29999292	0.00000000	19.38976000	6.68676100
122.49999290	0.00000000	20.17716000	7.09891700
122.69999289	0.00000000	20.97072000	7.06200700
122.89999288	0.00000000	22.13336000	7.14197800
123.09999287	0.00000000	23.24680000	7.06200700
123.29999286	0.00000000	23.67126000	7.09891700
123.49999284	0.00000000	23.71432000	6.68676100
123.69999283	0.00000000	23.71432000	6.31151500
123.89999282	0.00000000	23.67126000	5.89320800
124.09999281	0.00000000	23.29601000	5.15501900
124.29999280	0.00000000	22.50861000	4.77977300
124.49999279	0.00000000	21.71506000	4.73671200
124.69999277	0.00000000	20.55241000	4.77977300
124.89999276	0.00000000	19.43897000	5.11195900
125.09999275	0.00000000	19.06373000	5.51796200
125.29999274	0.00000000	19.38976000	5.53026500
125.49999273	0.00000000	20.17716000	5.98548200
125.69999271	0.00000000	20.92766000	6.68676100
125.89999270	0.00000000	21.75812000	7.42495000
126.09999269	0.00000000	22.50861000	7.42495000
126.29999268	0.00000000	23.29601000	6.72982200
126.49999267	0.00000000	23.67126000	6.31151500
126.69999265	0.00000000	23.67126000	5.89320800
126.89999264	0.00000000	23.29601000	5.15501900
127.09999263	0.00000000	22.50861000	4.77977300
127.29999262	0.00000000	21.71506000	4.73671200
127.49999261	0.00000000	20.55241000	4.73671200
127.69999260	0.00000000	19.43897000	4.77977300
127.89999258	0.00000000	19.06373000	5.15501900
128.09999257	0.00000000	19.43897000	5.89320800
128.29999256	0.00000000	20.55241000	6.26845500
128.49999255	0.00000000	21.71506000	6.31151500
128.69999254	0.00000000	22.50861000	6.31151500
128.89999252	0.00000000	23.29601000	6.31151500
129.09999251	0.00000000	23.62205000	6.31151500
129.29999250	0.00000000	23.29601000	6.31151500
129.49999249	0.00000000	22.50861000	6.26845500
129.69999248	0.00000000	21.75812000	5.89320800
129.89999246	0.00000000	20.92766000	5.15501900
130.09999245	0.00000000	20.17716000	4.82898600
130.29999244	0.00000000	19.43897000	5.15501900
130.49999243	0.00000000	19.43897000	5.89320800
130.69999242	0.00000000	20.17716000	6.26845500
130.89999241	0.00000000	20.97072000	6.31151500
131.09999239	0.00000000	22.13336000	6.31151500
131.29999238	0.00000000	23.20374000	6.31151500
131.49999237	0.00000000	23.24680000	6.26845500
131.69999236	0.00000000	22.55167000	5.89320800
131.89999235	0.00000000	22.17643000	5.15501900
132.09999233	0.00000000	22.09030000	4.77977300
132.29999232	0.00000000	21.71506000	4.73671200
132.49999231	0.00000000	20.97072000	4.73671200
132.69999230	0.00000000	20.59547000	4.77977300
132.89999229	0.00000000	20.55241000	5.15501900
133.09999227	0.00000000	20.59547000	5.93626900
133.29999226	0.00000000	20.97072000	6.68676100
133.49999225	0.00000000	21.71506000	7.42495000
133.69999224	0.00000000	22.04109000	7.42495000
133.89999223	0.00000000	21.71506000	6.72982200
134.09999222	0.00000000	20.97072000	6.31151500
134.29999220	0.00000000	20.64468000	5.89320800
134.49999219	0.00000000	20.97072000	5.15501900
134.69999218	0.00000000	21.71506000	4.77977300
134.89999217	0.00000000	22.09030000	4.73671200
135.09999216	0.00000000	22.13336000	4.73671200
135.29999214	0.00000000	22.13336000	4.73671200
135.49999213	0.00000000	22.13336000	4.77977300
135.69999212	0.00000000	22.13336000	5.15501900
135.89999211	0.00000000	22.09030000	5.89320800
136.09999210	0.00000000	21.71506000	6.31151500
136.29999208	0.00000000	20.97072000	6.72982200
136.49999207	0.00000000	20.59547000	7.42495000
136.69999206	0.00000000	20.55241000	7.42495000
136.89999205	0.00000000	20.59547000	6.72982200
137.09999204	0.00000000	20.97072000	6.31151500
137.29999203	0.00000000	21.71506000	5.89320800
137.49999201	0.00000000	22.13336000	5.15501900
137.69999200	0.00000000	22.55167000	4.77977300
137.89999199	0.00000000	23.24680000	4.73671200
138.09999198	0.00000000	23.24680000	4.73671200
138.29999197	0.00000000	22.50861000	4.73671200
138.49999195	0.00000000	21.75812000	4.77977300
138.69999194	0.00000000	20.97072000	5.15501900
138.89999193	0.00000000	20.59547000	5.89320800
139.09999192	0.00000000	20.55241000	6.31151500
139.29999191	0.00000000	20.55241000	6.72982200
139.49999189	0.00000000	20.55241000	7.42495000
139.69999188	0.00000000	20.59547000	7.42495000
139.89999187	0.00000000	20.97072000	6.72982200
140.09999186	0.00000000	21.71506000	6.31151500
140.29999185	0.00000000	22.09030000	5.89320800
140.49999184	0.00000000	22.13336000	5.15501900
140.69999182	0.00000000	22.09030000	4.73671200
140.89999181	0.00000000	21.71506000	4.36146600
141.09999180	0.00000000	20.97072000	4.04158400
141.29999179	0.00000000	20.59547000	4.82283400
141.49999178	0.00000000	20.55241000	6.26845500
141.69999176	0.00000000	20.59547000	7.42495000
141.89999175	0.00000000	20.97072000	7.84940900
142.09999174	0.00000000	21.71506000	7.89247000
142.29999173	0.00000000	22.09030000	7.89247000
142.49999172	0.00000000	22.13336000	7.84940900
142.69999170	0.00000000	22.13336000	7.42495000
142.89999169	0.00000000	22.09030000	6.31151500
143.09999168	0.00000000	21.71506000	5.19808000
143.29999167	0.00000000	20.97072000	4.73671200
143.49999166	0.00000000	20.59547000	4.36146600
143.69999165	0.00000000	20.55241000	3.99237200
143.89999163	0.00000000	20.55241000	4.36146600
144.09999162	0.00000000	20.59547000	4.73671200
144.29999161	0.00000000	20.97072000	5.15501900
144.49999160	0.00000000	21.71506000	5.93626900
144.69999159	0.00000000	22.09030000	6.64370100
144.89999157	0.00000000	22.13336000	7.05585600
145.09999156	0.00000000	22.09030000	6.68676100
145.29999155	0.00000000	21.71506000	6.35457700
145.49999154	0.00000000	20.97072000	6.26845500
145.69999153	0.00000000	20.59547000	5.89320800
145.89999151	0.00000000	20.55241000	5.15501900
146.09999150	0.00000000	20.55241000	4.77977300
146.29999149	0.00000000	20.55241000	4.73671200
146.49999148	0.00000000	20.59547000	4.73671200
146.69999147	0.00000000	20.92766000	4.73671200
146.89999146	0.00000000	21.33981000	4.77977300
147.09999144	0.00000000	21.34596000	5.15501900
147.29999143	0.00000000	21.71506000	5.89320800
147.49999142	0.00000000	21.66585000	6.26845500
147.69999141	0.00000000	20.97072000	6.31151500
147.89999140	0.00000000	20.59547000	6.31151500
148.09999138	0.00000000	20.55241000	6.31151500
148.29999137	0.00000000	20.55241000	6.26845500
148.49999136	0.00000000	20.55241000	5.89320800
148.69999135	0.00000000	20.55241000	5.15501900
148.89999134	0.00000000	20.55241000	4.77977300
149.09999132	0.00000000	20.59547000	4.73671200
149.29999131	0.00000000	20.97072000	4.77977300
149.49999130	0.00000000	21.71506000	5.15501900
149.69999129	0.00000000	22.09030000	5.89320800
149.89999128	0.00000000	22.13336000	6.26845500
150.09999127	0.00000000	22.09030000	6.31151500
150.29999125	0.00000000	21.71506000	6.31151500
150.49999124	0.00000000	20.97072000	6.31151500
150.69999123	0.00000000	20.59547000	6.31151500
150.89999122	0.00000000	20.55241000	6.31151500
151.09999121	0.00000000	20.55241000	6.31151500
151.29999119	0.00000000	20.55241000	6.31151500
151.49999118	0.00000000	20.55241000	6.26845500
151.69999117	0.00000000	20.55241000	5.89320800
151.89999116	0.00000000	20.55241000	5.15501900
152.09999115	0.00000000	20.59547000	4.77977300
152.29999113	0.00000000	20.97072000	4.77977300
152.49999112	0.00000000	21.71506000	5.11195900
152.69999111	0.00000000	22.09030000	5.47490100
152.89999110	0.00000000	22.13336000	5.15501900
153.09999109	0.00000000	22.09030000	5.19808000
153.29999108	0.00000000	21.71506000	5.89320800
153.49999106	0.00000000	20.97072000	6.26845500
153.69999105	0.00000000	20.59547000	6.31151500
153.89999104	0.00000000	20.55241000	6.31151500
154.09999103	0.00000000	20.55241000	6.31151500
154.29999102	0.00000000	20.55241000	6.31151500
154.49999100	0.00000000	20.55241000	6.31151500
154.69999099	0.00000000	20.55241000	6.26845500
154.89999098	0.00000000	20.59547000	5.89320800
155.09999097	0.00000000	20.97072000	5.15501900
155.29999096	0.00000000	21.71506000	4.77977300
155.49999094	0.00000000	22.09030000	4.73671200
155.69999093	0.00000000	22.13336000	4.77977300
155.89999092	0.00000000	22.13336000	5.15501900
156.09999091	0.00000000	22.09030000	5.89320800
156.29999090	0.00000000	21.71506000	6.26845500
156.49999089	0.00000000	20.97072000	6.31151500
156.69999087	0.00000000	20.59547000	6.31151500
156.89999086	0.00000000	20.50935000	6.31151500
157.09999085	0.00000000	20.17716000	6.31151500
157.29999084	0.00000000	19.80807000	6.31151500
157.49999083	0.00000000	20.17716000	6.26845500
157.69999081	0.00000000	20.55241000	5.89320800
157.89999080	0.00000000	20.97072000	5.15501900
158.09999079	0.00000000	21.71506000	4.77977300
158.29999078	0.00000000	22.09030000	4.73671200
158.49999077	0.00000000	22.13336000	4.73671200
158.69999075	0.00000000	22.13336000	4.77977300
158.89999074	0.00000000	22.09030000	5.15501900
159.09999073	0.00000000	21.75812000	5.89320800
159.29999072	0.00000000	21.34596000	6.26845500
159.49999071	0.00000000	21.33981000	6.31151500
159.69999070	0.00000000	20.92766000	6.31151500
159.89999068	0.00000000	20.59547000	6.31151500
160.09999067	0.00000000	20.55241000	6.31151500
160.29999066	0.00000000	20.55241000	6.31151500
160.49999065	0.00000000	20.55241000	6.26845500
160.69999064	0.00000000	20.55241000	5.89320800
160.89999062	0.00000000	20.55241000	5.15501900
161.09999061	0.00000000	20.55241000	4.77977300
161.29999060	0.00000000	20.55241000	4.73671200
161.49999059	0.00000000	20.59547000	4.77977300
161.69999058	0.00000000	20.97072000	5.11195900
161.89999056	0.00000000	21.71506000	5.51796200
162.09999055	0.00000000	22.04109000	5.53026500
162.29999054	0.00000000	21.75812000	5.93626900
162.49999053	0.00000000	21.34596000	6.26845500
162.69999052	0.00000000	21.33981000	6.31151500
162.89999051	0.00000000	20.92766000	6.31151500
163.09999049	0.00000000	20.59547000	6.31151500
163.29999048	0.00000000	20.55241000	6.31151500
163.49999047	0.00000000	20.55241000	6.26845500
163.69999046	0.00000000	20.55241000	5.89320800
163.89999045	0.00000000	20.55241000	5.19808000
164.09999043	0.00000000	20.55241000	5.19808000
164.29999042	0.00000000	20.55241000	5.85014700
164.49999041	0.00000000	20.59547000	5.85014700
164.69999040	0.00000000	20.97072000	5.15501900
164.89999039	0.00000000	21.71506000	4.77977300
165.09999037	0.00000000	22.09030000	4.73671200
165.29999036	0.00000000	22.09030000	4.77977300
165.49999035	0.00000000	21.71506000	5.15501900
165.69999034	0.00000000	20.97072000	5.89320800
165.89999033	0.00000000	20.59547000	6.26845500
166.09999032	0.00000000	20.55241000	6.31151500
166.29999030	0.00000000	20.55241000	6.31151500
166.49999029	0.00000000	20.55241000	6.31151500
166.69999028	0.00000000	20.55241000	6.26845500
166.89999027	0.00000000	20.55241000	5.89320800
167.09999026	0.00000000	20.55241000	5.15501900
167.29999024	0.00000000	20.55241000	4.77977300
167.49999023	0.00000000	20.55241000	4.73671200
167.69999022	0.00000000	20.55241000	4.73671200
167.89999021	0.00000000	20.55241000	4.73671200
168.09999020	0.00000000	20.55241000	4.73671200
168.29999018	0.00000000	20.55241000	4.77977300
168.49999017	0.00000000	20.55241000	5.11195900
168.69999016	0.00000000	20.55241000	5.47490100
168.89999015	0.00000000	20.55241000	5.15501900
169.09999014	0.00000000	20.55241000	5.19808000
169.29999013	0.00000000	20.55241000	5.85014700
169.49999011	0.00000000	20.55241000	5.85014700
169.69999010	0.00000000	20.55241000	5.19808000
169.89999009	0.00000000	20.55241000	5.19808000
170.09999008	0.00000000	20.55241000	5.85014700
170.29999007	0.00000000	20.55241000	5.85014700
170.49999005	0.00000000	20.55241000	5.15501900
170.69999004	0.00000000	20.59547000	4.77977300
170.89999003	0.00000000	20.92766000	4.77977300
171.09999002	0.00000000	21.33981000	5.15501900
171.29999001	0.00000000	21.30290000	5.85014700
171.49998999	0.00000000	21.33981000	5.85014700
171.69998998	0.00000000	20.92766000	5.15501900
171.89998997	0.00000000	20.59547000	4.77977300
172.09998996	0.00000000	20.55241000	4.73671200
172.29998995	0.00000000	20.55241000	4.73671200
172.49998994	0.00000000	20.55241000	4.73671200
172.69998992	0.00000000	20.55241000	4.73671200
172.89998991	0.00000000	20.55241000	4.77977300
173.09998990	0.00000000	20.55241000	5.11195900
173.29998989	0.00000000	20.55241000	5.51796200
173.49998988	0.00000000	20.55241000	5.48105300
173.69998986	0.00000000	20.55241000	5.51796200
173.89998985	0.00000000	20.55241000	5.11195900
174.09998984	0.00000000	20.55241000	4.82898600
174.29998983	0.00000000	20.55241000	5.11195900
174.49998982	0.00000000	20.55241000	5.47490100
174.69998980	0.00000000	20.55241000	5.15501900
174.89998979	0.00000000	20.55241000	5.15501900
175.09998978	0.00000000	20.55241000	5.47490100
175.29998977	0.00000000	20.55241000	5.15501900
175.49998976	0.00000000	20.55241000	5.15501900
175.69998975	0.00000000	20.55241000	5.51796200
175.89998973	0.00000000	20.55241000	5.48105300
176.09998972	0.00000000	20.55241000	5.51796200
176.29998971	0.00000000	20.55241000	5.11195900
176.49998970	0.00000000	20.55241000	4.82898600
176.69998969	0.00000000	20.55241000	5.11195900
176.89998967	0.00000000	20.59547000	5.51796200
177.09998966	0.00000000	20.92766000	5.48105300
177.29998965	0.00000000	21.29675000	5.51796200
177.49998964	0.00000000	20.92766000	5.11195900
177.69998963	0.00000000	20.59547000	4.77977300
177.89998961	0.00000000	20.55241000	4.73671200
178.09998960	0.00000000	20.55241000	4.77977300
178.29998959	0.00000000	20.55241000	5.15501900
178.49998958	0.00000000	20.55241000	5.89320800
178.69998957	0.00000000	20.55241000	6.21924200
178.89998956	0.00000000	20.55241000	5.93626900
179.09998954	0.00000000	20.55241000	5.57332700
179.29998953	0.00000000	20.55241000	5.93626900
179.49998952	0.00000000	20.55241000	6.21924200
179.69998951	0.00000000	20.55241000	5.89320800
179.89998950	0.00000000	20.55241000	5.15501900
180.09998948	0.00000000	20.55241000	4.77977300
180.29998947	0.00000000	20.55241000	4.73671200
180.49998946	0.00000000	20.55241000	4.73671200
180.69998945	0.00000000	20.55241000	4.73671200
180.89998944	0.00000000	20.55241000	4.77977300
181.09998942	0.00000000	20.55241000	5.15501900
181.29998941	0.00000000	20.55241000	5.89320800
181.49998940	0.00000000	20.55241000	6.26845500
181.69998939	0.00000000	20.55241000	6.31151500
181.89998938	0.00000000	20.55241000	6.31151500
182.09998937	0.00000000	20.55241000	6.31151500
182.29998935	0.00000000	20.55241000	6.26845500
182.49998934	0.00000000	20.55241000	5.89320800
182.69998933	0.00000000	20.55241000	5.15501900
182.89998932	0.00000000	20.55241000	4.77977300
183.09998931	0.00000000	20.55241000	4.73671200
183.29998929	0.00000000	20.55241000	4.73671200
183.49998928	0.00000000	20.55241000	4.73671200
183.69998927	0.00000000	20.55241000	4.73671200
183.89998926	0.00000000	20.55241000	4.77977300
184.09998925	0.00000000	20.55241000	5.15501900
184.29998923	0.00000000	20.55241000	5.89320800
184.49998922	0.00000000	20.55241000	6.26845500
184.69998921	0.00000000	20.55241000	6.31151500
184.89998920	0.00000000	20.55241000	6.31151500
185.09998919	0.00000000	20.55241000	6.26845500
185.29998918	0.00000000	20.55241000	5.89320800
185.49998916	0.00000000	20.55241000	5.15501900
185.69998915	0.00000000	20.55241000	4.77977300
185.89998914	0.00000000	20.55241000	4.73671200
186.09998913	0.00000000	20.55241000	4.73671200
186.29998912	0.00000000	20.55241000	4.73671200
186.49998910	0.00000000	20.55241000	4.73671200
186.69998909	0.00000000	20.55241000	4.77977300
186.89998908	0.00000000	20.55241000	5.15501900
187.09998907	0.00000000	20.55241000	5.89320800
187.29998906	0.00000000	20.50935000	6.26845500
187.49998904	0.00000000	20.17716000	6.31151500
187.69998903	0.00000000	19.80807000	6.31151500
187.89998902	0.00000000	20.17716000	6.26845500
188.09998901	0.00000000	20.50935000	5.89320800
188.29998900	0.00000000	20.55241000	5.15501900
188.49998899	0.00000000	20.55241000	4.77977300
188.69998897	0.00000000	20.55241000	4.73671200
188.89998896	0.00000000	20.55241000	4.73671200
189.09998895	0.00000000	20.55241000	4.73671200
189.29998894	0.00000000	20.55241000	4.73671200
189.49998893	0.00000000	20.55241000	4.73671200
189.69998891	0.00000000	20.55241000	4.73671200
189.89998890	0.00000000	20.55241000	4.77977300
190.09998889	0.00000000	20.55241000	5.15501900
190.29998888	0.00000000	20.55241000	5.89320800
190.49998887	0.00000000	20.55241000	6.21924200
190.69998885	0.00000000	20.55241000	5.93626900
190.89998884	0.00000000	20.55241000	5.53026500
191.09998883	0.00000000	20.55241000	5.51796200
191.29998882	0.00000000	20.55241000	5.15501900
191.49998881	0.00000000	20.55241000	5.15501900
191.69998880	0.00000000	20.55241000	5.47490100
191.89998878	0.00000000	20.55241000	5.11195900
192.09998877	0.00000000	20.55241000	4.77977300
192.29998876	0.00000000	20.55241000	4.73671200
192.49998875	0.00000000	20.55241000	4.73671200
192.69998874	0.00000000	20.50935000	4.73671200
192.89998872	0.00000000	20.17716000	4.73671200
193.09998871	0.00000000	19.80807000	4.73671200
193.29998870	0.00000000	20.17716000	4.77977300
193.49998869	0.00000000	20.50935000	5.11195900
193.69998868	0.00000000	20.55241000	5.51796200
193.89998866	0.00000000	20.55241000	5.53026500
194.09998865	0.00000000	20.55241000	5.93626900
194.29998864	0.00000000	20.55241000	6.26845500
194.49998863	0.00000000	20.55241000	6.26845500
194.69998862	0.00000000	20.55241000	5.93626900
194.89998861	0.00000000	20.55241000	5.53026500
195.09998859	0.00000000	20.55241000	5.51796200
195.29998858	0.00000000	20.55241000	5.11195900
195.49998857	0.00000000	20.55241000	4.77977300
195.69998856	0.00000000	20.50935000	4.73671200
195.89998855	0.00000000	20.13410000	4.73671200
196.09998853	0.00000000	19.38976000	4.73671200
