Time	Channel A	Channel B	Channel C
(us)	(V)	(mV)	(mV)

-4.59999956	0.00000000	31.99434000	11.04823000
-4.39999957	0.00000000	32.40649000	11.04823000
-4.19999958	0.00000000	32.36959000	11.04823000
-3.99999959	0.00000000	32.44956000	11.04823000
-3.79999960	0.00000000	32.36959000	11.04823000
-3.59999962	0.00000000	32.40649000	11.04823000
-3.39999963	0.00000000	32.03740000	11.04823000
-3.19999964	0.00000000	32.03740000	11.04823000
-2.99999965	0.00000000	32.36343000	11.04823000
-2.79999966	0.00000000	31.99434000	11.04823000
-2.59999968	0.00000000	31.66215000	11.04823000
-2.39999969	0.00000000	31.61909000	11.04823000
-2.19999970	0.00000000	31.61909000	11.04823000
-1.99999971	0.00000000	31.61909000	11.04823000
-1.79999972	0.00000000	31.61909000	11.04823000
-1.59999973	0.00000000	31.61909000	11.04823000
-1.39999975	0.00000000	31.61909000	11.04823000
-1.19999976	0.00000000	31.61909000	11.00517000
-0.99999977	0.00000000	31.61909000	10.67298000
-0.79999978	0.00000000	31.61909000	10.31004000
-0.59999979	0.00000000	31.61909000	10.67298000
-0.39999981	0.15871060	31.61909000	11.00517000
-0.19999982	0.63668800	31.61909000	11.04823000
0.00000017	0.79601380	31.61909000	11.04823000
0.20000016	0.95533960	31.61909000	11.04823000
0.40000015	0.95533960	31.61909000	11.00517000
0.60000013	0.47736220	31.61909000	10.67298000
0.80000012	-0.31803640	31.61909000	10.31004000
1.00000011	-1.43331700	31.66215000	10.67298000
1.20000010	-2.22994600	32.03740000	11.00517000
1.40000009	-2.70792300	32.78174000	11.09129000
1.60000008	-2.54859700	33.15699000	11.42347000
1.80000006	-1.43331700	33.15699000	11.79257000
2.00000005	0.31803640	32.82480000	11.42347000
2.20000004	2.38927200	32.41265000	11.09129000
2.40000003	4.30056600	32.40649000	11.04823000
2.60000002	5.25652100	31.99434000	11.04823000
2.80000000	5.09719500	31.66215000	11.04823000
2.99999999	3.34522600	31.61909000	11.00517000
3.19999998	0.31803640	31.61909000	10.67298000
3.39999997	-3.02657500	31.66215000	10.31004000
3.59999996	-6.05315000	31.99434000	10.67298000
3.79999994	-7.80511800	32.40649000	11.00517000
3.99999993	-7.64579200	32.41265000	11.09129000
4.19999992	-5.41584600	32.82480000	11.46653000
4.39999991	-1.59264300	33.10777000	12.16166000
4.59999990	2.70792300	32.78174000	12.16166000
4.79999989	6.69045300	32.03740000	11.46653000
4.99999987	9.07972400	31.66215000	11.09129000
5.19999986	9.23905000	31.61909000	11.04823000
5.39999985	7.00848900	31.61909000	11.00517000
5.59999984	3.02657500	31.61909000	10.62992000
5.79999983	-1.75196900	31.61909000	9.93479300
5.99999981	-6.05315000	31.61909000	9.93479300
6.19999980	-8.92039900	31.61909000	10.62992000
6.39999979	-9.39837600	31.66215000	11.00517000
6.59999978	-7.64579200	32.03740000	11.04823000
6.79999977	-3.98191400	32.78174000	11.04823000
6.99999975	0.31803640	33.10777000	11.04823000
7.19999974	4.30056600	32.78174000	11.04823000
7.39999973	7.00848900	32.03740000	11.04823000
7.59999972	7.80511800	31.66215000	11.04823000
7.79999971	6.53112700	31.61909000	11.00517000
7.99999970	3.82258900	31.61909000	10.67298000
8.19999968	0.63668800	31.61909000	10.31004000
8.39999967	-2.54859700	31.61909000	10.67298000
8.59999966	-4.45989200	31.61909000	11.00517000
8.79999965	-5.25652100	31.61909000	11.04823000
8.99999964	-4.61921700	31.61909000	11.04823000
9.19999962	-3.02657500	31.61909000	11.04823000
9.39999961	-0.95533960	31.61909000	11.04823000
9.59999960	0.79601380	31.61909000	11.04823000
9.79999959	2.07062000	31.61909000	11.04823000
9.99999958	2.54859700	31.61909000	11.04823000
10.19999956	2.22994600	31.61909000	11.04823000
10.39999955	1.59264300	31.66215000	11.04823000
10.59999954	0.63668800	31.99434000	11.04823000
10.79999953	-0.15871060	32.36343000	11.04823000
10.99999952	-0.63668800	31.99434000	11.04823000
11.19999951	-0.95533960	31.66215000	11.04823000
11.39999949	-0.95533960	31.61909000	11.04823000
11.59999948	-0.79601380	31.66215000	11.04823000
11.79999947	-0.47736220	31.99434000	11.04823000
11.99999946	-0.15871060	32.36343000	11.04823000
12.19999945	-0.15871060	32.03740000	11.04823000
12.39999943	0.00000000	32.03740000	11.04823000
12.59999942	0.00000000	32.36343000	11.04823000
12.79999941	0.00000000	31.99434000	11.04823000
12.99999940	0.00000000	31.66215000	11.04823000
13.19999939	0.00000000	31.61909000	11.04823000
13.39999937	0.00000000	31.61909000	11.04823000
13.59999936	0.00000000	31.61909000	11.04823000
13.79999935	-0.15871060	31.61909000	11.04823000
13.99999934	0.00000000	31.61909000	11.04823000
14.19999933	-0.15871060	31.61909000	11.04823000
14.39999932	-0.15871060	31.61909000	11.04823000
14.59999930	-0.15871060	31.61909000	11.04823000
14.79999929	0.00000000	31.61909000	11.04823000
14.99999928	0.00000000	31.61909000	11.04823000
15.19999927	0.00000000	31.61909000	11.04823000
15.39999926	0.00000000	31.61909000	11.04823000
15.59999924	0.00000000	31.61909000	11.04823000
15.79999923	0.00000000	31.61909000	11.04823000
15.99999922	0.00000000	31.61909000	11.04823000
16.19999921	0.00000000	31.61909000	11.04823000
16.39999920	0.00000000	31.66215000	11.04823000
16.59999919	-0.15871060	32.03740000	11.04823000
16.79999917	0.00000000	32.78174000	11.04823000
16.99999916	0.00000000	33.20005000	11.04823000
17.19999915	0.00000000	33.57529000	11.04823000
17.39999914	0.00000000	33.98745000	11.04823000
17.59999913	0.00000000	33.95054000	11.04823000
17.79999911	0.00000000	33.94439000	11.04823000
17.99999910	0.00000000	33.11393000	11.04823000
18.19999909	0.00000000	31.57603000	11.04823000
18.39999908	0.00000000	29.66289000	11.04823000
18.59999907	0.00000000	27.76206000	11.04823000
18.79999905	0.00000000	26.96850000	11.04823000
18.99999904	0.00000000	26.96850000	11.04823000
19.19999903	0.00000000	27.80512000	11.04823000
19.39999902	0.00000000	30.17347000	11.04823000
19.59999901	0.00000000	33.61835000	11.04823000
19.79999900	0.00000000	37.53075000	11.04823000
19.99999898	0.00000000	40.97564000	11.04823000
20.19999897	0.00000000	43.25172000	11.04823000
20.39999896	0.00000000	43.16560000	11.04823000
20.59999895	0.00000000	40.04675000	11.04823000
20.79999894	0.00000000	34.18430000	11.04823000
20.99999892	-0.15871060	26.45792000	11.04823000
21.19999891	0.00000000	18.41166000	11.04823000
21.39999890	0.00000000	12.64149000	11.00517000
21.59999889	0.00000000	10.77756000	10.67298000
21.79999888	0.00000000	13.52731000	10.31004000
21.99999886	0.00000000	21.33366000	10.62992000
22.19999885	0.00000000	32.54798000	10.62992000
22.39999884	0.00000000	45.34325000	10.31004000
22.59999883	0.00000000	56.84055000	10.67298000
22.79999882	0.00000000	63.72416000	11.00517000
22.99999881	0.00000000	63.63189000	11.04823000
23.19999879	0.00000000	55.86245000	11.09129000
23.39999878	0.00000000	41.53543000	11.46653000
23.59999877	0.00000000	23.80659000	12.21087000
23.79999876	0.00000000	6.77903500	12.58612000
23.99999875	0.00000000	-5.54872000	12.58612000
24.19999873	0.00000000	-10.48228000	12.16166000
24.39999872	0.00000000	-5.73941900	11.00517000
24.59999871	0.00000000	8.58759800	9.47342500
24.79999870	0.00000000	29.43528000	7.89247000
24.99999869	0.00000000	52.18381000	6.36072800
25.19999867	0.00000000	71.07529000	5.24729300
25.39999866	0.00000000	81.45914000	5.24729300
25.59999865	0.00000000	80.66560000	6.44685000
25.79999864	0.00000000	68.28863000	8.82135800
25.99999863	0.00000000	47.44094000	12.67224000
26.19999862	0.00000000	22.68701000	16.90453000
26.39999860	0.00000000	-0.43676180	20.34941000
26.59999859	0.00000000	-16.25246000	22.29331000
26.79999858	0.00000000	-20.90305000	21.83194000
26.99999857	0.00000000	-13.60113000	19.08834000
27.19999856	0.00000000	3.75246000	13.61343000
27.39999854	0.00000000	26.96850000	6.31766700
27.59999853	0.00000000	50.93504000	-1.02116100
27.79999852	0.00000000	70.61392000	-6.78518600
27.99999851	0.00000000	81.08390000	-9.43036400
28.19999850	0.00000000	80.33956000	-7.81250000
28.39999848	0.00000000	69.16830000	-1.58710600
28.59999847	0.00000000	49.86466000	8.49532500
28.79999846	0.00000000	27.52214000	20.43553000
28.99999845	0.00000000	7.33882900	31.58834000
29.19999844	0.00000000	-6.57603300	38.88410000
29.39999843	0.00000000	-11.68799000	40.41584000
29.59999841	0.00000000	-7.08661400	35.72219000
29.79999840	0.00000000	5.19808000	25.22145000
29.99999839	0.00000000	22.26870000	10.58686000
30.19999838	0.00000000	40.42199000	-4.87819900
30.39999837	0.00000000	55.91166000	-17.61196000
30.59999835	0.00000000	65.21899000	-25.27682000
30.79999834	0.00000000	66.84301000	-25.18455000
30.99999833	0.00000000	61.07283000	-16.77534000
31.19999832	0.00000000	49.53248000	-2.46678100
31.39999831	0.00000000	35.24852000	14.58538000
31.59999829	0.00000000	21.66585000	31.58834000
31.79999828	0.00000000	11.14665000	44.64198000
31.99999827	0.00000000	5.33341500	50.44906000
32.19999826	0.00000000	5.33341500	47.76082000
32.39999825	0.00000000	11.06053000	37.34621000
32.59999824	0.00000000	20.68774000	21.50590000
32.79999822	0.00000000	31.53297000	3.70939900
32.99999821	0.00000000	41.62770000	-12.54921000
33.19999820	0.00000000	48.97884000	-24.11417000
33.39999819	0.00000000	52.04847000	-28.34030000
33.59999818	0.00000000	50.18454000	-24.11417000
33.79999816	0.00000000	44.04527000	-12.54921000
33.99999815	0.00000000	35.99286000	3.62327700
34.19999814	0.00000000	27.80512000	20.62008000
34.39999813	0.00000000	21.28445000	34.56570000
34.59999812	0.00000000	17.80266000	43.11023000
34.79999810	0.00000000	18.54700000	44.64198000
34.99999809	0.00000000	22.68701000	38.88410000
35.19999808	0.00000000	28.50640000	27.31299000
35.39999807	0.00000000	34.65182000	12.67840000
35.59999806	0.00000000	39.67150000	-1.63016700
35.79999805	0.00000000	41.95989000	-12.45694000
35.99999803	0.00000000	41.25246000	-17.80266000
36.19999802	0.00000000	37.77067000	-15.89567000
36.39999801	0.00000000	32.82480000	-7.16043300
36.59999800	0.00000000	27.80512000	4.77977300
36.79999799	0.00000000	24.31102000	17.14444000
36.99999797	0.00000000	22.77928000	27.49754000
37.19999796	0.00000000	23.57283000	32.47416000
37.39999795	0.00000000	27.01156000	31.03469000
37.59999794	0.00000000	31.57603000	24.15723000
37.79999793	0.00000000	35.90059000	14.21014000
37.99999791	0.00000000	39.35162000	4.21998000
38.19999790	0.00000000	41.29552000	-3.07578700
38.39999789	0.00000000	40.88336000	-5.77017700
38.59999788	0.00000000	38.60113000	-3.11884800
38.79999787	0.00000000	34.69488000	3.80167300
38.99999786	0.00000000	30.08735000	12.96137000
39.19999784	0.00000000	25.84892000	21.78272000
39.39999783	0.00000000	23.10531000	27.09153000
39.59999782	0.00000000	22.31176000	27.49754000
39.79999781	0.00000000	23.06225000	22.48400000
39.99999780	0.00000000	25.43061000	13.69956000
40.19999778	0.00000000	28.92470000	3.70939900
40.39999777	0.00000000	33.20005000	-4.65059000
40.59999776	0.00000000	37.39542000	-8.50147600
40.79999775	0.00000000	40.13902000	-6.69291300
40.99999774	0.00000000	40.97564000	-0.93503930
41.19999772	0.00000000	40.51427000	7.24040300
41.39999771	0.00000000	38.22588000	16.85531000
41.59999770	0.00000000	34.41806000	25.22145000
41.79999769	0.00000000	31.24384000	29.45374000
41.99999768	0.00000000	28.03888000	28.34030000
42.19999767	0.00000000	24.68627000	22.61934000
42.39999765	0.00000000	23.15453000	14.16708000
42.59999764	0.00000000	23.80659000	5.33341500
42.79999763	0.00000000	25.33834000	-1.63016700
42.99999762	0.00000000	27.34375000	-5.06889700
43.19999761	0.00000000	30.03814000	-4.41067900
43.39999759	0.00000000	32.73868000	-0.19069880
43.59999758	0.00000000	34.69488000	5.53026500
43.79999757	0.00000000	35.85752000	11.79257000
43.99999756	0.00000000	35.90059000	17.14444000
44.19999755	0.00000000	35.20546000	20.66314000
44.39999753	0.00000000	34.78716000	21.41363000
44.59999752	0.00000000	34.36884000	19.54970000
44.79999751	0.00000000	33.61835000	15.69882000
44.99999750	0.00000000	33.24311000	11.14050000
45.19999749	0.00000000	33.10777000	7.24040300
45.39999748	0.00000000	32.27116000	4.91510800
45.59999746	0.00000000	29.99508000	4.08464600
45.79999745	0.00000000	27.29453000	4.87204700
45.99999744	0.00000000	24.92003000	6.72982200
46.19999743	0.00000000	22.64394000	9.09817800
46.39999742	0.00000000	21.61663000	11.42347000
46.59999740	0.00000000	23.15453000	13.74262000
46.79999739	0.00000000	27.05462000	15.23130000
46.99999738	0.00000000	32.46186000	15.27436000
47.19999737	0.00000000	38.68725000	14.16092000
47.39999736	0.00000000	44.00221000	12.58612000
47.59999734	0.00000000	47.11491000	10.62992000
47.79999733	0.00000000	46.65354000	8.31077700
47.99999732	0.00000000	42.79035000	6.40378900
48.19999731	0.00000000	35.81446000	5.24729300
48.39999730	0.00000000	27.34375000	5.29035400
48.59999729	0.00000000	19.61737000	6.86515700
48.79999727	0.00000000	14.22244000	9.89173200
48.99999726	0.00000000	12.72761000	13.37352000
49.19999725	0.00000000	15.84646000	16.07406000
49.39999724	0.00000000	23.15453000	18.01796000
49.59999723	0.00000000	32.78174000	18.35015000
49.79999721	0.00000000	42.04601000	16.81225000
49.99999720	0.00000000	48.97884000	13.69956000
50.19999719	0.00000000	51.63016000	9.47342500
50.39999718	0.00000000	48.97884000	5.29035400
50.59999717	0.00000000	42.04601000	2.54675200
50.79999715	0.00000000	32.82480000	1.75319900
50.99999714	0.00000000	23.57283000	2.54675200
51.19999713	0.00000000	17.00910000	5.29035400
51.39999712	0.00000000	14.26550000	9.51648500
51.59999711	0.00000000	15.84646000	14.11786000
51.79999710	0.00000000	21.61663000	17.97490000
51.99999708	0.00000000	30.03814000	19.88189000
52.19999707	0.00000000	38.46580000	19.55585000
52.39999706	0.00000000	44.27903000	17.23056000
52.59999705	0.00000000	46.19217000	13.74262000
52.79999704	0.00000000	43.90379000	9.51648500
52.99999702	0.00000000	37.81373000	5.70866100
53.19999701	0.00000000	30.54872000	3.75246000
53.39999700	0.00000000	24.31102000	3.66633800
53.59999699	0.00000000	20.07874000	4.87204700
53.79999698	0.00000000	18.96531000	7.19734200
53.99999696	0.00000000	21.65969000	10.62992000
54.19999695	0.00000000	27.34375000	13.60728000
54.39999694	0.00000000	33.90133000	14.81299000
54.59999693	0.00000000	39.25935000	14.11786000
54.79999692	0.00000000	42.37204000	12.62918000
54.99999691	0.00000000	42.00295000	11.04823000
55.19999689	0.00000000	38.93332000	9.51648500
55.39999688	0.00000000	33.90133000	8.40305000
55.59999687	0.00000000	27.80512000	8.44611200
55.79999686	0.00000000	23.19759000	9.93479300
55.99999685	0.00000000	21.19833000	12.16781000
56.19999683	0.00000000	21.61663000	13.69956000
56.39999682	0.00000000	24.68627000	14.07480000
56.59999681	0.00000000	29.61983000	13.28125000
56.79999680	0.00000000	34.27657000	10.96211000
56.99999679	0.00000000	37.77067000	7.89247000
57.19999677	0.00000000	39.71457000	4.82283400
57.39999676	0.00000000	39.30241000	2.54675200
57.59999675	0.00000000	37.06324000	2.22071800
57.79999674	0.00000000	33.57529000	4.17076700
57.99999673	0.00000000	30.13041000	8.40305000
58.19999672	0.00000000	27.38681000	13.79183000
58.39999670	0.00000000	25.84892000	18.76845000
58.59999669	0.00000000	25.84892000	22.20103000
58.79999668	0.00000000	27.34375000	22.53322000
58.99999667	0.00000000	29.66289000	19.50664000
59.19999666	0.00000000	31.95128000	14.11786000
59.39999664	0.00000000	33.90133000	7.93553100
59.59999663	0.00000000	34.65182000	2.12844500
59.79999662	0.00000000	34.31963000	-2.09768700
59.99999661	0.00000000	33.20005000	-3.53715500
60.19999660	0.00000000	32.03740000	-1.21186000
60.39999658	0.00000000	31.24384000	4.91510800
60.59999657	0.00000000	30.45644000	12.54306000
60.79999656	0.00000000	30.13041000	19.55585000
60.99999655	0.00000000	30.45644000	24.53248000
61.19999654	0.00000000	31.20078000	26.47638000
61.39999653	0.00000000	31.61909000	24.48326000
61.59999651	0.00000000	31.99434000	19.13140000
61.79999650	0.00000000	32.31422000	11.38041000
61.99999649	0.00000000	31.57603000	3.33415300
62.19999648	0.00000000	30.45644000	-3.21112200
62.39999647	0.00000000	29.66289000	-6.27460600
62.59999645	0.00000000	28.87549000	-5.16117100
62.79999644	0.00000000	28.59252000	-0.55979330
62.99999643	0.00000000	29.29380000	6.40378900
63.19999642	0.00000000	30.82554000	14.11786000
63.39999641	0.00000000	31.99434000	21.03838000
63.59999639	0.00000000	33.20005000	25.27067000
63.79999638	0.00000000	34.27657000	25.73203000
63.99999637	0.00000000	34.27657000	23.03765000
64.19999636	0.00000000	33.15699000	18.01796000
64.39999635	0.00000000	31.66215000	11.42347000
64.59999634	0.00000000	30.45644000	4.91510800
64.79999632	0.00000000	29.66289000	-0.14148620
64.99999631	0.00000000	28.87549000	-2.46678100
65.19999630	0.00000000	28.54946000	-2.14074800
65.39999629	0.00000000	28.92470000	0.59670270
65.59999628	0.00000000	30.08120000	5.15501900
65.79999626	0.00000000	31.57603000	10.21161000
65.99999625	0.00000000	32.68946000	14.49311000
66.19999624	0.00000000	32.73252000	18.01796000
66.39999623	0.00000000	31.95128000	19.93110000
66.59999622	0.00000000	30.82554000	20.01722000
66.79999620	0.00000000	29.29380000	18.85458000
66.99999619	0.00000000	28.54946000	16.90453000
67.19999618	0.00000000	28.54946000	14.16092000
67.39999617	0.00000000	29.34301000	11.04823000
67.59999616	0.00000000	31.28691000	7.89247000
67.79999615	0.00000000	33.57529000	4.77977300
67.99999613	0.00000000	35.90059000	2.08538400
68.19999612	0.00000000	37.35236000	0.55364170
68.39999611	0.00000000	36.97712000	0.59670270
68.59999610	0.00000000	34.65182000	2.54675200
68.79999609	0.00000000	31.20078000	6.40378900
68.99999607	0.00000000	27.34375000	11.04823000
69.19999606	0.00000000	24.22490000	15.69882000
69.39999605	0.00000000	22.26870000	19.54970000
69.59999604	0.00000000	21.57357000	21.50590000
69.79999603	0.00000000	23.19759000	21.50590000
69.99999601	0.00000000	27.38681000	19.50664000
70.19999600	0.00000000	32.78174000	15.28051000
70.39999599	0.00000000	37.81373000	9.89173200
70.59999598	0.00000000	41.67076000	4.87204700
70.79999597	0.00000000	43.16560000	0.97194880
70.99999596	0.00000000	41.62770000	-0.93503930
71.19999594	0.00000000	37.39542000	-0.55979330
71.39999593	0.00000000	31.61909000	2.17765700
71.59999592	0.00000000	25.80585000	6.72982200
71.79999591	0.00000000	21.14911000	11.74336000
71.99999590	0.00000000	18.45472000	15.64960000
72.19999588	0.00000000	18.45472000	18.35015000
72.39999587	0.00000000	21.14911000	19.08834000
72.59999586	0.00000000	25.80585000	17.23056000
72.79999585	0.00000000	31.61909000	14.21014000
72.99999584	0.00000000	37.39542000	11.09744000
73.19999582	0.00000000	41.62770000	8.40305000
73.39999581	0.00000000	43.16560000	6.86515700
73.59999580	0.00000000	41.67076000	6.82209600
73.79999579	0.00000000	37.85679000	7.93553100
73.99999578	0.00000000	33.20005000	9.42421200
74.19999577	0.00000000	28.50024000	10.58686000
74.39999575	0.00000000	24.26796000	10.95595000
74.59999574	0.00000000	21.61663000	10.58686000
74.79999573	0.00000000	21.57357000	9.47342500
74.99999572	0.00000000	23.84965000	8.31077700
75.19999571	0.00000000	27.29453000	7.60949800
75.39999569	0.00000000	31.15772000	7.61564900
75.59999568	0.00000000	34.27657000	9.18430000
75.79999567	0.00000000	36.18971000	11.46653000
75.99999566	0.00000000	36.60187000	14.21014000
76.19999565	0.00000000	35.11319000	16.81225000
76.39999563	0.00000000	33.24926000	17.92569000
76.59999562	0.00000000	31.66215000	16.81225000
76.79999561	0.00000000	30.50566000	14.11786000
76.99999560	0.00000000	30.08120000	10.58686000
77.19999559	0.00000000	30.03814000	6.31151500
77.39999558	0.00000000	30.08120000	2.12844500
77.59999556	0.00000000	30.41338000	-0.51673230
77.79999555	0.00000000	30.78248000	-0.51673230
77.99999554	0.00000000	30.37032000	2.17765700
78.19999553	0.00000000	29.66289000	6.77903500
78.39999552	0.00000000	28.87549000	12.21087000
78.59999550	0.00000000	28.54946000	17.18750000
78.79999549	0.00000000	28.92470000	20.71235000
78.99999548	0.00000000	30.08120000	21.83194000
79.19999547	0.00000000	31.61909000	20.71235000
79.39999546	0.00000000	33.20005000	17.23056000
79.59999544	0.00000000	34.73794000	12.62918000
79.79999543	0.00000000	35.81446000	7.93553100
79.99999542	0.00000000	35.43922000	3.70939900
80.19999541	0.00000000	33.53223000	1.01501000
80.39999540	0.00000000	31.20078000	0.59670270
80.59999539	0.00000000	28.50024000	2.12844500
80.79999537	0.00000000	26.22416000	5.24729300
80.99999536	0.00000000	25.43061000	9.43036400
81.19999535	0.00000000	25.80585000	13.28125000
81.39999534	0.00000000	27.38681000	15.69882000
81.59999533	0.00000000	30.03814000	17.27362000
81.79999531	0.00000000	32.73868000	18.01796000
81.99999530	0.00000000	34.69488000	17.27362000
82.19999529	0.00000000	35.85752000	15.74188000
82.39999528	0.00000000	35.85752000	13.74262000
82.59999527	0.00000000	34.69488000	11.00517000
82.79999525	0.00000000	32.78174000	7.93553100
82.99999524	0.00000000	30.45644000	5.24729300
83.19999523	0.00000000	28.54946000	3.66633800
83.39999522	0.00000000	27.38681000	3.24803100
83.59999521	0.00000000	27.38681000	3.62327700
83.79999520	0.00000000	28.45718000	4.87204700
83.99999518	0.00000000	29.61983000	7.19734200
84.19999517	0.00000000	30.41338000	10.67298000
84.39999516	0.00000000	31.20078000	14.16092000
84.59999515	0.00000000	31.57603000	17.27977000
84.79999514	0.00000000	31.61909000	19.50664000
84.99999512	0.00000000	31.61909000	19.50664000
85.19999511	0.00000000	31.61909000	17.23056000
85.39999510	0.00000000	31.61909000	13.74262000
85.59999509	0.00000000	31.61909000	9.47342500
85.79999508	0.00000000	31.61909000	5.24729300
85.99999506	0.00000000	31.61909000	2.12844500
86.19999505	0.00000000	31.57603000	0.59670270
86.39999504	0.00000000	31.15157000	1.06422200
86.59999503	0.00000000	30.03814000	4.08464600
86.79999502	0.00000000	28.87549000	8.67987200
86.99999501	0.00000000	28.12500000	12.96137000
87.19999499	0.00000000	27.76206000	16.81225000
87.39999498	0.00000000	28.50024000	19.08834000
87.59999497	0.00000000	29.61983000	18.71924000
87.79999496	0.00000000	30.45644000	16.43701000
87.99999495	0.00000000	31.66215000	12.53691000
88.19999493	0.00000000	33.11393000	7.93553100
88.39999492	0.00000000	33.90133000	3.70939900
88.59999491	0.00000000	33.53223000	1.06422200
88.79999490	0.00000000	32.73252000	1.01501000
88.99999489	0.00000000	31.20078000	3.33415300
89.19999487	0.00000000	29.34301000	7.19734200
89.39999486	0.00000000	28.54946000	12.21087000
89.59999485	0.00000000	28.45718000	16.76919000
89.79999484	0.00000000	28.50024000	19.46358000
89.99999483	0.00000000	28.92470000	19.46358000
90.19999482	0.00000000	30.03814000	16.81225000
90.39999480	0.00000000	31.20078000	12.58612000
90.59999479	0.00000000	31.95128000	7.93553100
90.79999478	0.00000000	32.36343000	3.70939900
90.99999477	0.00000000	31.99434000	1.06422200
91.19999476	0.00000000	31.66215000	1.06422200
91.39999474	0.00000000	31.61909000	3.75246000
91.59999473	0.00000000	31.61909000	8.35998900
91.79999472	0.00000000	31.61909000	13.69956000
91.99999471	0.00000000	31.61909000	17.93184000
92.19999470	0.00000000	31.61909000	19.88189000
92.39999468	0.00000000	31.61909000	19.50664000
92.59999467	0.00000000	31.52682000	16.76919000
92.79999466	0.00000000	30.78248000	12.16166000
92.99999465	0.00000000	29.25074000	6.82209600
93.19999464	0.00000000	28.12500000	2.59596400
93.39999463	0.00000000	27.34375000	0.68897630
93.59999461	0.00000000	27.38681000	1.43946800
93.79999460	0.00000000	28.50024000	4.87204700
93.99999459	0.00000000	30.08120000	9.43036400
94.19999458	0.00000000	32.03740000	13.69956000
94.39999457	0.00000000	34.31963000	16.76919000
94.59999455	0.00000000	35.85752000	17.92569000
94.79999454	0.00000000	36.27584000	16.76919000
94.99999453	0.00000000	35.85752000	13.74262000
95.19999452	0.00000000	34.27657000	9.89173200
95.39999451	0.00000000	31.57603000	6.44685000
95.59999449	0.00000000	28.50024000	4.12770700
95.79999448	0.00000000	25.80585000	3.75246000
95.99999447	0.00000000	24.26796000	5.24729300
96.19999446	0.00000000	24.26796000	7.93553100
96.39999445	0.00000000	25.80585000	11.00517000
96.59999444	0.00000000	28.54946000	13.69956000
96.79999442	0.00000000	32.03740000	15.27436000
96.99999441	0.00000000	35.90059000	15.64960000
97.19999440	0.00000000	38.93332000	14.90526000
97.39999439	0.00000000	40.08981000	12.95522000
97.59999438	0.00000000	38.97638000	10.67298000
97.79999436	0.00000000	36.27584000	8.35383800
97.99999435	0.00000000	32.78174000	6.86515700
98.19999434	0.00000000	28.87549000	6.82209600
98.39999433	0.00000000	25.43061000	7.93553100
98.59999432	0.00000000	23.06225000	9.42421200
98.79999430	0.00000000	22.36097000	10.58686000
98.99999429	0.00000000	23.48056000	11.00517000
99.19999428	0.00000000	26.54404000	11.04823000
99.39999427	0.00000000	29.99508000	11.09129000
99.59999426	0.00000000	33.20005000	11.46653000
99.79999425	0.00000000	36.27584000	12.21087000
99.99999423	0.00000000	38.55807000	12.58612000
100.19999422	0.00000000	38.93332000	12.62918000
100.39999421	0.00000000	37.43848000	12.62918000
100.59999420	0.00000000	34.73794000	12.58612000
100.79999419	0.00000000	31.61909000	12.11860000
100.99999417	0.00000000	28.50024000	10.58686000
101.19999416	0.00000000	25.80585000	8.31077700
101.39999415	0.00000000	24.26796000	6.40378900
101.59999414	0.00000000	24.22490000	5.24729300
101.79999413	0.00000000	25.33834000	5.24729300
101.99999411	0.00000000	26.91929000	6.40378900
102.19999410	0.00000000	28.87549000	8.35383800
102.39999409	0.00000000	31.20078000	11.04823000
102.59999408	0.00000000	33.11393000	13.69956000
102.79999407	0.00000000	34.31963000	15.27436000
102.99999406	0.00000000	34.69488000	15.64960000
103.19999404	0.00000000	34.31963000	14.85605000
103.39999403	0.00000000	33.11393000	12.53691000
103.59999402	0.00000000	31.20078000	9.47342500
103.79999401	0.00000000	28.87549000	6.40378900
103.99999400	0.00000000	26.96850000	4.08464600
104.19999398	0.00000000	25.80585000	3.29109200
104.39999397	0.00000000	25.80585000	3.66633800
104.59999396	0.00000000	26.91929000	5.24729300
104.79999395	0.00000000	28.45718000	7.93553100
104.99999394	0.00000000	30.03814000	11.00517000
105.19999392	0.00000000	31.57603000	13.69956000
105.39999391	0.00000000	32.73252000	15.23130000
105.59999390	0.00000000	33.10777000	15.23130000
105.79999389	0.00000000	32.73252000	13.69956000
105.99999388	0.00000000	31.57603000	11.04823000
106.19999387	0.00000000	30.08120000	8.40305000
106.39999385	0.00000000	28.92470000	6.82209600
106.59999384	0.00000000	28.50024000	6.40378900
106.79999383	0.00000000	28.50024000	6.77903500
106.99999382	0.00000000	28.92470000	7.93553100
107.19999381	0.00000000	30.03814000	9.47342500
107.39999379	0.00000000	31.15157000	11.04823000
107.59999378	0.00000000	31.57603000	12.53691000
107.79999377	0.00000000	31.57603000	13.32431000
107.99999376	0.00000000	31.20078000	12.91215000
108.19999375	0.00000000	30.41338000	11.79257000
108.39999374	0.00000000	29.66289000	9.89173200
108.59999372	0.00000000	28.87549000	8.40305000
108.79999371	0.00000000	28.50024000	7.93553100
108.99999370	0.00000000	28.50024000	7.93553100
109.19999369	0.00000000	28.92470000	8.35998900
109.39999368	0.00000000	30.03814000	9.51648500
109.59999366	0.00000000	31.20078000	11.04823000
109.79999365	0.00000000	31.99434000	12.58612000
109.99999364	0.00000000	32.78174000	13.69956000
110.19999363	0.00000000	33.10777000	13.74262000
110.39999362	0.00000000	32.73252000	12.96137000
110.59999360	0.00000000	31.61909000	11.83563000
110.79999359	0.00000000	30.45644000	10.26698000
110.99999358	0.00000000	29.66289000	9.14124000
111.19999357	0.00000000	28.87549000	8.26771600
111.39999356	0.00000000	28.54946000	7.56028500
111.59999355	0.00000000	28.87549000	7.19734200
111.79999353	0.00000000	29.66289000	7.98474400
111.99999352	0.00000000	30.41338000	9.42421200
112.19999351	0.00000000	31.20078000	10.62992000
112.39999350	0.00000000	31.57603000	11.42347000
112.59999349	0.00000000	31.61909000	12.21087000
112.79999347	0.00000000	31.61909000	12.53691000
112.99999346	0.00000000	31.57603000	12.21087000
113.19999345	0.00000000	31.20078000	11.46653000
113.39999344	0.00000000	30.45644000	11.04823000
113.59999343	0.00000000	30.08120000	10.62992000
113.79999341	0.00000000	30.03814000	9.89173200
113.99999340	0.00000000	30.03814000	9.47342500
114.19999339	0.00000000	30.03814000	9.05511800
114.39999338	0.00000000	30.03814000	8.31077700
114.59999337	0.00000000	30.03814000	7.93553100
114.79999336	0.00000000	30.08120000	7.89247000
114.99999334	0.00000000	30.41338000	7.93553100
115.19999333	0.00000000	30.78248000	8.31077700
115.39999332	0.00000000	30.41338000	9.05511800
115.59999331	0.00000000	30.08120000	9.47342500
115.79999330	0.00000000	30.03814000	9.89173200
115.99999328	0.00000000	30.03814000	10.62992000
116.19999327	0.00000000	29.99508000	11.04823000
116.39999326	0.00000000	29.66289000	11.42347000
116.59999325	0.00000000	29.29380000	11.79257000
116.79999324	0.00000000	29.66289000	11.42347000
116.99999322	0.00000000	29.99508000	11.00517000
117.19999321	0.00000000	30.03814000	10.21161000
117.39999320	0.00000000	30.08120000	8.72908400
117.59999319	0.00000000	30.45644000	7.93553100
117.79999318	0.00000000	31.20078000	7.51722400
117.99999317	0.00000000	31.57603000	7.14812900
118.19999315	0.00000000	31.57603000	7.56028500
118.39999314	0.00000000	31.20078000	8.31077700
118.59999313	0.00000000	30.41338000	9.47342500
118.79999312	0.00000000	29.66289000	10.58686000
118.99999311	0.00000000	28.83243000	11.04823000
119.19999309	0.00000000	28.12500000	11.42347000
119.39999308	0.00000000	27.71284000	11.74336000
119.59999307	0.00000000	28.12500000	11.00517000
119.79999306	0.00000000	28.87549000	9.98400600
119.99999305	0.00000000	30.08120000	9.89173200
120.19999303	0.00000000	31.57603000	10.21161000
120.39999302	0.00000000	32.73252000	9.79945900
120.59999301	0.00000000	33.15699000	9.09817800
120.79999300	0.00000000	33.15699000	8.35998900
120.99999299	0.00000000	32.73252000	8.35998900
121.19999298	0.00000000	31.57603000	9.05511800
121.39999296	0.00000000	30.08120000	9.43036400
121.59999295	0.00000000	28.87549000	9.47342500
121.79999294	0.00000000	28.08194000	9.51648500
121.99999293	0.00000000	27.34375000	9.89173200
122.19999292	0.00000000	27.34375000	10.62992000
122.39999290	0.00000000	28.08194000	11.00517000
122.59999289	0.00000000	28.87549000	11.04823000
122.79999288	0.00000000	30.03814000	11.04823000
122.99999287	0.00000000	31.15157000	11.04823000
123.19999286	0.00000000	31.57603000	11.00517000
123.39999284	0.00000000	31.61909000	10.62992000
123.59999283	0.00000000	31.61909000	9.89173200
123.79999282	0.00000000	31.61909000	9.51648500
123.99999281	0.00000000	31.57603000	9.47342500
124.19999280	0.00000000	31.15157000	9.47342500
124.39999279	0.00000000	30.03814000	9.47342500
124.59999277	0.00000000	28.92470000	9.47342500
124.79999276	0.00000000	28.50024000	9.47342500
124.99999275	0.00000000	28.45718000	9.51648500
125.19999274	0.00000000	28.45718000	9.89173200
125.39999273	0.00000000	28.50024000	10.62992000
125.59999271	0.00000000	28.87549000	11.00517000
125.79999270	0.00000000	29.66289000	11.04823000
125.99999269	0.00000000	30.45644000	11.04823000
126.19999268	0.00000000	31.61909000	11.04823000
126.39999267	0.00000000	32.68946000	11.00517000
126.59999265	0.00000000	32.73252000	10.62992000
126.79999264	0.00000000	31.99434000	9.89173200
126.99999263	0.00000000	31.20078000	9.51648500
127.19999262	0.00000000	30.03814000	9.47342500
127.39999261	0.00000000	28.92470000	9.47342500
127.59999260	0.00000000	28.45718000	9.47342500
127.79999258	0.00000000	28.08194000	9.51648500
127.99999257	0.00000000	27.76206000	9.84867000
128.19999256	0.00000000	28.50024000	10.25467000
128.39999255	0.00000000	29.61983000	10.26698000
128.59999254	0.00000000	30.41338000	10.67298000
128.79999252	0.00000000	31.20078000	10.95595000
128.99999251	0.00000000	31.57603000	10.62992000
129.19999250	0.00000000	31.57603000	9.89173200
129.39999249	0.00000000	31.15157000	9.51648500
129.59999248	0.00000000	30.03814000	9.47342500
129.79999246	0.00000000	28.92470000	9.47342500
129.99999245	0.00000000	28.50024000	9.47342500
130.19999244	0.00000000	28.45718000	9.47342500
130.39999243	0.00000000	28.45718000	9.51648500
130.59999242	0.00000000	28.50024000	9.89173200
130.79999241	0.00000000	28.92470000	10.58686000
130.99999239	0.00000000	30.03814000	10.58686000
131.19999238	0.00000000	31.15157000	9.89173200
131.39999237	0.00000000	31.57603000	9.51648500
131.59999236	0.00000000	31.57603000	9.43036400
131.79999235	0.00000000	31.20078000	9.05511800
131.99999233	0.00000000	30.41338000	8.31077700
132.19999232	0.00000000	29.70595000	7.93553100
132.39999231	0.00000000	29.25074000	7.93553100
132.59999230	0.00000000	29.24459000	8.31077700
132.79999229	0.00000000	28.87549000	9.05511800
132.99999227	0.00000000	28.92470000	9.47342500
133.19999226	0.00000000	29.61983000	9.89173200
133.39999225	0.00000000	29.99508000	10.62992000
133.59999224	0.00000000	30.03814000	10.95595000
133.79999223	0.00000000	30.03814000	10.62992000
133.99999222	0.00000000	30.03814000	9.89173200
134.19999220	0.00000000	30.03814000	9.47342500
134.39999219	0.00000000	30.03814000	9.05511800
134.59999218	0.00000000	30.03814000	8.31077700
134.79999217	0.00000000	30.03814000	7.93553100
134.99999216	0.00000000	30.03814000	7.89247000
135.19999214	0.00000000	30.03814000	7.93553100
135.39999213	0.00000000	30.03814000	8.31077700
135.59999212	0.00000000	30.03814000	9.09817800
135.79999211	0.00000000	29.99508000	9.84867000
135.99999210	0.00000000	29.61983000	10.62992000
136.19999208	0.00000000	28.87549000	11.00517000
136.39999207	0.00000000	28.50024000	11.04823000
136.59999206	0.00000000	28.45718000	11.04823000
136.79999205	0.00000000	28.50024000	11.00517000
136.99999204	0.00000000	28.87549000	10.62992000
137.19999203	0.00000000	29.66289000	9.89173200
137.39999201	0.00000000	30.41338000	9.47342500
137.59999200	0.00000000	31.20078000	9.05511800
137.79999199	0.00000000	31.52682000	8.31077700
137.99999198	0.00000000	31.20078000	7.98474400
138.19999197	0.00000000	30.45644000	8.31077700
138.39999195	0.00000000	30.03814000	9.05511800
138.59999194	0.00000000	29.61983000	9.43036400
138.79999193	0.00000000	28.87549000	9.51648500
138.99999192	0.00000000	28.50024000	9.89173200
139.19999191	0.00000000	28.50024000	10.62992000
139.39999189	0.00000000	28.87549000	11.00517000
139.59999188	0.00000000	29.61983000	11.04823000
139.79999187	0.00000000	29.99508000	11.04823000
139.99999186	0.00000000	30.08120000	11.00517000
140.19999185	0.00000000	30.41338000	10.62992000
140.39999184	0.00000000	30.78248000	9.84867000
140.59999182	0.00000000	30.41338000	9.09817800
140.79999181	0.00000000	30.03814000	8.31077700
140.99999180	0.00000000	29.61983000	7.98474400
141.19999179	0.00000000	28.92470000	8.31077700
141.39999178	0.00000000	28.92470000	9.09817800
141.59999176	0.00000000	29.61983000	9.89173200
141.79999175	0.00000000	29.99508000	11.04823000
141.99999174	0.00000000	30.03814000	12.16166000
142.19999173	0.00000000	30.03814000	12.58612000
142.39999172	0.00000000	30.03814000	12.58612000
142.59999170	0.00000000	30.03814000	12.16166000
142.79999169	0.00000000	30.03814000	11.04823000
142.99999168	0.00000000	29.99508000	9.89173200
143.19999167	0.00000000	29.66289000	9.09817800
143.39999166	0.00000000	29.25074000	8.31077700
143.59999165	0.00000000	29.28765000	7.93553100
143.79999163	0.00000000	29.25074000	7.93553100
143.99999162	0.00000000	29.66289000	8.31077700
144.19999161	0.00000000	29.99508000	9.09817800
144.39999160	0.00000000	30.03814000	9.84867000
144.59999159	0.00000000	30.03814000	10.62992000
144.79999157	0.00000000	30.03814000	11.00517000
144.99999156	0.00000000	30.03814000	11.04823000
145.19999155	0.00000000	30.03814000	11.00517000
145.39999154	0.00000000	29.99508000	10.62992000
145.59999153	0.00000000	29.61983000	9.89173200
145.79999151	0.00000000	28.87549000	9.47342500
145.99999150	0.00000000	28.54946000	9.05511800
146.19999149	0.00000000	28.87549000	8.31077700
146.39999148	0.00000000	29.61983000	7.93553100
146.59999147	0.00000000	29.99508000	7.93553100
146.79999146	0.00000000	30.03814000	8.31077700
146.99999144	0.00000000	30.03814000	9.09817800
147.19999143	0.00000000	30.03814000	9.84867000
147.39999142	0.00000000	30.03814000	10.62992000
147.59999141	0.00000000	30.03814000	11.00517000
147.79999140	0.00000000	29.99508000	11.04823000
147.99999138	0.00000000	29.61983000	11.04823000
148.19999137	0.00000000	28.87549000	11.00517000
148.39999136	0.00000000	28.54946000	10.62992000
148.59999135	0.00000000	28.87549000	9.89173200
148.79999134	0.00000000	29.61983000	9.51648500
148.99999132	0.00000000	29.99508000	9.51648500
149.19999131	0.00000000	30.03814000	9.84867000
149.39999130	0.00000000	30.03814000	10.21161000
149.59999129	0.00000000	30.03814000	9.84867000
149.79999128	0.00000000	30.03814000	9.56569900
149.99999127	0.00000000	30.03814000	9.89173200
150.19999125	0.00000000	30.03814000	10.62992000
150.39999124	0.00000000	30.03814000	11.00517000
150.59999123	0.00000000	29.99508000	11.04823000
150.79999122	0.00000000	29.61983000	11.00517000
150.99999121	0.00000000	28.92470000	10.62992000
151.19999119	0.00000000	28.87549000	9.89173200
151.39999118	0.00000000	29.24459000	9.51648500
151.59999117	0.00000000	29.25074000	9.47342500
151.79999116	0.00000000	29.66289000	9.47342500
151.99999115	0.00000000	29.99508000	9.47342500
152.19999113	0.00000000	30.03814000	9.47342500
152.39999112	0.00000000	30.03814000	9.47342500
152.59999111	0.00000000	30.03814000	9.51648500
152.79999110	0.00000000	30.03814000	9.84867000
152.99999109	0.00000000	30.03814000	10.21161000
153.19999108	0.00000000	29.99508000	9.89173200
153.39999106	0.00000000	29.61983000	9.89173200
153.59999105	0.00000000	28.87549000	10.21161000
153.79999104	0.00000000	28.50024000	9.84867000
153.99999103	0.00000000	28.45718000	9.51648500
154.19999102	0.00000000	28.45718000	9.47342500
154.39999100	0.00000000	28.45718000	9.47342500
154.59999099	0.00000000	28.50024000	9.47342500
154.79999098	0.00000000	28.87549000	9.47342500
154.99999097	0.00000000	29.61983000	9.47342500
155.19999096	0.00000000	29.99508000	9.43036400
155.39999094	0.00000000	30.03814000	9.09817800
155.59999093	0.00000000	30.03814000	8.72908400
155.79999092	0.00000000	30.03814000	9.09817800
155.99999091	0.00000000	30.03814000	9.43036400
156.19999090	0.00000000	29.99508000	9.51648500
156.39999089	0.00000000	29.61983000	9.89173200
156.59999087	0.00000000	28.87549000	10.62992000
156.79999086	0.00000000	28.50024000	11.00517000
156.99999085	0.00000000	28.45718000	11.04823000
157.19999084	0.00000000	28.45718000	11.00517000
157.39999083	0.00000000	28.45718000	10.62992000
157.59999081	0.00000000	28.50024000	9.89173200
157.79999080	0.00000000	28.87549000	9.51648500
157.99999079	0.00000000	29.61983000	9.43036400
158.19999078	0.00000000	29.99508000	9.09817800
158.39999077	0.00000000	30.03814000	8.72908400
158.59999075	0.00000000	30.03814000	9.09817800
158.79999074	0.00000000	30.03814000	9.43036400
158.99999073	0.00000000	30.03814000	9.51648500
159.19999072	0.00000000	29.99508000	9.89173200
159.39999071	0.00000000	29.61983000	10.62992000
159.59999070	0.00000000	28.87549000	10.95595000
159.79999068	0.00000000	28.50024000	10.67298000
159.99999067	0.00000000	28.45718000	10.31004000
160.19999066	0.00000000	28.50024000	10.62992000
160.39999065	0.00000000	28.83243000	10.58686000
160.59999064	0.00000000	29.20152000	9.89173200
160.79999062	0.00000000	28.87549000	9.51648500
160.99999061	0.00000000	28.92470000	9.47342500
161.19999060	0.00000000	29.61983000	9.47342500
161.39999059	0.00000000	29.99508000	9.47342500
161.59999058	0.00000000	30.03814000	9.47342500
161.79999056	0.00000000	30.03814000	9.47342500
161.99999055	0.00000000	30.03814000	9.47342500
162.19999054	0.00000000	30.03814000	9.47342500
162.39999053	0.00000000	29.99508000	9.47342500
162.59999052	0.00000000	29.61983000	9.47342500
162.79999051	0.00000000	28.87549000	9.47342500
162.99999049	0.00000000	28.50024000	9.47342500
163.19999048	0.00000000	28.45718000	9.47342500
163.39999047	0.00000000	28.45718000	9.47342500
163.59999046	0.00000000	28.45718000	9.47342500
163.79999045	0.00000000	28.45718000	9.47342500
163.99999043	0.00000000	28.45718000	9.43036400
164.19999042	0.00000000	28.50024000	9.09817800
164.39999041	0.00000000	28.87549000	8.72908400
164.59999040	0.00000000	29.61983000	9.09817800
164.79999039	0.00000000	29.99508000	9.43036400
164.99999037	0.00000000	30.03814000	9.47342500
165.19999036	0.00000000	29.99508000	9.51648500
165.39999035	0.00000000	29.61983000	9.84867000
165.59999034	0.00000000	28.87549000	10.21161000
165.79999033	0.00000000	28.50024000	9.84867000
165.99999032	0.00000000	28.45718000	9.51648500
166.19999030	0.00000000	28.45718000	9.47342500
166.39999029	0.00000000	28.45718000	9.47342500
166.59999028	0.00000000	28.41412000	9.43036400
166.79999027	0.00000000	28.12500000	9.09817800
166.99999026	0.00000000	28.13730000	8.72908400
167.19999024	0.00000000	29.24459000	9.09817800
167.39999023	0.00000000	29.94586000	9.43036400
167.59999022	0.00000000	30.03814000	9.47342500
167.79999021	0.00000000	30.03814000	9.47342500
167.99999020	0.00000000	30.03814000	9.47342500
168.19999018	0.00000000	30.03814000	9.47342500
168.39999017	0.00000000	30.03814000	9.47342500
168.59999016	0.00000000	29.99508000	9.47342500
168.79999015	0.00000000	29.61983000	9.47342500
168.99999014	0.00000000	28.87549000	9.47342500
169.19999013	0.00000000	28.50024000	9.47342500
169.39999011	0.00000000	28.45718000	9.47342500
169.59999010	0.00000000	28.45718000	9.47342500
169.79999009	0.00000000	28.45718000	9.47342500
169.99999008	0.00000000	28.45718000	9.47342500
170.19999007	0.00000000	28.50024000	9.47342500
170.39999005	0.00000000	28.83243000	9.47342500
170.59999004	0.00000000	29.24459000	9.47342500
170.79999003	0.00000000	29.20767000	9.47342500
170.99999002	0.00000000	29.24459000	9.47342500
171.19999001	0.00000000	28.83243000	9.47342500
171.39998999	0.00000000	28.54946000	9.47342500
171.59998998	0.00000000	28.87549000	9.47342500
171.79998997	0.00000000	29.57062000	9.47342500
171.99998996	0.00000000	29.61983000	9.47342500
172.19998995	0.00000000	29.25074000	9.47342500
172.39998994	0.00000000	29.24459000	9.47342500
172.59998992	0.00000000	28.83243000	9.47342500
172.79998991	0.00000000	28.50024000	9.47342500
172.99998990	0.00000000	28.50024000	9.47342500
173.19998989	0.00000000	28.83243000	9.47342500
173.39998988	0.00000000	29.24459000	9.47342500
173.59998986	0.00000000	29.20767000	9.47342500
173.79998985	0.00000000	29.28765000	9.47342500
173.99998984	0.00000000	29.25074000	9.47342500
174.19998983	0.00000000	29.61983000	9.47342500
174.39998982	0.00000000	29.57062000	9.47342500
174.59998980	0.00000000	28.92470000	9.47342500
174.79998979	0.00000000	28.87549000	9.47342500
174.99998978	0.00000000	29.20152000	9.47342500
175.19998977	0.00000000	28.83243000	9.47342500
175.39998976	0.00000000	28.50024000	9.47342500
175.59998975	0.00000000	28.45718000	9.47342500
175.79998973	0.00000000	28.45718000	9.47342500
175.99998972	0.00000000	28.45718000	9.47342500
176.19998971	0.00000000	28.45718000	9.47342500
176.39998970	0.00000000	28.45718000	9.47342500
176.59998969	0.00000000	28.45718000	9.47342500
176.79998967	0.00000000	28.45718000	9.47342500
176.99998966	0.00000000	28.45718000	9.47342500
177.19998965	0.00000000	28.45718000	9.47342500
177.39998964	0.00000000	28.45718000	9.47342500
177.59998963	0.00000000	28.50024000	9.47342500
177.79998961	0.00000000	28.83243000	9.47342500
177.99998960	0.00000000	29.20152000	9.47342500
178.19998959	0.00000000	28.83243000	9.47342500
178.39998958	0.00000000	28.50024000	9.47342500
178.59998957	0.00000000	28.45718000	9.47342500
178.79998956	0.00000000	28.45718000	9.47342500
178.99998954	0.00000000	28.45718000	9.47342500
179.19998953	0.00000000	28.50024000	9.47342500
179.39998952	0.00000000	28.83243000	9.47342500
179.59998951	0.00000000	29.20152000	9.47342500
179.79998950	0.00000000	28.83243000	9.47342500
179.99998948	0.00000000	28.50024000	9.47342500
180.19998947	0.00000000	28.45718000	9.47342500
180.39998946	0.00000000	28.45718000	9.51648500
180.59998945	0.00000000	28.50024000	9.84867000
180.79998944	0.00000000	28.87549000	10.21161000
180.99998942	0.00000000	29.57062000	9.84867000
181.19998941	0.00000000	29.57062000	9.56569900
181.39998940	0.00000000	28.87549000	9.84867000
181.59998939	0.00000000	28.50024000	10.21161000
181.79998938	0.00000000	28.45718000	9.84867000
181.99998937	0.00000000	28.45718000	9.51648500
182.19998935	0.00000000	28.45718000	9.47342500
182.39998934	0.00000000	28.50024000	9.47342500
182.59998933	0.00000000	28.83243000	9.47342500
182.79998932	0.00000000	29.24459000	9.47342500
182.99998931	0.00000000	29.20767000	9.43036400
183.19998929	0.00000000	29.24459000	9.09817800
183.39998928	0.00000000	28.83243000	8.72908400
183.59998927	0.00000000	28.50024000	9.09817800
183.79998926	0.00000000	28.45718000	9.43036400
183.99998925	0.00000000	28.45718000	9.47342500
184.19998923	0.00000000	28.45718000	9.47342500
184.39998922	0.00000000	28.45718000	9.47342500
184.59998921	0.00000000	28.45718000	9.47342500
184.79998920	0.00000000	28.45718000	9.47342500
184.99998919	0.00000000	28.45718000	9.47342500
185.19998918	0.00000000	28.45718000	9.43036400
185.39998916	0.00000000	28.50024000	9.09817800
185.59998915	0.00000000	28.87549000	8.72908400
185.79998914	0.00000000	29.57062000	9.05511800
185.99998913	0.00000000	29.57062000	9.00590400
186.19998912	0.00000000	28.87549000	8.31077700
186.39998910	0.00000000	28.50024000	7.98474400
186.59998909	0.00000000	28.45718000	8.31077700
186.79998908	0.00000000	28.45718000	9.05511800
186.99998907	0.00000000	28.45718000	9.43036400
187.19998906	0.00000000	28.45718000	9.47342500
187.39998904	0.00000000	28.45718000	9.47342500
187.59998903	0.00000000	28.45718000	9.47342500
187.79998902	0.00000000	28.45718000	9.47342500
187.99998901	0.00000000	28.45718000	9.47342500
188.19998900	0.00000000	28.45718000	9.47342500
188.39998899	0.00000000	28.50024000	9.43036400
188.59998897	0.00000000	28.83243000	9.05511800
188.79998896	0.00000000	29.20152000	8.31077700
188.99998895	0.00000000	28.83243000	7.93553100
189.19998894	0.00000000	28.50024000	7.89247000
189.39998893	0.00000000	28.45718000	7.93553100
189.59998891	0.00000000	28.45718000	8.31077700
189.79998890	0.00000000	28.45718000	9.05511800
189.99998889	0.00000000	28.45718000	9.43036400
190.19998888	0.00000000	28.45718000	9.47342500
190.39998887	0.00000000	28.45718000	9.47342500
190.59998885	0.00000000	28.45718000	9.47342500
190.79998884	0.00000000	28.45718000	9.47342500
190.99998883	0.00000000	28.45718000	9.47342500
191.19998882	0.00000000	28.45718000	9.47342500
191.39998881	0.00000000	28.45718000	9.47342500
191.59998880	0.00000000	28.45718000	9.47342500
191.79998878	0.00000000	28.45718000	9.47342500
191.99998877	0.00000000	28.45718000	9.47342500
192.19998876	0.00000000	28.45718000	9.43036400
192.39998875	0.00000000	28.45718000	9.05511800
192.59998874	0.00000000	28.45718000	8.35998900
192.79998872	0.00000000	28.45718000	8.35998900
192.99998871	0.00000000	28.45718000	9.05511800
193.19998870	0.00000000	28.45718000	9.43036400
193.39998869	0.00000000	28.45718000	9.47342500
193.59998868	0.00000000	28.45718000	9.47342500
193.79998866	0.00000000	28.45718000	9.47342500
193.99998865	0.00000000	28.45718000	9.47342500
194.19998864	0.00000000	28.45718000	9.51648500
194.39998863	0.00000000	28.41412000	9.79945900
194.59998862	0.00000000	28.08194000	9.83636800
194.79998861	0.00000000	27.76206000	9.10433000
194.99998859	0.00000000	28.45718000	9.09817800
195.19998858	0.00000000	29.15231000	9.00590400
195.39998857	0.00000000	28.83243000	8.35998900
195.59998856	0.00000000	28.50024000	8.31077700
195.79998855	0.00000000	28.45718000	8.67987200
195.99998853	0.00000000	28.45718000	8.68602300
