Time	Channel A	Channel B	Channel C
(us)	(V)	(mV)	(mV)

-4.59999956	0.00000000	31.52682000	11.00517000
-4.39999957	0.00000000	31.20078000	10.62992000
-4.19999958	0.00000000	30.45644000	9.89173200
-3.99999959	0.00000000	30.08120000	9.51648500
-3.79999960	0.00000000	30.03814000	9.51648500
-3.59999962	0.00000000	30.08120000	9.89173200
-3.39999963	0.00000000	30.41338000	10.62992000
-3.19999964	0.00000000	30.78248000	10.95595000
-2.99999965	0.00000000	30.41338000	10.62992000
-2.79999966	0.00000000	30.08120000	9.89173200
-2.59999968	0.00000000	30.03814000	9.51648500
-2.39999969	0.00000000	30.03814000	9.51648500
-2.19999970	0.00000000	30.03814000	9.84867000
-1.99999971	0.00000000	30.08120000	10.25467000
-1.79999972	0.00000000	30.41338000	10.26698000
-1.59999973	0.00000000	30.78248000	10.62992000
-1.39999975	0.00000000	30.41338000	10.62992000
-1.19999976	0.00000000	30.08120000	10.31004000
-0.99999977	0.00000000	30.03814000	10.67298000
-0.79999978	0.00000000	30.08120000	11.00517000
-0.59999979	0.00000000	30.45644000	11.04823000
-0.39999981	0.31803640	31.15157000	11.04823000
-0.19999982	0.63668800	31.20078000	11.04823000
0.00000017	0.79601380	30.83169000	11.00517000
0.20000016	0.95533960	30.82554000	10.62992000
0.40000015	0.95533960	30.45644000	9.93479300
0.60000013	0.47736220	30.45644000	9.93479300
0.80000012	-0.31803640	30.78248000	10.62992000
1.00000011	-1.27399100	30.41338000	11.00517000
1.20000010	-2.22994600	30.08120000	11.04823000
1.40000009	-2.70792300	30.08120000	11.04823000
1.60000008	-2.54859700	30.45644000	11.04823000
1.80000006	-1.59264300	31.20078000	11.04823000
2.00000005	0.15871060	31.57603000	11.04823000
2.20000004	2.22994600	31.61909000	11.04823000
2.40000003	4.14124000	31.57603000	11.00517000
2.60000002	5.25652100	31.20078000	10.62992000
2.80000000	5.09719500	30.45644000	9.89173200
2.99999999	3.34522600	30.08120000	9.51648500
3.19999998	0.47736220	30.03814000	9.47342500
3.39999997	-2.86724900	30.03814000	9.51648500
3.59999996	-5.89382400	30.08120000	9.89173200
3.79999994	-7.80511800	30.45644000	10.62992000
3.99999993	-7.64579200	31.20078000	11.00517000
4.19999992	-5.57517200	31.52682000	11.04823000
4.39999991	-1.91129400	31.20078000	11.04823000
4.59999990	2.38927200	30.45644000	11.04823000
4.79999989	6.53112700	30.08120000	11.00517000
4.99999987	9.07972400	30.03814000	10.62992000
5.19999986	9.23905000	30.03814000	9.89173200
5.39999985	7.16781500	30.03814000	9.51648500
5.59999984	3.34522600	30.03814000	9.47342500
5.79999983	-1.43331700	30.03814000	9.47342500
5.99999981	-5.89382400	30.03814000	9.47342500
6.19999980	-8.76107300	30.08120000	9.51648500
6.39999979	-9.39837600	30.41338000	9.89173200
6.59999978	-7.80511800	30.82554000	10.62992000
6.79999977	-4.14124000	30.83169000	11.00517000
6.99999975	0.15871060	31.20078000	11.04823000
7.19999974	4.14124000	31.15157000	11.00517000
7.39999973	6.84916400	30.45644000	10.62992000
7.59999972	7.80511800	30.08120000	9.89173200
7.79999971	6.69045300	30.03814000	9.51648500
7.99999970	3.98191400	30.08120000	9.47342500
8.19999968	0.63668800	30.41338000	9.47342500
8.39999967	-2.22994600	30.78248000	9.51648500
8.59999966	-4.45989200	30.41338000	9.84867000
8.79999965	-5.25652100	30.08120000	10.25467000
8.99999964	-4.61921700	30.03814000	10.26698000
9.19999962	-3.02657500	30.03814000	10.67298000
9.39999961	-1.11466500	30.03814000	11.00517000
9.59999960	0.79601380	30.03814000	11.00517000
9.79999959	1.91129400	30.03814000	10.62992000
9.99999958	2.54859700	30.03814000	9.89173200
10.19999956	2.38927200	30.03814000	9.51648500
10.39999955	1.59264300	30.03814000	9.47342500
10.59999954	0.79601380	30.03814000	9.51648500
10.79999953	-0.15871060	30.03814000	9.89173200
10.99999952	-0.63668800	30.03814000	10.58686000
11.19999951	-0.95533960	30.03814000	10.58686000
11.39999949	-0.95533960	30.03814000	9.89173200
11.59999948	-0.79601380	30.03814000	9.56569900
11.79999947	-0.47736220	30.03814000	9.89173200
11.99999946	-0.15871060	30.03814000	10.62992000
12.19999945	-0.15871060	30.03814000	11.00517000
12.39999943	-0.15871060	30.03814000	11.04823000
12.59999942	0.00000000	30.03814000	11.04823000
12.79999941	0.00000000	30.03814000	11.04823000
12.99999940	0.15871060	30.03814000	11.04823000
13.19999939	0.15871060	30.03814000	11.04823000
13.39999937	0.00000000	30.03814000	11.04823000
13.59999936	0.00000000	30.03814000	11.04823000
13.79999935	0.00000000	30.03814000	11.04823000
13.99999934	-0.15871060	30.03814000	11.04823000
14.19999933	-0.15871060	30.03814000	11.04823000
14.39999932	-0.15871060	30.03814000	11.04823000
14.59999930	0.00000000	30.03814000	11.04823000
14.79999929	0.00000000	30.03814000	11.04823000
14.99999928	0.00000000	30.03814000	11.04823000
15.19999927	0.00000000	30.03814000	11.00517000
15.39999926	0.00000000	30.03814000	10.67298000
15.59999924	0.00000000	30.03814000	10.31004000
15.79999923	0.00000000	30.03814000	10.67298000
15.99999922	0.00000000	30.03814000	11.00517000
16.19999921	0.00000000	30.03814000	11.04823000
16.39999920	0.00000000	30.03814000	11.04823000
16.59999919	-0.15871060	30.08120000	11.04823000
16.79999917	0.00000000	30.45644000	11.04823000
16.99999916	0.00000000	31.20078000	11.04823000
17.19999915	0.00000000	31.61909000	11.04823000
17.39999914	0.00000000	31.99434000	11.04823000
17.59999913	0.00000000	32.36343000	11.00517000
17.79999911	0.00000000	31.95128000	10.67298000
17.99999910	0.00000000	31.20078000	10.31004000
18.19999909	0.00000000	29.99508000	10.67298000
18.39999908	0.00000000	28.45718000	10.95595000
18.59999907	0.00000000	26.87623000	10.67298000
18.79999905	0.00000000	25.38755000	10.31004000
18.99999904	0.00000000	24.68627000	10.67298000
19.19999903	0.00000000	25.84892000	11.00517000
19.39999902	0.00000000	28.54946000	11.00517000
19.59999901	0.00000000	32.03740000	10.62992000
19.79999900	0.00000000	35.94980000	9.89173200
19.99999898	0.00000000	39.39468000	9.51648500
20.19999897	0.00000000	41.67076000	9.47342500
20.39999896	0.00000000	41.58464000	9.47342500
20.59999895	0.00000000	38.41658000	9.47342500
20.79999894	0.00000000	32.27116000	9.47342500
20.99999892	0.00000000	24.50787000	9.47342500
21.19999891	0.00000000	17.19365000	9.47342500
21.39999890	0.00000000	11.38656000	9.47342500
21.59999889	0.00000000	9.19660400	9.47342500
21.79999888	0.00000000	11.57111000	9.47342500
21.99999886	0.00000000	18.96531000	9.47342500
22.19999885	0.00000000	30.17347000	9.47342500
22.39999884	0.00000000	42.55659000	9.47342500
22.59999883	0.00000000	53.76476000	9.47342500
22.79999882	0.00000000	60.98056000	9.51648500
22.99999881	0.00000000	61.63263000	9.89173200
23.19999879	0.00000000	54.23843000	10.62992000
23.39999878	0.00000000	39.95448000	11.04823000
23.59999877	0.00000000	22.18258000	11.46653000
23.79999876	0.00000000	4.82283400	12.21087000
23.99999875	0.00000000	-7.87401500	12.53691000
24.19999873	0.00000000	-12.48154000	12.16166000
24.39999872	0.00000000	-7.78174200	11.00517000
24.59999871	0.00000000	5.84399600	9.42421200
24.79999870	0.00000000	26.31643000	7.51722400
24.99999869	0.00000000	49.06496000	5.61638700
25.19999867	0.00000000	68.33784000	4.87204700
25.39999866	0.00000000	79.50295000	5.19808000
25.59999865	0.00000000	79.45374000	6.40378900
25.79999864	0.00000000	67.87032000	8.40305000
25.99999863	0.00000000	47.39788000	11.55881000
26.19999862	0.00000000	22.64394000	15.74188000
26.39999860	0.00000000	-0.85506890	19.54970000
26.59999859	0.00000000	-17.45817000	21.50590000
26.79999858	0.00000000	-22.85925000	21.46284000
26.99999857	0.00000000	-16.33858000	19.04527000
27.19999856	0.00000000	0.68282480	13.61343000
27.39999854	0.00000000	24.22490000	6.31766700
27.59999853	0.00000000	48.93578000	-1.02116100
27.79999852	0.00000000	69.03297000	-6.78518600
27.99999851	0.00000000	79.87819000	-9.43036400
28.19999850	0.00000000	79.54601000	-7.85556000
28.39999848	0.00000000	68.38091000	-1.96235200
28.59999847	0.00000000	49.48942000	7.70792300
28.79999846	0.00000000	27.42987000	19.64198000
28.99999845	0.00000000	6.91437000	30.42569000
29.19999844	0.00000000	-7.78174200	37.76451000
29.39999843	0.00000000	-13.64419000	39.99754000
29.59999841	0.00000000	-9.83021600	35.67913000
29.79999840	0.00000000	2.12844500	25.22145000
29.99999839	0.00000000	19.48204000	10.58686000
30.19999838	0.00000000	37.99828000	-4.83513700
30.39999837	0.00000000	53.16806000	-17.23671000
30.59999835	0.00000000	62.51845000	-24.53248000
30.79999834	0.00000000	64.88680000	-24.85851000
30.99999833	0.00000000	59.86712000	-17.10753000
31.19999832	0.00000000	49.11417000	-3.21112200
31.39999831	0.00000000	35.16240000	14.16708000
31.59999829	0.00000000	21.24139000	31.17003000
31.79999828	0.00000000	9.99015700	43.90379000
31.99999827	0.00000000	3.80167300	50.07997000
32.19999826	0.00000000	3.70939900	47.76082000
32.39999825	0.00000000	9.10433000	37.77067000
32.59999824	0.00000000	18.36245000	22.61934000
32.79999822	0.00000000	29.57677000	4.82898600
32.99999821	0.00000000	39.99754000	-12.13091000
33.19999820	0.00000000	47.39788000	-24.07111000
33.39999819	0.00000000	50.51673000	-28.38951000
33.59999818	0.00000000	48.97884000	-24.53248000
33.79999816	0.00000000	43.20866000	-13.74877000
33.99999815	0.00000000	34.73794000	1.71013800
34.19999814	0.00000000	25.89813000	18.35015000
34.39999813	0.00000000	18.96531000	33.03395000
34.59999812	0.00000000	15.80339000	42.64886000
34.79999810	0.00000000	16.49852000	44.64198000
34.99999809	0.00000000	19.99262000	39.25935000
35.19999808	0.00000000	25.80585000	28.05733000
35.39999807	0.00000000	32.64640000	13.00443000
35.59999806	0.00000000	37.99828000	-1.95620100
35.79999805	0.00000000	40.04675000	-13.19513000
35.99999803	0.00000000	39.30241000	-18.26402000
36.19999802	0.00000000	36.55265000	-16.77534000
36.39999801	0.00000000	31.57603000	-9.43651600
36.59999800	0.00000000	26.22416000	2.08538400
36.79999799	0.00000000	22.36097000	14.76993000
36.99999797	0.00000000	20.41092000	25.13533000
37.19999796	0.00000000	21.19833000	30.56717000
37.39999795	0.00000000	24.22490000	29.82899000
37.59999794	0.00000000	28.50024000	23.73892000
37.79999793	0.00000000	33.11393000	14.16708000
37.99999791	0.00000000	36.97096000	4.17691900
38.19999790	0.00000000	38.88410000	-3.49409400
38.39999789	0.00000000	38.55807000	-6.92667200
38.59999788	0.00000000	36.18971000	-4.65059000
38.79999787	0.00000000	32.36343000	2.17765700
38.99999786	0.00000000	27.71284000	11.04823000
39.19999784	0.00000000	23.84965000	19.83883000
39.39999783	0.00000000	21.10605000	25.92274000
39.59999782	0.00000000	19.94340000	26.66708000
39.79999781	0.00000000	20.73080000	22.10876000
39.99999780	0.00000000	23.06225000	13.65650000
40.19999778	0.00000000	26.91929000	3.75861200
40.39999777	0.00000000	31.15772000	-4.32455700
40.59999776	0.00000000	34.69488000	-8.18774500
40.79999775	0.00000000	37.43848000	-7.39419200
40.99999774	0.00000000	38.97638000	-1.58710600
41.19999772	0.00000000	38.93332000	7.94168200
41.39999771	0.00000000	37.02018000	17.92569000
41.59999770	0.00000000	33.53223000	25.63976000
41.79999769	0.00000000	29.66289000	29.49680000
41.99999768	0.00000000	25.80585000	28.34030000
42.19999767	0.00000000	23.10531000	22.61934000
42.39999765	0.00000000	22.26870000	14.21014000
42.59999764	0.00000000	22.64394000	5.70866100
42.79999763	0.00000000	24.18184000	-0.88582670
42.99999762	0.00000000	26.50098000	-4.74286400
43.19999761	0.00000000	28.83243000	-4.74286400
43.39999759	0.00000000	31.20078000	-0.97810030
43.59999758	0.00000000	33.11393000	4.77977300
43.79999757	0.00000000	34.27657000	11.00517000
43.99999756	0.00000000	34.31963000	16.76919000
44.19999755	0.00000000	33.61835000	20.57702000
44.39999753	0.00000000	33.20005000	21.03838000
44.59999752	0.00000000	32.78174000	18.81152000
44.79999751	0.00000000	32.03740000	15.32357000
44.99999750	0.00000000	31.66215000	11.04823000
45.19999749	0.00000000	31.52682000	6.86515700
45.39999748	0.00000000	30.73326000	4.12770700
45.59999746	0.00000000	28.78937000	3.29109200
45.79999745	0.00000000	26.45792000	3.66633800
45.99999744	0.00000000	23.71432000	5.24729300
46.19999743	0.00000000	21.10605000	7.93553100
46.39999742	0.00000000	19.99262000	10.96211000
46.59999740	0.00000000	21.19833000	13.32431000
46.79999739	0.00000000	24.68627000	14.49311000
46.99999738	0.00000000	30.13041000	14.90526000
47.19999737	0.00000000	36.27584000	14.07480000
47.39999736	0.00000000	41.67076000	12.16781000
47.59999734	0.00000000	44.74655000	9.47342500
47.79999733	0.00000000	44.69734000	6.77903500
47.99999732	0.00000000	41.16019000	4.87204700
48.19999731	0.00000000	34.18430000	4.08464600
48.39999730	0.00000000	25.38755000	4.87204700
48.59999729	0.00000000	17.29208000	6.77903500
48.79999727	0.00000000	12.26624000	9.51648500
48.99999726	0.00000000	11.10359000	12.58612000
49.19999725	0.00000000	14.22244000	15.27436000
49.39999724	0.00000000	21.19833000	16.81225000
49.59999723	0.00000000	30.45644000	16.81225000
49.79999721	0.00000000	40.04675000	15.27436000
49.99999720	0.00000000	46.97957000	12.53691000
50.19999719	0.00000000	49.30487000	9.05511800
50.39999718	0.00000000	47.02263000	5.19808000
50.59999717	0.00000000	40.42199000	2.17765700
50.79999715	0.00000000	31.24384000	1.01501000
50.99999714	0.00000000	21.94882000	2.17765700
51.19999713	0.00000000	15.05290000	5.24729300
51.39999712	0.00000000	11.94636000	9.47342500
51.59999711	0.00000000	13.89025000	13.69956000
51.79999710	0.00000000	19.94340000	16.81225000
51.99999708	0.00000000	28.08194000	18.39321000
52.19999707	0.00000000	36.14050000	18.35015000
52.39999706	0.00000000	42.32283000	16.39395000
52.59999705	0.00000000	44.56200000	12.58612000
52.79999704	0.00000000	42.32283000	8.35998900
52.99999702	0.00000000	36.18971000	4.87204700
53.19999701	0.00000000	28.59252000	2.54675200
53.39999700	0.00000000	21.99188000	2.17150600
53.59999699	0.00000000	18.12254000	3.70939900
53.79999698	0.00000000	17.34129000	6.72982200
53.99999696	0.00000000	20.03568000	10.16855000
54.19999695	0.00000000	25.38755000	12.49385000
54.39999694	0.00000000	31.53297000	13.69956000
54.59999693	0.00000000	36.92790000	13.69956000
54.79999692	0.00000000	40.00369000	12.53691000
54.99999691	0.00000000	40.04675000	10.67298000
55.19999689	0.00000000	37.34621000	8.77214500
55.39999688	0.00000000	32.68946000	8.02780400
55.59999687	0.00000000	26.96850000	8.35998900
55.79999686	0.00000000	21.99188000	9.51648500
55.99999685	0.00000000	19.66043000	11.04823000
56.19999683	0.00000000	19.99262000	12.58612000
56.39999682	0.00000000	22.68701000	13.65650000
56.59999681	0.00000000	26.91929000	13.23819000
56.79999680	0.00000000	31.53297000	10.91289000
56.99999679	0.00000000	35.39001000	7.51722400
57.19999677	0.00000000	37.30315000	4.08464600
57.39999676	0.00000000	36.97712000	2.17150600
57.59999675	0.00000000	34.69488000	2.17150600
57.79999674	0.00000000	31.61909000	4.12770700
57.99999673	0.00000000	28.50024000	8.02780400
58.19999672	0.00000000	25.80585000	13.00443000
58.39999670	0.00000000	24.26796000	17.97490000
58.59999669	0.00000000	24.22490000	21.03838000
58.79999668	0.00000000	25.38755000	21.41363000
58.99999667	0.00000000	27.29453000	19.08834000
59.19999666	0.00000000	29.61983000	14.03174000
59.39999664	0.00000000	31.52682000	7.51722400
59.59999663	0.00000000	32.68946000	0.97194880
59.79999662	0.00000000	32.73252000	-3.58021600
59.99999661	0.00000000	31.99434000	-4.74286400
60.19999660	0.00000000	31.20078000	-2.04847400
60.39999658	0.00000000	30.03814000	3.70939900
60.59999657	0.00000000	28.92470000	11.04823000
60.79999656	0.00000000	28.54946000	18.35015000
60.99999655	0.00000000	28.87549000	23.73892000
61.19999654	0.00000000	29.61983000	25.64591000
61.39999653	0.00000000	30.03814000	23.78199000
61.59999651	0.00000000	30.37032000	18.67618000
61.79999650	0.00000000	30.35802000	11.37426000
61.99999649	0.00000000	29.25074000	2.92199800
62.19999648	0.00000000	28.50024000	-3.53715500
62.39999647	0.00000000	28.03888000	-6.36687900
62.59999645	0.00000000	27.29453000	-5.57947800
62.79999644	0.00000000	26.96850000	-1.71628900
62.99999643	0.00000000	27.34375000	4.87204700
63.19999642	0.00000000	28.50024000	12.54306000
63.39999641	0.00000000	29.99508000	19.50664000
63.59999639	0.00000000	31.20078000	24.10802000
63.79999638	0.00000000	31.95128000	25.27067000
63.99999637	0.00000000	32.31422000	22.61934000
64.19999636	0.00000000	31.52682000	17.23056000
64.39999635	0.00000000	30.03814000	10.67298000
64.59999634	0.00000000	28.50024000	4.12770700
64.79999632	0.00000000	27.34375000	-0.51673230
64.99999631	0.00000000	26.91929000	-2.50984200
65.19999630	0.00000000	26.91929000	-2.14074800
65.39999629	0.00000000	27.34375000	0.55364170
65.59999628	0.00000000	28.50024000	4.77977300
65.79999626	0.00000000	29.99508000	9.43036400
65.99999625	0.00000000	31.10851000	13.69956000
66.19999624	0.00000000	31.10851000	16.85531000
66.39999623	0.00000000	30.03814000	18.81152000
66.59999622	0.00000000	28.87549000	19.59892000
66.79999620	0.00000000	28.03888000	18.76845000
66.99999619	0.00000000	26.91929000	16.48622000
67.19999618	0.00000000	26.22416000	13.00443000
67.39999617	0.00000000	27.01156000	9.55954600
67.59999616	0.00000000	28.87549000	6.68676100
67.79999615	0.00000000	31.24384000	3.98622000
67.99999613	0.00000000	33.53223000	1.34719500
68.19999612	0.00000000	35.39001000	0.55364170
68.39999611	0.00000000	35.34695000	1.24877000
68.59999610	0.00000000	33.11393000	2.50369100
68.79999609	0.00000000	29.99508000	5.29035400
68.99999607	0.00000000	26.45792000	9.51648500
69.19999606	0.00000000	22.64394000	14.16708000
69.39999605	0.00000000	19.99262000	18.39321000
69.59999604	0.00000000	19.61737000	21.03838000
69.79999603	0.00000000	21.52436000	21.08760000
69.99999601	0.00000000	25.43061000	18.76845000
70.19999600	0.00000000	30.45644000	14.90526000
70.39999599	0.00000000	35.85752000	9.84867000
70.59999598	0.00000000	40.04675000	4.87204700
70.79999597	0.00000000	41.58464000	0.97194880
70.99999596	0.00000000	40.08981000	-0.93503930
71.19999594	0.00000000	36.18971000	-0.55979330
71.39999593	0.00000000	30.78248000	2.12844500
71.59999592	0.00000000	24.55093000	6.40378900
71.79999591	0.00000000	19.19906000	11.38041000
71.99999590	0.00000000	15.76033000	15.97564000
72.19999588	0.00000000	15.76033000	18.30093000
72.39999587	0.00000000	19.14985000	18.39321000
72.59999586	0.00000000	24.18184000	16.85531000
72.79999585	0.00000000	30.03814000	14.16092000
72.99999584	0.00000000	35.81446000	11.04823000
73.19999582	0.00000000	40.04675000	7.98474400
73.39999581	0.00000000	41.58464000	5.70866100
73.59999580	0.00000000	40.08981000	5.29035400
73.79999579	0.00000000	36.23277000	6.36072800
73.99999578	0.00000000	31.24384000	7.84940900
74.19999577	0.00000000	26.18110000	9.05511800
74.39999575	0.00000000	22.31176000	9.79945900
74.59999574	0.00000000	19.99262000	10.16855000
74.79999573	0.00000000	19.99262000	9.38115100
74.99999572	0.00000000	22.22564000	7.93553100
75.19999571	0.00000000	25.29527000	6.82209600
75.39999569	0.00000000	28.45718000	6.82209600
75.59999568	0.00000000	31.53297000	7.98474400
75.79999567	0.00000000	33.80905000	9.93479300
75.99999566	0.00000000	34.23351000	12.62918000
76.19999565	0.00000000	33.15699000	15.27436000
76.39999563	0.00000000	31.61909000	16.76919000
76.59999562	0.00000000	30.03814000	16.39395000
76.79999561	0.00000000	28.50024000	14.03174000
76.99999560	0.00000000	27.38681000	10.16855000
77.19999559	0.00000000	27.34375000	5.19808000
77.39999558	0.00000000	28.08194000	1.02116100
77.59999556	0.00000000	28.78937000	-0.97810030
77.79999555	0.00000000	29.15231000	-0.97810030
77.99999554	0.00000000	28.41412000	1.02116100
78.19999553	0.00000000	27.34375000	5.29035400
78.39999552	0.00000000	26.91929000	11.00517000
78.59999550	0.00000000	26.91929000	16.39395000
78.79999549	0.00000000	27.29453000	19.88189000
78.99999548	0.00000000	28.12500000	21.08760000
79.19999547	0.00000000	29.29380000	19.88189000
79.39999546	0.00000000	31.24384000	16.43701000
79.59999544	0.00000000	33.11393000	11.42347000
79.79999543	0.00000000	34.27657000	6.44685000
79.99999542	0.00000000	34.23351000	2.50369100
80.19999541	0.00000000	32.68946000	0.17839570
80.39999540	0.00000000	29.99508000	-0.60285430
80.59999539	0.00000000	26.91929000	0.59670270
80.79999537	0.00000000	24.26796000	3.66633800
80.99999536	0.00000000	23.10531000	7.84940900
81.19999535	0.00000000	23.80659000	11.70029000
81.39999534	0.00000000	25.38755000	14.11786000
81.59999533	0.00000000	27.71284000	15.74188000
81.79999531	0.00000000	30.78248000	16.85531000
81.99999530	0.00000000	33.06471000	16.85531000
82.19999529	0.00000000	34.27657000	15.69882000
82.39999528	0.00000000	34.23351000	13.74262000
82.59999527	0.00000000	32.73868000	11.00517000
82.79999525	0.00000000	30.45644000	7.93553100
82.99999524	0.00000000	28.50024000	5.19808000
83.19999523	0.00000000	26.91929000	3.24803100
83.39999522	0.00000000	25.80585000	2.08538400
83.59999521	0.00000000	25.80585000	2.12844500
83.79999520	0.00000000	26.87623000	3.66633800
83.99999518	0.00000000	28.03888000	6.36072800
84.19999517	0.00000000	28.83243000	9.51648500
84.39999516	0.00000000	29.61983000	13.00443000
84.59999515	0.00000000	29.94586000	16.43701000
84.79999514	0.00000000	29.66289000	18.35015000
84.99999512	0.00000000	29.29380000	18.35015000
85.19999511	0.00000000	29.66289000	16.43701000
85.39999510	0.00000000	29.99508000	12.96137000
85.59999509	0.00000000	30.03814000	9.05511800
85.79999508	0.00000000	30.03814000	4.77977300
85.99999506	0.00000000	29.99508000	1.02116100
86.19999505	0.00000000	29.61983000	-0.51673230
86.39999504	0.00000000	28.83243000	0.59670270
86.59999503	0.00000000	28.08194000	3.66633800
86.79999502	0.00000000	27.25147000	7.93553100
86.99999501	0.00000000	26.50098000	12.53691000
87.19999499	0.00000000	25.76279000	16.39395000
87.39999498	0.00000000	25.80585000	18.35015000
87.59999497	0.00000000	26.91929000	18.35015000
87.79999496	0.00000000	28.45718000	16.39395000
87.99999495	0.00000000	29.99508000	12.53691000
88.19999493	0.00000000	31.15157000	7.93553100
88.39999492	0.00000000	31.52682000	3.70939900
88.59999491	0.00000000	31.20078000	1.01501000
88.79999490	0.00000000	30.41338000	0.63976370
88.99999489	0.00000000	29.61983000	2.59596400
89.19999487	0.00000000	28.41412000	6.77903500
89.39999486	0.00000000	26.91929000	11.74336000
89.59999485	0.00000000	25.80585000	15.64960000
89.79999484	0.00000000	25.80585000	18.35015000
89.99999483	0.00000000	26.87623000	19.04527000
90.19999482	0.00000000	28.03888000	16.76919000
90.39999480	0.00000000	28.83243000	12.53691000
90.59999479	0.00000000	29.61983000	7.56028500
90.79999478	0.00000000	29.99508000	2.97121000
90.99999477	0.00000000	29.99508000	0.63976370
91.19999476	0.00000000	29.61983000	0.59670270
91.39999474	0.00000000	28.87549000	2.59596400
91.59999473	0.00000000	28.50024000	6.82209600
91.79999472	0.00000000	28.50024000	12.16166000
91.99999471	0.00000000	28.83243000	16.72613000
92.19999470	0.00000000	29.20152000	19.04527000
92.39999468	0.00000000	28.83243000	18.30093000
92.59999467	0.00000000	28.50024000	15.27436000
92.79999466	0.00000000	28.41412000	11.00517000
92.99999465	0.00000000	27.98966000	6.40378900
93.19999464	0.00000000	26.87623000	2.54675200
93.39999463	0.00000000	25.80585000	0.68897630
93.59999461	0.00000000	25.76279000	1.43946800
93.79999460	0.00000000	26.54404000	4.82898600
93.99999459	0.00000000	27.71284000	9.00590400
94.19999458	0.00000000	29.66289000	12.53691000
94.39999457	0.00000000	31.57603000	15.27436000
94.59999455	0.00000000	33.15699000	16.71998000
94.79999454	0.00000000	34.27657000	15.97564000
94.99999453	0.00000000	34.23351000	12.91215000
95.19999452	0.00000000	32.64640000	9.14124000
95.39999451	0.00000000	29.57062000	5.61638700
95.59999449	0.00000000	25.76279000	3.33415300
95.79999448	0.00000000	22.68701000	2.59596400
95.99999447	0.00000000	21.10605000	4.08464600
96.19999446	0.00000000	21.10605000	7.09891700
96.39999445	0.00000000	22.68701000	9.84867000
96.59999444	0.00000000	25.76279000	12.58612000
96.79999442	0.00000000	29.61983000	14.76993000
96.99999441	0.00000000	33.11393000	14.85605000
97.19999440	0.00000000	35.85752000	13.37967000
97.39999439	0.00000000	37.35236000	11.83563000
97.59999438	0.00000000	36.92790000	9.84867000
97.79999436	0.00000000	34.27657000	7.98474400
97.99999435	0.00000000	30.41338000	6.77903500
98.19999434	0.00000000	26.54404000	6.40378900
98.39999433	0.00000000	23.01919000	6.77903500
98.59999432	0.00000000	20.73080000	7.89247000
98.79999430	0.00000000	19.94340000	9.05511800
98.99999429	0.00000000	21.10605000	9.79945900
99.19999428	0.00000000	23.80659000	10.25467000
99.39999427	0.00000000	27.29453000	10.26698000
99.59999426	0.00000000	31.15772000	10.67298000
99.79999425	0.00000000	34.23351000	11.04823000
99.99999423	0.00000000	35.81446000	11.42347000
100.19999422	0.00000000	35.85752000	11.79257000
100.39999421	0.00000000	34.69488000	11.42347000
100.59999420	0.00000000	32.73868000	11.09129000
100.79999419	0.00000000	29.99508000	10.95595000
100.99999417	0.00000000	26.91929000	10.16855000
101.19999416	0.00000000	24.22490000	8.26771600
101.39999415	0.00000000	22.64394000	6.40378900
101.59999414	0.00000000	22.26870000	5.19808000
101.79999413	0.00000000	23.01919000	4.87204700
101.99999411	0.00000000	24.96309000	5.61638700
102.19999410	0.00000000	27.25147000	7.56643700
102.39999409	0.00000000	29.61983000	9.89173200
102.59999408	0.00000000	31.52682000	12.58612000
102.79999407	0.00000000	32.73252000	14.85605000
102.99999406	0.00000000	33.10777000	15.64960000
103.19999404	0.00000000	32.73252000	15.27436000
103.39999403	0.00000000	31.52682000	13.65650000
103.59999402	0.00000000	29.61983000	10.58686000
103.79999401	0.00000000	27.29453000	6.77903500
103.99999400	0.00000000	25.38755000	3.70939900
104.19999398	0.00000000	24.22490000	2.17150600
104.39999397	0.00000000	24.22490000	2.54675200
104.59999396	0.00000000	25.33834000	4.82283400
104.79999395	0.00000000	26.87623000	7.89247000
104.99999394	0.00000000	28.45718000	11.00517000
105.19999392	0.00000000	29.99508000	13.69956000
105.39999391	0.00000000	31.10851000	15.18824000
105.59999390	0.00000000	31.15157000	14.85605000
105.79999389	0.00000000	30.41338000	12.95522000
105.99999388	0.00000000	29.61983000	10.67298000
106.19999387	0.00000000	28.45718000	8.31077700
106.39999385	0.00000000	27.29453000	6.40378900
106.59999384	0.00000000	26.54404000	5.24729300
106.79999383	0.00000000	26.18110000	5.24729300
106.99999382	0.00000000	26.91929000	6.40378900
107.19999381	0.00000000	28.03888000	8.31077700
107.39999379	0.00000000	28.83243000	10.58686000
107.59999378	0.00000000	29.61983000	12.11860000
107.79999377	0.00000000	29.99508000	12.53691000
107.99999376	0.00000000	29.99508000	12.16166000
108.19999375	0.00000000	29.57062000	10.96211000
108.39999374	0.00000000	28.41412000	9.09817800
108.59999372	0.00000000	26.91929000	7.19734200
108.79999371	0.00000000	25.80585000	6.40378900
108.99999370	0.00000000	25.76279000	6.35457700
109.19999369	0.00000000	26.50098000	6.82209600
109.39999368	0.00000000	27.29453000	8.35383800
109.59999366	0.00000000	28.45718000	10.58686000
109.79999365	0.00000000	29.57062000	12.11860000
109.99999364	0.00000000	29.99508000	12.58612000
110.19999363	0.00000000	29.99508000	12.53691000
110.39999362	0.00000000	29.61983000	11.79257000
110.59999360	0.00000000	28.83243000	10.26698000
110.79999359	0.00000000	28.03888000	9.09817800
110.99999358	0.00000000	26.87623000	7.84940900
111.19999357	0.00000000	25.80585000	6.40378900
111.39999356	0.00000000	25.76279000	5.66560000
111.59999355	0.00000000	26.50098000	6.36072800
111.79999353	0.00000000	27.25147000	7.47416300
111.99999352	0.00000000	28.08194000	8.31077700
112.19999351	0.00000000	28.83243000	9.47342500
112.39999350	0.00000000	29.57062000	10.58686000
112.59999349	0.00000000	29.57062000	11.00517000
112.79999347	0.00000000	28.87549000	11.04823000
112.99999346	0.00000000	28.50024000	11.00517000
113.19999345	0.00000000	28.45718000	10.62992000
113.39999344	0.00000000	28.45718000	9.89173200
113.59999343	0.00000000	28.45718000	9.47342500
113.79999341	0.00000000	28.45718000	9.05511800
113.99999340	0.00000000	28.41412000	8.31077700
114.19999339	0.00000000	28.03888000	7.93553100
114.39999338	0.00000000	27.34375000	7.89247000
114.59999337	0.00000000	27.34375000	7.89247000
114.79999336	0.00000000	28.03888000	7.89247000
114.99999334	0.00000000	28.41412000	7.89247000
115.19999333	0.00000000	28.45718000	7.89247000
115.39999332	0.00000000	28.45718000	7.93553100
115.59999331	0.00000000	28.45718000	8.35998900
115.79999330	0.00000000	28.45718000	9.47342500
115.99999328	0.00000000	28.41412000	10.58686000
116.19999327	0.00000000	28.03888000	11.00517000
116.39999326	0.00000000	27.29453000	11.04823000
116.59999325	0.00000000	26.96850000	11.04823000
116.79999324	0.00000000	27.25147000	11.00517000
116.99999322	0.00000000	27.66363000	10.58686000
117.19999321	0.00000000	27.66978000	9.42421200
117.39999320	0.00000000	28.12500000	7.93553100
117.59999319	0.00000000	28.83243000	6.77903500
117.79999318	0.00000000	29.61983000	6.40378900
117.99999317	0.00000000	29.94586000	6.72982200
118.19999315	0.00000000	29.61983000	7.51722400
118.39999314	0.00000000	28.83243000	8.26771600
118.59999313	0.00000000	28.03888000	9.09817800
118.79999312	0.00000000	26.87623000	9.84867000
118.99999311	0.00000000	25.76279000	10.62992000
119.19999309	0.00000000	25.33834000	11.00517000
119.39999308	0.00000000	25.33834000	11.04823000
119.59999307	0.00000000	25.76279000	11.00517000
119.79999306	0.00000000	26.87623000	10.62992000
119.99999305	0.00000000	28.03888000	9.84867000
120.19999303	0.00000000	28.87549000	9.09817800
120.39999302	0.00000000	30.03814000	8.31077700
120.59999301	0.00000000	31.10851000	7.93553100
120.79999300	0.00000000	31.10851000	7.89247000
120.99999299	0.00000000	30.03814000	7.89247000
121.19999298	0.00000000	28.87549000	7.89247000
121.39999296	0.00000000	28.03888000	7.93553100
121.59999295	0.00000000	26.87623000	8.31077700
121.79999294	0.00000000	25.76279000	9.05511800
121.99999293	0.00000000	25.33834000	9.43036400
122.19999292	0.00000000	25.33834000	9.47342500
122.39999290	0.00000000	25.71358000	9.51648500
122.59999289	0.00000000	26.50098000	9.89173200
122.79999288	0.00000000	27.29453000	10.58686000
122.99999287	0.00000000	28.45718000	10.58686000
123.19999286	0.00000000	29.57062000	9.89173200
123.39999284	0.00000000	29.99508000	9.51648500
123.59999283	0.00000000	29.99508000	9.43036400
123.79999282	0.00000000	29.61983000	9.05511800
123.99999281	0.00000000	28.87549000	8.31077700
124.19999280	0.00000000	28.45718000	7.93553100
124.39999279	0.00000000	27.98966000	7.89247000
124.59999277	0.00000000	26.87623000	7.93553100
124.79999276	0.00000000	25.76279000	8.31077700
124.99999275	0.00000000	25.33834000	9.05511800
125.19999274	0.00000000	25.33834000	9.43036400
125.39999273	0.00000000	25.71358000	9.51648500
125.59999271	0.00000000	26.50098000	9.89173200
125.79999270	0.00000000	27.25147000	10.62992000
125.99999269	0.00000000	28.08194000	10.95595000
126.19999268	0.00000000	28.83243000	10.62992000
126.39999267	0.00000000	29.61983000	9.89173200
126.59999265	0.00000000	29.94586000	9.47342500
126.79999264	0.00000000	29.57062000	9.05511800
126.99999263	0.00000000	28.45718000	8.31077700
127.19999262	0.00000000	27.29453000	7.93553100
127.39999261	0.00000000	26.50098000	7.89247000
127.59999260	0.00000000	25.71358000	7.89247000
127.79999258	0.00000000	25.33834000	7.93553100
127.99999257	0.00000000	25.33834000	8.31077700
128.19999256	0.00000000	25.76279000	9.05511800
128.39999255	0.00000000	26.87623000	9.43036400
128.59999254	0.00000000	28.03888000	9.47342500
128.79999252	0.00000000	28.83243000	9.47342500
128.99999251	0.00000000	29.61983000	9.47342500
129.19999250	0.00000000	29.94586000	9.43036400
129.39999249	0.00000000	29.57062000	9.05511800
129.59999248	0.00000000	28.45718000	8.31077700
129.79999246	0.00000000	27.29453000	7.93553100
129.99999245	0.00000000	26.50098000	7.93553100
130.19999244	0.00000000	25.76279000	8.31077700
130.39999243	0.00000000	25.76279000	9.05511800
130.59999242	0.00000000	26.50098000	9.43036400
130.79999241	0.00000000	27.25147000	9.47342500
130.99999239	0.00000000	28.08194000	9.47342500
131.19999238	0.00000000	28.78937000	9.47342500
131.39999237	0.00000000	29.20152000	9.43036400
131.59999236	0.00000000	28.83243000	9.05511800
131.79999235	0.00000000	28.45718000	8.31077700
131.99999233	0.00000000	28.03888000	7.93553100
132.19999232	0.00000000	27.29453000	7.89247000
132.39999231	0.00000000	26.91929000	7.89247000
132.59999230	0.00000000	26.87623000	7.93553100
132.79999229	0.00000000	26.87623000	8.31077700
132.99999227	0.00000000	26.87623000	9.05511800
133.19999226	0.00000000	26.87623000	9.47342500
133.39999225	0.00000000	26.87623000	9.84867000
133.59999224	0.00000000	26.91929000	10.21161000
133.79999223	0.00000000	27.25147000	9.84867000
133.99999222	0.00000000	27.62057000	9.47342500
134.19999220	0.00000000	27.25147000	9.05511800
134.39999219	0.00000000	26.96850000	8.31077700
134.59999218	0.00000000	27.29453000	7.93553100
134.79999217	0.00000000	28.03888000	7.84940900
134.99999216	0.00000000	28.41412000	7.51722400
135.19999214	0.00000000	28.45718000	7.14812900
135.39999213	0.00000000	28.45718000	7.56028500
135.59999212	0.00000000	28.41412000	8.26771600
135.79999211	0.00000000	28.03888000	9.05511800
135.99999210	0.00000000	27.25147000	9.47342500
136.19999208	0.00000000	26.50098000	9.89173200
136.39999207	0.00000000	25.71358000	10.58686000
136.59999206	0.00000000	25.38755000	10.58686000
136.79999205	0.00000000	25.71358000	9.89173200
136.99999204	0.00000000	26.50098000	9.47342500
137.19999203	0.00000000	27.25147000	9.05511800
137.39999201	0.00000000	28.03888000	8.31077700
137.59999200	0.00000000	28.41412000	7.93553100
137.79999199	0.00000000	28.45718000	7.89247000
137.99999198	0.00000000	28.41412000	7.89247000
138.19999197	0.00000000	28.03888000	7.89247000
138.39999195	0.00000000	27.29453000	7.93553100
138.59999194	0.00000000	26.87623000	8.31077700
138.79999193	0.00000000	26.50098000	9.05511800
138.99999192	0.00000000	26.13189000	9.47342500
139.19999191	0.00000000	26.50098000	9.84867000
139.39999189	0.00000000	26.87623000	10.21161000
139.59999188	0.00000000	27.29453000	9.84867000
139.79999187	0.00000000	28.03888000	9.51648500
139.99999186	0.00000000	28.41412000	9.43036400
140.19999185	0.00000000	28.45718000	9.05511800
140.39999184	0.00000000	28.45718000	8.31077700
140.59999182	0.00000000	28.41412000	7.89247000
140.79999181	0.00000000	28.03888000	7.47416300
140.99999180	0.00000000	27.29453000	6.77903500
141.19999179	0.00000000	26.91929000	6.77903500
141.39999178	0.00000000	26.87623000	7.51722400
141.59999176	0.00000000	26.87623000	8.26771600
141.79999175	0.00000000	26.87623000	9.09817800
141.99999174	0.00000000	26.91929000	9.84867000
142.19999173	0.00000000	27.29453000	10.62992000
142.39999172	0.00000000	28.03888000	10.95595000
142.59999170	0.00000000	28.36491000	10.62992000
142.79999169	0.00000000	28.03888000	9.84867000
142.99999168	0.00000000	27.29453000	9.09817800
143.19999167	0.00000000	26.91929000	8.26771600
143.39999166	0.00000000	26.87623000	7.51722400
143.59999165	0.00000000	26.87623000	6.72982200
143.79999163	0.00000000	26.87623000	6.40378900
143.99999162	0.00000000	26.91929000	6.77903500
144.19999161	0.00000000	27.29453000	7.89247000
144.39999160	0.00000000	28.03888000	9.05511800
144.59999159	0.00000000	28.41412000	9.79945900
144.79999157	0.00000000	28.41412000	10.21161000
144.99999156	0.00000000	28.03888000	9.84867000
145.19999155	0.00000000	27.29453000	9.51648500
145.39999154	0.00000000	26.91929000	9.43036400
145.59999153	0.00000000	26.87623000	9.05511800
145.79999151	0.00000000	26.87623000	8.31077700
145.99999150	0.00000000	26.87623000	7.93553100
146.19999149	0.00000000	26.87623000	7.89247000
146.39999148	0.00000000	26.87623000	7.89247000
146.59999147	0.00000000	26.91929000	7.89247000
146.79999146	0.00000000	27.29453000	7.89247000
146.99999144	0.00000000	28.03888000	7.93553100
147.19999143	0.00000000	28.36491000	8.31077700
147.39999142	0.00000000	28.03888000	9.05511800
147.59999141	0.00000000	27.29453000	9.43036400
147.79999140	0.00000000	26.91929000	9.47342500
147.99999138	0.00000000	26.87623000	9.47342500
148.19999137	0.00000000	26.83317000	9.43036400
148.39999136	0.00000000	26.50098000	9.05511800
148.59999135	0.00000000	26.13189000	8.31077700
148.79999134	0.00000000	26.50098000	7.93553100
148.99999132	0.00000000	26.87623000	7.89247000
149.19999131	0.00000000	27.29453000	7.89247000
149.39999130	0.00000000	27.98966000	7.89247000
149.59999129	0.00000000	28.03888000	7.89247000
149.79999128	0.00000000	27.71284000	7.93553100
149.99999127	0.00000000	28.03888000	8.31077700
150.19999125	0.00000000	27.98966000	9.05511800
150.39999124	0.00000000	27.29453000	9.43036400
150.59999123	0.00000000	26.91929000	9.47342500
150.79999122	0.00000000	26.87623000	9.47342500
150.99999121	0.00000000	26.83317000	9.47342500
151.19999119	0.00000000	26.45792000	9.43036400
151.39999118	0.00000000	25.76279000	9.05511800
151.59999117	0.00000000	25.76279000	8.31077700
151.79999116	0.00000000	26.45792000	7.93553100
151.99999115	0.00000000	26.87623000	7.89247000
152.19999113	0.00000000	27.25147000	7.89247000
152.39999112	0.00000000	27.62057000	7.89247000
152.59999111	0.00000000	27.25147000	7.93553100
152.79999110	0.00000000	26.91929000	8.26771600
152.99999109	0.00000000	26.87623000	8.67987200
153.19999108	0.00000000	26.87623000	8.68602300
153.39999106	0.00000000	26.87623000	9.09817800
153.59999105	0.00000000	26.83317000	9.43036400
153.79999104	0.00000000	26.45792000	9.47342500
153.99999103	0.00000000	25.76279000	9.47342500
154.19999102	0.00000000	25.71358000	9.47342500
154.39999100	0.00000000	26.08268000	9.43036400
154.59999099	0.00000000	26.08883000	9.05511800
154.79999098	0.00000000	26.50098000	8.31077700
154.99999097	0.00000000	26.83317000	7.93553100
155.19999096	0.00000000	26.91929000	7.89247000
155.39999094	0.00000000	27.29453000	7.89247000
155.59999093	0.00000000	28.03888000	7.89247000
155.79999092	0.00000000	28.36491000	7.89247000
155.99999091	0.00000000	28.03888000	7.93553100
156.19999090	0.00000000	27.29453000	8.31077700
156.39999089	0.00000000	26.91929000	9.05511800
156.59999087	0.00000000	26.87623000	9.43036400
156.79999086	0.00000000	26.83317000	9.47342500
156.99999085	0.00000000	26.45792000	9.47342500
157.19999084	0.00000000	25.71358000	9.47342500
157.39999083	0.00000000	25.38755000	9.47342500
157.59999081	0.00000000	25.76279000	9.43036400
157.79999080	0.00000000	26.83317000	9.05511800
157.99999079	0.00000000	27.57136000	8.31077700
158.19999078	0.00000000	27.29453000	7.93553100
158.39999077	0.00000000	27.34375000	7.89247000
158.59999075	0.00000000	27.98966000	7.89247000
158.79999074	0.00000000	27.98966000	7.89247000
158.99999073	0.00000000	27.29453000	7.93553100
159.19999072	0.00000000	26.91929000	8.31077700
159.39999071	0.00000000	26.87623000	9.05511800
159.59999070	0.00000000	26.87623000	9.43036400
159.79999068	0.00000000	26.87623000	9.47342500
159.99999067	0.00000000	26.87623000	9.47342500
160.19999066	0.00000000	26.87623000	9.47342500
160.39999065	0.00000000	26.87623000	9.43036400
160.59999064	0.00000000	26.87623000	9.05511800
160.79999062	0.00000000	26.87623000	8.31077700
160.99999061	0.00000000	26.87623000	7.93553100
161.19999060	0.00000000	26.87623000	7.89247000
161.39999059	0.00000000	26.91929000	7.89247000
161.59999058	0.00000000	27.25147000	7.89247000
161.79999056	0.00000000	27.62057000	7.93553100
161.99999055	0.00000000	27.25147000	8.31077700
162.19999054	0.00000000	26.91929000	9.00590400
162.39999053	0.00000000	26.87623000	9.05511800
162.59999052	0.00000000	26.83317000	8.72908400
162.79999051	0.00000000	26.50098000	9.09817800
162.99999049	0.00000000	26.08883000	9.43036400
163.19999048	0.00000000	26.08268000	9.43036400
163.39999047	0.00000000	25.67052000	9.05511800
163.59999046	0.00000000	25.33834000	8.31077700
163.79999045	0.00000000	25.33834000	7.93553100
163.99999043	0.00000000	25.71358000	7.89247000
164.19999042	0.00000000	26.45792000	7.89247000
164.39999041	0.00000000	26.83317000	7.89247000
164.59999040	0.00000000	26.87623000	7.89247000
164.79999039	0.00000000	26.87623000	7.89247000
164.99999037	0.00000000	26.87623000	7.89247000
165.19999036	0.00000000	26.87623000	7.93553100
165.39999035	0.00000000	26.87623000	8.26771600
165.59999034	0.00000000	26.87623000	8.67987200
165.79999033	0.00000000	26.83317000	8.64296200
165.99999032	0.00000000	26.45792000	8.72293300
166.19999030	0.00000000	25.71358000	8.68602300
166.39999029	0.00000000	25.33834000	9.05511800
166.59999028	0.00000000	25.29527000	9.00590400
166.79999027	0.00000000	25.33834000	8.31077700
166.99999026	0.00000000	25.71358000	7.93553100
167.19999024	0.00000000	26.45792000	7.93553100
167.39999023	0.00000000	26.83317000	8.26771600
167.59999022	0.00000000	26.87623000	8.63681000
167.79999021	0.00000000	26.87623000	8.26771600
167.99999020	0.00000000	26.87623000	7.93553100
168.19999018	0.00000000	26.87623000	7.89247000
168.39999017	0.00000000	26.87623000	7.89247000
168.59999016	0.00000000	26.87623000	7.89247000
168.79999015	0.00000000	26.87623000	7.89247000
168.99999014	0.00000000	26.87623000	7.89247000
169.19999013	0.00000000	26.87623000	7.89247000
169.39999011	0.00000000	26.87623000	7.89247000
169.59999010	0.00000000	26.87623000	7.89247000
169.79999009	0.00000000	26.87623000	7.93553100
169.99999008	0.00000000	26.87623000	8.26771600
170.19999007	0.00000000	26.87623000	8.63681000
170.39999005	0.00000000	26.87623000	8.26771600
170.59999004	0.00000000	26.87623000	7.93553100
170.79999003	0.00000000	26.87623000	7.89247000
170.99999002	0.00000000	26.87623000	7.89247000
171.19999001	0.00000000	26.87623000	7.89247000
171.39998999	0.00000000	26.87623000	7.89247000
171.59998998	0.00000000	26.87623000	7.89247000
171.79998997	0.00000000	26.87623000	7.89247000
171.99998996	0.00000000	26.87623000	7.89247000
172.19998995	0.00000000	26.87623000	7.89247000
172.39998994	0.00000000	26.87623000	7.89247000
172.59998992	0.00000000	26.83317000	7.89247000
172.79998991	0.00000000	26.50098000	7.93553100
172.99998990	0.00000000	26.08883000	8.26771600
173.19998989	0.00000000	26.12574000	8.63681000
173.39998988	0.00000000	26.08883000	8.26771600
173.59998986	0.00000000	26.50098000	7.93553100
173.79998985	0.00000000	26.83317000	7.89247000
173.99998984	0.00000000	26.87623000	7.89247000
174.19998983	0.00000000	26.87623000	7.89247000
174.39998982	0.00000000	26.87623000	7.89247000
174.59998980	0.00000000	26.87623000	7.93553100
174.79998979	0.00000000	26.87623000	8.31077700
174.99998978	0.00000000	26.87623000	9.05511800
175.19998977	0.00000000	26.87623000	9.43036400
175.39998976	0.00000000	26.87623000	9.47342500
175.59998975	0.00000000	26.87623000	9.47342500
175.79998973	0.00000000	26.87623000	9.43036400
175.99998972	0.00000000	26.87623000	9.05511800
176.19998971	0.00000000	26.87623000	8.31077700
176.39998970	0.00000000	26.87623000	7.93553100
176.59998969	0.00000000	26.87623000	7.89247000
176.79998967	0.00000000	26.87623000	7.89247000
176.99998966	0.00000000	26.83317000	7.89247000
177.19998965	0.00000000	26.50098000	7.89247000
177.39998964	0.00000000	26.08883000	7.89247000
177.59998963	0.00000000	26.12574000	7.89247000
177.79998961	0.00000000	26.08883000	7.89247000
177.99998960	0.00000000	26.50098000	7.89247000
178.19998959	0.00000000	26.78395000	7.89247000
178.39998958	0.00000000	26.50098000	7.89247000
178.59998957	0.00000000	26.13189000	7.89247000
178.79998956	0.00000000	26.45792000	7.89247000
178.99998954	0.00000000	26.45792000	7.89247000
179.19998953	0.00000000	26.13189000	7.89247000
179.39998952	0.00000000	26.50098000	7.89247000
179.59998951	0.00000000	26.83317000	7.89247000
179.79998950	0.00000000	26.87623000	7.89247000
179.99998948	0.00000000	26.87623000	7.89247000
180.19998947	0.00000000	26.87623000	7.89247000
180.39998946	0.00000000	26.87623000	7.89247000
180.59998945	0.00000000	26.83317000	7.89247000
180.79998944	0.00000000	26.45792000	7.89247000
180.99998942	0.00000000	25.71358000	7.93553100
181.19998941	0.00000000	25.38755000	8.26771600
181.39998940	0.00000000	25.71358000	8.67987200
181.59998939	0.00000000	26.40871000	8.68602300
181.79998938	0.00000000	26.45792000	9.05511800
181.99998937	0.00000000	26.13189000	9.00590400
182.19998935	0.00000000	26.50098000	8.31077700
182.39998934	0.00000000	26.83317000	7.93553100
182.59998933	0.00000000	26.87623000	7.89247000
182.79998932	0.00000000	26.87623000	7.89247000
182.99998931	0.00000000	26.87623000	7.89247000
183.19998929	0.00000000	26.83317000	7.89247000
183.39998928	0.00000000	26.45792000	7.89247000
183.59998927	0.00000000	25.71358000	7.89247000
183.79998926	0.00000000	25.33834000	7.89247000
183.99998925	0.00000000	25.33834000	7.93553100
184.19998923	0.00000000	25.67052000	8.26771600
184.39998922	0.00000000	26.03961000	8.67987200
184.59998921	0.00000000	25.71358000	8.68602300
184.79998920	0.00000000	25.76279000	9.09817800
184.99998919	0.00000000	26.45792000	9.38115100
185.19998918	0.00000000	26.83317000	9.05511800
185.39998916	0.00000000	26.87623000	8.31077700
185.59998915	0.00000000	26.87623000	7.93553100
185.79998914	0.00000000	26.87623000	7.89247000
185.99998913	0.00000000	26.87623000	7.89247000
186.19998912	0.00000000	26.87623000	7.89247000
186.39998910	0.00000000	26.83317000	7.89247000
186.59998909	0.00000000	26.45792000	7.89247000
186.79998908	0.00000000	25.71358000	7.89247000
186.99998907	0.00000000	25.33834000	7.93553100
187.19998906	0.00000000	25.29527000	8.31077700
187.39998904	0.00000000	25.29527000	9.05511800
187.59998903	0.00000000	25.29527000	9.43036400
187.79998902	0.00000000	25.29527000	9.47342500
187.99998901	0.00000000	25.33834000	9.43036400
188.19998900	0.00000000	25.71358000	9.05511800
188.39998899	0.00000000	26.45792000	8.31077700
188.59998897	0.00000000	26.83317000	7.93553100
188.79998896	0.00000000	26.87623000	7.89247000
188.99998895	0.00000000	26.87623000	7.89247000
189.19998894	0.00000000	26.87623000	7.89247000
189.39998893	0.00000000	26.83317000	7.89247000
189.59998891	0.00000000	26.50098000	7.89247000
189.79998890	0.00000000	26.13189000	7.89247000
189.99998889	0.00000000	26.45792000	7.89247000
190.19998888	0.00000000	26.40871000	7.89247000
190.39998887	0.00000000	25.71358000	7.89247000
190.59998885	0.00000000	25.33834000	7.89247000
190.79998884	0.00000000	25.29527000	7.89247000
190.99998883	0.00000000	25.33834000	7.89247000
191.19998882	0.00000000	25.71358000	7.89247000
191.39998881	0.00000000	26.45792000	7.89247000
191.59998880	0.00000000	26.78395000	7.89247000
191.79998878	0.00000000	26.50098000	7.89247000
191.99998877	0.00000000	26.13189000	7.89247000
192.19998876	0.00000000	26.45792000	7.89247000
192.39998875	0.00000000	26.40871000	7.89247000
192.59998874	0.00000000	25.71358000	7.89247000
192.79998872	0.00000000	25.33834000	7.89247000
192.99998871	0.00000000	25.29527000	7.89247000
193.19998870	0.00000000	25.33834000	7.89247000
193.39998869	0.00000000	25.67052000	7.89247000
193.59998868	0.00000000	26.03961000	7.89247000
193.79998866	0.00000000	25.67052000	7.93553100
193.99998865	0.00000000	25.38755000	8.31077700
194.19998864	0.00000000	25.71358000	9.00590400
194.39998863	0.00000000	26.45792000	9.05511800
194.59998862	0.00000000	26.78395000	8.68602300
194.79998861	0.00000000	26.45792000	8.67987200
194.99998859	0.00000000	25.71358000	8.26771600
195.19998858	0.00000000	25.33834000	7.89247000
195.39998857	0.00000000	25.29527000	7.51722400
195.59998856	0.00000000	25.29527000	7.14812900
195.79998855	0.00000000	25.29527000	7.51722400
195.99998853	0.00000000	25.29527000	7.84940900
