Time	Channel A	Channel B	Channel C
(us)	(V)	(mV)	(mV)

-4.59999956	0.00000000	47.34252000	17.36589000
-4.39999957	0.00000000	47.01648000	17.36589000
-4.19999958	0.00000000	46.27214000	17.36589000
-3.99999959	0.00000000	45.94611000	17.36589000
-3.79999960	0.00000000	46.22908000	17.36589000
-3.59999962	0.00000000	46.59818000	17.36589000
-3.39999963	0.00000000	46.22908000	17.36589000
-3.19999964	0.00000000	45.89690000	17.36589000
-2.99999965	0.00000000	45.89690000	17.36589000
-2.79999966	0.00000000	46.22908000	17.32283000
-2.59999968	0.00000000	46.64124000	16.99065000
-2.39999969	0.00000000	46.64739000	16.62155000
-2.19999970	0.00000000	47.01648000	16.99065000
-1.99999971	0.00000000	46.96727000	17.32283000
-1.79999972	0.00000000	46.27214000	17.36589000
-1.59999973	0.00000000	45.89690000	17.36589000
-1.39999975	0.00000000	45.85384000	17.36589000
-1.19999976	0.00000000	45.85384000	17.36589000
-0.99999977	0.00000000	45.85384000	17.36589000
-0.79999978	0.00000000	45.85384000	17.36589000
-0.59999979	0.00000000	45.85384000	17.36589000
-0.39999981	0.15871060	45.85384000	17.40895000
-0.19999982	0.47736220	45.85384000	17.74114000
0.00000017	0.79601380	45.85384000	18.11024000
0.20000016	0.95533960	45.89690000	17.74114000
0.40000015	0.95533960	46.27214000	17.40895000
0.60000013	0.63668800	46.96727000	17.36589000
0.80000012	-0.15871060	46.96727000	17.36589000
1.00000011	-1.11466500	46.27214000	17.36589000
1.20000010	-2.07062000	45.94611000	17.36589000
1.40000009	-2.70792300	46.22908000	17.36589000
1.60000008	-2.70792300	46.64124000	17.40895000
1.80000006	-1.91129400	46.64739000	17.78420000
2.00000005	-0.15871060	47.05954000	18.47933000
2.20000004	1.91129400	47.39173000	18.47933000
2.40000003	3.82258900	47.39173000	17.78420000
2.60000002	5.09719500	47.01648000	17.40895000
2.80000000	5.25652100	46.27214000	17.36589000
2.99999999	3.82258900	45.89690000	17.36589000
3.19999998	1.11466500	45.85384000	17.36589000
3.39999997	-2.22994600	45.85384000	17.36589000
3.59999996	-5.41584600	45.85384000	17.36589000
3.79999994	-7.48646600	45.85384000	17.40895000
3.99999993	-7.96444400	45.85384000	17.74114000
4.19999992	-6.21247500	45.89690000	18.15330000
4.39999991	-2.86724900	46.27214000	18.11639000
4.59999990	1.59264300	46.96727000	18.15330000
4.79999989	5.73449800	46.96727000	17.74114000
4.99999987	8.76107300	46.27214000	17.40895000
5.19999986	9.39837600	45.89690000	17.32283000
5.39999985	7.80511800	45.85384000	16.94759000
5.59999984	4.14124000	45.85384000	16.25246000
5.79999983	-0.47736220	45.85384000	16.25246000
5.99999981	-5.09719500	45.81078000	16.89837000
6.19999980	-8.44242100	45.52165000	16.94759000
6.39999979	-9.55770200	45.53395000	16.62155000
6.59999978	-8.28309500	46.59818000	16.99065000
6.79999977	-5.09719500	46.96727000	17.32283000
6.99999975	-0.63668800	46.64739000	17.36589000
7.19999974	3.50393700	46.64124000	17.36589000
7.39999973	6.53112700	46.22908000	17.36589000
7.59999972	7.80511800	45.89690000	17.36589000
7.79999971	7.00848900	45.85384000	17.36589000
7.99999970	4.61921700	45.85384000	17.32283000
8.19999968	1.43331700	45.85384000	16.99065000
8.39999967	-1.75196900	45.85384000	16.62155000
8.59999966	-4.14124000	45.85384000	16.99065000
8.79999965	-5.09719500	45.85384000	17.32283000
8.99999964	-4.77854300	45.85384000	17.36589000
9.19999962	-3.34522600	45.85384000	17.36589000
9.39999961	-1.43331700	45.85384000	17.36589000
9.59999960	0.47736220	45.85384000	17.36589000
9.79999959	1.91129400	45.85384000	17.36589000
9.99999958	2.54859700	45.85384000	17.36589000
10.19999956	2.38927200	45.85384000	17.36589000
10.39999955	1.75196900	45.85384000	17.36589000
10.59999954	0.95533960	45.85384000	17.36589000
10.79999953	0.00000000	45.85384000	17.36589000
10.99999952	-0.63668800	45.89690000	17.36589000
11.19999951	-0.95533960	46.22908000	17.36589000
11.39999949	-0.95533960	46.59818000	17.36589000
11.59999948	-0.79601380	46.22908000	17.36589000
11.79999947	-0.63668800	45.89690000	17.36589000
11.99999946	-0.31803640	45.85384000	17.36589000
12.19999945	-0.15871060	45.85384000	17.36589000
12.39999943	-0.15871060	45.85384000	17.36589000
12.59999942	0.00000000	45.85384000	17.36589000
12.79999941	0.00000000	45.85384000	17.36589000
12.99999940	0.00000000	45.85384000	17.36589000
13.19999939	0.00000000	45.85384000	17.36589000
13.39999937	0.00000000	45.85384000	17.36589000
13.59999936	0.00000000	45.85384000	17.36589000
13.79999935	0.00000000	45.85384000	17.36589000
13.99999934	-0.15871060	45.85384000	17.36589000
14.19999933	-0.15871060	45.85384000	17.36589000
14.39999932	-0.15871060	45.85384000	17.40895000
14.59999930	0.00000000	45.85384000	17.74114000
14.79999929	0.00000000	45.85384000	18.11024000
14.99999928	0.00000000	45.85384000	17.74114000
15.19999927	0.00000000	45.85384000	17.40895000
15.39999926	0.15871060	45.85384000	17.36589000
15.59999924	0.00000000	45.85384000	17.36589000
15.79999923	0.00000000	45.85384000	17.36589000
15.99999922	0.00000000	45.85384000	17.36589000
16.19999921	0.00000000	45.85384000	17.36589000
16.39999920	-0.15871060	45.89690000	17.36589000
16.59999919	-0.15871060	46.27214000	17.36589000
16.79999917	0.00000000	47.01648000	17.36589000
16.99999916	0.00000000	47.39173000	17.36589000
17.19999915	0.00000000	47.43479000	17.36589000
17.39999914	0.00000000	47.43479000	17.36589000
17.59999913	0.00000000	47.43479000	17.36589000
17.79999911	0.00000000	47.39173000	17.36589000
17.99999910	0.00000000	46.96727000	17.36589000
18.19999909	0.00000000	45.81078000	17.36589000
18.39999908	0.00000000	44.27288000	17.36589000
18.59999907	0.00000000	42.73499000	17.36589000
18.79999905	-0.15871060	41.57849000	17.36589000
18.99999904	0.00000000	41.24631000	17.36589000
19.19999903	0.00000000	42.03986000	17.36589000
19.39999902	0.00000000	44.36515000	17.36589000
19.59999901	0.00000000	47.47785000	17.36589000
19.79999900	0.00000000	51.01501000	17.36589000
19.99999898	0.00000000	54.82898000	17.36589000
20.19999897	0.00000000	57.43725000	17.36589000
20.39999896	0.00000000	57.43725000	17.36589000
20.59999895	0.00000000	54.69365000	17.36589000
20.79999894	0.00000000	49.62475000	17.36589000
20.99999892	0.00000000	42.59965000	17.36589000
21.19999891	0.00000000	34.92249000	17.36589000
21.39999890	0.00000000	28.40797000	17.32283000
21.59999889	0.00000000	25.37524000	16.94759000
21.79999888	0.00000000	26.95620000	16.25246000
21.99999886	0.00000000	33.23696000	16.25246000
22.19999885	0.00000000	43.70694000	16.94759000
22.39999884	0.00000000	56.45915000	17.32283000
22.59999883	0.00000000	68.37475000	17.32283000
22.79999882	0.00000000	76.42101000	16.99065000
22.99999881	0.00000000	77.86663000	16.62155000
23.19999879	0.00000000	71.67814000	17.03371000
23.39999878	0.00000000	58.88287000	17.74114000
23.59999877	0.00000000	42.22441000	18.52854000
23.79999876	0.00000000	24.82775000	18.90379000
23.99999875	0.00000000	10.58686000	18.94685000
24.19999873	0.00000000	3.37106300	18.90379000
24.39999872	0.00000000	5.79478300	18.43627000
24.59999871	0.00000000	18.54085000	16.90453000
24.79999870	0.00000000	38.59498000	14.67150000
24.99999869	0.00000000	61.01746000	13.09670000
25.19999867	0.00000000	81.12081000	12.29700000
25.39999866	0.00000000	94.14984000	11.93405000
25.59999865	0.00000000	96.43208000	12.76452000
25.79999864	0.00000000	86.75565000	14.72072000
25.99999863	0.00000000	67.48892000	17.87647000
26.19999862	0.00000000	43.11023000	22.05955000
26.39999860	0.00000000	19.19291000	25.91043000
26.59999859	0.00000000	1.05191900	28.19267000
26.79999858	0.00000000	-6.67445900	28.56176000
26.99999857	0.00000000	-2.44217500	26.15034000
27.19999856	0.00000000	12.59227000	21.13066000
27.39999854	0.00000000	35.00861000	14.16092000
27.59999853	0.00000000	59.35039000	6.82209600
27.79999852	0.00000000	80.61023000	0.63976370
27.99999851	0.00000000	93.73154000	-3.11884800
28.19999850	0.00000000	95.73080000	-2.61441900
28.39999848	0.00000000	86.89099000	3.14960600
28.59999847	0.00000000	69.48818000	12.80758000
28.79999846	0.00000000	47.47785000	24.05881000
28.99999845	0.00000000	25.84276000	35.25467000
29.19999844	0.00000000	9.60875900	43.66388000
29.39999843	0.00000000	2.20841500	46.73351000
29.59999841	0.00000000	4.77362200	43.57775000
29.79999840	0.00000000	15.56348000	34.27657000
29.99999839	0.00000000	31.43455000	20.34941000
30.19999838	0.00000000	49.66781000	4.91510800
30.39999837	0.00000000	66.24015000	-8.96899500
30.59999835	0.00000000	77.49139000	-17.80266000
30.79999834	0.00000000	81.02854000	-19.33440000
30.99999833	0.00000000	76.88853000	-13.10900000
31.19999832	0.00000000	66.87991000	0.04306102
31.39999831	0.00000000	53.67249000	17.36589000
31.59999829	0.00000000	39.70842000	34.74409000
31.79999828	0.00000000	27.38066000	48.31446000
31.99999827	0.00000000	20.02953000	55.65329000
32.19999826	0.00000000	19.14370000	55.23499000
32.39999825	0.00000000	23.75123000	46.73351000
32.59999824	0.00000000	32.64025000	32.04970000
32.79999822	0.00000000	43.80536000	14.30241000
32.99999821	0.00000000	54.27534000	-2.70054100
33.19999820	0.00000000	62.04478000	-15.10827000
33.39999819	0.00000000	65.95103000	-20.91535000
33.59999818	0.00000000	65.16363000	-18.95915000
33.79999816	0.00000000	60.18085000	-9.30118100
33.99999815	0.00000000	52.08538000	5.70866100
34.19999814	0.00000000	43.24557000	22.71161000
34.39999813	0.00000000	35.89444000	37.77067000
34.59999812	0.00000000	31.61294000	47.89616000
34.79999810	0.00000000	31.19464000	51.37795000
34.99999809	0.00000000	34.26427000	47.89616000
35.19999808	0.00000000	40.04060000	37.81373000
35.39999807	0.00000000	46.92421000	23.22219000
35.59999806	0.00000000	52.69439000	7.84325700
35.79999805	0.00000000	55.81324000	-4.14616100
35.99999803	0.00000000	55.85630000	-10.37155000
36.19999802	0.00000000	53.16190000	-10.03937000
36.39999801	0.00000000	48.54823000	-3.49409400
36.59999800	0.00000000	43.15945000	7.28961600
36.79999799	0.00000000	38.59498000	19.97416000
36.99999797	0.00000000	36.26968000	31.07775000
37.19999796	0.00000000	37.01402000	37.26009000
37.39999795	0.00000000	40.04060000	37.34621000
37.59999794	0.00000000	44.31594000	32.00664000
37.79999793	0.00000000	48.92347000	23.17298000
37.99999791	0.00000000	52.78666000	13.18282000
38.19999790	0.00000000	54.74286000	4.77362200
38.39999789	0.00000000	54.74286000	0.54749010
38.59999788	0.00000000	52.78666000	1.70398600
38.79999787	0.00000000	48.92347000	7.79404500
38.99999786	0.00000000	44.31594000	16.99065000
39.19999784	0.00000000	40.04060000	26.15034000
39.39999783	0.00000000	36.96481000	32.65256000
39.59999782	0.00000000	35.75910000	34.14124000
39.79999781	0.00000000	36.54650000	30.00738000
39.99999780	0.00000000	38.83489000	21.96727000
40.19999778	0.00000000	42.35974000	12.72146000
40.39999777	0.00000000	46.22908000	4.26304100
40.59999776	0.00000000	50.12918000	-1.07652500
40.79999775	0.00000000	53.20496000	-1.45177200
40.99999774	0.00000000	54.78592000	3.14960600
41.19999772	0.00000000	54.78592000	11.60187000
41.39999771	0.00000000	53.20496000	21.54897000
41.59999770	0.00000000	50.12918000	30.00123000
41.79999769	0.00000000	46.27214000	34.65182000
41.99999768	0.00000000	42.73499000	34.69488000
42.19999767	0.00000000	39.62229000	30.46875000
42.39999765	0.00000000	37.38927000	23.12992000
42.59999764	0.00000000	37.34006000	14.30241000
42.79999763	0.00000000	39.19783000	6.26230300
42.99999762	0.00000000	41.52928000	1.61786400
43.19999761	0.00000000	44.27288000	1.19955700
43.39999759	0.00000000	46.92421000	4.59522600
43.59999758	0.00000000	48.50517000	10.72219000
43.79999757	0.00000000	48.97269000	17.23056000
43.99999756	0.00000000	49.01575000	22.71161000
44.19999755	0.00000000	49.01575000	26.19955000
44.39999753	0.00000000	48.97269000	27.39911000
44.59999752	0.00000000	48.59744000	26.24262000
44.79999751	0.00000000	47.85310000	23.17298000
44.99999750	0.00000000	47.47785000	18.94685000
45.19999749	0.00000000	47.39173000	14.72072000
45.39999748	0.00000000	46.92421000	11.65108000
45.59999746	0.00000000	45.34325000	10.40231000
45.79999745	0.00000000	42.64886000	10.76525000
45.99999744	0.00000000	39.57308000	11.93405000
46.19999743	0.00000000	36.92175000	14.29626000
46.39999742	0.00000000	35.80832000	17.32283000
46.59999740	0.00000000	36.96481000	20.01722000
46.79999739	0.00000000	40.08366000	21.59203000
46.99999738	0.00000000	44.78346000	22.01033000
47.19999737	0.00000000	50.59670000	21.59203000
47.39999736	0.00000000	56.32381000	20.01722000
47.59999734	0.00000000	60.13164000	17.36589000
47.79999733	0.00000000	60.50689000	14.67150000
47.99999732	0.00000000	57.39419000	12.72146000
48.19999731	0.00000000	51.20571000	11.55881000
48.39999730	0.00000000	43.06717000	11.55881000
48.59999729	0.00000000	34.96555000	12.76452000
48.79999727	0.00000000	28.45103000	15.08981000
48.99999726	0.00000000	25.84276000	18.52854000
49.19999725	0.00000000	28.49409000	21.54897000
49.39999724	0.00000000	35.38385000	23.17298000
49.59999723	0.00000000	44.31594000	23.54823000
49.79999721	0.00000000	53.58022000	22.75467000
49.99999720	0.00000000	61.29429000	20.39247000
50.19999719	0.00000000	65.07136000	16.94759000
50.39999718	0.00000000	63.94562000	13.09670000
50.59999717	0.00000000	57.81250000	10.02707000
50.79999715	0.00000000	48.97269000	8.48917200
50.99999714	0.00000000	39.70842000	8.86441900
51.19999713	0.00000000	31.98819000	11.18356000
51.39999712	0.00000000	28.16806000	14.67150000
51.59999711	0.00000000	28.91240000	18.94685000
51.79999710	0.00000000	34.26427000	23.12992000
51.99999708	0.00000000	42.31668000	25.82431000
52.19999707	0.00000000	50.41830000	26.24262000
52.39999706	0.00000000	56.96973000	24.66166000
52.59999705	0.00000000	60.00246000	21.22293000
52.79999704	0.00000000	58.55069000	16.62155000
52.99999702	0.00000000	53.53100000	12.80758000
53.19999701	0.00000000	46.64124000	10.40231000
53.39999700	0.00000000	39.33932000	9.65182000
53.59999699	0.00000000	34.35654000	10.40231000
53.79999698	0.00000000	32.77559000	12.72146000
53.99999696	0.00000000	34.68258000	15.74188000
54.19999695	0.00000000	39.66535000	18.43627000
54.39999694	0.00000000	45.81078000	19.97416000
54.59999693	0.00000000	51.58095000	20.01722000
54.79999692	0.00000000	55.43799000	18.90379000
54.99999691	0.00000000	56.18848000	17.36589000
55.19999689	0.00000000	53.90009000	15.83415000
55.39999688	0.00000000	48.92347000	14.72072000
55.59999687	0.00000000	43.15945000	14.72072000
55.79999686	0.00000000	38.21973000	15.87721000
55.99999685	0.00000000	35.48228000	17.78420000
56.19999683	0.00000000	36.21432000	20.06029000
56.39999682	0.00000000	38.83489000	21.50590000
56.59999681	0.00000000	42.78420000	21.13066000
56.79999680	0.00000000	47.34252000	18.81152000
56.99999679	0.00000000	51.20571000	15.40969000
57.19999677	0.00000000	53.16190000	11.93405000
57.39999676	0.00000000	53.20496000	9.65182000
57.59999675	0.00000000	51.62401000	8.86441900
57.79999674	0.00000000	48.54823000	10.11319000
57.99999673	0.00000000	44.74040000	13.60113000
58.19999672	0.00000000	41.66461000	18.94685000
58.39999670	0.00000000	40.04060000	24.29257000
58.59999669	0.00000000	39.66535000	27.73130000
58.79999668	0.00000000	40.45890000	28.51870000
58.99999667	0.00000000	42.73499000	26.15034000
59.19999666	0.00000000	45.38631000	21.17372000
59.39999664	0.00000000	47.34252000	14.62844000
59.59999663	0.00000000	48.50517000	8.48917200
59.79999662	0.00000000	48.50517000	4.21998000
59.99999661	0.00000000	47.43479000	2.68208600
60.19999660	0.00000000	46.27214000	4.26304100
60.39999658	0.00000000	45.47859000	8.95669300
60.59999657	0.00000000	44.69119000	16.20325000
60.79999656	0.00000000	44.31594000	23.91732000
60.99999655	0.00000000	44.31594000	29.68750000
61.19999654	0.00000000	44.69119000	32.79404000
61.39999653	0.00000000	45.43553000	31.95743000
61.59999651	0.00000000	45.81078000	27.35605000
61.79999650	0.00000000	45.81078000	20.01722000
61.99999649	0.00000000	45.43553000	11.60187000
62.19999648	0.00000000	44.64813000	4.68134800
62.39999647	0.00000000	43.89763000	1.15034400
62.59999645	0.00000000	43.11023000	1.15034400
62.79999644	0.00000000	42.78420000	4.63828700
62.99999643	0.00000000	43.15945000	11.18356000
63.19999642	0.00000000	44.31594000	18.85458000
63.39999641	0.00000000	45.81078000	25.82431000
63.59999639	0.00000000	47.01648000	30.46875000
63.79999638	0.00000000	47.76698000	32.04970000
63.99999637	0.00000000	48.17913000	30.46875000
64.19999636	0.00000000	47.71776000	25.82431000
64.39999635	0.00000000	46.59818000	18.94685000
64.59999634	0.00000000	44.69119000	12.02018000
64.79999632	0.00000000	43.20251000	6.95743000
64.99999631	0.00000000	42.73499000	4.21998000
65.19999630	0.00000000	42.73499000	4.17076700
65.39999629	0.00000000	43.15945000	6.44685000
65.59999628	0.00000000	44.27288000	9.93479300
65.79999626	0.00000000	45.43553000	14.25320000
65.99999625	0.00000000	46.22908000	18.90379000
66.19999624	0.00000000	46.96727000	23.12992000
66.39999623	0.00000000	46.92421000	25.82431000
66.59999622	0.00000000	45.81078000	26.28568000
66.79999620	0.00000000	44.27288000	25.17224000
66.99999619	0.00000000	42.78420000	23.22219000
67.19999618	0.00000000	42.03986000	20.47859000
67.39999617	0.00000000	42.78420000	17.36589000
67.59999616	0.00000000	44.31594000	14.21014000
67.79999615	0.00000000	46.27214000	11.14050000
67.99999613	0.00000000	48.59744000	8.77214500
68.19999612	0.00000000	50.46136000	7.60949800
68.39999611	0.00000000	51.20571000	7.24040300
68.59999610	0.00000000	50.00000000	8.48917200
68.79999609	0.00000000	46.96727000	11.55881000
68.99999607	0.00000000	43.06717000	15.83415000
69.19999606	0.00000000	39.24704000	20.47859000
69.39999605	0.00000000	36.18356000	24.71087000
69.59999604	0.00000000	35.43307000	27.40526000
69.79999603	0.00000000	36.96481000	27.82357000
69.99999601	0.00000000	40.45890000	26.24262000
70.19999600	0.00000000	45.47859000	22.75467000
70.39999599	0.00000000	50.46136000	17.74114000
70.59999598	0.00000000	54.36761000	12.72146000
70.79999597	0.00000000	56.27460000	8.44611200
70.99999596	0.00000000	55.85630000	5.80093500
71.19999594	0.00000000	52.73745000	5.75172200
71.39999593	0.00000000	47.34252000	8.07086500
71.59999592	0.00000000	41.20325000	11.93405000
71.79999591	0.00000000	35.80217000	16.94759000
71.99999590	0.00000000	32.68332000	21.54897000
72.19999588	0.00000000	32.26501000	24.66166000
72.39999587	0.00000000	34.22121000	25.82431000
72.59999586	0.00000000	38.50270000	24.71087000
72.79999585	0.00000000	44.27288000	22.05955000
72.99999584	0.00000000	50.08612000	18.94685000
73.19999582	0.00000000	54.69365000	15.87721000
73.39999581	0.00000000	57.01894000	13.55807000
73.59999580	0.00000000	56.23154000	12.76452000
73.79999579	0.00000000	52.82972000	13.09670000
73.99999578	0.00000000	47.81004000	14.29626000
74.19999577	0.00000000	42.78420000	16.11712000
74.39999575	0.00000000	38.50270000	17.59966000
74.59999574	0.00000000	35.80832000	17.27362000
74.79999573	0.00000000	35.43307000	16.20325000
74.99999572	0.00000000	37.29700000	15.36663000
75.19999571	0.00000000	40.73573000	14.25320000
75.39999569	0.00000000	44.22982000	13.60113000
75.59999568	0.00000000	47.34252000	14.72072000
75.79999567	0.00000000	49.62475000	17.03986000
75.99999566	0.00000000	50.08612000	19.74040000
76.19999565	0.00000000	49.34793000	22.80389000
76.39999563	0.00000000	48.17913000	24.61860000
76.59999562	0.00000000	46.22908000	24.29257000
76.79999561	0.00000000	44.36515000	21.92421000
76.99999560	0.00000000	43.20251000	18.06102000
77.19999559	0.00000000	43.15945000	13.09670000
77.39999558	0.00000000	43.85457000	8.86441900
77.59999556	0.00000000	44.22982000	6.48991100
77.79999555	0.00000000	44.27288000	5.75172200
77.99999554	0.00000000	44.22982000	7.37573800
78.19999553	0.00000000	43.85457000	11.55881000
78.39999552	0.00000000	43.11023000	16.94759000
78.59999550	0.00000000	42.73499000	21.96727000
78.79999549	0.00000000	42.73499000	25.86737000
78.99999548	0.00000000	43.15945000	27.77436000
79.19999547	0.00000000	44.36515000	27.40526000
79.39999546	0.00000000	46.27214000	24.66781000
79.59999544	0.00000000	48.54823000	20.06029000
79.79999543	0.00000000	50.04306000	14.67766000
79.99999542	0.00000000	50.04306000	10.07013000
80.19999541	0.00000000	48.50517000	7.33267600
80.39999540	0.00000000	45.85384000	6.86515700
80.59999539	0.00000000	43.11023000	7.98474400
80.79999537	0.00000000	40.77879000	9.98400600
80.99999536	0.00000000	38.87795000	13.09670000
81.19999535	0.00000000	38.54576000	16.94759000
81.39999534	0.00000000	40.04060000	20.39247000
81.59999533	0.00000000	42.69193000	22.75467000
81.79999531	0.00000000	45.43553000	23.54823000
81.99999530	0.00000000	47.76698000	23.21604000
82.19999529	0.00000000	49.66781000	22.01649000
82.39999528	0.00000000	50.04306000	20.06029000
82.59999527	0.00000000	48.92347000	17.36589000
82.79999525	0.00000000	47.01648000	14.67150000
82.99999524	0.00000000	44.69119000	12.62918000
83.19999523	0.00000000	42.78420000	10.67298000
83.39999522	0.00000000	41.57849000	8.82135800
83.59999521	0.00000000	41.20325000	8.48917200
83.79999520	0.00000000	41.57849000	9.98400600
83.99999518	0.00000000	42.73499000	12.72146000
84.19999517	0.00000000	44.22982000	16.20325000
84.39999516	0.00000000	45.34325000	20.06029000
84.59999515	0.00000000	45.43553000	23.17298000
84.79999514	0.00000000	45.10950000	25.12918000
84.99999512	0.00000000	45.43553000	25.86737000
85.19999511	0.00000000	45.43553000	24.66166000
85.39999510	0.00000000	45.10950000	21.59203000
85.59999509	0.00000000	45.47859000	17.32283000
85.79999508	0.00000000	45.81078000	12.72146000
85.99999506	0.00000000	45.85384000	8.86441900
86.19999505	0.00000000	45.81078000	6.95743000
86.39999504	0.00000000	45.38631000	7.33267600
86.59999503	0.00000000	44.27288000	10.02707000
86.79999502	0.00000000	43.11023000	14.25320000
86.99999501	0.00000000	42.35974000	18.90379000
87.19999499	0.00000000	41.94759000	23.12992000
87.39999498	0.00000000	42.35974000	25.82431000
87.59999497	0.00000000	43.11023000	26.24262000
87.79999496	0.00000000	44.31594000	24.66166000
87.99999495	0.00000000	45.81078000	21.17372000
88.19999493	0.00000000	46.96727000	16.20325000
88.39999492	0.00000000	47.39173000	11.60187000
88.59999491	0.00000000	47.34252000	8.44611200
88.79999490	0.00000000	46.59818000	7.00049200
88.99999489	0.00000000	45.06644000	8.16929100
89.19999487	0.00000000	43.89763000	12.34621000
89.39999486	0.00000000	42.69193000	17.32283000
89.59999485	0.00000000	41.62155000	21.96727000
89.79999484	0.00000000	41.62155000	25.39985000
89.99999483	0.00000000	42.69193000	26.15034000
90.19999482	0.00000000	43.85457000	24.29257000
90.39999480	0.00000000	44.64813000	20.39247000
90.59999479	0.00000000	45.43553000	15.41585000
90.79999478	0.00000000	45.81078000	10.44537000
90.99999477	0.00000000	45.85384000	7.37573800
91.19999476	0.00000000	45.81078000	6.95743000
91.39999474	0.00000000	45.43553000	8.86441900
91.59999473	0.00000000	44.69119000	12.72146000
91.79999472	0.00000000	44.36515000	17.32283000
91.99999471	0.00000000	44.69119000	21.59203000
92.19999470	0.00000000	45.43553000	24.61860000
92.39999468	0.00000000	45.76156000	25.35679000
92.59999467	0.00000000	45.43553000	23.08686000
92.79999466	0.00000000	44.64813000	18.90379000
92.99999465	0.00000000	43.85457000	14.25320000
93.19999464	0.00000000	42.69193000	10.02707000
93.39999463	0.00000000	41.62155000	7.37573800
93.59999461	0.00000000	41.57849000	7.37573800
93.79999460	0.00000000	42.31668000	10.02707000
93.99999459	0.00000000	43.15945000	14.25320000
94.19999458	0.00000000	44.74040000	18.85458000
94.39999457	0.00000000	47.01648000	22.66855000
94.59999455	0.00000000	48.88041000	24.20029000
94.79999454	0.00000000	49.66781000	23.12992000
94.99999453	0.00000000	48.92347000	20.43553000
95.19999452	0.00000000	47.39173000	16.94759000
95.39999451	0.00000000	45.38631000	13.09670000
95.59999449	0.00000000	42.64886000	10.07013000
95.79999448	0.00000000	39.62229000	8.91363100
95.99999447	0.00000000	37.34006000	10.02707000
96.19999446	0.00000000	36.96481000	12.67224000
96.39999445	0.00000000	38.45964000	15.78494000
96.59999444	0.00000000	41.20325000	18.85458000
96.79999442	0.00000000	44.69119000	21.17372000
96.99999441	0.00000000	48.54823000	21.92421000
97.19999440	0.00000000	51.62401000	21.17372000
97.39999439	0.00000000	53.16190000	18.89764000
97.59999438	0.00000000	52.78666000	16.25246000
97.79999436	0.00000000	50.46136000	14.29626000
97.99999435	0.00000000	47.01648000	13.13976000
98.19999434	0.00000000	43.11023000	13.13976000
98.39999433	0.00000000	39.62229000	14.21014000
98.59999432	0.00000000	36.92175000	15.36663000
98.79999430	0.00000000	35.75910000	16.16018000
98.99999429	0.00000000	36.54650000	16.94759000
99.19999428	0.00000000	38.83489000	17.32283000
99.39999427	0.00000000	42.35974000	17.36589000
99.59999426	0.00000000	46.18602000	17.36589000
99.79999425	0.00000000	49.66781000	17.40895000
99.99999423	0.00000000	51.58095000	17.78420000
100.19999422	0.00000000	51.66707000	18.52854000
100.39999421	0.00000000	50.50443000	18.90379000
100.59999420	0.00000000	48.54823000	18.90379000
100.79999419	0.00000000	45.81078000	18.47933000
100.99999417	0.00000000	42.73499000	17.32283000
101.19999416	0.00000000	40.04060000	15.78494000
101.39999415	0.00000000	38.45964000	14.21014000
101.59999414	0.00000000	38.04134000	12.67224000
101.79999413	0.00000000	38.45964000	11.60187000
101.99999411	0.00000000	39.99754000	11.97711000
102.19999410	0.00000000	42.31668000	13.87795000
102.39999409	0.00000000	44.64813000	16.20325000
102.59999408	0.00000000	46.96727000	18.94685000
102.79999407	0.00000000	48.50517000	21.54897000
102.99999406	0.00000000	48.92347000	22.71161000
103.19999404	0.00000000	48.54823000	21.96727000
103.39999403	0.00000000	47.39173000	20.06029000
103.59999402	0.00000000	45.81078000	17.27977000
103.79999401	0.00000000	43.85457000	13.83489000
103.99999400	0.00000000	41.57849000	10.44537000
104.19999398	0.00000000	40.08366000	8.91363100
104.39999397	0.00000000	39.99754000	9.60875900
104.59999396	0.00000000	40.77879000	11.51575000
104.79999395	0.00000000	41.94759000	14.25320000
104.99999394	0.00000000	43.85457000	17.32283000
105.19999392	0.00000000	45.38631000	20.01722000
105.39999391	0.00000000	46.22908000	21.54897000
105.59999390	0.00000000	46.96727000	21.59203000
105.79999389	0.00000000	46.92421000	20.43553000
105.99999388	0.00000000	45.81078000	18.47933000
106.19999387	0.00000000	44.31594000	15.83415000
106.39999385	0.00000000	43.11023000	13.50886000
106.59999384	0.00000000	42.35974000	12.34621000
106.79999383	0.00000000	41.94759000	11.93405000
106.99999382	0.00000000	42.35974000	12.76452000
107.19999381	0.00000000	43.11023000	14.62844000
107.39999379	0.00000000	44.27288000	16.90453000
107.59999378	0.00000000	45.38631000	18.43627000
107.79999377	0.00000000	45.76156000	18.90379000
107.99999376	0.00000000	45.43553000	18.85458000
108.19999375	0.00000000	44.64813000	18.06102000
108.39999374	0.00000000	43.89763000	16.16018000
108.59999372	0.00000000	43.06717000	14.29626000
108.79999371	0.00000000	42.35974000	13.13976000
108.99999370	0.00000000	41.99680000	13.13976000
109.19999369	0.00000000	42.73499000	14.25320000
109.39999368	0.00000000	43.85457000	15.78494000
109.59999366	0.00000000	44.64813000	17.32283000
109.79999365	0.00000000	45.43553000	18.52854000
109.99999364	0.00000000	45.81078000	19.27903000
110.19999363	0.00000000	45.85384000	19.64198000
110.39999362	0.00000000	45.81078000	18.85458000
110.59999360	0.00000000	45.38631000	17.36589000
110.79999359	0.00000000	44.27288000	15.83415000
110.99999358	0.00000000	43.15945000	14.62844000
111.19999357	0.00000000	42.73499000	13.83489000
111.39999356	0.00000000	42.69193000	13.09670000
111.59999355	0.00000000	42.69193000	13.09670000
111.79999353	0.00000000	42.73499000	13.83489000
111.99999352	0.00000000	43.15945000	14.62844000
112.19999351	0.00000000	44.27288000	15.78494000
112.39999350	0.00000000	45.38631000	16.89837000
112.59999349	0.00000000	45.76156000	17.32283000
112.79999347	0.00000000	45.43553000	17.36589000
112.99999346	0.00000000	44.69119000	17.36589000
113.19999345	0.00000000	44.31594000	17.32283000
113.39999344	0.00000000	44.27288000	16.94759000
113.59999343	0.00000000	44.22982000	16.20325000
113.79999341	0.00000000	43.85457000	15.82800000
113.99999340	0.00000000	43.15945000	15.74188000
114.19999339	0.00000000	43.15945000	15.36663000
114.39999338	0.00000000	43.80536000	14.62844000
114.59999337	0.00000000	43.85457000	14.25320000
114.79999336	0.00000000	43.52854000	14.21014000
114.99999334	0.00000000	43.89763000	14.21014000
115.19999333	0.00000000	44.22982000	14.25320000
115.39999332	0.00000000	44.27288000	14.62844000
115.59999331	0.00000000	44.27288000	15.40969000
115.79999330	0.00000000	44.27288000	16.16018000
115.99999328	0.00000000	44.22982000	16.99065000
116.19999327	0.00000000	43.85457000	17.74114000
116.39999326	0.00000000	43.11023000	18.52854000
116.59999325	0.00000000	42.73499000	18.85458000
116.79999324	0.00000000	42.69193000	18.47933000
116.99999322	0.00000000	42.73499000	17.36589000
117.19999321	0.00000000	43.11023000	16.20325000
117.39999320	0.00000000	43.89763000	15.40969000
117.59999319	0.00000000	44.64813000	14.62844000
117.79999318	0.00000000	45.43553000	14.25320000
117.99999317	0.00000000	45.81078000	14.25320000
118.19999315	0.00000000	45.81078000	14.62844000
118.39999314	0.00000000	45.38631000	15.40969000
118.59999313	0.00000000	44.27288000	16.16018000
118.79999312	0.00000000	43.11023000	16.94759000
118.99999311	0.00000000	42.31668000	17.36589000
119.19999309	0.00000000	41.52928000	17.74114000
119.39999308	0.00000000	41.20325000	18.11024000
119.59999307	0.00000000	41.57849000	17.74114000
119.79999306	0.00000000	42.69193000	17.40895000
119.99999305	0.00000000	43.85457000	17.32283000
120.19999303	0.00000000	44.69119000	16.89837000
120.39999302	0.00000000	45.85384000	15.83415000
120.59999301	0.00000000	46.92421000	15.08981000
120.79999300	0.00000000	46.96727000	15.36663000
120.99999299	0.00000000	46.22908000	15.36663000
121.19999298	0.00000000	45.43553000	15.04675000
121.39999296	0.00000000	44.22982000	15.40969000
121.59999295	0.00000000	42.69193000	15.69267000
121.79999294	0.00000000	41.20325000	15.45891000
121.99999293	0.00000000	40.41584000	15.46506000
122.19999292	0.00000000	40.73573000	16.57234000
122.39999290	0.00000000	41.11097000	17.27362000
122.59999289	0.00000000	41.57849000	17.36589000
122.79999288	0.00000000	42.73499000	17.36589000
122.99999287	0.00000000	44.22982000	17.36589000
123.19999286	0.00000000	45.38631000	17.32283000
123.39999284	0.00000000	45.81078000	16.94759000
123.59999283	0.00000000	45.85384000	16.20325000
123.79999282	0.00000000	45.81078000	15.82800000
123.99999281	0.00000000	45.43553000	15.74188000
124.19999280	0.00000000	44.64813000	15.36663000
124.39999279	0.00000000	43.89763000	14.62844000
124.59999277	0.00000000	43.06717000	14.30241000
124.79999276	0.00000000	42.31668000	14.62844000
124.99999275	0.00000000	41.57849000	15.40969000
125.19999274	0.00000000	41.57849000	16.16018000
125.39999273	0.00000000	42.31668000	16.94759000
125.59999271	0.00000000	43.06717000	17.32283000
125.79999270	0.00000000	43.85457000	17.36589000
125.99999269	0.00000000	44.27288000	17.36589000
126.19999268	0.00000000	44.69119000	17.32283000
126.39999267	0.00000000	45.43553000	16.94759000
126.59999265	0.00000000	45.76156000	16.20325000
126.79999264	0.00000000	45.43553000	15.82800000
126.99999263	0.00000000	44.64813000	15.78494000
127.19999262	0.00000000	43.85457000	15.74188000
127.39999261	0.00000000	42.69193000	15.40969000
127.59999260	0.00000000	41.57849000	15.04675000
127.79999258	0.00000000	41.15403000	15.40969000
127.99999257	0.00000000	41.15403000	15.74188000
128.19999256	0.00000000	41.57849000	15.82800000
128.39999255	0.00000000	42.69193000	16.20325000
128.59999254	0.00000000	43.85457000	16.94759000
128.79999252	0.00000000	44.64813000	17.27362000
128.99999251	0.00000000	45.43553000	16.94759000
129.19999250	0.00000000	45.76156000	16.20325000
129.39999249	0.00000000	45.43553000	15.82800000
129.59999248	0.00000000	44.60506000	15.74188000
129.79999246	0.00000000	43.47933000	15.40969000
129.99999245	0.00000000	41.94759000	15.04675000
130.19999244	0.00000000	41.20325000	15.40969000
130.39999243	0.00000000	41.15403000	15.74188000
130.59999242	0.00000000	41.57849000	15.82800000
130.79999241	0.00000000	42.69193000	16.20325000
130.99999239	0.00000000	43.85457000	16.89837000
131.19999238	0.00000000	44.64813000	16.89837000
131.39999237	0.00000000	45.38631000	16.20325000
131.59999236	0.00000000	45.38631000	15.82800000
131.79999235	0.00000000	44.64813000	15.74188000
131.99999233	0.00000000	43.89763000	15.36663000
132.19999232	0.00000000	43.11023000	14.62844000
132.39999231	0.00000000	42.73499000	14.30241000
132.59999230	0.00000000	42.69193000	14.62844000
132.79999229	0.00000000	42.69193000	15.36663000
132.99999227	0.00000000	42.69193000	15.78494000
133.19999226	0.00000000	42.73499000	16.25246000
133.39999225	0.00000000	43.06717000	17.32283000
133.59999224	0.00000000	43.43627000	18.01796000
133.79999223	0.00000000	43.06717000	17.32283000
133.99999222	0.00000000	42.78420000	16.25246000
134.19999220	0.00000000	43.11023000	15.78494000
134.39999219	0.00000000	43.85457000	15.36663000
134.59999218	0.00000000	44.22982000	14.67150000
134.79999217	0.00000000	44.27288000	14.62844000
134.99999216	0.00000000	44.27288000	14.94833000
135.19999214	0.00000000	44.27288000	14.62844000
135.39999213	0.00000000	44.27288000	14.67150000
135.59999212	0.00000000	44.22982000	15.40969000
135.79999211	0.00000000	43.85457000	16.16018000
135.99999210	0.00000000	43.11023000	16.94759000
136.19999208	0.00000000	42.73499000	17.32283000
136.39999207	0.00000000	42.69193000	17.36589000
136.59999206	0.00000000	42.69193000	17.36589000
136.79999205	0.00000000	42.73499000	17.32283000
136.99999204	0.00000000	43.11023000	16.94759000
137.19999203	0.00000000	43.85457000	16.20325000
137.39999201	0.00000000	44.22982000	15.78494000
137.59999200	0.00000000	44.27288000	15.36663000
137.79999199	0.00000000	44.27288000	14.62844000
137.99999198	0.00000000	44.22982000	14.25320000
138.19999197	0.00000000	43.85457000	14.25320000
138.39999195	0.00000000	43.11023000	14.62844000
138.59999194	0.00000000	42.73499000	15.36663000
138.79999193	0.00000000	42.69193000	15.78494000
138.99999192	0.00000000	42.69193000	16.20325000
139.19999191	0.00000000	42.69193000	16.94759000
139.39999189	0.00000000	42.69193000	17.32283000
139.59999188	0.00000000	42.73499000	17.36589000
139.79999187	0.00000000	43.11023000	17.36589000
139.99999186	0.00000000	43.85457000	17.32283000
140.19999185	0.00000000	44.22982000	16.94759000
140.39999184	0.00000000	44.27288000	16.16018000
140.59999182	0.00000000	44.22982000	15.40969000
140.79999181	0.00000000	43.85457000	14.62844000
140.99999180	0.00000000	43.11023000	14.30241000
141.19999179	0.00000000	42.73499000	14.62844000
141.39999178	0.00000000	42.69193000	15.36663000
141.59999176	0.00000000	42.69193000	15.78494000
141.79999175	0.00000000	42.69193000	16.20325000
141.99999174	0.00000000	42.73499000	16.94759000
142.19999173	0.00000000	43.11023000	17.32283000
142.39999172	0.00000000	43.85457000	17.32283000
142.59999170	0.00000000	44.22982000	16.94759000
142.79999169	0.00000000	44.22982000	16.20325000
142.99999168	0.00000000	43.85457000	15.78494000
143.19999167	0.00000000	43.11023000	15.36663000
143.39999166	0.00000000	42.73499000	14.62844000
143.59999165	0.00000000	42.69193000	14.25320000
143.79999163	0.00000000	42.73499000	14.21014000
143.99999162	0.00000000	43.06717000	14.25320000
144.19999161	0.00000000	43.47933000	14.67150000
144.39999160	0.00000000	43.48548000	15.78494000
144.59999159	0.00000000	43.89763000	16.89837000
144.79999157	0.00000000	44.22982000	17.32283000
144.99999156	0.00000000	44.22982000	17.36589000
145.19999155	0.00000000	43.85457000	17.32283000
145.39999154	0.00000000	43.11023000	16.94759000
145.59999153	0.00000000	42.73499000	16.16018000
145.79999151	0.00000000	42.69193000	15.40969000
145.99999150	0.00000000	42.69193000	14.62844000
146.19999149	0.00000000	42.69193000	14.25320000
146.39999148	0.00000000	42.69193000	14.25320000
146.59999147	0.00000000	42.73499000	14.62844000
146.79999146	0.00000000	43.11023000	15.36663000
146.99999144	0.00000000	43.85457000	15.74188000
147.19999143	0.00000000	44.22982000	15.82800000
147.39999142	0.00000000	44.27288000	16.20325000
147.59999141	0.00000000	44.22982000	16.94759000
147.79999140	0.00000000	43.85457000	17.32283000
147.99999138	0.00000000	43.11023000	17.36589000
148.19999137	0.00000000	42.73499000	17.32283000
148.39999136	0.00000000	42.69193000	16.94759000
148.59999135	0.00000000	42.73499000	16.20325000
148.79999134	0.00000000	43.06717000	15.82800000
148.99999132	0.00000000	43.47933000	15.78494000
149.19999131	0.00000000	43.48548000	15.78494000
149.39999130	0.00000000	43.89763000	15.78494000
149.59999129	0.00000000	44.22982000	15.78494000
149.79999128	0.00000000	44.27288000	15.78494000
149.99999127	0.00000000	44.27288000	15.78494000
150.19999125	0.00000000	44.22982000	15.82800000
150.39999124	0.00000000	43.85457000	16.20325000
150.59999123	0.00000000	43.11023000	16.94759000
150.79999122	0.00000000	42.73499000	17.27362000
150.99999121	0.00000000	42.69193000	16.94759000
151.19999119	0.00000000	42.69193000	16.20325000
151.39999118	0.00000000	42.69193000	15.82800000
151.59999117	0.00000000	42.69193000	15.74188000
151.79999116	0.00000000	42.69193000	15.36663000
151.99999115	0.00000000	42.73499000	14.67150000
152.19999113	0.00000000	43.11023000	14.67150000
152.39999112	0.00000000	43.85457000	15.36663000
152.59999111	0.00000000	44.22982000	15.74188000
152.79999110	0.00000000	44.22982000	15.78494000
152.99999109	0.00000000	43.89763000	15.78494000
153.19999108	0.00000000	43.48548000	15.78494000
153.39999106	0.00000000	43.47933000	15.78494000
153.59999105	0.00000000	43.06717000	15.78494000
153.79999104	0.00000000	42.73499000	15.78494000
153.99999103	0.00000000	42.69193000	15.78494000
154.19999102	0.00000000	42.64886000	15.78494000
154.39999100	0.00000000	42.31668000	15.78494000
154.59999099	0.00000000	41.94759000	15.78494000
154.79999098	0.00000000	42.31668000	15.78494000
154.99999097	0.00000000	42.69193000	15.78494000
155.19999096	0.00000000	43.11023000	15.78494000
155.39999094	0.00000000	43.85457000	15.78494000
155.59999093	0.00000000	44.22982000	15.78494000
155.79999092	0.00000000	44.22982000	15.78494000
155.99999091	0.00000000	43.85457000	15.78494000
156.19999090	0.00000000	43.11023000	15.78494000
156.39999089	0.00000000	42.73499000	15.82800000
156.59999087	0.00000000	42.69193000	16.20325000
156.79999086	0.00000000	42.69193000	16.94759000
156.99999085	0.00000000	42.69193000	17.32283000
157.19999084	0.00000000	42.69193000	17.32283000
157.39999083	0.00000000	42.69193000	16.94759000
157.59999081	0.00000000	42.73499000	16.20325000
157.79999080	0.00000000	43.06717000	15.82800000
157.99999079	0.00000000	43.47933000	15.78494000
158.19999078	0.00000000	43.48548000	15.74188000
158.39999077	0.00000000	43.89763000	15.40969000
158.59999075	0.00000000	44.18061000	15.04675000
158.79999074	0.00000000	43.85457000	15.40969000
158.99999073	0.00000000	43.11023000	15.78494000
159.19999072	0.00000000	42.73499000	16.20325000
159.39999071	0.00000000	42.69193000	16.94759000
159.59999070	0.00000000	42.69193000	17.32283000
159.79999068	0.00000000	42.69193000	17.36589000
159.99999067	0.00000000	42.69193000	17.36589000
160.19999066	0.00000000	42.69193000	17.32283000
160.39999065	0.00000000	42.69193000	16.94759000
160.59999064	0.00000000	42.69193000	16.20325000
160.79999062	0.00000000	42.69193000	15.82800000
160.99999061	0.00000000	42.69193000	15.74188000
161.19999060	0.00000000	42.69193000	15.40969000
161.39999059	0.00000000	42.69193000	15.04675000
161.59999058	0.00000000	42.69193000	15.40969000
161.79999056	0.00000000	42.69193000	15.74188000
161.99999055	0.00000000	42.73499000	15.78494000
162.19999054	0.00000000	43.06717000	15.78494000
162.39999053	0.00000000	43.43627000	15.78494000
162.59999052	0.00000000	43.06717000	15.78494000
162.79999051	0.00000000	42.73499000	15.78494000
162.99999049	0.00000000	42.69193000	15.78494000
163.19999048	0.00000000	42.64886000	15.78494000
163.39999047	0.00000000	42.27362000	15.78494000
163.59999046	0.00000000	41.57849000	15.78494000
163.79999045	0.00000000	41.57849000	15.78494000
163.99999043	0.00000000	42.27362000	15.74188000
164.19999042	0.00000000	42.64886000	15.36663000
164.39999041	0.00000000	42.73499000	14.67150000
164.59999040	0.00000000	43.11023000	14.67150000
164.79999039	0.00000000	43.85457000	15.36663000
164.99999037	0.00000000	44.22982000	15.74188000
165.19999036	0.00000000	44.22982000	15.78494000
165.39999035	0.00000000	43.85457000	15.78494000
165.59999034	0.00000000	43.11023000	15.78494000
165.79999033	0.00000000	42.73499000	15.78494000
165.99999032	0.00000000	42.69193000	15.78494000
166.19999030	0.00000000	42.69193000	15.78494000
166.39999029	0.00000000	42.69193000	15.78494000
166.59999028	0.00000000	42.69193000	15.78494000
166.79999027	0.00000000	42.69193000	15.78494000
166.99999026	0.00000000	42.69193000	15.78494000
167.19999024	0.00000000	42.69193000	15.78494000
167.39999023	0.00000000	42.69193000	15.78494000
167.59999022	0.00000000	42.69193000	15.78494000
167.79999021	0.00000000	42.69193000	15.78494000
167.99999020	0.00000000	42.69193000	15.78494000
168.19999018	0.00000000	42.69193000	15.78494000
168.39999017	0.00000000	42.69193000	15.78494000
168.59999016	0.00000000	42.69193000	15.78494000
168.79999015	0.00000000	42.69193000	15.78494000
168.99999014	0.00000000	42.69193000	15.78494000
169.19999013	0.00000000	42.69193000	15.78494000
169.39999011	0.00000000	42.69193000	15.78494000
169.59999010	0.00000000	42.69193000	15.78494000
169.79999009	0.00000000	42.69193000	15.78494000
169.99999008	0.00000000	42.69193000	15.78494000
170.19999007	0.00000000	42.69193000	15.78494000
170.39999005	0.00000000	42.69193000	15.78494000
170.59999004	0.00000000	42.69193000	15.78494000
170.79999003	0.00000000	42.69193000	15.78494000
170.99999002	0.00000000	42.69193000	15.78494000
171.19999001	0.00000000	42.69193000	15.78494000
171.39998999	0.00000000	42.69193000	15.78494000
171.59998998	0.00000000	42.64886000	15.78494000
171.79998997	0.00000000	42.31668000	15.78494000
171.99998996	0.00000000	41.94759000	15.78494000
172.19998995	0.00000000	42.31668000	15.78494000
172.39998994	0.00000000	42.64886000	15.78494000
172.59998992	0.00000000	42.69193000	15.78494000
172.79998991	0.00000000	42.69193000	15.78494000
172.99998990	0.00000000	42.69193000	15.78494000
173.19998989	0.00000000	42.69193000	15.78494000
173.39998988	0.00000000	42.69193000	15.78494000
173.59998986	0.00000000	42.69193000	15.78494000
173.79998985	0.00000000	42.69193000	15.78494000
173.99998984	0.00000000	42.69193000	15.78494000
174.19998983	0.00000000	42.69193000	15.78494000
174.39998982	0.00000000	42.69193000	15.78494000
174.59998980	0.00000000	42.69193000	15.78494000
174.79998979	0.00000000	42.69193000	15.78494000
174.99998978	0.00000000	42.69193000	15.78494000
175.19998977	0.00000000	42.69193000	15.78494000
175.39998976	0.00000000	42.69193000	15.78494000
175.59998975	0.00000000	42.69193000	15.78494000
175.79998973	0.00000000	42.69193000	15.78494000
175.99998972	0.00000000	42.69193000	15.78494000
176.19998971	0.00000000	42.69193000	15.78494000
176.39998970	0.00000000	42.69193000	15.78494000
176.59998969	0.00000000	42.69193000	15.78494000
176.79998967	0.00000000	42.69193000	15.78494000
176.99998966	0.00000000	42.69193000	15.78494000
177.19998965	0.00000000	42.69193000	15.78494000
177.39998964	0.00000000	42.69193000	15.74188000
177.59998963	0.00000000	42.69193000	15.40969000
177.79998961	0.00000000	42.69193000	15.04675000
177.99998960	0.00000000	42.69193000	15.40969000
178.19998959	0.00000000	42.69193000	15.74188000
178.39998958	0.00000000	42.69193000	15.78494000
178.59998957	0.00000000	42.69193000	15.78494000
178.79998956	0.00000000	42.69193000	15.82800000
178.99998954	0.00000000	42.69193000	16.16018000
179.19998953	0.00000000	42.69193000	16.52928000
179.39998952	0.00000000	42.69193000	16.16018000
179.59998951	0.00000000	42.69193000	15.82800000
179.79998950	0.00000000	42.69193000	15.74188000
179.99998948	0.00000000	42.69193000	15.40969000
180.19998947	0.00000000	42.69193000	15.04675000
180.39998946	0.00000000	42.69193000	15.40969000
180.59998945	0.00000000	42.69193000	15.74188000
180.79998944	0.00000000	42.69193000	15.78494000
180.99998942	0.00000000	42.64886000	15.78494000
181.19998941	0.00000000	42.31668000	15.78494000
181.39998940	0.00000000	41.94759000	15.78494000
181.59998939	0.00000000	42.31668000	15.78494000
181.79998938	0.00000000	42.64886000	15.78494000
181.99998937	0.00000000	42.69193000	15.78494000
182.19998935	0.00000000	42.69193000	15.78494000
182.39998934	0.00000000	42.69193000	15.78494000
182.59998933	0.00000000	42.69193000	15.78494000
182.79998932	0.00000000	42.69193000	15.78494000
182.99998931	0.00000000	42.69193000	15.74188000
183.19998929	0.00000000	42.64886000	15.36663000
183.39998928	0.00000000	42.31668000	14.67150000
183.59998927	0.00000000	41.94759000	14.67150000
183.79998926	0.00000000	42.31668000	15.36663000
183.99998925	0.00000000	42.64886000	15.74188000
184.19998923	0.00000000	42.69193000	15.78494000
184.39998922	0.00000000	42.69193000	15.78494000
184.59998921	0.00000000	42.69193000	15.78494000
184.79998920	0.00000000	42.69193000	15.78494000
184.99998919	0.00000000	42.69193000	15.78494000
185.19998918	0.00000000	42.69193000	15.78494000
185.39998916	0.00000000	42.69193000	15.74188000
185.59998915	0.00000000	42.69193000	15.36663000
185.79998914	0.00000000	42.69193000	14.62844000
185.99998913	0.00000000	42.69193000	14.25320000
186.19998912	0.00000000	42.69193000	14.21014000
186.39998910	0.00000000	42.69193000	14.25320000
186.59998909	0.00000000	42.69193000	14.62844000
186.79998908	0.00000000	42.64886000	15.36663000
186.99998907	0.00000000	42.31668000	15.74188000
187.19998906	0.00000000	41.90453000	15.78494000
187.39998904	0.00000000	41.94144000	15.82800000
187.59998903	0.00000000	41.90453000	16.16018000
187.79998902	0.00000000	42.31668000	16.52928000
187.99998901	0.00000000	42.64886000	16.16018000
188.19998900	0.00000000	42.69193000	15.82800000
188.39998899	0.00000000	42.69193000	15.74188000
188.59998897	0.00000000	42.69193000	15.36663000
188.79998896	0.00000000	42.69193000	14.62844000
188.99998895	0.00000000	42.69193000	14.25320000
189.19998894	0.00000000	42.69193000	14.21014000
189.39998893	0.00000000	42.69193000	14.21014000
189.59998891	0.00000000	42.69193000	14.25320000
189.79998890	0.00000000	42.69193000	14.62844000
189.99998889	0.00000000	42.64886000	15.36663000
190.19998888	0.00000000	42.31668000	15.74188000
190.39998887	0.00000000	41.90453000	15.78494000
190.59998885	0.00000000	41.94144000	15.78494000
190.79998884	0.00000000	41.90453000	15.78494000
190.99998883	0.00000000	42.31668000	15.78494000
191.19998882	0.00000000	42.64886000	15.78494000
191.39998881	0.00000000	42.69193000	15.78494000
191.59998880	0.00000000	42.69193000	15.78494000
191.79998878	0.00000000	42.69193000	15.74188000
191.99998877	0.00000000	42.69193000	15.36663000
192.19998876	0.00000000	42.69193000	14.62844000
192.39998875	0.00000000	42.64886000	14.25320000
192.59998874	0.00000000	42.27362000	14.21014000
192.79998872	0.00000000	41.52928000	14.21014000
192.99998871	0.00000000	41.15403000	14.25320000
193.19998870	0.00000000	41.11097000	14.58538000
193.39998869	0.00000000	41.15403000	14.94833000
193.59998868	0.00000000	41.52928000	14.62844000
193.79998866	0.00000000	42.27362000	14.67150000
193.99998865	0.00000000	42.64886000	15.32357000
194.19998864	0.00000000	42.69193000	15.36663000
194.39998863	0.00000000	42.69193000	15.04675000
194.59998862	0.00000000	42.69193000	15.40969000
194.79998861	0.00000000	42.69193000	15.69267000
194.99998859	0.00000000	42.69193000	15.40969000
195.19998858	0.00000000	42.69193000	15.04675000
195.39998857	0.00000000	42.69193000	15.40969000
195.59998856	0.00000000	42.64886000	15.74188000
195.79998855	0.00000000	42.31668000	15.78494000
195.99998853	0.00000000	41.90453000	15.78494000
