Time	Channel A	Channel B	Channel C
(us)	(V)	(mV)	(mV)

-4.49999956	0.00000000	47.43479000	9.47342500
-4.29999957	0.00000000	47.43479000	9.47342500
-4.09999958	0.00000000	47.43479000	9.51648500
-3.89999959	0.00000000	47.43479000	9.84867000
-3.69999960	0.00000000	47.43479000	10.25467000
-3.49999962	0.00000000	47.43479000	10.26698000
-3.29999963	0.00000000	47.43479000	10.62992000
-3.09999964	0.00000000	47.43479000	10.58686000
-2.89999965	0.00000000	47.43479000	9.89173200
-2.69999966	0.00000000	47.43479000	9.51648500
-2.49999968	0.00000000	47.47785000	9.47342500
-2.29999969	0.00000000	47.81004000	9.47342500
-2.09999970	0.00000000	48.17913000	9.51648500
-1.89999971	0.00000000	47.81004000	9.84867000
-1.69999972	0.00000000	47.47785000	10.21161000
-1.49999973	0.00000000	47.43479000	9.84867000
-1.29999975	0.00000000	47.43479000	9.56569900
-1.09999976	0.00000000	47.47785000	9.89173200
-0.89999977	0.00000000	47.81004000	10.58686000
-0.69999978	0.00000000	48.17913000	10.58686000
-0.49999979	0.00000000	47.81004000	9.93479300
-0.29999981	0.31803640	47.47785000	9.93479300
-0.09999982	0.63668800	47.43479000	10.62992000
0.10000017	0.95533960	47.43479000	10.95595000
0.30000016	1.11466500	47.43479000	10.62992000
0.50000015	0.79601380	47.43479000	9.89173200
0.70000013	0.31803640	47.43479000	9.51648500
0.90000012	-0.63668800	47.43479000	9.47342500
1.10000011	-1.59264300	47.43479000	9.51648500
1.30000010	-2.38927200	47.43479000	9.84867000
1.50000009	-2.70792300	47.43479000	10.25467000
1.70000008	-2.38927200	47.43479000	10.21776000
1.90000006	-1.27399100	47.43479000	10.30389000
2.10000005	0.63668800	47.43479000	10.21776000
2.30000004	2.70792300	47.43479000	10.25467000
2.50000003	4.45989200	47.43479000	9.84867000
2.70000002	5.41584600	47.43479000	9.51648500
2.90000000	4.77854300	47.43479000	9.47342500
3.09999999	2.86724900	47.43479000	9.47342500
3.29999998	-0.15871060	47.43479000	9.47342500
3.49999997	-3.50393700	47.43479000	9.47342500
3.69999996	-6.53112700	47.43479000	9.51648500
3.89999994	-7.96444400	47.43479000	9.89173200
4.09999993	-7.32714100	47.43479000	10.62992000
4.29999992	-4.93786900	47.43479000	11.00517000
4.49999991	-0.95533960	47.43479000	11.04823000
4.69999990	3.50393700	47.43479000	11.00517000
4.89999989	7.32714100	47.43479000	10.62992000
5.09999987	9.23905000	47.43479000	9.89173200
5.29999986	9.07972400	47.43479000	9.51648500
5.49999985	6.53112700	47.43479000	9.47342500
5.69999984	2.22994600	47.43479000	9.47342500
5.89999983	-2.54859700	47.43479000	9.47342500
6.09999981	-6.69045300	47.43479000	9.47342500
6.29999980	-9.07972400	47.43479000	9.51648500
6.49999979	-9.23905000	47.43479000	9.89173200
6.69999978	-7.00848900	47.43479000	10.62992000
6.89999977	-3.18590100	47.43479000	11.00517000
7.09999975	1.11466500	47.43479000	11.00517000
7.29999974	4.93786900	47.43479000	10.62992000
7.49999973	7.32714100	47.43479000	9.89173200
7.69999972	7.64579200	47.43479000	9.51648500
7.89999971	6.21247500	47.43479000	9.47342500
8.09999970	3.34522600	47.43479000	9.47342500
8.29999968	0.00000000	47.43479000	9.47342500
8.49999967	-2.86724900	47.43479000	9.47342500
8.69999966	-4.77854300	47.43479000	9.47342500
8.89999965	-5.09719500	47.39173000	9.47342500
9.09999964	-4.30056600	47.05954000	9.51648500
9.29999962	-2.70792300	46.69045000	9.84867000
9.49999961	-0.63668800	47.05954000	10.21161000
9.69999960	1.11466500	47.39173000	9.84867000
9.89999959	2.22994600	47.43479000	9.51648500
10.09999958	2.54859700	47.43479000	9.47342500
10.29999956	2.22994600	47.43479000	9.47342500
10.49999955	1.43331700	47.43479000	9.47342500
10.69999954	0.47736220	47.43479000	9.47342500
10.89999953	-0.15871060	47.43479000	9.51648500
11.09999952	-0.79601380	47.43479000	9.84867000
11.29999951	-0.95533960	47.43479000	10.21161000
11.49999949	-0.95533960	47.43479000	9.84867000
11.69999948	-0.79601380	47.43479000	9.51648500
11.89999947	-0.31803640	47.43479000	9.47342500
12.09999946	-0.15871060	47.43479000	9.47342500
12.29999945	-0.15871060	47.43479000	9.47342500
12.49999943	-0.15871060	47.43479000	9.47342500
12.69999942	0.00000000	47.43479000	9.47342500
12.89999941	0.00000000	47.43479000	9.51648500
13.09999940	0.15871060	47.43479000	9.84867000
13.29999939	0.15871060	47.47785000	10.25467000
13.49999937	0.00000000	47.81004000	10.26698000
13.69999936	0.00000000	48.22219000	10.62992000
13.89999935	0.00000000	48.18528000	10.58686000
14.09999934	-0.15871060	48.22219000	9.89173200
14.29999933	-0.15871060	47.81004000	9.51648500
14.49999932	-0.15871060	47.47785000	9.47342500
14.69999930	0.00000000	47.43479000	9.47342500
14.89999929	0.00000000	47.43479000	9.47342500
15.09999928	0.00000000	47.43479000	9.47342500
15.29999927	0.00000000	47.43479000	9.47342500
15.49999926	0.00000000	47.43479000	9.47342500
15.69999924	0.00000000	47.43479000	9.47342500
15.89999923	0.00000000	47.43479000	9.51648500
16.09999922	0.00000000	47.43479000	9.84867000
16.29999921	0.00000000	47.43479000	10.21161000
16.49999920	-0.15871060	47.43479000	9.84867000
16.69999919	0.00000000	47.47785000	9.51648500
16.89999917	0.00000000	47.85310000	9.47342500
17.09999916	0.00000000	48.59744000	9.47342500
17.29999915	0.00000000	48.97269000	9.47342500
17.49999914	0.00000000	49.01575000	9.47342500
17.69999913	0.00000000	48.97269000	9.47342500
17.89999911	0.00000000	48.59744000	9.47342500
18.09999910	0.00000000	47.76698000	9.47342500
18.29999909	0.00000000	46.59818000	9.47342500
18.49999908	0.00000000	44.64813000	9.47342500
18.69999907	0.00000000	42.78420000	9.47342500
18.89999905	0.00000000	41.62155000	9.47342500
19.09999904	0.00000000	41.66461000	9.47342500
19.29999903	0.00000000	43.24557000	9.47342500
19.49999902	0.00000000	46.32135000	9.47342500
19.69999901	0.00000000	50.22145000	9.47342500
19.89999900	0.00000000	54.09079000	9.47342500
20.09999898	0.00000000	57.52953000	9.47342500
20.29999897	0.00000000	59.01821000	9.47342500
20.49999896	0.00000000	57.85556000	9.47342500
20.69999895	0.00000000	54.31840000	9.47342500
20.89999894	0.00000000	48.46210000	9.47342500
21.09999892	0.00000000	41.11097000	9.47342500
21.29999891	0.00000000	33.80290000	9.47342500
21.49999890	0.00000000	28.45103000	9.47342500
21.69999889	0.00000000	26.95620000	9.47342500
21.89999888	0.00000000	30.12426000	9.47342500
22.09999886	0.00000000	37.94291000	9.43036400
22.29999885	0.00000000	49.52633000	9.09817800
22.49999884	0.00000000	62.27239000	8.72908400
22.69999883	0.00000000	73.02534000	9.09817800
22.89999882	0.00000000	79.12154000	9.47342500
23.09999881	0.00000000	77.86663000	9.89173200
23.29999879	0.00000000	68.97761000	10.62992000
23.49999878	0.00000000	54.27534000	11.04823000
23.69999877	0.00000000	36.82948000	11.42347000
23.89999876	0.00000000	20.26329000	11.79257000
24.09999875	0.00000000	8.35383800	11.42347000
24.29999873	0.00000000	4.95201700	11.04823000
24.49999872	0.00000000	11.18971000	10.53765000
24.69999871	0.00000000	26.35334000	9.00590400
24.89999870	0.00000000	47.94537000	6.77903500
25.09999869	0.00000000	70.65083000	5.24729300
25.29999867	0.00000000	88.42888000	4.82898600
25.49999866	0.00000000	97.26869000	5.19808000
25.69999865	0.00000000	94.93724000	6.40378900
25.89999864	0.00000000	81.40379000	8.40305000
26.09999863	0.00000000	60.13779000	11.55881000
26.29999862	0.00000000	35.38385000	15.74188000
26.49999860	0.00000000	12.67840000	19.54970000
26.69999859	0.00000000	-2.02386800	21.41363000
26.89999858	0.00000000	-5.51181100	20.66314000
27.09999857	0.00000000	2.63287400	17.14444000
27.29999856	0.00000000	21.14911000	11.70029000
27.49999854	0.00000000	45.43553000	4.69365100
27.69999853	0.00000000	69.40206000	-2.60211600
27.89999852	0.00000000	87.96136000	-8.31692900
28.09999851	0.00000000	96.89345000	-10.59301000
28.29999850	0.00000000	94.61737000	-8.23080600
28.49999848	0.00000000	82.27731000	-1.63016700
28.69999847	0.00000000	62.59842000	8.44611200
28.89999846	0.00000000	40.59424000	20.01722000
29.09999845	0.00000000	21.23524000	30.42569000
29.29999844	0.00000000	8.44611200	37.34621000
29.49999843	0.00000000	4.86589500	38.79183000
29.69999841	0.00000000	10.21161000	33.72293000
29.89999840	0.00000000	22.59473000	22.53322000
30.09999839	0.00000000	39.57308000	7.84940900
30.29999838	0.00000000	56.97588000	-7.25270600
30.49999837	0.00000000	70.98302000	-19.93110000
30.69999835	0.00000000	79.53986000	-26.80856000
30.89999834	0.00000000	81.07775000	-25.65207000
31.09999833	0.00000000	75.35064000	-16.77534000
31.29999832	0.00000000	64.18552000	-2.09768700
31.49999831	0.00000000	50.63976000	15.32357000
31.69999829	0.00000000	37.43233000	31.91437000
31.89999828	0.00000000	26.96235000	44.26673000
32.09999827	0.00000000	21.19217000	49.29256000
32.29999826	0.00000000	21.51821000	46.22293000
32.49999825	0.00000000	27.61442000	35.77140000
32.69999824	0.00000000	36.87869000	19.92495000
32.89999822	0.00000000	47.39173000	2.13459600
33.09999821	0.00000000	57.43725000	-14.08095000
33.29999820	0.00000000	64.78838000	-25.27682000
33.49999819	0.00000000	67.86417000	-28.76476000
33.69999818	0.00000000	66.00024000	-24.16338000
33.89999816	0.00000000	59.86097000	-12.59227000
34.09999815	0.00000000	51.80241000	3.24803100
34.29999814	0.00000000	43.62082000	19.88189000
34.49999813	0.00000000	37.05708000	34.19045000
34.69999812	0.00000000	33.19390000	43.06717000
34.89999810	0.00000000	33.19390000	44.59892000
35.09999809	0.00000000	37.00787000	38.46580000
35.29999808	0.00000000	43.11023000	26.15034000
35.49999807	0.00000000	49.66781000	11.14050000
35.69999806	0.00000000	54.69365000	-3.21112200
35.89999805	0.00000000	57.43725000	-13.98868000
36.09999803	0.00000000	57.43725000	-19.00221000
36.29999802	0.00000000	54.74286000	-16.68307000
36.49999801	0.00000000	50.12918000	-7.94783400
36.69999800	0.00000000	44.74040000	4.36146600
36.89999799	0.00000000	40.17593000	16.72613000
37.09999797	0.00000000	37.85064000	26.71629000
37.29999796	0.00000000	38.59498000	31.68061000
37.49999795	0.00000000	41.62155000	29.82899000
37.69999794	0.00000000	45.89690000	22.61934000
37.89999793	0.00000000	50.50443000	12.62918000
38.09999791	0.00000000	54.36761000	2.63902500
38.29999790	0.00000000	56.32381000	-4.65059000
38.49999789	0.00000000	56.32381000	-7.34498000
38.69999788	0.00000000	54.36761000	-4.65059000
38.89999787	0.00000000	50.50443000	2.59596400
39.09999786	0.00000000	45.89690000	12.16781000
39.29999784	0.00000000	41.62155000	20.95226000
39.49999783	0.00000000	38.54576000	26.29183000
39.69999782	0.00000000	37.34006000	26.29183000
39.89999781	0.00000000	38.08440000	20.95226000
40.09999780	0.00000000	40.04060000	12.11860000
40.29999778	0.00000000	43.20251000	2.17765700
40.49999777	0.00000000	47.43479000	-5.85629900
40.69999776	0.00000000	51.66707000	-9.34424200
40.89999775	0.00000000	54.78592000	-7.85556000
41.09999774	0.00000000	56.36687000	-2.04847400
41.29999772	0.00000000	56.36687000	6.82209600
41.49999771	0.00000000	54.78592000	16.76919000
41.69999770	0.00000000	51.66707000	24.80315000
41.89999769	0.00000000	47.43479000	28.29109000
42.09999768	0.00000000	43.20251000	26.84547000
42.29999767	0.00000000	40.08366000	21.41363000
42.49999765	0.00000000	38.50270000	13.37352000
42.69999764	0.00000000	38.50270000	4.55216500
42.89999763	0.00000000	40.04060000	-2.00541300
43.09999762	0.00000000	42.73499000	-5.16117100
43.29999761	0.00000000	45.81078000	-4.78592500
43.49999759	0.00000000	48.54823000	-0.97810030
43.69999758	0.00000000	50.50443000	4.77977300
43.89999757	0.00000000	51.66707000	10.96211000
44.09999756	0.00000000	51.71013000	16.35089000
44.29999755	0.00000000	51.01501000	19.46358000
44.49999753	0.00000000	50.63976000	19.88189000
44.69999752	0.00000000	50.59670000	18.01796000
44.89999751	0.00000000	50.55364000	14.53617000
45.09999750	0.00000000	50.12918000	10.72219000
45.29999749	0.00000000	48.97269000	7.19734200
45.49999748	0.00000000	47.39173000	4.91510800
45.69999746	0.00000000	45.38631000	4.08464600
45.89999745	0.00000000	42.64886000	4.82283400
46.09999744	0.00000000	39.62229000	6.36072800
46.29999743	0.00000000	37.34006000	8.31077700
46.49999742	0.00000000	37.01402000	10.62992000
46.69999740	0.00000000	38.97022000	12.53691000
46.89999739	0.00000000	43.24557000	13.74262000
47.09999738	0.00000000	49.01575000	14.07480000
47.29999737	0.00000000	54.82898000	13.32431000
47.49999736	0.00000000	59.48573000	11.42347000
47.69999734	0.00000000	62.13705000	9.47342500
47.89999733	0.00000000	61.71259000	7.51722400
48.09999732	0.00000000	57.81250000	5.61638700
48.29999731	0.00000000	51.20571000	4.87204700
48.49999730	0.00000000	42.69193000	5.24729300
48.69999729	0.00000000	34.31348000	6.82209600
48.89999727	0.00000000	28.91240000	9.47342500
49.09999726	0.00000000	28.11885000	12.21087000
49.29999725	0.00000000	31.56988000	14.53617000
49.49999724	0.00000000	38.58883000	16.43701000
49.69999723	0.00000000	47.85310000	16.76919000
49.89999721	0.00000000	57.43725000	15.23130000
50.09999720	0.00000000	64.37008000	12.16166000
50.29999719	0.00000000	66.70152000	8.31077700
50.49999718	0.00000000	64.37008000	4.82283400
50.69999717	0.00000000	57.43725000	2.12844500
50.89999715	0.00000000	47.90231000	1.01501000
51.09999714	0.00000000	38.96407000	2.17765700
51.29999713	0.00000000	32.40034000	5.19808000
51.49999712	0.00000000	29.33686000	9.09817800
51.69999711	0.00000000	31.28075000	12.96137000
51.89999710	0.00000000	37.34006000	16.43701000
52.09999708	0.00000000	45.43553000	18.30093000
52.29999707	0.00000000	53.16190000	17.97490000
52.49999706	0.00000000	58.92593000	15.64960000
52.69999705	0.00000000	61.20817000	12.21087000
52.89999704	0.00000000	58.92593000	8.31077700
53.09999702	0.00000000	53.24803000	4.87204700
53.29999701	0.00000000	46.32135000	2.54675200
53.49999700	0.00000000	40.12672000	2.17150600
53.69999699	0.00000000	35.89444000	3.66633800
53.89999698	0.00000000	34.73179000	6.36072800
54.09999696	0.00000000	37.05708000	9.42421200
54.29999695	0.00000000	42.03986000	12.11860000
54.49999694	0.00000000	48.54823000	13.61343000
54.69999693	0.00000000	54.27534000	13.32431000
54.89999692	0.00000000	57.39419000	11.79872000
55.09999691	0.00000000	57.39419000	10.25467000
55.29999689	0.00000000	54.36761000	8.35383800
55.49999688	0.00000000	49.39099000	7.28346400
55.69999687	0.00000000	44.36515000	7.98474400
55.89999686	0.00000000	40.08366000	9.47342500
56.09999685	0.00000000	37.43233000	11.04823000
56.29999683	0.00000000	37.43233000	12.53691000
56.49999682	0.00000000	40.08366000	13.28125000
56.69999681	0.00000000	44.31594000	12.45079000
56.89999680	0.00000000	48.92347000	10.16855000
57.09999679	0.00000000	52.78666000	6.72982200
57.29999677	0.00000000	54.69365000	3.70939900
57.49999676	0.00000000	54.36761000	2.12844500
57.69999675	0.00000000	52.08538000	2.17150600
57.89999674	0.00000000	49.01575000	4.17076700
58.09999673	0.00000000	45.89690000	8.40305000
58.29999672	0.00000000	43.20251000	13.74262000
58.49999670	0.00000000	41.66461000	18.35015000
58.69999669	0.00000000	41.62155000	21.08760000
58.89999668	0.00000000	42.78420000	21.41363000
59.09999667	0.00000000	44.69119000	19.04527000
59.29999666	0.00000000	47.01648000	13.65650000
59.49999664	0.00000000	48.88041000	6.77903500
59.69999663	0.00000000	49.71087000	0.59670270
59.89999662	0.00000000	49.34793000	-3.62942900
60.09999661	0.00000000	48.59744000	-4.74286400
60.29999660	0.00000000	47.43479000	-2.04847400
60.49999658	0.00000000	46.32135000	3.70939900
60.69999657	0.00000000	45.89690000	11.04823000
60.89999656	0.00000000	45.89690000	18.35015000
61.09999655	0.00000000	46.32135000	23.73892000
61.29999654	0.00000000	47.43479000	25.64591000
61.49999653	0.00000000	48.54823000	23.68971000
61.69999651	0.00000000	48.92347000	17.93184000
61.89999650	0.00000000	48.54823000	9.89173200
62.09999649	0.00000000	47.39173000	2.17765700
62.29999648	0.00000000	45.89690000	-3.62942900
62.49999647	0.00000000	44.69119000	-6.32381900
62.69999645	0.00000000	43.94069000	-5.16117100
62.89999644	0.00000000	43.57775000	-0.55979330
63.09999643	0.00000000	44.36515000	6.36072800
63.29999642	0.00000000	45.85384000	13.69956000
63.49999641	0.00000000	47.43479000	19.88189000
63.69999639	0.00000000	48.97269000	23.73892000
63.89999638	0.00000000	50.12918000	24.15723000
64.09999637	0.00000000	50.50443000	21.46284000
64.29999636	0.00000000	50.08612000	16.43701000
64.49999635	0.00000000	48.54823000	9.89173200
64.69999634	0.00000000	46.27214000	3.70939900
64.89999632	0.00000000	44.36515000	-0.97810030
65.09999631	0.00000000	43.20251000	-3.62942900
65.29999630	0.00000000	43.15945000	-3.25418300
65.49999629	0.00000000	43.94069000	0.13533460
65.69999628	0.00000000	45.10950000	4.73671200
65.89999626	0.00000000	47.01648000	9.43036400
66.09999625	0.00000000	48.50517000	13.69956000
66.29999624	0.00000000	48.92347000	16.81225000
66.49999623	0.00000000	48.54823000	18.39321000
66.69999622	0.00000000	47.39173000	18.43627000
66.89999620	0.00000000	45.85384000	17.27362000
67.09999619	0.00000000	44.36515000	15.32357000
67.29999618	0.00000000	43.62082000	12.58612000
67.49999617	0.00000000	44.36515000	9.47342500
67.69999616	0.00000000	45.89690000	6.36072800
67.89999615	0.00000000	47.85310000	3.61712600
68.09999613	0.00000000	50.12918000	1.71013800
68.29999612	0.00000000	51.66707000	0.87967510
68.49999611	0.00000000	52.04232000	1.29183100
68.69999610	0.00000000	51.20571000	2.50369100
68.89999609	0.00000000	48.50517000	5.29035400
69.09999607	0.00000000	44.69119000	9.51648500
69.29999606	0.00000000	41.20325000	14.11786000
69.49999605	0.00000000	38.50270000	17.97490000
69.69999604	0.00000000	37.38927000	19.93110000
69.89999603	0.00000000	38.59498000	19.97416000
70.09999601	0.00000000	42.03986000	18.35015000
70.29999600	0.00000000	47.05954000	14.81299000
70.49999599	0.00000000	52.04232000	9.47342500
70.69999598	0.00000000	55.94857000	4.12770700
70.89999597	0.00000000	57.85556000	0.59670270
71.09999596	0.00000000	57.43725000	-0.97810030
71.29999594	0.00000000	54.31840000	-0.55979330
71.49999593	0.00000000	48.97269000	2.12844500
71.69999592	0.00000000	43.15945000	6.35457700
71.89999591	0.00000000	38.12746000	10.95595000
72.09999590	0.00000000	34.68873000	14.85605000
72.29999588	0.00000000	34.26427000	17.18750000
72.49999587	0.00000000	36.54650000	17.97490000
72.69999586	0.00000000	40.45890000	16.81225000
72.89999585	0.00000000	45.89690000	14.16092000
73.09999584	0.00000000	51.62401000	11.09744000
73.29999582	0.00000000	55.89936000	8.35383800
73.49999581	0.00000000	57.85556000	6.44685000
73.69999580	0.00000000	57.48031000	5.66560000
73.89999579	0.00000000	54.74286000	6.40378900
74.09999578	0.00000000	50.17839000	7.89247000
74.29999577	0.00000000	45.15871000	9.38115100
74.49999575	0.00000000	41.28937000	10.16855000
74.69999574	0.00000000	38.92101000	9.79945900
74.89999573	0.00000000	38.54576000	9.05511800
75.09999572	0.00000000	40.04060000	7.89247000
75.29999571	0.00000000	42.73499000	6.82209600
75.49999569	0.00000000	45.81078000	6.86515700
75.69999568	0.00000000	48.50517000	8.35383800
75.89999567	0.00000000	50.08612000	10.67298000
76.09999566	0.00000000	50.55364000	13.04749000
76.29999565	0.00000000	50.50443000	15.69882000
76.49999563	0.00000000	49.76009000	17.55044000
76.69999562	0.00000000	48.22834000	17.13829000
76.89999561	0.00000000	47.10260000	14.85605000
77.09999560	0.00000000	46.27214000	10.95595000
77.29999559	0.00000000	45.94611000	6.35457700
77.49999558	0.00000000	46.22908000	2.12844500
77.69999556	0.00000000	46.59818000	-0.55979330
77.89999555	0.00000000	46.22908000	-0.93503930
78.09999554	0.00000000	45.85384000	1.02116100
78.29999553	0.00000000	45.38631000	5.24729300
78.49999552	0.00000000	44.31594000	10.62992000
78.69999550	0.00000000	43.57775000	15.64960000
78.89999549	0.00000000	43.94069000	19.50664000
79.09999548	0.00000000	44.74040000	21.04454000
79.29999547	0.00000000	46.32135000	19.88189000
79.49999546	0.00000000	48.59744000	16.43701000
79.69999544	0.00000000	50.50443000	11.42347000
79.89999543	0.00000000	51.62401000	6.40378900
80.09999542	0.00000000	51.24877000	2.12844500
80.29999541	0.00000000	49.34793000	-0.60285430
80.49999540	0.00000000	47.01648000	-1.39640700
80.69999539	0.00000000	44.27288000	-0.60285430
80.89999537	0.00000000	41.62155000	2.12844500
81.09999536	0.00000000	40.08366000	6.31151500
81.29999535	0.00000000	40.08366000	10.58686000
81.49999534	0.00000000	41.62155000	14.11786000
81.69999533	0.00000000	44.31594000	16.81225000
81.89999531	0.00000000	47.39173000	17.97490000
82.09999530	0.00000000	50.08612000	17.27362000
82.29999529	0.00000000	51.62401000	15.74188000
82.49999528	0.00000000	51.66707000	13.69956000
82.69999527	0.00000000	50.50443000	10.62992000
82.89999525	0.00000000	48.59744000	7.14812900
83.09999524	0.00000000	46.27214000	4.40452700
83.29999523	0.00000000	44.36515000	2.08538400
83.49999522	0.00000000	43.15945000	0.97194880
83.69999521	0.00000000	42.78420000	1.71013800
83.89999520	0.00000000	43.15945000	3.61712600
84.09999518	0.00000000	44.27288000	6.40378900
84.29999517	0.00000000	45.43553000	9.89173200
84.49999516	0.00000000	46.22908000	13.74262000
84.69999515	0.00000000	47.01648000	16.81225000
84.89999514	0.00000000	47.39173000	18.39321000
85.09999512	0.00000000	47.43479000	18.39321000
85.29999511	0.00000000	47.43479000	16.81225000
85.49999510	0.00000000	47.47785000	13.69956000
85.69999509	0.00000000	47.85310000	9.43036400
85.89999508	0.00000000	48.54823000	4.82898600
86.09999506	0.00000000	48.54823000	1.02116100
86.29999505	0.00000000	47.81004000	-0.55979330
86.49999504	0.00000000	47.01648000	0.17839570
86.69999503	0.00000000	45.81078000	2.50369100
86.89999502	0.00000000	44.31594000	6.44685000
87.09999501	0.00000000	43.15945000	11.42347000
87.29999499	0.00000000	42.78420000	16.39395000
87.49999498	0.00000000	43.15945000	19.46358000
87.69999497	0.00000000	44.31594000	19.88189000
87.89999496	0.00000000	45.85384000	17.93184000
88.09999495	0.00000000	47.43479000	13.69956000
88.29999493	0.00000000	48.92347000	8.35998900
88.49999492	0.00000000	49.71087000	3.70939900
88.69999491	0.00000000	49.34793000	0.59670270
88.89999490	0.00000000	48.59744000	-0.51673230
89.09999489	0.00000000	47.39173000	1.02116100
89.29999487	0.00000000	45.85384000	4.87204700
89.49999486	0.00000000	44.31594000	9.84867000
89.69999485	0.00000000	43.20251000	14.85605000
89.89999484	0.00000000	43.20251000	18.30093000
90.09999483	0.00000000	44.31594000	19.46358000
90.29999482	0.00000000	45.81078000	17.88263000
90.49999480	0.00000000	46.96727000	13.69956000
90.69999479	0.00000000	47.39173000	8.35998900
90.89999478	0.00000000	47.43479000	3.70939900
91.09999477	0.00000000	47.43479000	0.59670270
91.29999476	0.00000000	47.43479000	-0.51673230
91.49999474	0.00000000	47.43479000	1.06422200
91.69999473	0.00000000	47.43479000	5.29035400
91.89999472	0.00000000	47.43479000	10.96211000
92.09999471	0.00000000	47.43479000	15.97564000
92.29999470	0.00000000	47.43479000	18.67618000
92.49999468	0.00000000	47.39173000	19.08834000
92.69999467	0.00000000	47.01648000	16.76919000
92.89999466	0.00000000	46.22908000	12.53691000
93.09999465	0.00000000	45.43553000	7.56028500
93.29999464	0.00000000	44.27288000	2.97121000
93.49999463	0.00000000	43.20251000	0.68897630
93.69999461	0.00000000	43.15945000	0.97194880
93.89999460	0.00000000	43.89763000	3.33415300
94.09999459	0.00000000	44.78346000	7.19734200
94.29999458	0.00000000	46.69045000	12.11860000
94.49999457	0.00000000	49.33562000	15.92642000
94.69999455	0.00000000	50.87967000	17.14444000
94.89999454	0.00000000	51.66707000	16.43701000
95.09999453	0.00000000	51.24877000	14.07480000
95.29999452	0.00000000	49.29871000	10.62992000
95.49999451	0.00000000	46.64124000	6.77903500
95.69999449	0.00000000	43.52854000	3.75246000
95.89999448	0.00000000	41.20325000	2.59596400
96.09999447	0.00000000	39.62229000	3.70939900
96.29999446	0.00000000	38.92101000	6.36072800
96.49999445	0.00000000	40.12672000	9.42421200
96.69999444	0.00000000	43.15945000	12.16781000
96.89999442	0.00000000	47.01648000	14.07480000
97.09999441	0.00000000	50.50443000	14.85605000
97.29999440	0.00000000	53.24803000	14.07480000
97.49999439	0.00000000	54.74286000	12.16781000
97.69999438	0.00000000	54.36761000	9.47342500
97.89999436	0.00000000	52.04232000	6.86515700
98.09999435	0.00000000	48.59744000	5.66560000
98.29999434	0.00000000	44.69119000	5.98548200
98.49999433	0.00000000	41.20325000	6.72982200
98.69999432	0.00000000	38.50270000	7.89247000
98.89999430	0.00000000	37.38927000	9.05511800
99.09999429	0.00000000	38.50270000	9.84867000
99.29999428	0.00000000	41.20325000	10.62992000
99.49999427	0.00000000	44.69119000	10.95595000
99.69999426	0.00000000	48.54823000	10.67298000
99.89999425	0.00000000	51.62401000	10.31004000
100.09999423	0.00000000	53.24803000	10.67298000
100.29999422	0.00000000	53.62328000	11.04823000
100.49999421	0.00000000	52.82972000	11.42347000
100.69999420	0.00000000	50.50443000	11.79257000
100.89999419	0.00000000	47.43479000	11.33120000
101.09999417	0.00000000	44.31594000	10.21161000
101.29999416	0.00000000	41.62155000	8.26771600
101.49999415	0.00000000	40.04060000	6.40378900
101.69999414	0.00000000	39.66535000	5.19808000
101.89999413	0.00000000	40.41584000	4.87204700
102.09999411	0.00000000	42.35974000	5.61638700
102.29999410	0.00000000	44.64813000	7.56643700
102.49999409	0.00000000	47.01648000	9.84867000
102.69999408	0.00000000	48.92347000	12.21087000
102.89999407	0.00000000	50.12918000	14.11786000
103.09999406	0.00000000	50.50443000	15.27436000
103.29999404	0.00000000	50.12918000	15.23130000
103.49999403	0.00000000	48.92347000	13.65650000
103.69999402	0.00000000	47.01648000	10.62992000
103.89999401	0.00000000	44.69119000	7.19734200
104.09999400	0.00000000	42.82726000	4.87204700
104.29999398	0.00000000	41.99680000	3.66633800
104.49999397	0.00000000	42.35974000	3.70939900
104.69999396	0.00000000	43.11023000	5.24729300
104.89999395	0.00000000	44.31594000	7.89247000
105.09999394	0.00000000	45.85384000	10.62992000
105.29999392	0.00000000	47.39173000	12.95522000
105.49999391	0.00000000	48.54823000	14.85605000
105.69999390	0.00000000	48.92347000	15.18824000
105.89999389	0.00000000	48.54823000	13.69956000
106.09999388	0.00000000	47.39173000	11.04823000
106.29999387	0.00000000	45.89690000	8.35383800
106.49999385	0.00000000	44.74040000	6.40378900
106.69999384	0.00000000	44.31594000	5.24729300
106.89999383	0.00000000	44.31594000	5.24729300
107.09999382	0.00000000	44.74040000	6.40378900
107.29999381	0.00000000	45.85384000	8.31077700
107.49999379	0.00000000	46.96727000	10.58686000
107.69999378	0.00000000	47.39173000	12.11860000
107.89999377	0.00000000	47.39173000	12.49385000
108.09999376	0.00000000	47.01648000	11.79257000
108.29999375	0.00000000	46.22908000	10.26698000
108.49999374	0.00000000	45.43553000	9.09817800
108.69999372	0.00000000	44.31594000	7.89247000
108.89999371	0.00000000	43.57775000	6.77903500
109.09999370	0.00000000	43.94069000	6.40378900
109.29999369	0.00000000	44.64813000	6.82209600
109.49999368	0.00000000	45.47859000	8.35383800
109.69999366	0.00000000	46.27214000	10.62992000
109.89999365	0.00000000	47.39173000	12.49385000
110.09999364	0.00000000	48.12992000	13.28125000
110.29999363	0.00000000	47.81004000	12.53691000
110.49999362	0.00000000	47.43479000	11.04823000
110.69999360	0.00000000	46.96727000	9.47342500
110.89999359	0.00000000	45.85384000	7.89247000
111.09999358	0.00000000	44.74040000	6.36072800
111.29999357	0.00000000	44.31594000	5.24729300
111.49999356	0.00000000	44.27288000	5.24729300
111.69999355	0.00000000	44.31594000	6.31151500
111.89999353	0.00000000	44.69119000	7.47416300
112.09999352	0.00000000	45.43553000	8.31077700
112.29999351	0.00000000	45.85384000	9.47342500
112.49999350	0.00000000	46.22908000	10.58686000
112.69999349	0.00000000	46.59818000	10.95595000
112.89999347	0.00000000	46.22908000	10.62992000
113.09999346	0.00000000	45.89690000	9.89173200
113.29999345	0.00000000	45.85384000	9.51648500
113.49999344	0.00000000	45.85384000	9.47342500
113.69999343	0.00000000	45.85384000	9.43036400
113.89999341	0.00000000	45.85384000	9.05511800
114.09999340	0.00000000	45.85384000	8.31077700
114.29999339	0.00000000	45.85384000	7.93553100
114.49999338	0.00000000	45.85384000	7.89247000
114.69999337	0.00000000	45.85384000	7.89247000
114.89999336	0.00000000	45.85384000	7.89247000
115.09999334	0.00000000	45.85384000	7.89247000
115.29999333	0.00000000	45.85384000	7.89247000
115.49999332	0.00000000	45.85384000	7.93553100
115.69999331	0.00000000	45.85384000	8.31077700
115.89999330	0.00000000	45.85384000	9.09817800
116.09999328	0.00000000	45.85384000	9.84867000
116.29999327	0.00000000	45.81078000	10.62992000
116.49999326	0.00000000	45.43553000	11.00517000
116.69999325	0.00000000	44.69119000	11.04823000
116.89999324	0.00000000	44.36515000	11.00517000
117.09999322	0.00000000	44.69119000	10.58686000
117.29999321	0.00000000	45.47859000	9.47342500
117.49999320	0.00000000	46.18602000	8.31077700
117.69999319	0.00000000	46.64124000	7.51722400
117.89999318	0.00000000	46.64739000	6.77903500
118.09999317	0.00000000	47.05954000	6.77903500
118.29999315	0.00000000	47.34252000	7.51722400
118.49999314	0.00000000	46.96727000	8.26771600
118.69999313	0.00000000	45.85384000	9.09817800
118.89999312	0.00000000	44.69119000	9.84867000
119.09999311	0.00000000	43.89763000	10.62992000
119.29999309	0.00000000	43.15945000	11.00517000
119.49999308	0.00000000	43.15945000	11.04823000
119.69999307	0.00000000	43.89763000	11.04823000
119.89999306	0.00000000	44.69119000	11.00517000
120.09999305	0.00000000	45.85384000	10.62992000
120.29999303	0.00000000	47.01648000	9.84867000
120.49999302	0.00000000	47.81004000	9.09817800
120.69999301	0.00000000	48.59744000	8.31077700
120.89999300	0.00000000	48.92347000	7.93553100
121.09999299	0.00000000	48.54823000	7.89247000
121.29999298	0.00000000	47.39173000	7.89247000
121.49999296	0.00000000	45.85384000	7.93553100
121.69999295	0.00000000	44.31594000	8.31077700
121.89999294	0.00000000	43.15945000	9.05511800
122.09999293	0.00000000	42.73499000	9.47342500
122.29999292	0.00000000	42.73499000	9.89173200
122.49999290	0.00000000	43.15945000	10.62992000
122.69999289	0.00000000	44.27288000	11.00517000
122.89999288	0.00000000	45.43553000	11.04823000
123.09999287	0.00000000	46.22908000	11.00517000
123.29999286	0.00000000	47.05954000	10.62992000
123.49999284	0.00000000	47.76698000	9.89173200
123.69999283	0.00000000	48.17913000	9.47342500
123.89999282	0.00000000	47.76698000	9.05511800
124.09999281	0.00000000	47.05954000	8.31077700
124.29999280	0.00000000	46.22908000	7.93553100
124.49999279	0.00000000	45.47859000	7.89247000
124.69999277	0.00000000	44.64813000	7.89247000
124.89999276	0.00000000	43.89763000	7.89247000
125.09999275	0.00000000	43.15945000	7.93553100
125.29999274	0.00000000	43.15945000	8.31077700
125.49999273	0.00000000	43.85457000	9.05511800
125.69999271	0.00000000	44.27288000	9.47342500
125.89999270	0.00000000	44.74040000	9.84867000
126.09999269	0.00000000	45.85384000	10.21161000
126.29999268	0.00000000	46.96727000	9.84867000
126.49999267	0.00000000	47.39173000	9.51648500
126.69999265	0.00000000	47.43479000	9.43036400
126.89999264	0.00000000	47.39173000	9.05511800
127.09999263	0.00000000	46.96727000	8.31077700
127.29999262	0.00000000	45.81078000	7.93553100
127.49999261	0.00000000	44.31594000	7.89247000
127.69999260	0.00000000	43.15945000	7.89247000
127.89999258	0.00000000	42.78420000	7.89247000
128.09999257	0.00000000	43.11023000	7.93553100
128.29999256	0.00000000	43.89763000	8.31077700
128.49999255	0.00000000	44.64813000	9.05511800
128.69999254	0.00000000	45.47859000	9.43036400
128.89999252	0.00000000	46.22908000	9.47342500
129.09999251	0.00000000	47.01648000	9.47342500
129.29999250	0.00000000	47.34252000	9.43036400
129.49999249	0.00000000	46.96727000	9.05511800
129.69999248	0.00000000	45.85384000	8.31077700
129.89999246	0.00000000	44.69119000	7.93553100
130.09999245	0.00000000	43.89763000	7.89247000
130.29999244	0.00000000	43.15945000	7.93553100
130.49999243	0.00000000	43.15945000	8.31077700
130.69999242	0.00000000	43.89763000	9.05511800
130.89999241	0.00000000	44.64813000	9.43036400
131.09999239	0.00000000	45.47859000	9.47342500
131.29999238	0.00000000	46.22908000	9.47342500
131.49999237	0.00000000	47.01648000	9.47342500
131.69999236	0.00000000	47.34252000	9.43036400
131.89999235	0.00000000	47.01648000	9.05511800
132.09999233	0.00000000	46.22908000	8.31077700
132.29999232	0.00000000	45.47859000	7.93553100
132.49999231	0.00000000	44.69119000	7.93553100
132.69999230	0.00000000	44.31594000	8.31077700
132.89999229	0.00000000	44.31594000	9.09817800
133.09999227	0.00000000	44.69119000	9.84867000
133.29999226	0.00000000	45.43553000	10.62992000
133.49999225	0.00000000	45.81078000	11.00517000
133.69999224	0.00000000	45.85384000	11.04823000
133.89999223	0.00000000	45.85384000	11.00517000
134.09999222	0.00000000	45.85384000	10.62992000
134.29999220	0.00000000	45.85384000	9.84867000
134.49999219	0.00000000	45.85384000	9.09817800
134.69999218	0.00000000	45.85384000	8.31077700
134.89999217	0.00000000	45.85384000	7.93553100
135.09999216	0.00000000	45.85384000	7.89247000
135.29999214	0.00000000	45.85384000	7.89247000
135.49999213	0.00000000	45.85384000	7.93553100
135.69999212	0.00000000	45.85384000	8.31077700
135.89999211	0.00000000	45.81078000	9.09817800
136.09999210	0.00000000	45.43553000	9.84867000
136.29999208	0.00000000	44.69119000	10.62992000
136.49999207	0.00000000	44.31594000	11.00517000
136.69999206	0.00000000	44.27288000	11.00517000
136.89999205	0.00000000	44.31594000	10.62992000
137.09999204	0.00000000	44.69119000	9.84867000
137.29999203	0.00000000	45.43553000	9.09817800
137.49999201	0.00000000	45.85384000	8.31077700
137.69999200	0.00000000	46.27214000	7.89247000
137.89999199	0.00000000	46.96727000	7.51722400
138.09999198	0.00000000	46.96727000	7.14812900
138.29999197	0.00000000	46.27214000	7.51722400
138.49999195	0.00000000	45.85384000	7.84940900
138.69999194	0.00000000	45.43553000	7.93553100
138.89999193	0.00000000	44.69119000	8.31077700
139.09999192	0.00000000	44.31594000	9.09817800
139.29999191	0.00000000	44.27288000	9.84867000
139.49999189	0.00000000	44.31594000	10.58686000
139.69999188	0.00000000	44.69119000	10.58686000
139.89999187	0.00000000	45.43553000	9.89173200
140.09999186	0.00000000	45.81078000	9.47342500
140.29999185	0.00000000	45.85384000	9.05511800
140.49999184	0.00000000	45.85384000	8.31077700
140.69999182	0.00000000	45.81078000	7.89247000
140.89999181	0.00000000	45.43553000	7.51722400
141.09999180	0.00000000	44.69119000	7.14812900
141.29999179	0.00000000	44.36515000	7.51722400
141.49999178	0.00000000	44.69119000	7.89247000
141.69999176	0.00000000	45.43553000	8.31077700
141.89999175	0.00000000	45.76156000	9.05511800
142.09999174	0.00000000	45.47859000	9.47342500
142.29999173	0.00000000	45.10950000	9.89173200
142.49999172	0.00000000	45.47859000	10.58686000
142.69999170	0.00000000	45.81078000	10.58686000
142.89999169	0.00000000	45.85384000	9.84867000
143.09999168	0.00000000	45.81078000	9.09817800
143.29999167	0.00000000	45.43553000	8.31077700
143.49999166	0.00000000	44.69119000	7.89247000
143.69999165	0.00000000	44.31594000	7.51722400
143.89999163	0.00000000	44.27288000	7.14812900
144.09999162	0.00000000	44.31594000	7.56028500
144.29999161	0.00000000	44.69119000	8.26771600
144.49999160	0.00000000	45.43553000	9.09817800
144.69999159	0.00000000	45.81078000	9.84867000
144.89999157	0.00000000	45.85384000	10.58686000
145.09999156	0.00000000	45.85384000	10.58686000
145.29999155	0.00000000	45.81078000	9.89173200
145.49999154	0.00000000	45.43553000	9.51648500
145.69999153	0.00000000	44.69119000	9.43036400
145.89999151	0.00000000	44.31594000	9.05511800
146.09999150	0.00000000	44.27288000	8.31077700
146.29999149	0.00000000	44.31594000	7.93553100
146.49999148	0.00000000	44.69119000	7.89247000
146.69999147	0.00000000	45.43553000	7.93553100
146.89999146	0.00000000	45.81078000	8.31077700
147.09999144	0.00000000	45.85384000	9.05511800
147.29999143	0.00000000	45.85384000	9.43036400
147.49999142	0.00000000	45.81078000	9.47342500
147.69999141	0.00000000	45.43553000	9.47342500
147.89999140	0.00000000	44.69119000	9.47342500
148.09999138	0.00000000	44.31594000	9.47342500
148.29999137	0.00000000	44.27288000	9.47342500
148.49999136	0.00000000	44.27288000	9.43036400
148.69999135	0.00000000	44.27288000	9.05511800
148.89999134	0.00000000	44.27288000	8.31077700
149.09999132	0.00000000	44.27288000	7.93553100
149.29999131	0.00000000	44.27288000	7.89247000
149.49999130	0.00000000	44.31594000	7.89247000
149.69999129	0.00000000	44.69119000	7.93553100
149.89999128	0.00000000	45.43553000	8.31077700
150.09999127	0.00000000	45.81078000	9.05511800
150.29999125	0.00000000	45.85384000	9.43036400
150.49999124	0.00000000	45.81078000	9.47342500
150.69999123	0.00000000	45.43553000	9.47342500
150.89999122	0.00000000	44.74040000	9.47342500
151.09999121	0.00000000	44.69119000	9.47342500
151.29999119	0.00000000	45.01722000	9.47342500
151.49999118	0.00000000	44.64813000	9.43036400
151.69999117	0.00000000	44.31594000	9.05511800
151.89999116	0.00000000	44.27288000	8.35998900
152.09999115	0.00000000	44.31594000	8.31077700
152.29999113	0.00000000	44.69119000	8.63681000
152.49999112	0.00000000	45.43553000	8.31077700
152.69999111	0.00000000	45.81078000	8.35998900
152.89999110	0.00000000	45.85384000	9.05511800
153.09999109	0.00000000	45.85384000	9.43036400
153.29999108	0.00000000	45.81078000	9.47342500
153.49999106	0.00000000	45.43553000	9.47342500
153.69999105	0.00000000	44.69119000	9.47342500
153.89999104	0.00000000	44.31594000	9.47342500
154.09999103	0.00000000	44.27288000	9.47342500
154.29999102	0.00000000	44.27288000	9.47342500
154.49999100	0.00000000	44.27288000	9.47342500
154.69999099	0.00000000	44.27288000	9.43036400
154.89999098	0.00000000	44.31594000	9.05511800
155.09999097	0.00000000	44.69119000	8.31077700
155.29999096	0.00000000	45.43553000	7.93553100
155.49999094	0.00000000	45.81078000	7.89247000
155.69999093	0.00000000	45.85384000	7.89247000
155.89999092	0.00000000	45.85384000	7.89247000
156.09999091	0.00000000	45.85384000	7.93553100
156.29999090	0.00000000	45.81078000	8.31077700
156.49999089	0.00000000	45.43553000	9.05511800
156.69999087	0.00000000	44.64813000	9.43036400
156.89999086	0.00000000	43.94069000	9.47342500
157.09999085	0.00000000	43.52854000	9.47342500
157.29999084	0.00000000	43.89763000	9.47342500
157.49999083	0.00000000	44.22982000	9.43036400
157.69999081	0.00000000	44.27288000	9.05511800
157.89999080	0.00000000	44.31594000	8.31077700
158.09999079	0.00000000	44.69119000	7.93553100
158.29999078	0.00000000	45.38631000	7.89247000
158.49999077	0.00000000	45.43553000	7.89247000
158.69999075	0.00000000	45.10950000	7.89247000
158.89999074	0.00000000	45.47859000	7.93553100
159.09999073	0.00000000	45.76156000	8.31077700
159.29999072	0.00000000	45.43553000	9.05511800
159.49999071	0.00000000	44.69119000	9.43036400
159.69999070	0.00000000	44.31594000	9.47342500
159.89999068	0.00000000	44.27288000	9.47342500
160.09999067	0.00000000	44.27288000	9.47342500
160.29999066	0.00000000	44.27288000	9.47342500
160.49999065	0.00000000	44.27288000	9.47342500
160.69999064	0.00000000	44.27288000	9.43036400
160.89999062	0.00000000	44.27288000	9.05511800
161.09999061	0.00000000	44.27288000	8.31077700
161.29999060	0.00000000	44.27288000	7.93553100
161.49999059	0.00000000	44.27288000	7.89247000
161.69999058	0.00000000	44.31594000	7.89247000
161.89999056	0.00000000	44.69119000	7.93553100
162.09999055	0.00000000	45.43553000	8.31077700
162.29999054	0.00000000	45.81078000	9.05511800
162.49999053	0.00000000	45.81078000	9.43036400
162.69999052	0.00000000	45.43553000	9.47342500
162.89999051	0.00000000	44.69119000	9.47342500
163.09999049	0.00000000	44.31594000	9.47342500
163.29999048	0.00000000	44.27288000	9.47342500
163.49999047	0.00000000	44.22982000	9.43036400
163.69999046	0.00000000	43.89763000	9.05511800
163.89999045	0.00000000	43.52854000	8.31077700
164.09999043	0.00000000	43.89763000	7.93553100
164.29999042	0.00000000	44.22982000	7.89247000
164.49999041	0.00000000	44.31594000	7.89247000
164.69999040	0.00000000	44.69119000	7.89247000
164.89999039	0.00000000	45.43553000	7.89247000
165.09999037	0.00000000	45.81078000	7.89247000
165.29999036	0.00000000	45.85384000	7.89247000
165.49999035	0.00000000	45.81078000	7.89247000
165.69999034	0.00000000	45.43553000	7.93553100
165.89999033	0.00000000	44.69119000	8.26771600
166.09999032	0.00000000	44.31594000	8.67987200
166.29999030	0.00000000	44.27288000	8.64296200
166.49999029	0.00000000	44.22982000	8.67987200
166.69999028	0.00000000	43.89763000	8.31077700
166.89999027	0.00000000	43.52854000	8.31077700
167.09999026	0.00000000	43.89763000	8.63681000
167.29999024	0.00000000	44.22982000	8.26771600
167.49999023	0.00000000	44.27288000	7.98474400
167.69999022	0.00000000	44.31594000	8.26771600
167.89999021	0.00000000	44.64813000	8.63681000
168.09999020	0.00000000	45.06028000	8.26771600
168.29999018	0.00000000	45.02337000	7.89247000
168.49999017	0.00000000	45.06028000	7.51722400
168.69999016	0.00000000	44.64813000	7.19734200
168.89999015	0.00000000	44.31594000	7.93553100
169.09999014	0.00000000	44.27288000	8.96284400
169.29999013	0.00000000	44.27288000	9.00590400
169.49999011	0.00000000	44.27288000	8.31077700
169.69999010	0.00000000	44.27288000	7.93553100
169.89999009	0.00000000	44.27288000	7.93553100
170.09999008	0.00000000	44.27288000	8.31077700
170.29999007	0.00000000	44.27288000	9.00590400
170.49999005	0.00000000	44.27288000	9.00590400
170.69999004	0.00000000	44.27288000	8.31077700
170.89999003	0.00000000	44.27288000	7.93553100
171.09999002	0.00000000	44.27288000	7.89247000
171.29999001	0.00000000	44.27288000	7.93553100
171.49998999	0.00000000	44.27288000	8.26771600
171.69998998	0.00000000	44.27288000	8.63681000
171.89998997	0.00000000	44.27288000	8.26771600
172.09998996	0.00000000	44.27288000	7.93553100
172.29998995	0.00000000	44.27288000	7.89247000
172.49998994	0.00000000	44.27288000	7.89247000
172.69998992	0.00000000	44.27288000	7.89247000
172.89998991	0.00000000	44.27288000	7.89247000
173.09998990	0.00000000	44.27288000	7.93553100
173.29998989	0.00000000	44.27288000	8.31077700
173.49998988	0.00000000	44.27288000	9.00590400
173.69998986	0.00000000	44.27288000	9.00590400
173.89998985	0.00000000	44.27288000	8.31077700
174.09998984	0.00000000	44.31594000	7.93553100
174.29998983	0.00000000	44.64813000	7.93553100
174.49998982	0.00000000	45.01722000	8.26771600
174.69998980	0.00000000	44.64813000	8.63681000
174.89998979	0.00000000	44.31594000	8.26771600
175.09998978	0.00000000	44.27288000	7.93553100
175.29998977	0.00000000	44.27288000	7.93553100
175.49998976	0.00000000	44.27288000	8.31077700
175.69998975	0.00000000	44.27288000	9.00590400
175.89998973	0.00000000	44.27288000	9.00590400
176.09998972	0.00000000	44.27288000	8.31077700
176.29998971	0.00000000	44.27288000	7.93553100
176.49998970	0.00000000	44.27288000	7.89247000
176.69998969	0.00000000	44.27288000	7.89247000
176.89998967	0.00000000	44.27288000	7.89247000
177.09998966	0.00000000	44.27288000	7.89247000
177.29998965	0.00000000	44.27288000	7.89247000
177.49998964	0.00000000	44.27288000	7.89247000
177.69998963	0.00000000	44.27288000	7.89247000
177.89998961	0.00000000	44.27288000	7.89247000
178.09998960	0.00000000	44.27288000	7.89247000
178.29998959	0.00000000	44.27288000	7.89247000
178.49998958	0.00000000	44.27288000	7.93553100
178.69998957	0.00000000	44.27288000	8.31077700
178.89998956	0.00000000	44.27288000	9.00590400
179.09998954	0.00000000	44.27288000	9.00590400
179.29998953	0.00000000	44.27288000	8.31077700
179.49998952	0.00000000	44.27288000	7.93553100
179.69998951	0.00000000	44.27288000	7.89247000
179.89998950	0.00000000	44.27288000	7.89247000
180.09998948	0.00000000	44.27288000	7.89247000
180.29998947	0.00000000	44.27288000	7.89247000
180.49998946	0.00000000	44.27288000	7.89247000
180.69998945	0.00000000	44.27288000	7.89247000
180.89998944	0.00000000	44.27288000	7.93553100
181.09998942	0.00000000	44.27288000	8.26771600
181.29998941	0.00000000	44.27288000	8.67987200
181.49998940	0.00000000	44.27288000	8.68602300
181.69998939	0.00000000	44.27288000	9.09817800
181.89998938	0.00000000	44.27288000	9.43036400
182.09998937	0.00000000	44.27288000	9.43036400
182.29998935	0.00000000	44.27288000	9.05511800
182.49998934	0.00000000	44.27288000	8.31077700
182.69998933	0.00000000	44.27288000	7.93553100
182.89998932	0.00000000	44.27288000	7.89247000
183.09998931	0.00000000	44.27288000	7.89247000
183.29998929	0.00000000	44.27288000	7.89247000
183.49998928	0.00000000	44.27288000	7.89247000
183.69998927	0.00000000	44.27288000	7.89247000
183.89998926	0.00000000	44.27288000	7.89247000
184.09998925	0.00000000	44.27288000	7.93553100
184.29998923	0.00000000	44.27288000	8.31077700
184.49998922	0.00000000	44.27288000	9.05511800
184.69998921	0.00000000	44.27288000	9.43036400
184.89998920	0.00000000	44.27288000	9.47342500
185.09998919	0.00000000	44.27288000	9.47342500
185.29998918	0.00000000	44.27288000	9.43036400
185.49998916	0.00000000	44.27288000	9.05511800
185.69998915	0.00000000	44.27288000	8.31077700
185.89998914	0.00000000	44.27288000	7.93553100
186.09998913	0.00000000	44.27288000	7.89247000
186.29998912	0.00000000	44.27288000	7.89247000
186.49998910	0.00000000	44.27288000	7.89247000
186.69998909	0.00000000	44.27288000	7.89247000
186.89998908	0.00000000	44.22982000	7.89247000
187.09998907	0.00000000	43.89763000	7.93553100
187.29998906	0.00000000	43.52854000	8.31077700
187.49998904	0.00000000	43.89763000	9.05511800
187.69998903	0.00000000	44.22982000	9.43036400
187.89998902	0.00000000	44.27288000	9.47342500
188.09998901	0.00000000	44.27288000	9.43036400
188.29998900	0.00000000	44.27288000	9.05511800
188.49998899	0.00000000	44.27288000	8.31077700
188.69998897	0.00000000	44.27288000	7.93553100
188.89998896	0.00000000	44.27288000	7.89247000
189.09998895	0.00000000	44.27288000	7.89247000
189.29998894	0.00000000	44.27288000	7.89247000
189.49998893	0.00000000	44.27288000	7.89247000
189.69998891	0.00000000	44.22982000	7.89247000
189.89998890	0.00000000	43.85457000	7.89247000
190.09998889	0.00000000	43.11023000	7.89247000
190.29998888	0.00000000	42.78420000	7.93553100
190.49998887	0.00000000	43.11023000	8.26771600
190.69998885	0.00000000	43.85457000	8.63681000
190.89998884	0.00000000	44.22982000	8.26771600
191.09998883	0.00000000	44.27288000	7.98474400
191.29998882	0.00000000	44.27288000	8.31077700
191.49998881	0.00000000	44.27288000	9.00590400
191.69998880	0.00000000	44.27288000	9.00590400
191.89998878	0.00000000	44.27288000	8.31077700
192.09998877	0.00000000	44.27288000	7.93553100
192.29998876	0.00000000	44.27288000	7.89247000
192.49998875	0.00000000	44.27288000	7.89247000
192.69998874	0.00000000	44.27288000	7.89247000
192.89998872	0.00000000	44.27288000	7.89247000
193.09998871	0.00000000	44.27288000	7.89247000
193.29998870	0.00000000	44.27288000	7.89247000
193.49998869	0.00000000	44.27288000	7.89247000
193.69998868	0.00000000	44.27288000	7.89247000
193.89998866	0.00000000	44.27288000	7.89247000
194.09998865	0.00000000	44.27288000	7.89247000
194.29998864	0.00000000	44.27288000	7.93553100
194.49998863	0.00000000	44.27288000	8.26771600
194.69998862	0.00000000	44.27288000	8.63681000
194.89998861	0.00000000	44.27288000	8.26771600
195.09998859	0.00000000	44.27288000	7.93553100
195.29998858	0.00000000	44.27288000	7.89247000
195.49998857	0.00000000	44.22982000	7.89247000
195.69998856	0.00000000	43.85457000	7.89247000
195.89998855	0.00000000	43.15945000	7.89247000
196.09998853	0.00000000	43.15945000	7.89247000
