Time	Channel A	Channel B	Channel C
(us)	(V)	(mV)	(mV)

-4.49999956	0.00000000	50.22145000	11.04823000
-4.29999957	0.00000000	50.55364000	11.04823000
-4.09999958	0.00000000	50.59670000	11.04823000
-3.89999959	0.00000000	50.59670000	11.04823000
-3.69999960	0.00000000	50.59670000	11.04823000
-3.49999962	0.00000000	50.55364000	11.04823000
-3.29999963	0.00000000	50.22145000	11.04823000
-3.09999964	0.00000000	49.80930000	11.04823000
-2.89999965	0.00000000	49.80315000	11.04823000
-2.69999966	0.00000000	49.43405000	11.04823000
-2.49999968	0.00000000	49.48326000	11.00517000
-2.29999969	0.00000000	50.12918000	10.67298000
-2.09999970	0.00000000	50.17839000	10.31004000
-1.89999971	0.00000000	49.85236000	10.67298000
-1.69999972	0.00000000	50.17839000	10.95595000
-1.49999973	0.00000000	50.17839000	10.67298000
-1.29999975	0.00000000	49.80930000	10.26698000
-1.09999976	0.00000000	49.84621000	10.30389000
-0.89999977	0.00000000	49.76624000	10.26698000
-0.69999978	0.00000000	49.80315000	10.67298000
-0.49999979	0.00000000	49.43405000	11.00517000
-0.29999981	0.15871060	49.48326000	11.04823000
-0.09999982	0.63668800	50.12918000	11.04823000
0.10000017	0.95533960	50.17839000	11.00517000
0.30000016	1.11466500	49.80930000	10.67298000
0.50000015	0.95533960	49.84621000	10.31004000
0.70000013	0.47736220	49.80930000	10.67298000
0.90000012	-0.15871060	50.17839000	11.00517000
1.10000011	-1.27399100	50.17839000	11.04823000
1.30000010	-2.07062000	49.85236000	11.04823000
1.50000009	-2.70792300	50.22145000	11.04823000
1.70000008	-2.54859700	50.55364000	11.04823000
1.90000006	-1.75196900	50.59670000	11.04823000
2.10000005	0.00000000	50.59670000	11.04823000
2.30000004	2.07062000	50.59670000	11.04823000
2.50000003	4.14124000	50.55364000	11.04823000
2.70000002	5.25652100	50.22145000	11.04823000
2.90000000	5.09719500	49.80930000	11.00517000
3.09999999	3.50393700	49.80315000	10.67298000
3.29999998	0.79601380	49.39099000	10.31004000
3.49999997	-2.70792300	49.10802000	10.67298000
3.69999996	-5.73449800	49.39099000	11.00517000
3.89999994	-7.64579200	49.80315000	11.04823000
4.09999993	-7.80511800	49.80930000	11.09129000
4.29999992	-5.73449800	50.22145000	11.46653000
4.49999991	-2.22994600	50.55364000	12.16166000
4.69999990	2.22994600	50.59670000	12.16166000
4.89999989	6.21247500	50.55364000	11.46653000
5.09999987	8.92039900	50.22145000	11.04823000
5.29999986	9.39837600	49.80930000	10.62992000
5.49999985	7.48646600	49.80315000	9.89173200
5.69999984	3.66326300	49.39099000	9.56569900
5.89999983	-1.11466500	49.10802000	9.89173200
6.09999981	-5.57517200	49.43405000	10.62992000
6.29999980	-8.60174700	50.12918000	11.00517000
6.49999979	-9.39837600	50.17839000	11.04823000
6.69999978	-7.96444400	49.85236000	11.04823000
6.89999977	-4.45989200	50.22145000	11.04823000
7.09999975	-0.15871060	50.50443000	11.09129000
7.29999974	3.98191400	50.17839000	11.42347000
7.49999973	6.84916400	49.43405000	11.74336000
7.69999972	7.80511800	49.05881000	11.00517000
7.89999971	6.84916400	49.01575000	9.93479300
8.09999970	4.30056600	49.05881000	9.56569900
8.29999968	0.95533960	49.39099000	9.84867000
8.49999967	-2.07062000	49.76009000	10.25467000
8.69999966	-4.30056600	49.39099000	10.26698000
8.89999965	-5.25652100	49.10802000	10.67298000
9.09999964	-4.77854300	49.43405000	11.00517000
9.29999962	-3.18590100	50.12918000	11.04823000
9.49999961	-1.27399100	50.12918000	11.04823000
9.69999960	0.63668800	49.43405000	11.04823000
9.89999959	1.91129400	49.10802000	11.04823000
10.09999958	2.54859700	49.39099000	11.00517000
10.29999956	2.38927200	49.76009000	10.67298000
10.49999955	1.75196900	49.39099000	10.31004000
10.69999954	0.79601380	49.05881000	10.62992000
10.89999953	0.00000000	49.01575000	10.58686000
11.09999952	-0.63668800	49.01575000	9.93479300
11.29999951	-0.95533960	49.01575000	9.93479300
11.49999949	-0.95533960	49.05881000	10.62992000
11.69999948	-0.79601380	49.39099000	10.95595000
11.89999947	-0.47736220	49.76009000	10.67298000
12.09999946	-0.31803640	49.39099000	10.31004000
12.29999945	-0.15871060	49.05881000	10.67298000
12.49999943	0.00000000	49.01575000	11.00517000
12.69999942	0.00000000	49.01575000	11.04823000
12.89999941	0.00000000	49.01575000	11.04823000
13.09999940	0.00000000	49.01575000	11.04823000
13.29999939	0.15871060	49.01575000	11.04823000
13.49999937	0.00000000	49.05881000	11.04823000
13.69999936	0.00000000	49.39099000	11.04823000
13.89999935	0.00000000	49.76009000	11.04823000
14.09999934	0.00000000	49.39099000	11.04823000
14.29999933	-0.15871060	49.05881000	11.04823000
14.49999932	-0.15871060	49.01575000	11.04823000
14.69999930	0.00000000	49.01575000	11.04823000
14.89999929	0.00000000	49.05881000	11.04823000
15.09999928	0.00000000	49.39099000	11.04823000
15.29999927	0.00000000	49.76009000	11.04823000
15.49999926	0.00000000	49.39099000	11.04823000
15.69999924	0.00000000	49.05881000	11.04823000
15.89999923	0.00000000	49.01575000	11.04823000
16.09999922	0.00000000	49.01575000	11.04823000
16.29999921	0.00000000	49.01575000	11.04823000
16.49999920	-0.15871060	49.05881000	11.04823000
16.69999919	-0.15871060	49.43405000	11.04823000
16.89999917	0.00000000	50.17839000	11.04823000
17.09999916	0.00000000	50.59670000	11.04823000
17.29999915	0.00000000	51.01501000	11.04823000
17.49999914	0.00000000	51.71013000	11.04823000
17.69999913	0.00000000	51.71013000	11.04823000
17.89999911	0.00000000	50.97194000	11.04823000
18.09999910	0.00000000	50.17839000	11.04823000
18.29999909	0.00000000	48.97269000	11.04823000
18.49999908	0.00000000	47.43479000	11.04823000
18.69999907	0.00000000	45.89690000	11.04823000
18.89999905	0.00000000	44.74040000	11.04823000
19.09999904	0.00000000	44.36515000	11.00517000
19.29999903	0.00000000	44.82652000	10.67298000
19.49999902	0.00000000	46.82579000	10.31004000
19.69999901	0.00000000	50.63976000	10.67298000
19.89999900	0.00000000	54.87204000	11.00517000
20.09999898	0.00000000	58.36614000	11.04823000
20.29999897	0.00000000	60.64222000	11.00517000
20.49999896	0.00000000	60.59916000	10.67298000
20.69999895	0.00000000	57.85556000	10.31004000
20.89999894	0.00000000	52.73745000	10.67298000
21.09999892	0.00000000	45.38631000	11.00517000
21.29999891	0.00000000	37.34006000	11.04823000
21.49999890	0.00000000	31.19464000	11.04823000
21.69999889	0.00000000	28.53716000	11.00517000
21.89999888	0.00000000	30.54257000	10.62992000
22.09999886	0.00000000	37.56767000	9.89173200
22.29999885	0.00000000	48.40674000	9.51648500
22.49999884	0.00000000	61.15280000	9.47342500
22.69999883	0.00000000	72.69930000	9.51648500
22.89999882	0.00000000	80.00122000	9.89173200
23.09999881	0.00000000	81.07775000	10.62992000
23.29999879	0.00000000	74.79699000	11.00517000
23.49999878	0.00000000	61.62647000	11.09129000
23.69999877	0.00000000	44.27288000	11.46653000
23.89999876	0.00000000	26.87008000	12.21087000
24.09999875	0.00000000	13.42274000	12.53691000
24.29999873	0.00000000	7.28346400	12.21087000
24.49999872	0.00000000	10.85753000	11.38041000
24.69999871	0.00000000	23.65896000	10.21161000
24.89999870	0.00000000	43.75615000	8.26771600
25.09999869	0.00000000	66.46161000	6.40378900
25.29999867	0.00000000	85.77755000	5.24729300
25.49999866	0.00000000	97.36097000	5.24729300
25.69999865	0.00000000	98.47440000	6.40378900
25.89999864	0.00000000	88.37967000	8.40305000
26.09999863	0.00000000	69.02682000	11.51575000
26.29999862	0.00000000	44.36515000	15.36663000
26.49999860	0.00000000	20.44783000	18.81152000
26.69999859	0.00000000	3.42027500	21.13066000
26.89999858	0.00000000	-3.55561000	21.46284000
27.09999857	0.00000000	1.13804100	19.46358000
27.29999856	0.00000000	16.95989000	14.76993000
27.49999854	0.00000000	40.08366000	7.80019600
27.69999853	0.00000000	64.78838000	0.13533460
27.89999852	0.00000000	85.31004000	-6.40994000
28.09999851	0.00000000	97.31791000	-9.80561000
28.29999850	0.00000000	98.52362000	-9.01205700
28.49999848	0.00000000	88.89025000	-3.53715500
28.69999847	0.00000000	71.16142000	5.75172200
28.89999846	0.00000000	49.52633000	17.36589000
29.09999845	0.00000000	29.00467000	28.89395000
29.29999844	0.00000000	13.88410000	37.34621000
29.49999843	0.00000000	6.90821800	40.41584000
29.69999841	0.00000000	9.55954600	37.26009000
29.89999840	0.00000000	20.68159000	27.92200000
30.09999839	0.00000000	36.87869000	13.65650000
30.29999838	0.00000000	54.32455000	-2.14074800
30.49999837	0.00000000	69.44512000	-15.66191000
30.69999835	0.00000000	79.58292000	-24.16338000
30.89999834	0.00000000	83.07702000	-25.65207000
31.09999833	0.00000000	79.62598000	-19.42667000
31.29999832	0.00000000	69.99876000	-6.27460600
31.49999831	0.00000000	56.87746000	11.05438000
31.69999829	0.00000000	43.28863000	28.42643000
31.89999828	0.00000000	31.70521000	41.99680000
32.09999827	0.00000000	24.68011000	49.33562000
32.29999826	0.00000000	23.46826000	48.91732000
32.49999825	0.00000000	27.28839000	40.41584000
32.69999824	0.00000000	35.42692000	25.73203000
32.89999822	0.00000000	45.85384000	7.94168200
33.09999821	0.00000000	56.32381000	-9.43651600
33.29999820	0.00000000	64.78838000	-22.53937000
33.49999819	0.00000000	69.06988000	-28.34645000
33.69999818	0.00000000	68.37475000	-25.69513000
33.89999816	0.00000000	63.76107000	-15.66191000
34.09999815	0.00000000	56.40993000	-0.60285430
34.29999814	0.00000000	47.94537000	16.39395000
34.49999813	0.00000000	40.59424000	31.45300000
34.69999812	0.00000000	35.93750000	41.52928000
34.89999810	0.00000000	34.77485000	44.69119000
35.09999809	0.00000000	37.43233000	40.79109000
35.29999808	0.00000000	42.78420000	30.74557000
35.49999807	0.00000000	48.97269000	16.11712000
35.69999806	0.00000000	54.74286000	1.15034400
35.89999805	0.00000000	58.59990000	-10.54995000
36.09999803	0.00000000	59.39345000	-17.10753000
36.29999802	0.00000000	57.48031000	-17.47047000
36.49999801	0.00000000	53.24803000	-10.92520000
36.69999800	0.00000000	47.90231000	0.55364170
36.89999799	0.00000000	43.28863000	13.61343000
37.09999797	0.00000000	40.55118000	24.76009000
37.29999796	0.00000000	40.17593000	30.98548000
37.49999795	0.00000000	42.08292000	31.40379000
37.69999794	0.00000000	45.94611000	26.38410000
37.89999793	0.00000000	50.55364000	16.85531000
38.09999791	0.00000000	54.82898000	6.17618100
38.29999790	0.00000000	57.85556000	-1.91314000
38.49999789	0.00000000	58.64296000	-5.81323800
38.69999788	0.00000000	56.78519000	-4.65059000
38.89999787	0.00000000	53.66634000	1.10728300
39.09999786	0.00000000	49.76009000	9.94094400
39.29999784	0.00000000	45.15871000	19.46358000
39.49999783	0.00000000	41.70767000	26.29798000
39.69999782	0.00000000	40.08366000	27.87278000
39.89999781	0.00000000	40.08366000	24.06496000
40.09999780	0.00000000	41.66461000	16.39395000
40.29999778	0.00000000	44.74040000	6.77903500
40.49999777	0.00000000	48.64050000	-2.00541300
40.69999776	0.00000000	52.50984000	-7.39419200
40.89999775	0.00000000	55.99163000	-7.76943800
41.09999774	0.00000000	57.94783000	-3.16806100
41.29999772	0.00000000	58.36614000	5.29035400
41.49999771	0.00000000	57.52953000	15.23130000
41.69999770	0.00000000	54.78592000	23.68971000
41.89999769	0.00000000	50.59670000	28.34030000
42.09999768	0.00000000	46.36442000	28.38337000
42.29999767	0.00000000	43.20251000	24.15723000
42.49999765	0.00000000	41.24631000	16.85531000
42.69999764	0.00000000	40.50196000	8.40305000
42.89999763	0.00000000	41.66461000	1.06422200
43.09999762	0.00000000	44.31594000	-3.58021600
43.29999761	0.00000000	47.39173000	-4.74286400
43.49999759	0.00000000	50.12918000	-2.09153500
43.69999758	0.00000000	52.08538000	3.29109200
43.89999757	0.00000000	53.29109000	9.79945900
44.09999756	0.00000000	53.66634000	15.97564000
44.29999755	0.00000000	53.34030000	19.83883000
44.49999753	0.00000000	52.59596000	21.04454000
44.69999752	0.00000000	52.22071000	19.54970000
44.89999751	0.00000000	52.13459000	16.11712000
45.09999750	0.00000000	51.75935000	12.25394000
45.29999749	0.00000000	50.97194000	8.35998900
45.49999748	0.00000000	50.12918000	5.33341500
45.69999746	0.00000000	48.50517000	4.12770700
45.89999745	0.00000000	45.81078000	4.82283400
46.09999744	0.00000000	42.73499000	6.36072800
46.29999743	0.00000000	40.08366000	8.31077700
46.49999742	0.00000000	38.97022000	10.62992000
46.69999740	0.00000000	40.12672000	12.58612000
46.89999739	0.00000000	43.28863000	14.11786000
47.09999738	0.00000000	48.36368000	14.85605000
47.29999737	0.00000000	54.87204000	14.11786000
47.49999736	0.00000000	60.64222000	12.58612000
47.69999734	0.00000000	64.13631000	10.62992000
47.89999733	0.00000000	64.83144000	8.31077700
48.09999732	0.00000000	61.71259000	6.40378900
48.29999731	0.00000000	55.16117000	5.24729300
48.49999730	0.00000000	47.05954000	5.29035400
48.69999729	0.00000000	38.92101000	6.77903500
48.89999727	0.00000000	32.77559000	9.09817800
49.09999726	0.00000000	30.11811000	11.46653000
49.29999725	0.00000000	32.08046000	14.16092000
49.49999724	0.00000000	38.63804000	16.39395000
49.69999723	0.00000000	47.85310000	16.81225000
49.89999721	0.00000000	57.48031000	15.69882000
50.09999720	0.00000000	64.83144000	13.69956000
50.29999719	0.00000000	68.32554000	10.58686000
50.49999718	0.00000000	67.53198000	6.77903500
50.69999717	0.00000000	62.09399000	3.70939900
50.89999715	0.00000000	53.29109000	2.12844500
51.09999714	0.00000000	43.66388000	2.17150600
51.29999713	0.00000000	35.93750000	4.12770700
51.49999712	0.00000000	31.70521000	7.98474400
51.69999711	0.00000000	32.08046000	12.53691000
51.89999710	0.00000000	37.05708000	16.43701000
52.09999708	0.00000000	44.74040000	18.76845000
52.29999707	0.00000000	53.20496000	19.55585000
52.49999706	0.00000000	60.08858000	18.35015000
52.69999705	0.00000000	63.20743000	15.27436000
52.89999704	0.00000000	62.08784000	11.04823000
53.09999702	0.00000000	57.48031000	6.82209600
53.29999701	0.00000000	50.59670000	3.75246000
53.49999700	0.00000000	43.66388000	2.59596400
53.69999699	0.00000000	38.68110000	3.70939900
53.89999698	0.00000000	36.73720000	6.36072800
54.09999696	0.00000000	38.63804000	9.47342500
54.29999695	0.00000000	43.20251000	12.53691000
54.49999694	0.00000000	49.01575000	14.81299000
54.69999693	0.00000000	54.74286000	15.18824000
54.89999692	0.00000000	58.59990000	13.74262000
55.09999691	0.00000000	59.39345000	11.46653000
55.29999689	0.00000000	57.48031000	9.55954600
55.49999688	0.00000000	53.24803000	8.40305000
55.69999687	0.00000000	47.90231000	8.40305000
55.89999686	0.00000000	43.28863000	9.55954600
56.09999685	0.00000000	40.55118000	11.42347000
56.29999683	0.00000000	40.17593000	13.32431000
56.49999682	0.00000000	42.08292000	14.07480000
56.69999681	0.00000000	45.94611000	13.69956000
56.89999680	0.00000000	50.50443000	12.07554000
57.09999679	0.00000000	54.36761000	9.05511800
57.29999677	0.00000000	56.32381000	5.61638700
57.49999676	0.00000000	56.36687000	3.33415300
57.69999675	0.00000000	54.78592000	2.59596400
57.89999674	0.00000000	51.71013000	4.17076700
58.09999673	0.00000000	47.90231000	7.98474400
58.29999672	0.00000000	44.82652000	12.62918000
58.49999670	0.00000000	43.24557000	17.27362000
58.69999669	0.00000000	43.24557000	21.03838000
58.89999668	0.00000000	44.74040000	22.15797000
59.09999667	0.00000000	47.01648000	19.88189000
59.29999666	0.00000000	48.97269000	15.23130000
59.49999664	0.00000000	50.55364000	9.05511800
59.69999663	0.00000000	51.66707000	2.55290300
59.89999662	0.00000000	51.71013000	-2.04847400
60.09999661	0.00000000	50.92888000	-3.62942900
60.29999660	0.00000000	49.80315000	-2.04847400
60.49999658	0.00000000	48.27140000	2.59596400
60.69999657	0.00000000	47.52707000	9.55954600
60.89999656	0.00000000	47.47785000	17.18750000
61.09999655	0.00000000	47.90231000	23.36368000
61.29999654	0.00000000	49.01575000	26.06422000
61.49999653	0.00000000	50.12918000	25.31373000
61.69999651	0.00000000	50.50443000	20.99532000
61.89999650	0.00000000	50.17839000	13.69956000
62.09999649	0.00000000	49.39099000	5.29035400
62.29999648	0.00000000	48.59744000	-1.63016700
62.49999647	0.00000000	47.43479000	-5.11195900
62.69999645	0.00000000	46.32135000	-4.78592500
62.89999644	0.00000000	45.89690000	-0.93503930
63.09999643	0.00000000	45.94611000	5.24729300
63.29999642	0.00000000	46.73966000	12.62918000
63.49999641	0.00000000	48.64050000	19.83883000
63.69999639	0.00000000	50.50443000	24.47712000
63.89999638	0.00000000	51.71013000	24.99385000
64.09999637	0.00000000	52.13459000	23.08686000
64.29999636	0.00000000	52.08538000	19.08834000
64.49999635	0.00000000	51.29183000	12.58612000
64.69999634	0.00000000	49.39099000	5.70866100
64.89999632	0.00000000	47.47785000	0.64591530
65.09999631	0.00000000	45.89690000	-2.14074800
65.29999630	0.00000000	44.78346000	-2.50984200
65.49999629	0.00000000	44.82652000	-0.55979330
65.69999628	0.00000000	46.32135000	3.66633800
65.89999626	0.00000000	48.54823000	9.00590400
66.09999625	0.00000000	50.08612000	13.65650000
66.29999624	0.00000000	50.55364000	16.85531000
66.49999623	0.00000000	50.55364000	18.81152000
66.69999622	0.00000000	50.12918000	19.59892000
66.89999620	0.00000000	48.97269000	18.81152000
67.09999619	0.00000000	47.47785000	16.90453000
67.29999618	0.00000000	46.32135000	14.16092000
67.49999617	0.00000000	45.98917000	11.04823000
67.69999616	0.00000000	46.78272000	7.93553100
67.89999615	0.00000000	49.05881000	5.19808000
68.09999613	0.00000000	51.66707000	3.24803100
68.29999612	0.00000000	53.24803000	2.08538400
68.49999611	0.00000000	53.66634000	2.08538400
68.69999610	0.00000000	53.20496000	3.29109200
68.89999609	0.00000000	51.24877000	5.66560000
69.09999607	0.00000000	47.81004000	9.51648500
69.29999606	0.00000000	44.36515000	13.79183000
69.49999605	0.00000000	41.62155000	17.64887000
69.69999604	0.00000000	40.12672000	20.71235000
69.89999603	0.00000000	40.55118000	21.46284000
70.09999601	0.00000000	43.28863000	19.97416000
70.29999600	0.00000000	47.90231000	16.81225000
70.49999599	0.00000000	53.29109000	12.16166000
70.69999598	0.00000000	57.85556000	6.82209600
70.89999597	0.00000000	60.22392000	2.54675200
71.09999596	0.00000000	59.85482000	0.22145670
71.29999594	0.00000000	57.48031000	-0.18454720
71.49999593	0.00000000	52.82972000	1.75935000
71.69999592	0.00000000	46.69045000	5.19808000
71.89999591	0.00000000	41.28937000	9.51648500
72.09999590	0.00000000	37.38927000	14.07480000
72.29999588	0.00000000	35.89444000	17.55659000
72.49999587	0.00000000	37.38927000	18.71924000
72.69999586	0.00000000	41.24631000	18.01796000
72.89999585	0.00000000	46.32135000	15.69882000
73.09999584	0.00000000	52.08538000	12.62918000
73.29999582	0.00000000	57.06200000	9.51648500
73.49999581	0.00000000	59.39345000	6.86515700
73.69999580	0.00000000	59.11048000	5.70866100
73.89999579	0.00000000	56.74212000	6.40378900
74.09999578	0.00000000	52.92200000	7.89247000
74.29999577	0.00000000	48.22834000	9.42421200
74.49999575	0.00000000	44.03297000	10.53765000
74.69999574	0.00000000	40.92643000	10.53765000
74.89999573	0.00000000	40.12672000	9.47342500
75.09999572	0.00000000	41.20325000	8.31077700
75.29999571	0.00000000	43.20251000	7.51722400
75.49999569	0.00000000	46.27214000	6.82209600
75.69999568	0.00000000	49.71087000	7.28346400
75.89999567	0.00000000	51.99926000	9.55954600
76.09999566	0.00000000	52.87278000	12.58612000
76.29999565	0.00000000	52.50984000	15.27436000
76.49999563	0.00000000	51.75935000	16.85531000
76.69999562	0.00000000	50.59670000	17.18750000
76.89999561	0.00000000	49.43405000	15.97564000
77.09999560	0.00000000	48.64050000	12.49385000
77.29999559	0.00000000	47.90231000	7.93553100
77.49999558	0.00000000	47.85310000	3.66633800
77.69999556	0.00000000	48.17913000	0.59670270
77.89999555	0.00000000	47.81004000	-0.55979330
78.09999554	0.00000000	47.43479000	0.64591530
78.29999553	0.00000000	47.01648000	4.12770700
78.49999552	0.00000000	46.27214000	9.47342500
78.69999550	0.00000000	45.89690000	14.85605000
78.89999549	0.00000000	45.89690000	18.81152000
79.09999548	0.00000000	46.36442000	21.50590000
79.29999547	0.00000000	47.90231000	22.20103000
79.49999546	0.00000000	50.17839000	19.88189000
79.69999544	0.00000000	52.08538000	15.32357000
79.89999543	0.00000000	53.29109000	9.89173200
80.09999542	0.00000000	53.62328000	4.87204700
80.29999541	0.00000000	52.82972000	1.02116100
80.49999540	0.00000000	50.50443000	-0.51673230
80.69999539	0.00000000	47.47785000	0.55364170
80.89999537	0.00000000	44.78346000	3.24803100
81.09999536	0.00000000	43.20251000	6.77903500
81.29999535	0.00000000	42.82726000	11.00517000
81.49999534	0.00000000	43.62082000	14.85605000
81.69999533	0.00000000	45.94611000	17.27362000
81.89999531	0.00000000	48.97269000	18.81152000
82.09999530	0.00000000	51.66707000	19.18061000
82.29999529	0.00000000	53.24803000	17.64887000
82.49999528	0.00000000	53.66634000	15.36663000
82.69999527	0.00000000	53.24803000	12.58612000
82.89999525	0.00000000	51.71013000	9.47342500
83.09999524	0.00000000	49.43405000	6.36072800
83.29999523	0.00000000	47.47785000	3.66633800
83.49999522	0.00000000	45.94611000	2.12844500
83.69999521	0.00000000	45.15871000	2.12844500
83.89999520	0.00000000	45.52165000	3.66633800
84.09999518	0.00000000	46.22908000	6.36072800
84.29999517	0.00000000	47.05954000	9.51648500
84.49999516	0.00000000	47.81004000	13.00443000
84.69999515	0.00000000	48.59744000	16.48622000
84.89999514	0.00000000	48.97269000	18.76845000
85.09999512	0.00000000	49.01575000	19.55585000
85.29999511	0.00000000	49.01575000	18.35015000
85.49999510	0.00000000	49.05881000	15.27436000
85.69999509	0.00000000	49.43405000	11.00517000
85.89999508	0.00000000	50.17839000	6.40378900
86.09999506	0.00000000	50.50443000	2.50369100
86.29999505	0.00000000	50.12918000	0.22145670
86.49999504	0.00000000	48.97269000	-0.18454720
86.69999503	0.00000000	47.47785000	1.80241100
86.89999502	0.00000000	46.27214000	5.61638700
87.09999501	0.00000000	45.47859000	10.67298000
87.29999499	0.00000000	44.74040000	15.60654000
87.49999498	0.00000000	44.74040000	19.08834000
87.69999497	0.00000000	45.52165000	19.93110000
87.89999496	0.00000000	46.69045000	18.76845000
88.09999495	0.00000000	48.64050000	15.97564000
88.29999493	0.00000000	50.50443000	10.96211000
88.49999492	0.00000000	51.66707000	5.33341500
88.69999491	0.00000000	51.66707000	1.43946800
88.89999490	0.00000000	50.55364000	0.27066930
89.09999489	0.00000000	49.01575000	1.39025600
89.29999487	0.00000000	47.43479000	4.87204700
89.49999486	0.00000000	45.89690000	9.47342500
89.69999485	0.00000000	44.78346000	14.11786000
89.89999484	0.00000000	44.78346000	17.97490000
90.09999483	0.00000000	45.85384000	19.83883000
90.29999482	0.00000000	47.01648000	19.08834000
90.49999480	0.00000000	47.81004000	15.60654000
90.69999479	0.00000000	48.64050000	10.67298000
90.89999478	0.00000000	49.34793000	5.66560000
91.09999477	0.00000000	49.76009000	2.17765700
91.29999476	0.00000000	49.39099000	0.63976370
91.49999474	0.00000000	49.05881000	1.48253000
91.69999473	0.00000000	48.97269000	5.24729300
91.89999472	0.00000000	48.64050000	10.25467000
92.09999471	0.00000000	48.27140000	14.91142000
92.29999470	0.00000000	48.64050000	19.08834000
92.49999468	0.00000000	48.92347000	20.53395000
92.69999467	0.00000000	48.59744000	18.35015000
92.89999466	0.00000000	47.81004000	14.16708000
93.09999465	0.00000000	47.05954000	9.51648500
93.29999464	0.00000000	46.22908000	5.24729300
93.49999463	0.00000000	45.52165000	2.22071800
93.69999461	0.00000000	45.15871000	1.43331700
93.89999460	0.00000000	45.94611000	3.33415300
94.09999459	0.00000000	47.43479000	6.77903500
94.29999458	0.00000000	49.01575000	11.04823000
94.49999457	0.00000000	50.59670000	15.23130000
94.69999455	0.00000000	52.13459000	17.88263000
94.89999454	0.00000000	53.24803000	17.92569000
95.09999453	0.00000000	53.24803000	15.64960000
95.29999452	0.00000000	52.04232000	12.21087000
95.49999451	0.00000000	49.76009000	8.35998900
95.69999449	0.00000000	46.64739000	5.29035400
95.89999448	0.00000000	43.94069000	3.70939900
96.09999447	0.00000000	41.62155000	3.70939900
96.29999446	0.00000000	40.55118000	5.29035400
96.49999445	0.00000000	41.66461000	8.35998900
96.69999444	0.00000000	44.36515000	12.11860000
96.89999442	0.00000000	47.85310000	14.81299000
97.09999441	0.00000000	51.71013000	15.60654000
97.29999440	0.00000000	54.78592000	14.90526000
97.49999439	0.00000000	56.36687000	12.95522000
97.69999438	0.00000000	56.36687000	10.67298000
97.89999436	0.00000000	54.78592000	8.35383800
98.09999435	0.00000000	51.71013000	6.82209600
98.29999434	0.00000000	47.81004000	6.40378900
98.49999433	0.00000000	43.98991000	6.77903500
98.69999432	0.00000000	40.87721000	7.89247000
98.89999430	0.00000000	39.75763000	9.05511800
99.09999429	0.00000000	40.45890000	9.84867000
99.29999428	0.00000000	42.78420000	10.62992000
99.49999427	0.00000000	45.85384000	11.00517000
99.69999426	0.00000000	49.01575000	11.04823000
99.89999425	0.00000000	52.13459000	11.04823000
100.09999423	0.00000000	54.78592000	11.09129000
100.29999422	0.00000000	55.89936000	11.46653000
100.49999421	0.00000000	54.82898000	12.21087000
100.69999420	0.00000000	52.55290000	12.53691000
100.89999419	0.00000000	50.17839000	12.16166000
101.09999417	0.00000000	47.43479000	11.00517000
101.29999416	0.00000000	44.74040000	9.47342500
101.49999415	0.00000000	42.82726000	7.89247000
101.69999414	0.00000000	42.03986000	6.36072800
101.89999413	0.00000000	42.78420000	5.24729300
102.09999411	0.00000000	44.31594000	5.29035400
102.29999410	0.00000000	46.27214000	6.82209600
102.49999409	0.00000000	48.59744000	9.47342500
102.69999408	0.00000000	50.55364000	12.21087000
102.89999407	0.00000000	52.13459000	14.53617000
103.09999406	0.00000000	53.24803000	16.43701000
103.29999404	0.00000000	53.20496000	16.76919000
103.49999403	0.00000000	51.71013000	15.23130000
103.69999402	0.00000000	49.43405000	12.21087000
103.89999401	0.00000000	47.47785000	8.72908400
104.09999400	0.00000000	45.89690000	6.02854300
104.29999398	0.00000000	44.74040000	4.08464600
104.49999397	0.00000000	44.36515000	3.75246000
104.69999396	0.00000000	44.74040000	5.24729300
104.89999395	0.00000000	45.89690000	7.93553100
105.09999394	0.00000000	47.43479000	11.00517000
105.29999392	0.00000000	48.97269000	13.69956000
105.49999391	0.00000000	50.12918000	15.23130000
105.69999390	0.00000000	50.50443000	15.27436000
105.89999389	0.00000000	50.12918000	14.11786000
106.09999388	0.00000000	49.01575000	12.21087000
106.29999387	0.00000000	47.85310000	9.89173200
106.49999385	0.00000000	47.05954000	7.98474400
106.69999384	0.00000000	46.27214000	6.77903500
106.89999383	0.00000000	45.94611000	6.44685000
107.09999382	0.00000000	46.32135000	7.19734200
107.29999381	0.00000000	47.43479000	9.09817800
107.49999379	0.00000000	48.54823000	11.00517000
107.69999378	0.00000000	49.01575000	12.53691000
107.89999377	0.00000000	49.39099000	13.32431000
108.09999376	0.00000000	49.71087000	12.91215000
108.29999375	0.00000000	48.92347000	11.79257000
108.49999374	0.00000000	47.47785000	9.84867000
108.69999372	0.00000000	46.32135000	7.98474400
108.89999371	0.00000000	45.89690000	6.82209600
109.09999370	0.00000000	45.89690000	6.82209600
109.29999369	0.00000000	46.27214000	7.93553100
109.49999368	0.00000000	47.05954000	9.47342500
109.69999366	0.00000000	47.85310000	11.04823000
109.89999365	0.00000000	49.01575000	12.58612000
110.09999364	0.00000000	50.12918000	13.69956000
110.29999363	0.00000000	50.50443000	13.69956000
110.49999362	0.00000000	50.12918000	12.62918000
110.69999360	0.00000000	49.01575000	11.42347000
110.89999359	0.00000000	47.85310000	10.21161000
111.09999358	0.00000000	47.05954000	8.31077700
111.29999357	0.00000000	46.32135000	6.82209600
111.49999356	0.00000000	46.32135000	6.40378900
111.69999355	0.00000000	47.01648000	6.77903500
111.89999353	0.00000000	47.39173000	7.89247000
112.09999352	0.00000000	47.47785000	9.05511800
112.29999351	0.00000000	47.85310000	9.84867000
112.49999350	0.00000000	48.59744000	10.62992000
112.69999349	0.00000000	48.97269000	11.00517000
112.89999347	0.00000000	48.97269000	11.04823000
113.09999346	0.00000000	48.59744000	11.04823000
113.29999345	0.00000000	47.85310000	11.00517000
113.49999344	0.00000000	47.47785000	10.62992000
113.69999343	0.00000000	47.43479000	9.89173200
113.89999341	0.00000000	47.43479000	9.51648500
114.09999340	0.00000000	47.43479000	9.47342500
114.29999339	0.00000000	47.43479000	9.43036400
114.49999338	0.00000000	47.43479000	9.05511800
114.69999337	0.00000000	47.43479000	8.31077700
114.89999336	0.00000000	47.43479000	7.93553100
115.09999334	0.00000000	47.43479000	7.89247000
115.29999333	0.00000000	47.43479000	7.93553100
115.49999332	0.00000000	47.43479000	8.31077700
115.69999331	0.00000000	47.43479000	9.09817800
115.89999330	0.00000000	47.43479000	9.84867000
116.09999328	0.00000000	47.43479000	10.67298000
116.29999327	0.00000000	47.39173000	11.42347000
116.49999326	0.00000000	47.05954000	12.21087000
116.69999325	0.00000000	46.69045000	12.53691000
116.89999324	0.00000000	47.05954000	12.21087000
117.09999322	0.00000000	47.39173000	11.42347000
117.29999321	0.00000000	47.47785000	10.62992000
117.49999320	0.00000000	47.85310000	9.47342500
117.69999319	0.00000000	48.64050000	8.35998900
117.89999318	0.00000000	49.34793000	7.93553100
118.09999317	0.00000000	49.76009000	7.89247000
118.29999315	0.00000000	49.39099000	7.93553100
118.49999314	0.00000000	49.01575000	8.31077700
118.69999313	0.00000000	48.54823000	9.09817800
118.89999312	0.00000000	47.43479000	9.84867000
119.09999311	0.00000000	46.27214000	10.62992000
119.29999309	0.00000000	45.47859000	11.00517000
119.49999308	0.00000000	44.74040000	11.04823000
119.69999307	0.00000000	44.78346000	11.04823000
119.89999306	0.00000000	45.89690000	11.04823000
120.09999305	0.00000000	47.39173000	11.00517000
120.29999303	0.00000000	48.59744000	10.67298000
120.49999302	0.00000000	49.39099000	10.26698000
120.69999301	0.00000000	50.17839000	10.21161000
120.89999300	0.00000000	50.50443000	9.42421200
121.09999299	0.00000000	50.12918000	8.35998900
121.29999298	0.00000000	48.97269000	7.98474400
121.49999296	0.00000000	47.47785000	8.31077700
121.69999295	0.00000000	46.27214000	9.05511800
121.89999294	0.00000000	45.47859000	9.47342500
122.09999293	0.00000000	44.69119000	9.89173200
122.29999292	0.00000000	44.36515000	10.62992000
122.49999290	0.00000000	44.74040000	11.00517000
122.69999289	0.00000000	45.85384000	11.04823000
122.89999288	0.00000000	47.01648000	11.04823000
123.09999287	0.00000000	47.85310000	11.04823000
123.29999286	0.00000000	49.01575000	11.04823000
123.49999284	0.00000000	50.08612000	11.00517000
123.69999283	0.00000000	50.12918000	10.62992000
123.89999282	0.00000000	49.43405000	9.89173200
124.09999281	0.00000000	49.01575000	9.47342500
124.29999280	0.00000000	48.59744000	9.09817800
124.49999279	0.00000000	47.81004000	8.72908400
124.69999277	0.00000000	47.05954000	9.09817800
124.89999276	0.00000000	46.22908000	9.43036400
125.09999275	0.00000000	45.52165000	9.51648500
125.29999274	0.00000000	45.10950000	9.89173200
125.49999273	0.00000000	45.52165000	10.62992000
125.69999271	0.00000000	46.22908000	11.00517000
125.89999270	0.00000000	47.05954000	11.04823000
126.09999269	0.00000000	47.81004000	11.04823000
126.29999268	0.00000000	48.64050000	11.00517000
126.49999267	0.00000000	49.34793000	10.62992000
126.69999265	0.00000000	49.76009000	9.89173200
126.89999264	0.00000000	49.34793000	9.51648500
127.09999263	0.00000000	48.64050000	9.43036400
127.29999262	0.00000000	47.81004000	9.09817800
127.49999261	0.00000000	47.01648000	8.72908400
127.69999260	0.00000000	45.85384000	9.09817800
127.89999258	0.00000000	44.78346000	9.43036400
128.09999257	0.00000000	44.74040000	9.47342500
128.29999256	0.00000000	45.47859000	9.51648500
128.49999255	0.00000000	46.27214000	9.89173200
128.69999254	0.00000000	47.43479000	10.62992000
128.89999252	0.00000000	48.54823000	11.00517000
129.09999251	0.00000000	48.97269000	11.00517000
129.29999250	0.00000000	49.01575000	10.62992000
129.49999249	0.00000000	48.97269000	9.89173200
129.69999248	0.00000000	48.54823000	9.51648500
129.89999246	0.00000000	47.43479000	9.47342500
130.09999245	0.00000000	46.32135000	9.47342500
130.29999244	0.00000000	45.89690000	9.47342500
130.49999243	0.00000000	45.85384000	9.47342500
130.69999242	0.00000000	45.89690000	9.51648500
130.89999241	0.00000000	46.27214000	9.89173200
131.09999239	0.00000000	47.05954000	10.62992000
131.29999238	0.00000000	47.81004000	10.95595000
131.49999237	0.00000000	48.59744000	10.62992000
131.69999236	0.00000000	48.92347000	9.89173200
131.89999235	0.00000000	48.59744000	9.47342500
132.09999233	0.00000000	47.85310000	9.05511800
132.29999232	0.00000000	47.43479000	8.31077700
132.49999231	0.00000000	47.01648000	7.98474400
132.69999230	0.00000000	46.27214000	8.31077700
132.89999229	0.00000000	45.94611000	9.09817800
133.09999227	0.00000000	46.27214000	9.84867000
133.29999226	0.00000000	47.01648000	10.62992000
133.49999225	0.00000000	47.43479000	11.00517000
133.69999224	0.00000000	47.81004000	11.04823000
133.89999223	0.00000000	48.17913000	11.00517000
134.09999222	0.00000000	47.81004000	10.62992000
134.29999220	0.00000000	47.47785000	9.89173200
134.49999219	0.00000000	47.43479000	9.51648500
134.69999218	0.00000000	47.43479000	9.43036400
134.89999217	0.00000000	47.43479000	9.05511800
135.09999216	0.00000000	47.43479000	8.31077700
135.29999214	0.00000000	47.43479000	7.93553100
135.49999213	0.00000000	47.43479000	7.93553100
135.69999212	0.00000000	47.43479000	8.31077700
135.89999211	0.00000000	47.43479000	9.09817800
136.09999210	0.00000000	47.39173000	9.84867000
136.29999208	0.00000000	47.01648000	10.62992000
136.49999207	0.00000000	46.27214000	11.00517000
136.69999206	0.00000000	45.89690000	11.04823000
136.89999205	0.00000000	45.85384000	11.00517000
137.09999204	0.00000000	45.89690000	10.62992000
137.29999203	0.00000000	46.27214000	9.84867000
137.49999201	0.00000000	47.05954000	9.09817800
137.69999200	0.00000000	47.81004000	8.31077700
137.89999199	0.00000000	48.59744000	7.93553100
138.09999198	0.00000000	48.92347000	7.89247000
138.29999197	0.00000000	48.59744000	7.93553100
138.49999195	0.00000000	47.81004000	8.31077700
138.69999194	0.00000000	47.05954000	9.09817800
138.89999193	0.00000000	46.27214000	9.84867000
139.09999192	0.00000000	45.89690000	10.62992000
139.29999191	0.00000000	45.85384000	11.00517000
139.49999189	0.00000000	45.89690000	11.09129000
139.69999188	0.00000000	46.27214000	11.42347000
139.89999187	0.00000000	47.05954000	11.79257000
140.09999186	0.00000000	47.76698000	11.38041000
140.29999185	0.00000000	48.17913000	10.67298000
140.49999184	0.00000000	47.81004000	9.89173200
140.69999182	0.00000000	47.47785000	9.47342500
140.89999181	0.00000000	47.43479000	9.05511800
141.09999180	0.00000000	47.43479000	8.31077700
141.29999179	0.00000000	47.43479000	7.98474400
141.49999178	0.00000000	47.43479000	8.31077700
141.69999176	0.00000000	47.43479000	9.09817800
141.89999175	0.00000000	47.43479000	9.89173200
142.09999174	0.00000000	47.43479000	11.04823000
142.29999173	0.00000000	47.47785000	12.16166000
142.49999172	0.00000000	47.85310000	12.53691000
142.69999170	0.00000000	48.54823000	12.21087000
142.89999169	0.00000000	48.54823000	11.42347000
143.09999168	0.00000000	47.85310000	10.62992000
143.29999167	0.00000000	47.47785000	9.47342500
143.49999166	0.00000000	47.43479000	8.35998900
143.69999165	0.00000000	47.39173000	7.93553100
143.89999163	0.00000000	47.05954000	7.93553100
144.09999162	0.00000000	46.69045000	8.31077700
144.29999161	0.00000000	47.05954000	9.05511800
144.49999160	0.00000000	47.39173000	9.47342500
144.69999159	0.00000000	47.43479000	9.89173200
144.89999157	0.00000000	47.43479000	10.62992000
145.09999156	0.00000000	47.43479000	11.00517000
145.29999155	0.00000000	47.39173000	11.00517000
145.49999154	0.00000000	47.01648000	10.62992000
145.69999153	0.00000000	46.27214000	9.89173200
145.89999151	0.00000000	45.89690000	9.47342500
146.09999150	0.00000000	45.85384000	9.05511800
146.29999149	0.00000000	45.89690000	8.31077700
146.49999148	0.00000000	46.27214000	7.93553100
146.69999147	0.00000000	47.01648000	7.93553100
146.89999146	0.00000000	47.39173000	8.31077700
147.09999144	0.00000000	47.43479000	9.05511800
147.29999143	0.00000000	47.43479000	9.47342500
147.49999142	0.00000000	47.43479000	9.84867000
147.69999141	0.00000000	47.43479000	10.21161000
147.89999140	0.00000000	47.43479000	9.84867000
148.09999138	0.00000000	47.39173000	9.51648500
148.29999137	0.00000000	47.05954000	9.47342500
148.49999136	0.00000000	46.64739000	9.47342500
148.69999135	0.00000000	46.64124000	9.47342500
148.89999134	0.00000000	46.27214000	9.43036400
149.09999132	0.00000000	46.32135000	9.09817800
149.29999131	0.00000000	47.01648000	8.72908400
149.49999130	0.00000000	47.39173000	9.09817800
149.69999129	0.00000000	47.43479000	9.43036400
149.89999128	0.00000000	47.43479000	9.47342500
150.09999127	0.00000000	47.43479000	9.51648500
150.29999125	0.00000000	47.43479000	9.89173200
150.49999124	0.00000000	47.43479000	10.62992000
150.69999123	0.00000000	47.43479000	11.00517000
150.89999122	0.00000000	47.39173000	11.04823000
151.09999121	0.00000000	47.05954000	11.04823000
151.29999119	0.00000000	46.64739000	11.00517000
151.49999118	0.00000000	46.64124000	10.62992000
151.69999117	0.00000000	46.27214000	9.89173200
151.89999116	0.00000000	46.32135000	9.51648500
152.09999115	0.00000000	47.01648000	9.47342500
152.29999113	0.00000000	47.43479000	9.47342500
152.49999112	0.00000000	47.81004000	9.47342500
152.69999111	0.00000000	48.22219000	9.51648500
152.89999110	0.00000000	48.18528000	9.84867000
153.09999109	0.00000000	48.22219000	10.25467000
153.29999108	0.00000000	47.81004000	10.26698000
153.49999106	0.00000000	47.47785000	10.67298000
153.69999105	0.00000000	47.39173000	11.00517000
153.89999104	0.00000000	47.01648000	11.00517000
154.09999103	0.00000000	46.27214000	10.62992000
154.29999102	0.00000000	45.89690000	9.89173200
154.49999100	0.00000000	45.85384000	9.51648500
154.69999099	0.00000000	45.89690000	9.47342500
154.89999098	0.00000000	46.27214000	9.47342500
155.09999097	0.00000000	47.01648000	9.47342500
155.29999096	0.00000000	47.39173000	9.47342500
155.49999094	0.00000000	47.47785000	9.47342500
155.69999093	0.00000000	47.81004000	9.47342500
155.89999092	0.00000000	48.17913000	9.47342500
156.09999091	0.00000000	47.81004000	9.47342500
156.29999090	0.00000000	47.47785000	9.47342500
156.49999089	0.00000000	47.39173000	9.51648500
156.69999087	0.00000000	47.01648000	9.84867000
156.89999086	0.00000000	46.27214000	10.25467000
157.09999085	0.00000000	45.89690000	10.26698000
157.29999084	0.00000000	45.85384000	10.62992000
157.49999083	0.00000000	45.85384000	10.58686000
157.69999081	0.00000000	45.89690000	9.89173200
157.89999080	0.00000000	46.27214000	9.51648500
158.09999079	0.00000000	47.01648000	9.43036400
158.29999078	0.00000000	47.39173000	9.05511800
158.49999077	0.00000000	47.43479000	8.35998900
158.69999075	0.00000000	47.43479000	8.35998900
158.89999074	0.00000000	47.43479000	9.05511800
159.09999073	0.00000000	47.43479000	9.43036400
159.29999072	0.00000000	47.43479000	9.47342500
159.49999071	0.00000000	47.43479000	9.51648500
159.69999070	0.00000000	47.43479000	9.89173200
159.89999068	0.00000000	47.39173000	10.62992000
160.09999067	0.00000000	47.01648000	10.95595000
160.29999066	0.00000000	46.27214000	10.62992000
160.49999065	0.00000000	45.89690000	9.89173200
160.69999064	0.00000000	45.85384000	9.51648500
160.89999062	0.00000000	45.85384000	9.47342500
161.09999061	0.00000000	45.89690000	9.47342500
161.29999060	0.00000000	46.27214000	9.47342500
161.49999059	0.00000000	47.01648000	9.47342500
161.69999058	0.00000000	47.39173000	9.47342500
161.89999056	0.00000000	47.43479000	9.47342500
162.09999055	0.00000000	47.43479000	9.43036400
162.29999054	0.00000000	47.43479000	9.09817800
162.49999053	0.00000000	47.43479000	8.77829600
162.69999052	0.00000000	47.43479000	9.51648500
162.89999051	0.00000000	47.39173000	10.53765000
163.09999049	0.00000000	47.01648000	10.58686000
163.29999048	0.00000000	46.27214000	9.89173200
163.49999047	0.00000000	45.89690000	9.51648500
163.69999046	0.00000000	45.85384000	9.47342500
163.89999045	0.00000000	45.85384000	9.47342500
164.09999043	0.00000000	45.85384000	9.47342500
164.29999042	0.00000000	45.89690000	9.47342500
164.49999041	0.00000000	46.27214000	9.47342500
164.69999040	0.00000000	47.01648000	9.47342500
164.89999039	0.00000000	47.39173000	9.47342500
165.09999037	0.00000000	47.43479000	9.47342500
165.29999036	0.00000000	47.43479000	9.47342500
165.49999035	0.00000000	47.43479000	9.47342500
165.69999034	0.00000000	47.43479000	9.47342500
165.89999033	0.00000000	47.39173000	9.47342500
166.09999032	0.00000000	47.01648000	9.47342500
166.29999030	0.00000000	46.27214000	9.47342500
166.49999029	0.00000000	45.89690000	9.47342500
166.69999028	0.00000000	45.85384000	9.47342500
166.89999027	0.00000000	45.89690000	9.47342500
167.09999026	0.00000000	46.22908000	9.47342500
167.29999024	0.00000000	46.64124000	9.47342500
167.49999023	0.00000000	46.64739000	9.47342500
167.69999022	0.00000000	47.05954000	9.47342500
167.89999021	0.00000000	47.39173000	9.47342500
168.09999020	0.00000000	47.43479000	9.47342500
168.29999018	0.00000000	47.43479000	9.47342500
168.49999017	0.00000000	47.43479000	9.47342500
168.69999016	0.00000000	47.43479000	9.47342500
168.89999015	0.00000000	47.43479000	9.47342500
169.09999014	0.00000000	47.39173000	9.47342500
169.29999013	0.00000000	47.01648000	9.47342500
169.49999011	0.00000000	46.27214000	9.47342500
169.69999010	0.00000000	45.89690000	9.47342500
169.89999009	0.00000000	45.89690000	9.47342500
170.09999008	0.00000000	46.22908000	9.47342500
170.29999007	0.00000000	46.59818000	9.47342500
170.49999005	0.00000000	46.27214000	9.47342500
170.69999004	0.00000000	46.32135000	9.47342500
170.89999003	0.00000000	47.01648000	9.47342500
171.09999002	0.00000000	47.39173000	9.47342500
171.29999001	0.00000000	47.43479000	9.47342500
171.49998999	0.00000000	47.43479000	9.43036400
171.69998998	0.00000000	47.43479000	9.09817800
171.89998997	0.00000000	47.39173000	8.72908400
172.09998996	0.00000000	47.01648000	9.09817800
172.29998995	0.00000000	46.27214000	9.43036400
172.49998994	0.00000000	45.89690000	9.47342500
172.69998992	0.00000000	45.85384000	9.47342500
172.89998991	0.00000000	45.85384000	9.47342500
173.09998990	0.00000000	45.89690000	9.47342500
173.29998989	0.00000000	46.22908000	9.47342500
173.49998988	0.00000000	46.64124000	9.47342500
173.69998986	0.00000000	46.60433000	9.47342500
173.89998985	0.00000000	46.68430000	9.47342500
174.09998984	0.00000000	46.64739000	9.47342500
174.29998983	0.00000000	47.05954000	9.47342500
174.49998982	0.00000000	47.39173000	9.47342500
174.69998980	0.00000000	47.43479000	9.47342500
174.89998979	0.00000000	47.39173000	9.47342500
175.09998978	0.00000000	47.01648000	9.47342500
175.29998977	0.00000000	46.27214000	9.47342500
175.49998976	0.00000000	45.94611000	9.47342500
175.69998975	0.00000000	46.22908000	9.47342500
175.89998973	0.00000000	46.59818000	9.47342500
176.09998972	0.00000000	46.27214000	9.51648500
176.29998971	0.00000000	46.32135000	9.84867000
176.49998970	0.00000000	47.01648000	10.21161000
176.69998969	0.00000000	47.39173000	9.89173200
176.89998967	0.00000000	47.43479000	9.89173200
177.09998966	0.00000000	47.39173000	10.21161000
177.29998965	0.00000000	47.01648000	9.79945900
177.49998964	0.00000000	46.27214000	9.14124000
177.69998963	0.00000000	45.89690000	8.72908400
177.89998961	0.00000000	45.85384000	9.09817800
178.09998960	0.00000000	45.85384000	9.43036400
178.29998959	0.00000000	45.89690000	9.47342500
178.49998958	0.00000000	46.22908000	9.47342500
178.69998957	0.00000000	46.59818000	9.47342500
178.89998956	0.00000000	46.22908000	9.47342500
179.09998954	0.00000000	45.94611000	9.47342500
179.29998953	0.00000000	46.27214000	9.47342500
179.49998952	0.00000000	47.01648000	9.47342500
179.69998951	0.00000000	47.34252000	9.47342500
179.89998950	0.00000000	47.01648000	9.47342500
180.09998948	0.00000000	46.32135000	9.47342500
180.29998947	0.00000000	46.27214000	9.47342500
180.49998946	0.00000000	46.59818000	9.47342500
180.69998945	0.00000000	46.22908000	9.47342500
180.89998944	0.00000000	45.89690000	9.47342500
181.09998942	0.00000000	45.85384000	9.47342500
181.29998941	0.00000000	45.85384000	9.47342500
181.49998940	0.00000000	45.89690000	9.47342500
181.69998939	0.00000000	46.22908000	9.51648500
181.89998938	0.00000000	46.64124000	9.84867000
182.09998937	0.00000000	46.64739000	10.21161000
182.29998935	0.00000000	47.05954000	9.84867000
182.49998934	0.00000000	47.39173000	9.51648500
182.69998933	0.00000000	47.43479000	9.47342500
182.89998932	0.00000000	47.43479000	9.47342500
183.09998931	0.00000000	47.43479000	9.47342500
183.29998929	0.00000000	47.39173000	9.47342500
183.49998928	0.00000000	47.01648000	9.47342500
183.69998927	0.00000000	46.32135000	9.47342500
183.89998926	0.00000000	46.27214000	9.47342500
184.09998925	0.00000000	46.64124000	9.51648500
184.29998923	0.00000000	46.64739000	9.89173200
184.49998922	0.00000000	47.01648000	10.62992000
184.69998921	0.00000000	47.01648000	11.00517000
184.89998920	0.00000000	46.64739000	11.04823000
185.09998919	0.00000000	46.64124000	11.00517000
185.29998918	0.00000000	46.22908000	10.62992000
185.49998916	0.00000000	45.89690000	9.89173200
185.69998915	0.00000000	45.89690000	9.51648500
185.89998914	0.00000000	46.27214000	9.43036400
186.09998913	0.00000000	47.01648000	9.05511800
186.29998912	0.00000000	47.39173000	8.31077700
186.49998910	0.00000000	47.39173000	7.93553100
186.69998909	0.00000000	47.01648000	7.93553100
186.89998908	0.00000000	46.27214000	8.31077700
187.09998907	0.00000000	45.89690000	9.05511800
187.29998906	0.00000000	45.85384000	9.47342500
187.49998904	0.00000000	45.85384000	9.84867000
187.69998903	0.00000000	45.85384000	10.21161000
187.89998902	0.00000000	45.85384000	9.84867000
188.09998901	0.00000000	45.85384000	9.51648500
188.29998900	0.00000000	45.89690000	9.47342500
188.49998899	0.00000000	46.27214000	9.47342500
188.69998897	0.00000000	46.96727000	9.47342500
188.89998896	0.00000000	47.01648000	9.47342500
189.09998895	0.00000000	46.69045000	9.43036400
189.29998894	0.00000000	47.01648000	9.09817800
189.49998893	0.00000000	46.96727000	8.72908400
189.69998891	0.00000000	46.27214000	9.09817800
189.89998890	0.00000000	45.89690000	9.43036400
190.09998889	0.00000000	45.85384000	9.47342500
190.29998888	0.00000000	45.85384000	9.47342500
190.49998887	0.00000000	45.85384000	9.47342500
190.69998885	0.00000000	45.85384000	9.51648500
190.89998884	0.00000000	45.89690000	9.84867000
191.09998883	0.00000000	46.22908000	10.21161000
191.29998882	0.00000000	46.59818000	9.84867000
191.49998881	0.00000000	46.27214000	9.51648500
191.69998880	0.00000000	46.32135000	9.47342500
191.89998878	0.00000000	47.01648000	9.47342500
192.09998877	0.00000000	47.39173000	9.47342500
192.29998876	0.00000000	47.39173000	9.47342500
192.49998875	0.00000000	47.01648000	9.47342500
192.69998874	0.00000000	46.27214000	9.47342500
192.89998872	0.00000000	45.89690000	9.47342500
193.09998871	0.00000000	45.85384000	9.47342500
193.29998870	0.00000000	45.85384000	9.47342500
193.49998869	0.00000000	45.85384000	9.47342500
193.69998868	0.00000000	45.85384000	9.47342500
193.89998866	0.00000000	45.85384000	9.47342500
194.09998865	0.00000000	45.85384000	9.47342500
194.29998864	0.00000000	45.85384000	9.47342500
194.49998863	0.00000000	45.85384000	9.47342500
194.69998862	0.00000000	45.85384000	9.47342500
194.89998861	0.00000000	45.85384000	9.47342500
195.09998859	0.00000000	45.85384000	9.47342500
195.29998858	0.00000000	45.85384000	9.47342500
195.49998857	0.00000000	45.85384000	9.43036400
195.69998856	0.00000000	45.85384000	9.09817800
195.89998855	0.00000000	45.85384000	8.72908400
196.09998853	0.00000000	45.85384000	9.09817800
