Time	Channel A	Channel B	Channel C
(us)	(V)	(mV)	(mV)

-4.59999956	0.00000000	46.22908000	9.89173200
-4.39999957	0.00000000	45.89690000	9.51648500
-4.19999958	0.00000000	45.85384000	9.47342500
-3.99999959	0.00000000	45.85384000	9.47342500
-3.79999960	0.00000000	45.85384000	9.47342500
-3.59999962	0.00000000	45.85384000	9.47342500
-3.39999963	0.00000000	45.85384000	9.47342500
-3.19999964	0.00000000	45.85384000	9.47342500
-2.99999965	0.00000000	45.85384000	9.47342500
-2.79999966	0.00000000	45.85384000	9.47342500
-2.59999968	0.00000000	45.85384000	9.47342500
-2.39999969	0.00000000	45.85384000	9.47342500
-2.19999970	0.00000000	45.85384000	9.47342500
-1.99999971	0.00000000	45.85384000	9.47342500
-1.79999972	0.00000000	45.85384000	9.47342500
-1.59999973	0.00000000	45.89690000	9.47342500
-1.39999975	0.00000000	46.22908000	9.47342500
-1.19999976	0.00000000	46.59818000	9.47342500
-0.99999977	0.00000000	46.22908000	9.47342500
-0.79999978	0.00000000	45.89690000	9.47342500
-0.59999979	0.00000000	45.85384000	9.47342500
-0.39999981	0.15871060	45.85384000	9.47342500
-0.19999982	0.47736220	45.85384000	9.47342500
0.00000017	0.79601380	45.85384000	9.47342500
0.20000016	0.95533960	45.85384000	9.47342500
0.40000015	0.95533960	45.85384000	9.47342500
0.60000013	0.63668800	45.85384000	9.47342500
0.80000012	0.00000000	45.85384000	9.47342500
1.00000011	-0.79601380	45.85384000	9.47342500
1.20000010	-1.91129400	45.85384000	9.47342500
1.40000009	-2.54859700	45.85384000	9.47342500
1.60000008	-2.70792300	45.85384000	9.51648500
1.80000006	-2.07062000	45.89690000	9.89173200
2.00000005	-0.63668800	46.27214000	10.62992000
2.20000004	1.43331700	46.96727000	10.95595000
2.40000003	3.50393700	46.96727000	10.62992000
2.60000002	4.93786900	46.27214000	9.89173200
2.80000000	5.25652100	45.89690000	9.47342500
2.99999999	4.30056600	45.85384000	9.05511800
3.19999998	1.91129400	45.85384000	8.35998900
3.39999997	-1.43331700	45.85384000	8.31077700
3.59999996	-4.77854300	45.85384000	8.67987200
3.79999994	-7.16781500	45.89690000	8.72908400
3.99999993	-7.96444400	46.22908000	9.47342500
4.19999992	-6.69045300	46.59818000	10.16855000
4.39999991	-3.66326300	46.22908000	9.84867000
4.59999990	0.63668800	45.89690000	9.51648500
4.79999989	4.93786900	45.85384000	9.47342500
4.99999987	8.12377000	45.85384000	9.47342500
5.19999986	9.55770200	45.85384000	9.43036400
5.39999985	8.44242100	45.85384000	9.05511800
5.59999984	5.09719500	45.85384000	8.31077700
5.79999983	0.63668800	45.85384000	7.98474400
5.99999981	-4.14124000	45.85384000	8.31077700
6.19999980	-7.80511800	45.85384000	9.05511800
6.39999979	-9.39837600	45.85384000	9.43036400
6.59999978	-8.60174700	45.85384000	9.47342500
6.79999977	-5.89382400	45.85384000	9.47342500
6.99999975	-1.75196900	45.89690000	9.47342500
7.19999974	2.54859700	46.22908000	9.47342500
7.39999973	6.05315000	46.59818000	9.47342500
7.59999972	7.64579200	46.22908000	9.47342500
7.79999971	7.32714100	45.89690000	9.47342500
7.99999970	5.25652100	45.85384000	9.47342500
8.19999968	2.22994600	45.85384000	9.47342500
8.39999967	-1.11466500	45.85384000	9.47342500
8.59999966	-3.66326300	45.85384000	9.47342500
8.79999965	-5.09719500	45.85384000	9.47342500
8.99999964	-4.93786900	45.85384000	9.51648500
9.19999962	-3.82258900	45.85384000	9.84867000
9.39999961	-1.91129400	45.85384000	10.21161000
9.59999960	0.00000000	45.85384000	9.84867000
9.79999959	1.59264300	45.85384000	9.51648500
9.99999958	2.38927200	45.85384000	9.47342500
10.19999956	2.54859700	45.85384000	9.47342500
10.39999955	1.91129400	45.85384000	9.47342500
10.59999954	1.11466500	45.85384000	9.47342500
10.79999953	0.15871060	45.85384000	9.51648500
10.99999952	-0.47736220	45.85384000	9.84867000
11.19999951	-0.79601380	45.89690000	10.21161000
11.39999949	-0.95533960	46.22908000	9.84867000
11.59999948	-0.95533960	46.59818000	9.51648500
11.79999947	-0.63668800	46.27214000	9.47342500
11.99999946	-0.31803640	46.27214000	9.47342500
12.19999945	-0.15871060	46.59818000	9.47342500
12.39999943	-0.15871060	46.22908000	9.47342500
12.59999942	0.00000000	45.89690000	9.51648500
12.79999941	0.00000000	45.85384000	9.84867000
12.99999940	0.00000000	45.85384000	10.25467000
13.19999939	0.00000000	45.85384000	10.21776000
13.39999937	0.00000000	45.85384000	10.25467000
13.59999936	0.00000000	45.85384000	9.84867000
13.79999935	0.00000000	45.85384000	9.56569900
13.99999934	-0.15871060	45.85384000	9.84867000
14.19999933	-0.15871060	45.85384000	10.21161000
14.39999932	-0.15871060	45.85384000	9.84867000
14.59999930	-0.15871060	45.85384000	9.51648500
14.79999929	0.00000000	45.85384000	9.47342500
14.99999928	0.00000000	45.85384000	9.47342500
15.19999927	0.00000000	45.85384000	9.47342500
15.39999926	0.00000000	45.85384000	9.47342500
15.59999924	0.00000000	45.85384000	9.47342500
15.79999923	0.00000000	45.85384000	9.47342500
15.99999922	0.00000000	45.85384000	9.47342500
16.19999921	0.00000000	45.85384000	9.47342500
16.39999920	-0.15871060	45.85384000	9.47342500
16.59999919	-0.15871060	45.89690000	9.47342500
16.79999917	0.00000000	46.27214000	9.47342500
16.99999916	0.00000000	47.01648000	9.47342500
17.19999915	0.00000000	47.43479000	9.51648500
17.39999914	0.00000000	47.81004000	9.84867000
17.59999913	0.00000000	48.17913000	10.21161000
17.79999911	0.00000000	47.76698000	9.84867000
17.99999910	0.00000000	47.01648000	9.51648500
18.19999909	0.00000000	45.81078000	9.47342500
18.39999908	0.00000000	44.27288000	9.47342500
18.59999907	0.00000000	42.73499000	9.47342500
18.79999905	-0.15871060	41.57849000	9.47342500
18.99999904	0.00000000	41.20325000	9.47342500
19.19999903	0.00000000	41.62155000	9.47342500
19.39999902	0.00000000	43.24557000	9.47342500
19.59999901	0.00000000	46.32135000	9.47342500
19.79999900	0.00000000	50.17839000	9.47342500
19.99999898	0.00000000	53.66634000	9.47342500
20.19999897	0.00000000	56.32381000	9.47342500
20.39999896	0.00000000	57.06200000	9.47342500
20.59999895	0.00000000	55.06890000	9.47342500
20.79999894	0.00000000	50.78125000	9.47342500
20.99999892	0.00000000	44.13755000	9.47342500
21.19999891	0.00000000	36.45423000	9.47342500
21.39999890	0.00000000	29.52141000	9.47342500
21.59999889	0.00000000	25.33218000	9.47342500
21.79999888	0.00000000	25.42446000	9.47342500
21.99999886	0.00000000	30.49951000	9.47342500
22.19999885	0.00000000	40.21899000	9.51648500
22.39999884	0.00000000	52.59596000	9.84867000
22.59999883	0.00000000	65.29897000	10.21161000
22.79999882	0.00000000	74.88311000	9.84867000
22.99999881	0.00000000	78.28493000	9.51648500
23.19999879	0.00000000	74.37254000	9.51648500
23.39999878	0.00000000	63.11515000	9.89173200
23.59999877	0.00000000	46.88115000	10.62992000
23.79999876	0.00000000	29.06004000	11.00517000
23.99999875	0.00000000	13.28740000	11.04823000
24.19999873	0.00000000	3.74630900	11.00517000
24.39999872	0.00000000	3.83858300	10.58686000
24.59999871	0.00000000	14.25935000	9.42421200
24.79999870	0.00000000	32.77559000	7.89247000
24.99999869	0.00000000	54.82898000	6.31151500
25.19999867	0.00000000	75.72588000	4.82283400
25.39999866	0.00000000	91.08022000	4.08464600
25.59999865	0.00000000	96.43208000	4.87204700
25.79999864	0.00000000	89.87450000	6.77903500
25.99999863	0.00000000	73.25910000	9.55954600
26.19999862	0.00000000	50.04306000	13.04749000
26.39999860	0.00000000	25.33218000	16.90453000
26.59999859	0.00000000	4.90895600	19.92495000
26.79999858	0.00000000	-6.25615100	21.04454000
26.99999857	0.00000000	-5.13656500	19.46358000
27.19999856	0.00000000	7.56028500	15.18824000
27.39999854	0.00000000	28.40797000	8.96284400
27.59999853	0.00000000	52.78666000	1.62401600
27.79999852	0.00000000	75.17224000	-5.29650500
27.99999851	0.00000000	90.65575000	-9.84867000
28.19999850	0.00000000	95.68774000	-10.59301000
28.39999848	0.00000000	89.58538000	-6.64985200
28.59999847	0.00000000	74.14493000	1.48253000
28.79999846	0.00000000	53.29109000	12.67840000
28.99999845	0.00000000	31.65600000	24.24335000
29.19999844	0.00000000	14.25935000	33.49532000
29.39999843	0.00000000	4.86589500	38.46580000
29.59999841	0.00000000	4.39837600	37.26009000
29.79999840	0.00000000	12.12475000	29.87205000
29.99999839	0.00000000	26.45177000	17.46432000
30.19999838	0.00000000	44.18061000	2.04232300
30.39999837	0.00000000	61.20817000	-12.59227000
30.59999835	0.00000000	73.63435000	-23.04995000
30.79999834	0.00000000	79.49680000	-27.23302000
30.99999833	0.00000000	78.00196000	-23.69586000
31.19999832	0.00000000	69.95570000	-12.50615000
31.39999831	0.00000000	57.94783000	3.66633800
31.59999829	0.00000000	44.35900000	21.08760000
31.79999828	0.00000000	31.61294000	36.18971000
31.99999827	0.00000000	22.72392000	46.22293000
32.19999826	0.00000000	19.51895000	48.87426000
32.39999825	0.00000000	21.79503000	43.06717000
32.59999824	0.00000000	28.35876000	29.95817000
32.79999822	0.00000000	38.08440000	12.58612000
32.99999821	0.00000000	48.88041000	-5.20423200
33.19999820	0.00000000	58.55684000	-19.88804000
33.39999819	0.00000000	64.69611000	-28.38951000
33.59999818	0.00000000	65.95103000	-28.80782000
33.79999816	0.00000000	62.51230000	-21.51206000
33.99999815	0.00000000	55.94857000	-8.32308000
34.19999814	0.00000000	47.43479000	8.26771600
34.39999813	0.00000000	39.01329000	24.85236000
34.59999812	0.00000000	33.19390000	37.21087000
34.79999810	0.00000000	31.19464000	43.06717000
34.99999809	0.00000000	32.68332000	41.53543000
35.19999808	0.00000000	36.96481000	33.07701000
35.39999807	0.00000000	43.11023000	19.97416000
35.59999806	0.00000000	49.62475000	5.24729300
35.79999805	0.00000000	54.23228000	-8.23080600
35.99999803	0.00000000	55.85630000	-17.47047000
36.19999802	0.00000000	54.69365000	-19.75271000
36.39999801	0.00000000	51.24877000	-14.86836000
36.59999800	0.00000000	46.22908000	-4.46604300
36.79999799	0.00000000	41.24631000	8.17544300
36.99999797	0.00000000	37.38927000	20.15871000
37.19999796	0.00000000	35.85138000	28.20497000
37.39999795	0.00000000	37.01402000	30.61023000
37.59999794	0.00000000	40.45890000	27.13459000
37.79999793	0.00000000	45.43553000	19.13140000
37.99999791	0.00000000	50.04306000	8.73523500
38.19999790	0.00000000	53.20496000	-0.79970470
38.39999789	0.00000000	54.74286000	-6.96973400
38.59999788	0.00000000	54.31840000	-7.72022600
38.79999787	0.00000000	51.62401000	-3.16806100
38.99999786	0.00000000	47.43479000	5.24729300
39.19999784	0.00000000	43.15945000	14.81299000
39.39999783	0.00000000	39.62229000	22.48400000
39.59999782	0.00000000	36.92175000	26.29183000
39.79999781	0.00000000	35.80832000	24.71703000
39.99999780	0.00000000	36.96481000	17.88263000
40.19999778	0.00000000	39.99754000	8.31077700
40.39999777	0.00000000	43.89763000	-0.88582670
40.59999776	0.00000000	47.81004000	-7.43725300
40.79999775	0.00000000	51.66707000	-9.34424200
40.99999774	0.00000000	54.36761000	-6.27460600
41.19999772	0.00000000	55.16117000	1.01501000
41.39999771	0.00000000	54.41068000	10.62992000
41.59999770	0.00000000	52.04232000	19.83883000
41.79999769	0.00000000	48.59744000	26.38410000
41.99999768	0.00000000	44.69119000	28.29109000
42.19999767	0.00000000	41.20325000	25.27067000
42.39999765	0.00000000	38.45964000	18.35015000
42.59999764	0.00000000	36.96481000	9.56569900
42.79999763	0.00000000	37.34006000	1.43946800
42.99999762	0.00000000	39.57308000	-4.00467500
43.19999761	0.00000000	42.27362000	-6.32381900
43.39999759	0.00000000	44.64813000	-4.78592500
43.59999758	0.00000000	47.01648000	0.17839570
43.79999757	0.00000000	48.88041000	6.68676100
43.99999756	0.00000000	49.71087000	13.23819000
44.19999755	0.00000000	49.39099000	17.88263000
44.39999753	0.00000000	49.05881000	19.88189000
44.59999752	0.00000000	48.97269000	19.50664000
44.79999751	0.00000000	48.59744000	16.81225000
44.99999750	0.00000000	47.85310000	12.62918000
45.19999749	0.00000000	47.43479000	8.40305000
45.39999748	0.00000000	46.96727000	5.29035400
45.59999746	0.00000000	45.71850000	3.66633800
45.79999745	0.00000000	43.38705000	3.29109200
45.99999744	0.00000000	39.94832000	4.03543200
46.19999743	0.00000000	36.92175000	5.98548200
46.39999742	0.00000000	35.38385000	8.26771600
46.59999740	0.00000000	35.80832000	10.62992000
46.79999739	0.00000000	38.54576000	12.53691000
46.99999738	0.00000000	43.20251000	13.69956000
47.19999737	0.00000000	49.01575000	13.65650000
47.39999736	0.00000000	54.78592000	12.16781000
47.59999734	0.00000000	59.01821000	9.84867000
47.79999733	0.00000000	60.55610000	7.51722400
47.99999732	0.00000000	58.92593000	5.24729300
48.19999731	0.00000000	53.85703000	4.08464600
48.39999730	0.00000000	45.76156000	4.40452700
48.59999729	0.00000000	36.96481000	5.19808000
48.79999727	0.00000000	29.98893000	6.82209600
48.99999726	0.00000000	26.49483000	9.51648500
49.19999725	0.00000000	26.91314000	12.58612000
49.39999724	0.00000000	31.61294000	15.23130000
49.59999723	0.00000000	40.08366000	16.39395000
49.79999721	0.00000000	50.04306000	15.64960000
49.99999720	0.00000000	58.55069000	13.69956000
50.19999719	0.00000000	63.58267000	10.58686000
50.39999718	0.00000000	64.32086000	6.72982200
50.59999717	0.00000000	60.08858000	3.29109200
50.79999715	0.00000000	52.04232000	0.97194880
50.99999714	0.00000000	42.77805000	0.59670270
51.19999713	0.00000000	34.31348000	2.12844500
51.39999712	0.00000000	28.91240000	5.24729300
51.59999711	0.00000000	28.11885000	9.47342500
51.79999710	0.00000000	31.56988000	13.69956000
51.99999708	0.00000000	38.50270000	16.81225000
52.19999707	0.00000000	46.92421000	18.35015000
52.39999706	0.00000000	54.27534000	17.92569000
52.59999705	0.00000000	58.88287000	15.23130000
52.79999704	0.00000000	59.67027000	11.04823000
52.99999702	0.00000000	56.23154000	6.82209600
53.19999701	0.00000000	50.12918000	3.70939900
53.39999700	0.00000000	43.15945000	2.12844500
53.59999699	0.00000000	37.00787000	2.12844500
53.79999698	0.00000000	33.19390000	3.66633800
53.99999696	0.00000000	33.19390000	6.36072800
54.19999695	0.00000000	37.00787000	9.42421200
54.39999694	0.00000000	43.11023000	12.11860000
54.59999693	0.00000000	49.62475000	13.61343000
54.79999692	0.00000000	54.23228000	13.28125000
54.99999691	0.00000000	55.85630000	11.42347000
55.19999689	0.00000000	54.69365000	9.51648500
55.39999688	0.00000000	51.20571000	7.93553100
55.59999687	0.00000000	45.85384000	6.86515700
55.79999686	0.00000000	40.50196000	7.24040300
55.99999685	0.00000000	37.01402000	9.09817800
56.19999683	0.00000000	35.80832000	11.00517000
56.39999682	0.00000000	36.96481000	12.53691000
56.59999681	0.00000000	40.04060000	13.23819000
56.79999680	0.00000000	44.27288000	12.07554000
56.99999679	0.00000000	48.50517000	9.38115100
57.19999677	0.00000000	51.58095000	5.93626900
57.39999676	0.00000000	52.73745000	2.54675200
57.59999675	0.00000000	51.62401000	1.05807100
57.79999674	0.00000000	48.97269000	2.17765700
57.99999673	0.00000000	45.85384000	5.24729300
58.19999672	0.00000000	42.78420000	9.51648500
58.39999670	0.00000000	40.45890000	14.16708000
58.59999669	0.00000000	39.66535000	18.39321000
58.79999668	0.00000000	40.04060000	20.99532000
58.99999667	0.00000000	41.57849000	20.57702000
59.19999666	0.00000000	43.85457000	16.71998000
59.39999664	0.00000000	45.76156000	10.58686000
59.59999663	0.00000000	46.96727000	3.66633800
59.79999662	0.00000000	47.34252000	-2.09153500
59.99999661	0.00000000	46.96727000	-5.16117100
60.19999660	0.00000000	45.85384000	-4.78592500
60.39999658	0.00000000	44.74040000	-0.88582670
60.59999657	0.00000000	44.31594000	5.62253900
60.79999656	0.00000000	44.27288000	13.33046000
60.99999655	0.00000000	44.31594000	19.88189000
61.19999654	0.00000000	44.74040000	24.10802000
61.39999653	0.00000000	45.81078000	24.85236000
61.59999651	0.00000000	46.54896000	21.37057000
61.79999650	0.00000000	46.22908000	14.85605000
61.99999649	0.00000000	45.81078000	6.72982200
62.19999648	0.00000000	45.01722000	-0.93503930
62.39999647	0.00000000	43.48548000	-6.32381900
62.59999645	0.00000000	42.35974000	-7.85556000
62.79999644	0.00000000	41.57849000	-5.20423200
62.99999643	0.00000000	41.62155000	0.55364170
63.19999642	0.00000000	42.73499000	7.89247000
63.39999641	0.00000000	44.27288000	15.23130000
63.59999639	0.00000000	45.85384000	21.03838000
63.79999638	0.00000000	47.39173000	24.10802000
63.99999637	0.00000000	48.50517000	23.73892000
64.19999636	0.00000000	48.50517000	19.88189000
64.39999635	0.00000000	47.39173000	13.74262000
64.59999634	0.00000000	45.85384000	6.82209600
64.79999632	0.00000000	44.27288000	1.01501000
64.99999631	0.00000000	42.73499000	-2.51599400
65.19999630	0.00000000	41.62155000	-3.67249000
65.39999629	0.00000000	41.62155000	-2.14074800
65.59999628	0.00000000	42.73499000	1.66707700
65.79999626	0.00000000	44.27288000	6.31151500
65.99999625	0.00000000	45.81078000	10.95595000
66.19999624	0.00000000	46.96727000	14.85605000
66.39999623	0.00000000	47.34252000	17.23056000
66.59999622	0.00000000	46.96727000	18.39321000
66.79999620	0.00000000	45.76156000	18.01796000
66.99999619	0.00000000	43.89763000	16.11712000
67.19999618	0.00000000	42.03986000	13.79183000
67.39999617	0.00000000	41.66461000	11.00517000
67.59999616	0.00000000	42.78420000	7.89247000
67.79999615	0.00000000	44.69119000	4.77977300
67.99999613	0.00000000	47.01648000	2.08538400
68.19999612	0.00000000	48.92347000	0.51058070
68.39999611	0.00000000	50.08612000	0.13533460
68.59999610	0.00000000	50.04306000	0.92888770
68.79999609	0.00000000	48.46210000	3.29109200
68.99999607	0.00000000	45.38631000	6.72982200
69.19999606	0.00000000	41.52928000	10.67298000
69.39999605	0.00000000	38.08440000	14.53617000
69.59999604	0.00000000	35.80832000	18.01796000
69.79999603	0.00000000	35.80832000	19.88189000
69.99999601	0.00000000	38.12746000	19.50664000
70.19999600	0.00000000	41.99680000	16.76919000
70.39999599	0.00000000	47.01648000	12.16166000
70.59999598	0.00000000	51.62401000	6.77903500
70.79999597	0.00000000	54.74286000	2.12844500
70.99999596	0.00000000	55.85630000	-0.97810030
71.19999594	0.00000000	54.27534000	-2.13459600
71.39999593	0.00000000	50.04306000	-0.97810030
71.59999592	0.00000000	44.27288000	2.08538400
71.79999591	0.00000000	38.50270000	6.35457700
71.99999590	0.00000000	34.22121000	10.95595000
72.19999588	0.00000000	32.26501000	14.81299000
72.39999587	0.00000000	32.68332000	16.76919000
72.59999586	0.00000000	35.80217000	16.81225000
72.79999585	0.00000000	41.15403000	15.27436000
72.99999584	0.00000000	46.92421000	12.58612000
73.19999582	0.00000000	51.62401000	9.51648500
73.39999581	0.00000000	54.74286000	6.82209600
73.59999580	0.00000000	55.85630000	5.29035400
73.79999579	0.00000000	54.31840000	5.24729300
73.99999578	0.00000000	50.50443000	6.36072800
74.19999577	0.00000000	45.85384000	7.84940900
74.39999575	0.00000000	41.24631000	9.00590400
74.59999574	0.00000000	37.76451000	9.38115100
74.79999573	0.00000000	36.54650000	9.00590400
74.99999572	0.00000000	36.87869000	7.84940900
75.19999571	0.00000000	38.45964000	6.40378900
75.39999569	0.00000000	41.15403000	5.66560000
75.59999568	0.00000000	44.22982000	6.40378900
75.79999567	0.00000000	46.92421000	7.93553100
75.99999566	0.00000000	48.50517000	9.93479300
76.19999565	0.00000000	48.88041000	12.62918000
76.39999563	0.00000000	48.17913000	15.27436000
76.59999562	0.00000000	46.64739000	16.71998000
76.79999561	0.00000000	45.52165000	15.92642000
76.99999560	0.00000000	44.69119000	12.49385000
77.19999559	0.00000000	44.31594000	7.89247000
77.39999558	0.00000000	44.27288000	3.24803100
77.59999556	0.00000000	44.27288000	-0.55979330
77.79999555	0.00000000	44.22982000	-2.13459600
77.99999554	0.00000000	43.85457000	-1.35334600
78.19999553	0.00000000	43.06717000	1.39025600
78.39999552	0.00000000	42.31668000	6.40378900
78.59999550	0.00000000	41.52928000	12.11860000
78.79999549	0.00000000	41.20325000	16.81225000
78.99999548	0.00000000	41.62155000	19.92495000
79.19999547	0.00000000	43.15945000	21.04454000
79.39999546	0.00000000	45.43553000	19.46358000
79.59999544	0.00000000	47.39173000	15.28051000
79.79999543	0.00000000	48.92347000	9.89173200
79.99999542	0.00000000	49.66781000	4.82898600
80.19999541	0.00000000	48.88041000	0.59670270
80.39999540	0.00000000	46.96727000	-1.71628900
80.59999539	0.00000000	44.22982000	-1.39640700
80.79999537	0.00000000	41.20325000	0.51058070
80.99999536	0.00000000	38.87795000	3.66633800
81.19999535	0.00000000	38.12746000	7.89247000
81.39999534	0.00000000	38.87795000	12.11860000
81.59999533	0.00000000	41.20325000	15.23130000
81.79999531	0.00000000	44.22982000	16.85531000
81.99999530	0.00000000	46.96727000	17.23056000
82.19999529	0.00000000	48.88041000	16.48622000
82.39999528	0.00000000	49.66781000	14.53617000
82.59999527	0.00000000	48.92347000	12.21087000
82.79999525	0.00000000	47.39173000	9.38115100
82.99999524	0.00000000	45.47859000	5.98548200
83.19999523	0.00000000	43.52854000	2.87893700
83.39999522	0.00000000	42.35974000	1.29183100
83.59999521	0.00000000	41.57849000	0.51058070
83.79999520	0.00000000	41.57849000	0.97194880
83.99999518	0.00000000	42.31668000	3.29109200
84.19999517	0.00000000	43.06717000	6.72982200
84.39999516	0.00000000	43.85457000	10.62992000
84.59999515	0.00000000	44.22982000	14.11786000
84.79999514	0.00000000	44.31594000	16.85531000
84.99999512	0.00000000	44.64813000	18.35015000
85.19999511	0.00000000	45.06028000	17.92569000
85.39999510	0.00000000	45.06644000	15.23130000
85.59999509	0.00000000	45.47859000	11.00517000
85.79999508	0.00000000	45.81078000	6.35457700
85.99999506	0.00000000	45.85384000	2.12844500
86.19999505	0.00000000	45.81078000	-0.60285430
86.39999504	0.00000000	45.38631000	-1.35334600
86.59999503	0.00000000	44.22982000	-0.18454720
86.79999502	0.00000000	42.73499000	3.29109200
86.99999501	0.00000000	41.57849000	7.89247000
87.19999499	0.00000000	41.15403000	12.58612000
87.39999498	0.00000000	41.15403000	16.76919000
87.59999497	0.00000000	41.57849000	19.04527000
87.79999496	0.00000000	42.73499000	18.30093000
87.99999495	0.00000000	44.27288000	15.27436000
88.19999493	0.00000000	45.81078000	10.95595000
88.39999492	0.00000000	46.96727000	5.98548200
88.59999491	0.00000000	47.34252000	1.39025600
88.79999490	0.00000000	46.96727000	-0.93503930
88.99999489	0.00000000	45.81078000	-0.93503930
89.19999487	0.00000000	44.27288000	1.39025600
89.39999486	0.00000000	42.73499000	6.02854300
89.59999485	0.00000000	41.57849000	11.33120000
89.79999484	0.00000000	41.20325000	15.97564000
89.99999483	0.00000000	41.57849000	18.25787000
90.19999482	0.00000000	42.69193000	17.92569000
90.39999480	0.00000000	43.85457000	15.23130000
90.59999479	0.00000000	44.64813000	10.95595000
90.79999478	0.00000000	45.43553000	5.98548200
90.99999477	0.00000000	45.81078000	1.39025600
91.19999476	0.00000000	45.81078000	-0.88582670
91.39999474	0.00000000	45.43553000	-0.55979330
91.59999473	0.00000000	44.69119000	2.17765700
91.79999472	0.00000000	44.31594000	6.77903500
91.99999471	0.00000000	44.27288000	12.11860000
92.19999470	0.00000000	44.27288000	16.35089000
92.39999468	0.00000000	44.27288000	18.25787000
92.59999467	0.00000000	44.22982000	17.50738000
92.79999466	0.00000000	43.85457000	14.07480000
92.99999465	0.00000000	43.06717000	9.47342500
93.19999464	0.00000000	42.31668000	4.82898600
93.39999463	0.00000000	41.52928000	1.02116100
93.59999461	0.00000000	41.20325000	-0.51673230
93.79999460	0.00000000	41.52928000	0.59670270
93.99999459	0.00000000	42.35974000	3.66633800
94.19999458	0.00000000	43.52854000	7.89247000
94.39999457	0.00000000	45.47859000	12.11860000
94.59999455	0.00000000	47.34252000	15.18824000
94.79999454	0.00000000	48.54823000	16.34473000
94.99999453	0.00000000	48.88041000	15.18824000
95.19999452	0.00000000	48.08686000	12.11860000
95.39999451	0.00000000	45.76156000	7.93553100
95.59999449	0.00000000	42.69193000	4.12770700
95.79999448	0.00000000	39.62229000	2.17150600
95.99999447	0.00000000	37.29700000	2.12844500
96.19999446	0.00000000	36.50344000	3.66633800
96.39999445	0.00000000	36.92175000	6.36072800
96.59999444	0.00000000	38.87795000	9.42421200
96.79999442	0.00000000	42.31668000	12.11860000
96.99999441	0.00000000	45.81078000	13.65650000
97.19999440	0.00000000	48.97269000	13.65650000
97.39999439	0.00000000	51.62401000	12.16781000
97.59999438	0.00000000	52.73745000	9.89173200
97.79999436	0.00000000	51.62401000	7.93553100
97.99999435	0.00000000	48.88041000	6.36072800
98.19999434	0.00000000	45.01722000	5.24729300
98.39999433	0.00000000	40.41584000	5.24729300
98.59999432	0.00000000	36.96481000	6.31151500
98.79999430	0.00000000	35.34079000	7.47416300
98.99999429	0.00000000	35.34079000	8.26771600
99.19999428	0.00000000	36.92175000	9.05511800
99.39999427	0.00000000	39.99754000	9.43036400
99.59999426	0.00000000	43.85457000	9.47342500
99.79999425	0.00000000	47.34252000	9.47342500
99.99999423	0.00000000	50.08612000	9.51648500
100.19999422	0.00000000	51.62401000	9.89173200
100.39999421	0.00000000	51.62401000	10.62992000
100.59999420	0.00000000	50.08612000	10.95595000
100.79999419	0.00000000	47.39173000	10.62992000
100.99999417	0.00000000	44.27288000	9.79945900
101.19999416	0.00000000	41.15403000	8.67987200
101.39999415	0.00000000	38.50270000	7.06200700
101.59999414	0.00000000	37.29700000	5.56102300
101.79999413	0.00000000	37.66609000	4.03543200
101.99999411	0.00000000	38.83489000	3.70939900
102.19999410	0.00000000	41.15403000	4.82283400
102.39999409	0.00000000	43.80536000	6.77903500
102.59999408	0.00000000	45.81078000	9.47342500
102.79999407	0.00000000	47.39173000	12.16781000
102.99999406	0.00000000	48.50517000	14.07480000
103.19999404	0.00000000	48.50517000	14.81299000
103.39999403	0.00000000	47.39173000	13.65650000
103.59999402	0.00000000	45.85384000	11.00517000
103.79999401	0.00000000	44.22982000	7.89247000
103.99999400	0.00000000	42.31668000	4.82283400
104.19999398	0.00000000	40.41584000	2.54675200
104.39999397	0.00000000	39.66535000	2.12844500
104.59999396	0.00000000	39.99754000	3.24803100
104.79999395	0.00000000	41.15403000	5.19808000
104.99999394	0.00000000	42.69193000	7.89247000
105.19999392	0.00000000	44.22982000	10.58686000
105.39999391	0.00000000	45.38631000	12.53691000
105.59999390	0.00000000	45.81078000	13.65650000
105.79999389	0.00000000	45.81078000	13.28125000
105.99999388	0.00000000	45.38631000	11.38041000
106.19999387	0.00000000	44.27288000	9.09817800
106.39999385	0.00000000	43.11023000	6.77903500
106.59999384	0.00000000	42.31668000	5.24729300
106.79999383	0.00000000	41.57849000	4.82898600
106.99999382	0.00000000	41.62155000	5.19808000
107.19999381	0.00000000	42.69193000	6.40378900
107.39999379	0.00000000	43.85457000	8.26771600
107.59999378	0.00000000	44.64813000	10.16855000
107.79999377	0.00000000	45.38631000	10.95595000
107.99999376	0.00000000	45.34325000	11.00517000
108.19999375	0.00000000	44.27288000	10.53765000
108.39999374	0.00000000	43.11023000	9.05511800
108.59999372	0.00000000	42.31668000	7.14812900
108.79999371	0.00000000	41.52928000	5.98548200
108.99999370	0.00000000	41.20325000	5.19808000
109.19999369	0.00000000	41.52928000	5.24729300
109.39999368	0.00000000	42.31668000	6.40378900
109.59999366	0.00000000	43.11023000	8.31077700
109.79999365	0.00000000	44.27288000	10.58686000
109.99999364	0.00000000	45.38631000	12.11860000
110.19999363	0.00000000	45.76156000	12.53691000
110.39999362	0.00000000	45.43553000	12.16166000
110.59999360	0.00000000	44.64813000	11.00517000
110.79999359	0.00000000	43.89763000	9.47342500
110.99999358	0.00000000	43.06717000	7.89247000
111.19999357	0.00000000	42.35974000	6.36072800
111.39999356	0.00000000	41.94759000	5.24729300
111.59999355	0.00000000	42.31668000	5.19808000
111.79999353	0.00000000	42.69193000	5.93626900
111.99999352	0.00000000	43.11023000	6.72982200
112.19999351	0.00000000	43.85457000	7.89247000
112.39999350	0.00000000	44.22982000	9.00590400
112.59999349	0.00000000	44.27288000	9.47342500
112.79999347	0.00000000	44.27288000	9.84867000
112.99999346	0.00000000	44.22982000	10.21161000
113.19999345	0.00000000	43.89763000	9.79945900
113.39999344	0.00000000	43.48548000	9.09817800
113.59999343	0.00000000	43.47933000	8.31077700
113.79999341	0.00000000	43.06717000	7.93553100
113.99999340	0.00000000	42.73499000	7.89247000
114.19999339	0.00000000	42.69193000	7.89247000
114.39999338	0.00000000	42.69193000	7.84940900
114.59999337	0.00000000	42.69193000	7.47416300
114.79999336	0.00000000	42.69193000	6.72982200
114.99999334	0.00000000	42.69193000	6.35457700
115.19999333	0.00000000	42.73499000	6.31151500
115.39999332	0.00000000	43.06717000	6.35457700
115.59999331	0.00000000	43.47933000	6.72982200
115.79999330	0.00000000	43.44242000	7.51722400
115.99999328	0.00000000	43.47933000	8.31077700
116.19999327	0.00000000	43.06717000	9.42421200
116.39999326	0.00000000	42.73499000	10.21161000
116.59999325	0.00000000	42.69193000	10.21776000
116.79999324	0.00000000	42.69193000	10.25467000
116.99999322	0.00000000	42.69193000	9.79945900
117.19999321	0.00000000	42.73499000	9.05511800
117.39999320	0.00000000	43.11023000	7.89247000
117.59999319	0.00000000	43.85457000	6.77903500
117.79999318	0.00000000	44.22982000	6.35457700
117.99999317	0.00000000	44.27288000	6.31151500
118.19999315	0.00000000	44.27288000	6.35457700
118.39999314	0.00000000	44.27288000	6.72982200
118.59999313	0.00000000	44.18061000	7.51722400
118.79999312	0.00000000	43.43627000	8.26771600
118.99999311	0.00000000	41.94759000	9.09817800
119.19999309	0.00000000	41.20325000	9.79945900
119.39999308	0.00000000	41.11097000	10.21161000
119.59999307	0.00000000	41.15403000	9.84867000
119.79999306	0.00000000	41.52928000	9.51648500
119.99999305	0.00000000	42.31668000	9.43036400
120.19999303	0.00000000	43.11023000	9.05511800
120.39999302	0.00000000	44.27288000	8.31077700
120.59999301	0.00000000	45.38631000	7.89247000
120.79999300	0.00000000	45.81078000	7.47416300
120.99999299	0.00000000	45.81078000	6.72982200
121.19999298	0.00000000	45.38631000	6.35457700
121.39999296	0.00000000	44.22982000	6.31151500
121.59999295	0.00000000	42.73499000	6.35457700
121.79999294	0.00000000	41.52928000	6.72982200
121.99999293	0.00000000	40.77879000	7.47416300
122.19999292	0.00000000	40.36663000	7.89247000
122.39999290	0.00000000	40.77879000	8.31077700
122.59999289	0.00000000	41.48622000	9.09817800
122.79999288	0.00000000	42.31668000	9.79945900
122.99999287	0.00000000	43.06717000	10.21161000
123.19999286	0.00000000	43.89763000	9.84867000
123.39999284	0.00000000	44.64813000	9.47342500
123.59999283	0.00000000	45.43553000	9.05511800
123.79999282	0.00000000	45.76156000	8.31077700
123.99999281	0.00000000	45.43553000	7.89247000
124.19999280	0.00000000	44.64813000	7.51722400
124.39999279	0.00000000	43.89763000	7.14812900
124.59999277	0.00000000	43.06717000	7.51722400
124.79999276	0.00000000	42.31668000	7.84940900
124.99999275	0.00000000	41.52928000	7.89247000
125.19999274	0.00000000	41.15403000	7.93553100
125.39999273	0.00000000	41.15403000	8.31077700
125.59999271	0.00000000	41.57849000	9.05511800
125.79999270	0.00000000	42.69193000	9.43036400
125.99999269	0.00000000	43.80536000	9.47342500
126.19999268	0.00000000	44.27288000	9.43036400
126.39999267	0.00000000	44.69119000	9.05511800
126.59999265	0.00000000	45.38631000	8.31077700
126.79999264	0.00000000	45.38631000	7.93553100
126.99999263	0.00000000	44.64813000	7.84940900
127.19999262	0.00000000	43.85457000	7.47416300
127.39999261	0.00000000	42.69193000	6.72982200
127.59999260	0.00000000	41.52928000	6.40378900
127.79999258	0.00000000	40.77879000	6.72982200
127.99999257	0.00000000	40.36663000	7.47416300
128.19999256	0.00000000	40.77879000	7.89247000
128.39999255	0.00000000	41.52928000	8.26771600
128.59999254	0.00000000	42.69193000	8.67987200
128.79999252	0.00000000	43.85457000	8.64296200
128.99999251	0.00000000	44.60506000	8.67987200
129.19999250	0.00000000	45.01722000	8.26771600
129.39999249	0.00000000	44.60506000	7.93553100
129.59999248	0.00000000	43.89763000	7.89247000
129.79999246	0.00000000	43.06717000	7.84940900
129.99999245	0.00000000	42.27362000	7.51722400
130.19999244	0.00000000	41.15403000	7.14812900
130.39999243	0.00000000	40.41584000	7.51722400
130.59999242	0.00000000	40.77879000	7.89247000
130.79999241	0.00000000	41.52928000	8.31077700
130.99999239	0.00000000	42.69193000	9.05511800
131.19999238	0.00000000	43.80536000	9.43036400
131.39999237	0.00000000	44.22982000	9.43036400
131.59999236	0.00000000	44.27288000	9.05511800
131.79999235	0.00000000	44.22982000	8.26771600
131.99999233	0.00000000	43.85457000	7.51722400
132.19999232	0.00000000	43.11023000	6.72982200
132.39999231	0.00000000	42.69193000	6.35457700
132.59999230	0.00000000	42.27362000	6.35457700
132.79999229	0.00000000	41.57849000	6.72982200
132.99999227	0.00000000	41.57849000	7.51722400
133.19999226	0.00000000	42.27362000	8.26771600
133.39999225	0.00000000	42.64886000	9.05511800
133.59999224	0.00000000	42.69193000	9.43036400
133.79999223	0.00000000	42.69193000	9.47342500
133.99999222	0.00000000	42.69193000	9.43036400
134.19999220	0.00000000	42.69193000	9.05511800
134.39999219	0.00000000	42.69193000	8.31077700
134.59999218	0.00000000	42.69193000	7.89247000
134.79999217	0.00000000	42.73499000	7.47416300
134.99999216	0.00000000	43.11023000	6.72982200
135.19999214	0.00000000	43.85457000	6.35457700
135.39999213	0.00000000	44.18061000	6.35457700
135.59999212	0.00000000	43.85457000	6.72982200
135.79999211	0.00000000	43.06717000	7.51722400
135.99999210	0.00000000	42.31668000	8.26771600
136.19999208	0.00000000	41.52928000	9.05511800
136.39999207	0.00000000	41.15403000	9.43036400
136.59999206	0.00000000	41.11097000	9.47342500
136.79999205	0.00000000	41.15403000	9.47342500
136.99999204	0.00000000	41.52928000	9.43036400
137.19999203	0.00000000	42.27362000	9.05511800
137.39999201	0.00000000	42.69193000	8.26771600
137.59999200	0.00000000	43.11023000	7.51722400
137.79999199	0.00000000	43.85457000	6.72982200
137.99999198	0.00000000	44.22982000	6.35457700
138.19999197	0.00000000	44.22982000	6.31151500
138.39999195	0.00000000	43.85457000	6.35457700
138.59999194	0.00000000	43.06717000	6.72982200
138.79999193	0.00000000	42.31668000	7.47416300
138.99999192	0.00000000	41.52928000	7.89247000
139.19999191	0.00000000	41.15403000	8.31077700
139.39999189	0.00000000	41.15403000	9.05511800
139.59999188	0.00000000	41.52928000	9.43036400
139.79999187	0.00000000	42.31668000	9.47342500
139.99999186	0.00000000	43.06717000	9.43036400
140.19999185	0.00000000	43.80536000	9.00590400
140.39999184	0.00000000	43.80536000	7.89247000
140.59999182	0.00000000	43.11023000	6.77903500
140.79999181	0.00000000	42.73499000	6.35457700
140.99999180	0.00000000	42.69193000	6.31151500
141.19999179	0.00000000	42.64886000	6.35457700
141.39999178	0.00000000	42.31668000	6.72982200
141.59999176	0.00000000	41.94759000	7.51722400
141.79999175	0.00000000	42.31668000	8.26771600
141.99999174	0.00000000	42.64886000	9.05511800
142.19999173	0.00000000	42.69193000	9.43036400
142.39999172	0.00000000	42.69193000	9.47342500
142.59999170	0.00000000	42.69193000	9.43036400
142.79999169	0.00000000	42.69193000	9.05511800
142.99999168	0.00000000	42.69193000	8.26771600
143.19999167	0.00000000	42.69193000	7.51722400
143.39999166	0.00000000	42.69193000	6.72982200
143.59999165	0.00000000	42.64886000	6.35457700
143.79999163	0.00000000	42.31668000	6.31151500
143.99999162	0.00000000	41.94759000	6.35457700
144.19999161	0.00000000	42.31668000	6.72982200
144.39999160	0.00000000	42.64886000	7.51722400
144.59999159	0.00000000	42.69193000	8.26771600
144.79999157	0.00000000	42.69193000	9.05511800
144.99999156	0.00000000	42.69193000	9.43036400
145.19999155	0.00000000	42.69193000	9.43036400
145.39999154	0.00000000	42.69193000	9.05511800
145.59999153	0.00000000	42.69193000	8.31077700
145.79999151	0.00000000	42.64886000	7.89247000
145.99999150	0.00000000	42.27362000	7.47416300
146.19999149	0.00000000	41.57849000	6.72982200
146.39999148	0.00000000	41.57849000	6.35457700
146.59999147	0.00000000	42.27362000	6.31151500
146.79999146	0.00000000	42.64886000	6.35457700
146.99999144	0.00000000	42.69193000	6.72982200
147.19999143	0.00000000	42.69193000	7.47416300
147.39999142	0.00000000	42.69193000	7.84940900
147.59999141	0.00000000	42.69193000	7.93553100
147.79999140	0.00000000	42.69193000	8.31077700
147.99999138	0.00000000	42.64886000	9.05511800
148.19999137	0.00000000	42.27362000	9.38115100
148.39999136	0.00000000	41.52928000	9.05511800
148.59999135	0.00000000	41.15403000	8.31077700
148.79999134	0.00000000	41.15403000	7.93553100
148.99999132	0.00000000	41.52928000	7.84940900
149.19999131	0.00000000	42.27362000	7.47416300
149.39999130	0.00000000	42.64886000	6.77903500
149.59999129	0.00000000	42.69193000	6.77903500
149.79999128	0.00000000	42.69193000	7.47416300
149.99999127	0.00000000	42.69193000	7.84940900
150.19999125	0.00000000	42.69193000	7.89247000
150.39999124	0.00000000	42.69193000	7.89247000
150.59999123	0.00000000	42.64886000	7.89247000
150.79999122	0.00000000	42.31668000	7.89247000
150.99999121	0.00000000	41.90453000	7.89247000
151.19999119	0.00000000	41.89838000	7.89247000
151.39999118	0.00000000	41.48622000	7.89247000
151.59999117	0.00000000	41.15403000	7.89247000
151.79999116	0.00000000	41.11097000	7.89247000
151.99999115	0.00000000	41.15403000	7.89247000
152.19999113	0.00000000	41.52928000	7.89247000
152.39999112	0.00000000	42.27362000	7.89247000
152.59999111	0.00000000	42.64886000	7.89247000
152.79999110	0.00000000	42.69193000	7.89247000
152.99999109	0.00000000	42.69193000	7.89247000
153.19999108	0.00000000	42.69193000	7.89247000
153.39999106	0.00000000	42.69193000	7.89247000
153.59999105	0.00000000	42.64886000	7.89247000
153.79999104	0.00000000	42.27362000	7.89247000
153.99999103	0.00000000	41.52928000	7.89247000
154.19999102	0.00000000	41.15403000	7.89247000
154.39999100	0.00000000	41.11097000	7.89247000
154.59999099	0.00000000	41.11097000	7.89247000
154.79999098	0.00000000	41.15403000	7.89247000
154.99999097	0.00000000	41.52928000	7.89247000
155.19999096	0.00000000	42.27362000	7.84940900
155.39999094	0.00000000	42.64886000	7.51722400
155.59999093	0.00000000	42.69193000	7.14812900
155.79999092	0.00000000	42.69193000	7.51722400
155.99999091	0.00000000	42.69193000	7.84940900
156.19999090	0.00000000	42.69193000	7.89247000
156.39999089	0.00000000	42.64886000	7.89247000
156.59999087	0.00000000	42.27362000	7.93553100
156.79999086	0.00000000	41.52928000	8.31077700
156.99999085	0.00000000	41.15403000	9.00590400
157.19999084	0.00000000	41.11097000	9.00590400
157.39999083	0.00000000	41.11097000	8.31077700
157.59999081	0.00000000	41.11097000	7.93553100
157.79999080	0.00000000	41.11097000	7.84940900
157.99999079	0.00000000	41.15403000	7.47416300
158.19999078	0.00000000	41.52928000	6.72982200
158.39999077	0.00000000	42.27362000	6.35457700
158.59999075	0.00000000	42.64886000	6.31151500
158.79999074	0.00000000	42.64886000	6.31151500
158.99999073	0.00000000	42.31668000	6.35457700
159.19999072	0.00000000	41.90453000	6.72982200
159.39999071	0.00000000	41.94144000	7.51722400
159.59999070	0.00000000	41.86147000	8.26771600
159.79999068	0.00000000	41.89838000	9.00590400
159.99999067	0.00000000	41.48622000	9.05511800
160.19999066	0.00000000	41.15403000	8.68602300
160.39999065	0.00000000	41.11097000	8.67987200
160.59999064	0.00000000	41.11097000	8.26771600
160.79999062	0.00000000	41.11097000	7.93553100
160.99999061	0.00000000	41.11097000	7.89247000
161.19999060	0.00000000	41.15403000	7.84940900
161.39999059	0.00000000	41.52928000	7.51722400
161.59999058	0.00000000	42.22441000	7.14812900
161.79999056	0.00000000	42.27362000	7.51722400
161.99999055	0.00000000	41.94759000	7.84940900
162.19999054	0.00000000	42.31668000	7.89247000
162.39999053	0.00000000	42.64886000	7.89247000
162.59999052	0.00000000	42.64886000	7.89247000
162.79999051	0.00000000	42.27362000	7.89247000
162.99999049	0.00000000	41.52928000	7.89247000
163.19999048	0.00000000	41.15403000	7.89247000
163.39999047	0.00000000	41.11097000	7.89247000
163.59999046	0.00000000	41.11097000	7.89247000
163.79999045	0.00000000	41.11097000	7.89247000
163.99999043	0.00000000	41.11097000	7.89247000
164.19999042	0.00000000	41.11097000	7.89247000
164.39999041	0.00000000	41.15403000	7.89247000
164.59999040	0.00000000	41.52928000	7.84940900
164.79999039	0.00000000	42.27362000	7.51722400
164.99999037	0.00000000	42.64886000	7.14812900
165.19999036	0.00000000	42.69193000	7.51722400
165.39999035	0.00000000	42.69193000	7.84940900
165.59999034	0.00000000	42.69193000	7.89247000
165.79999033	0.00000000	42.64886000	7.89247000
165.99999032	0.00000000	42.27362000	7.89247000
166.19999030	0.00000000	41.52928000	7.89247000
166.39999029	0.00000000	41.15403000	7.89247000
166.59999028	0.00000000	41.11097000	7.84940900
166.79999027	0.00000000	41.11097000	7.51722400
166.99999026	0.00000000	41.11097000	7.14812900
167.19999024	0.00000000	41.15403000	7.51722400
167.39999023	0.00000000	41.52928000	7.80019600
167.59999022	0.00000000	42.22441000	7.47416300
167.79999021	0.00000000	42.27362000	6.77903500
167.99999020	0.00000000	41.94759000	6.77903500
168.19999018	0.00000000	42.31668000	7.47416300
168.39999017	0.00000000	42.64886000	7.84940900
168.59999016	0.00000000	42.64886000	7.89247000
168.79999015	0.00000000	42.31668000	7.89247000
168.99999014	0.00000000	41.90453000	7.89247000
169.19999013	0.00000000	41.89838000	7.89247000
169.39999011	0.00000000	41.48622000	7.89247000
169.59999010	0.00000000	41.15403000	7.89247000
169.79999009	0.00000000	41.11097000	7.89247000
169.99999008	0.00000000	41.11097000	7.89247000
170.19999007	0.00000000	41.11097000	7.89247000
170.39999005	0.00000000	41.11097000	7.89247000
170.59999004	0.00000000	41.15403000	7.89247000
170.79999003	0.00000000	41.52928000	7.89247000
170.99999002	0.00000000	42.27362000	7.89247000
171.19999001	0.00000000	42.64886000	7.89247000
171.39998999	0.00000000	42.64886000	7.89247000
171.59998998	0.00000000	42.31668000	7.84940900
171.79998997	0.00000000	41.90453000	7.51722400
171.99998996	0.00000000	41.89838000	7.14812900
172.19998995	0.00000000	41.48622000	7.51722400
172.39998994	0.00000000	41.15403000	7.84940900
172.59998992	0.00000000	41.11097000	7.89247000
172.79998991	0.00000000	41.11097000	7.89247000
172.99998990	0.00000000	41.11097000	7.89247000
173.19998989	0.00000000	41.11097000	7.89247000
173.39998988	0.00000000	41.11097000	7.89247000
173.59998986	0.00000000	41.11097000	7.89247000
173.79998985	0.00000000	41.11097000	7.89247000
173.99998984	0.00000000	41.11097000	7.89247000
174.19998983	0.00000000	41.11097000	7.84940900
174.39998982	0.00000000	41.11097000	7.51722400
174.59998980	0.00000000	41.11097000	7.10506800
174.79998979	0.00000000	41.15403000	7.14197800
174.99998978	0.00000000	41.48622000	7.10506800
175.19998977	0.00000000	41.89838000	7.51722400
175.39998976	0.00000000	41.86147000	7.84940900
175.59998975	0.00000000	41.89838000	7.89247000
175.79998973	0.00000000	41.48622000	7.89247000
175.99998972	0.00000000	41.15403000	7.89247000
176.19998971	0.00000000	41.15403000	7.89247000
176.39998970	0.00000000	41.48622000	7.89247000
176.59998969	0.00000000	41.85531000	7.89247000
176.79998967	0.00000000	41.48622000	7.89247000
176.99998966	0.00000000	41.15403000	7.89247000
177.19998965	0.00000000	41.11097000	7.89247000
177.39998964	0.00000000	41.11097000	7.89247000
177.59998963	0.00000000	41.11097000	7.84940900
177.79998961	0.00000000	41.11097000	7.51722400
177.99998960	0.00000000	41.11097000	7.14812900
178.19998959	0.00000000	41.11097000	7.51722400
178.39998958	0.00000000	41.11097000	7.84940900
178.59998957	0.00000000	41.11097000	7.89247000
178.79998956	0.00000000	41.11097000	7.89247000
178.99998954	0.00000000	41.11097000	7.89247000
179.19998953	0.00000000	41.15403000	7.89247000
179.39998952	0.00000000	41.48622000	7.89247000
179.59998951	0.00000000	41.85531000	7.84940900
179.79998950	0.00000000	41.48622000	7.51722400
179.99998948	0.00000000	41.15403000	7.10506800
180.19998947	0.00000000	41.11097000	7.09891700
180.39998946	0.00000000	41.11097000	6.72982200
180.59998945	0.00000000	41.11097000	6.77903500
180.79998944	0.00000000	41.11097000	7.47416300
180.99998942	0.00000000	41.11097000	7.84940900
181.19998941	0.00000000	41.11097000	7.89247000
181.39998940	0.00000000	41.11097000	7.89247000
181.59998939	0.00000000	41.11097000	7.89247000
181.79998938	0.00000000	41.11097000	7.89247000
181.99998937	0.00000000	41.11097000	7.89247000
182.19998935	0.00000000	41.11097000	7.89247000
182.39998934	0.00000000	41.11097000	7.89247000
182.59998933	0.00000000	41.11097000	7.84940900
182.79998932	0.00000000	41.11097000	7.51722400
182.99998931	0.00000000	41.11097000	7.10506800
183.19998929	0.00000000	41.11097000	7.09891700
183.39998928	0.00000000	41.11097000	6.68676100
183.59998927	0.00000000	41.11097000	6.40378900
183.79998926	0.00000000	41.11097000	6.72982200
183.99998925	0.00000000	41.11097000	7.47416300
184.19998923	0.00000000	41.11097000	7.84940900
184.39998922	0.00000000	41.11097000	7.89247000
184.59998921	0.00000000	41.11097000	7.89247000
184.79998920	0.00000000	41.11097000	7.89247000
184.99998919	0.00000000	41.11097000	7.89247000
185.19998918	0.00000000	41.11097000	7.89247000
185.39998916	0.00000000	41.11097000	7.89247000
185.59998915	0.00000000	41.11097000	7.84940900
185.79998914	0.00000000	41.11097000	7.47416300
185.99998913	0.00000000	41.11097000	6.72982200
186.19998912	0.00000000	41.11097000	6.35457700
186.39998910	0.00000000	41.11097000	6.31151500
186.59998909	0.00000000	41.11097000	6.31151500
186.79998908	0.00000000	41.11097000	6.35457700
186.99998907	0.00000000	41.11097000	6.72982200
187.19998906	0.00000000	41.11097000	7.47416300
187.39998904	0.00000000	41.11097000	7.84940900
187.59998903	0.00000000	41.11097000	7.89247000
187.79998902	0.00000000	41.11097000	7.89247000
187.99998901	0.00000000	41.11097000	7.89247000
188.19998900	0.00000000	41.11097000	7.89247000
188.39998899	0.00000000	41.11097000	7.84940900
188.59998897	0.00000000	41.11097000	7.47416300
188.79998896	0.00000000	41.11097000	6.72982200
188.99998895	0.00000000	41.11097000	6.35457700
189.19998894	0.00000000	41.11097000	6.31151500
189.39998893	0.00000000	41.11097000	6.31151500
189.59998891	0.00000000	41.11097000	6.31151500
189.79998890	0.00000000	41.11097000	6.35457700
189.99998889	0.00000000	41.11097000	6.72982200
190.19998888	0.00000000	41.11097000	7.47416300
190.39998887	0.00000000	41.11097000	7.84940900
190.59998885	0.00000000	41.11097000	7.89247000
190.79998884	0.00000000	41.11097000	7.89247000
190.99998883	0.00000000	41.11097000	7.89247000
191.19998882	0.00000000	41.11097000	7.89247000
191.39998881	0.00000000	41.11097000	7.89247000
191.59998880	0.00000000	41.11097000	7.89247000
191.79998878	0.00000000	41.11097000	7.84940900
191.99998877	0.00000000	41.11097000	7.47416300
192.19998876	0.00000000	41.11097000	6.72982200
192.39998875	0.00000000	41.11097000	6.35457700
192.59998874	0.00000000	41.11097000	6.31151500
192.79998872	0.00000000	41.11097000	6.31151500
192.99998871	0.00000000	41.11097000	6.31151500
193.19998870	0.00000000	41.11097000	6.35457700
193.39998869	0.00000000	41.11097000	6.72982200
193.59998868	0.00000000	41.11097000	7.47416300
193.79998866	0.00000000	41.11097000	7.84940900
193.99998865	0.00000000	41.11097000	7.89247000
194.19998864	0.00000000	41.11097000	7.89247000
194.39998863	0.00000000	41.11097000	7.89247000
194.59998862	0.00000000	41.11097000	7.89247000
194.79998861	0.00000000	41.11097000	7.89247000
194.99998859	0.00000000	41.11097000	7.89247000
195.19998858	0.00000000	41.11097000	7.89247000
195.39998857	0.00000000	41.11097000	7.89247000
195.59998856	0.00000000	41.11097000	7.84940900
195.79998855	0.00000000	41.11097000	7.51722400
195.99998853	0.00000000	41.11097000	7.10506800
