Time	Channel A	Channel B	Channel C
(us)	(V)	(mV)	(mV)

-4.49999956	0.00000000	31.57603000	3.15575800
-4.29999957	0.00000000	31.24384000	3.15575800
-4.09999958	0.00000000	30.87475000	3.15575800
-3.89999959	0.00000000	31.24384000	3.15575800
-3.69999960	0.00000000	31.57603000	3.15575800
-3.49999962	0.00000000	31.61909000	3.15575800
-3.29999963	0.00000000	31.61909000	3.15575800
-3.09999964	0.00000000	31.61909000	3.15575800
-2.89999965	0.00000000	31.57603000	3.15575800
-2.69999966	0.00000000	31.20078000	3.15575800
-2.49999968	0.00000000	30.50566000	3.15575800
-2.29999969	0.00000000	30.45644000	3.15575800
-2.09999970	0.00000000	30.78248000	3.15575800
-1.89999971	0.00000000	30.45644000	3.15575800
-1.69999972	0.00000000	30.45644000	3.15575800
-1.49999973	0.00000000	30.82554000	3.15575800
-1.29999975	0.00000000	30.83169000	3.15575800
-1.09999976	0.00000000	31.20078000	3.15575800
-0.89999977	0.00000000	31.15157000	3.15575800
-0.69999978	0.00000000	30.50566000	3.15575800
-0.49999979	0.00000000	30.45644000	3.15575800
-0.29999981	0.31803640	30.82554000	3.15575800
-0.09999982	0.63668800	30.83169000	3.15575800
0.10000017	0.95533960	31.24384000	3.15575800
0.30000016	1.11466500	31.52682000	3.15575800
0.50000015	0.79601380	31.20078000	3.15575800
0.70000013	0.31803640	30.45644000	3.15575800
0.90000012	-0.47736220	30.08120000	3.15575800
1.10000011	-1.43331700	30.08120000	3.15575800
1.30000010	-2.38927200	30.45644000	3.15575800
1.50000009	-2.70792300	31.20078000	3.15575800
1.70000008	-2.38927200	31.57603000	3.15575800
1.90000006	-1.27399100	31.61909000	3.15575800
2.10000005	0.47736220	31.57603000	3.15575800
2.30000004	2.54859700	31.20078000	3.15575800
2.50000003	4.45989200	30.45644000	3.15575800
2.70000002	5.41584600	30.08120000	3.15575800
2.90000000	4.93786900	30.03814000	3.15575800
3.09999999	3.02657500	30.03814000	3.15575800
3.29999998	0.00000000	30.03814000	3.15575800
3.49999997	-3.34522600	30.03814000	3.15575800
3.69999996	-6.37180100	30.08120000	3.15575800
3.89999994	-7.80511800	30.45644000	3.15575800
4.09999993	-7.48646600	31.15157000	3.19881900
4.29999992	-5.09719500	31.20078000	3.57406500
4.49999991	-1.27399100	30.87475000	4.26919300
4.69999990	3.18590100	31.20078000	4.26919300
4.89999989	7.00848900	31.15157000	3.57406500
5.09999987	9.23905000	30.45644000	3.19881900
5.29999986	9.23905000	30.08120000	3.11269700
5.49999985	6.84916400	30.03814000	2.73745100
5.69999984	2.54859700	30.03814000	2.04232300
5.89999983	-2.22994600	30.03814000	2.04232300
6.09999981	-6.37180100	30.03814000	2.73745100
6.29999980	-8.92039900	30.08120000	3.11269700
6.49999979	-9.23905000	30.45644000	3.15575800
6.69999978	-7.16781500	31.20078000	3.15575800
6.89999977	-3.50393700	31.57603000	3.15575800
7.09999975	0.79601380	31.57603000	3.15575800
7.29999974	4.77854300	31.20078000	3.15575800
7.49999973	7.16781500	30.45644000	3.15575800
7.69999972	7.64579200	30.08120000	3.15575800
7.89999971	6.37180100	30.03814000	3.15575800
8.09999970	3.50393700	30.03814000	3.15575800
8.29999968	0.31803640	30.03814000	3.15575800
8.49999967	-2.70792300	30.03814000	3.15575800
8.69999966	-4.61921700	30.03814000	3.15575800
8.89999965	-5.25652100	30.08120000	3.15575800
9.09999964	-4.45989200	30.45644000	3.15575800
9.29999962	-2.70792300	31.20078000	3.15575800
9.49999961	-0.79601380	31.57603000	3.15575800
9.69999960	0.95533960	31.57603000	3.15575800
9.89999959	2.22994600	31.24384000	3.15575800
10.09999958	2.54859700	30.87475000	3.15575800
10.29999956	2.22994600	31.20078000	3.15575800
10.49999955	1.43331700	31.15157000	3.15575800
10.69999954	0.63668800	30.45644000	3.15575800
10.89999953	-0.15871060	30.08120000	3.15575800
11.09999952	-0.63668800	30.03814000	3.15575800
11.29999951	-0.95533960	30.03814000	3.15575800
11.49999949	-0.95533960	30.03814000	3.15575800
11.69999948	-0.79601380	30.03814000	3.15575800
11.89999947	-0.47736220	30.03814000	3.15575800
12.09999946	-0.15871060	30.03814000	3.15575800
12.29999945	-0.15871060	30.03814000	3.15575800
12.49999943	-0.15871060	30.03814000	3.15575800
12.69999942	0.00000000	30.08120000	3.15575800
12.89999941	0.00000000	30.41338000	3.15575800
13.09999940	0.15871060	30.78248000	3.15575800
13.29999939	0.15871060	30.41338000	3.15575800
13.49999937	0.00000000	30.08120000	3.15575800
13.69999936	0.00000000	30.08120000	3.15575800
13.89999935	0.00000000	30.41338000	3.15575800
14.09999934	-0.15871060	30.78248000	3.15575800
14.29999933	-0.15871060	30.41338000	3.15575800
14.49999932	-0.15871060	30.08120000	3.15575800
14.69999930	0.00000000	30.03814000	3.15575800
14.89999929	0.00000000	30.03814000	3.15575800
15.09999928	0.00000000	30.03814000	3.15575800
15.29999927	0.00000000	30.03814000	3.15575800
15.49999926	0.00000000	30.03814000	3.15575800
15.69999924	0.00000000	30.03814000	3.15575800
15.89999923	0.00000000	30.03814000	3.15575800
16.09999922	0.00000000	30.03814000	3.15575800
16.29999921	0.00000000	30.03814000	3.15575800
16.49999920	-0.15871060	30.08120000	3.15575800
16.69999919	0.00000000	30.45644000	3.15575800
16.89999917	0.00000000	31.20078000	3.15575800
17.09999916	0.00000000	31.57603000	3.15575800
17.29999915	0.00000000	31.61909000	3.15575800
17.49999914	0.00000000	31.61909000	3.15575800
17.69999913	0.00000000	31.61909000	3.15575800
17.89999911	0.00000000	31.57603000	3.15575800
18.09999910	0.00000000	31.15157000	3.15575800
18.29999909	0.00000000	29.99508000	3.15575800
18.49999908	0.00000000	28.45718000	3.15575800
18.69999907	0.00000000	26.91929000	3.15575800
18.89999905	0.00000000	25.76279000	3.15575800
19.09999904	0.00000000	25.43061000	3.15575800
19.29999903	0.00000000	26.26722000	3.15575800
19.49999902	0.00000000	29.01082000	3.15575800
19.69999901	0.00000000	33.20005000	3.15575800
19.89999900	0.00000000	37.43848000	3.15575800
20.09999898	0.00000000	40.55733000	3.15575800
20.29999897	0.00000000	42.09522000	3.15575800
20.49999896	0.00000000	41.62770000	3.15575800
20.69999895	0.00000000	38.41658000	3.15575800
20.89999894	0.00000000	32.22810000	3.11269700
21.09999892	0.00000000	24.13263000	2.78051200
21.29999891	0.00000000	16.45546000	2.41141700
21.49999890	0.00000000	11.06053000	2.78051200
21.69999889	0.00000000	9.56569900	3.11269700
21.89999888	0.00000000	12.72761000	3.15575800
22.09999886	0.00000000	20.54626000	3.15575800
22.29999885	0.00000000	32.12967000	3.15575800
22.49999884	0.00000000	44.87574000	3.15575800
22.69999883	0.00000000	55.62869000	3.15575800
22.89999882	0.00000000	61.76796000	3.15575800
23.09999881	0.00000000	60.88828000	3.15575800
23.29999879	0.00000000	52.74360000	3.19881900
23.49999878	0.00000000	38.37352000	3.57406500
23.69999877	0.00000000	20.64468000	4.31840500
23.89999876	0.00000000	3.66633800	4.69365100
24.09999875	0.00000000	-8.24926100	4.69365100
24.29999873	0.00000000	-12.06324000	4.26919300
24.49999872	0.00000000	-6.20078700	3.11269700
24.69999871	0.00000000	8.54453700	1.57480300
24.89999870	0.00000000	29.38607000	0.00000000
25.09999869	0.00000000	51.76550000	-1.53174200
25.29999867	0.00000000	69.86958000	-2.64517700
25.49999866	0.00000000	79.54601000	-2.60211600
25.69999865	0.00000000	78.29724000	-1.07037400
25.89999864	0.00000000	65.91412000	1.66707700
26.09999863	0.00000000	44.65428000	5.15501900
26.29999862	0.00000000	19.61737000	9.05511800
26.49999860	0.00000000	-3.17421200	12.49385000
26.69999859	0.00000000	-18.25172000	14.72072000
26.89999858	0.00000000	-22.48400000	14.30241000
27.09999857	0.00000000	-14.75763000	10.82677000
27.29999856	0.00000000	3.37721400	5.38262700
27.49999854	0.00000000	27.25147000	-1.62401600
27.69999853	0.00000000	51.25492000	-8.91978400
27.89999852	0.00000000	69.82652000	-14.67766000
28.09999851	0.00000000	79.50295000	-17.32899000
28.29999850	0.00000000	77.96506000	-15.70497000
28.49999848	0.00000000	65.68652000	-9.47957600
28.69999847	0.00000000	46.41363000	0.59670270
28.89999846	0.00000000	24.73548000	12.54306000
29.09999845	0.00000000	5.38262700	23.68971000
29.29999844	0.00000000	-7.78174200	30.98548000
29.49999843	0.00000000	-12.10630000	32.52337000
29.69999841	0.00000000	-7.17888700	27.82972000
29.89999840	0.00000000	4.77977300	17.32899000
30.09999839	0.00000000	21.06299000	2.64517700
30.29999838	0.00000000	38.46580000	-13.10285000
30.49999837	0.00000000	53.16806000	-25.83046000
30.69999835	0.00000000	62.10014000	-32.43110000
30.89999834	0.00000000	63.72416000	-32.01279000
31.09999833	0.00000000	58.37229000	-24.20645000
31.29999832	0.00000000	47.95152000	-9.94094400
31.49999831	0.00000000	34.73794000	7.43110200
31.69999829	0.00000000	21.24139000	24.06496000
31.89999828	0.00000000	10.40846000	36.79257000
32.09999827	0.00000000	4.91510800	42.55659000
32.29999826	0.00000000	4.82283400	39.86220000
32.49999825	0.00000000	9.52263600	29.45374000
32.69999824	0.00000000	18.41166000	13.61343000
32.89999822	0.00000000	29.57677000	-4.18307100
33.09999821	0.00000000	39.99754000	-20.39862000
33.29999820	0.00000000	47.39788000	-31.63755000
33.49999819	0.00000000	50.51673000	-35.50074000
33.69999818	0.00000000	48.97884000	-31.63755000
33.89999816	0.00000000	43.25172000	-20.44168000
34.09999815	0.00000000	35.16240000	-4.64443900
34.29999814	0.00000000	27.01156000	11.98942000
34.49999813	0.00000000	20.03568000	26.29183000
34.69999812	0.00000000	15.84646000	35.16855000
34.89999810	0.00000000	15.80339000	36.74950000
35.09999809	0.00000000	19.56816000	30.98548000
35.29999808	0.00000000	25.33834000	19.42052000
35.49999807	0.00000000	31.53297000	4.73671200
35.69999806	0.00000000	36.92790000	-9.89788300
35.89999805	0.00000000	40.00369000	-21.09375000
36.09999803	0.00000000	40.04675000	-26.07037000
36.29999802	0.00000000	37.34621000	-23.83120000
36.49999801	0.00000000	32.73868000	-15.05290000
36.69999800	0.00000000	27.38681000	-3.15575800
36.89999799	0.00000000	23.10531000	8.87672100
37.09999797	0.00000000	20.82308000	18.86688000
37.29999796	0.00000000	20.82923000	24.20645000
37.49999795	0.00000000	23.89271000	23.09301000
37.69999794	0.00000000	28.45718000	16.25861000
37.89999793	0.00000000	33.11393000	6.31151500
38.09999791	0.00000000	36.97096000	-3.67249000
38.29999790	0.00000000	38.93332000	-11.01132000
38.49999789	0.00000000	38.93332000	-14.03789000
38.69999788	0.00000000	37.02018000	-11.75566000
38.89999787	0.00000000	33.53223000	-4.50910400
39.09999786	0.00000000	29.66289000	4.64443900
39.29999784	0.00000000	25.71358000	13.14591000
39.49999783	0.00000000	22.31176000	18.81767000
39.69999782	0.00000000	20.36786000	19.60507000
39.89999781	0.00000000	20.78002000	14.96063000
40.09999780	0.00000000	23.01919000	6.58833600
40.29999778	0.00000000	26.54404000	-3.38951800
40.49999777	0.00000000	30.41338000	-11.38656000
40.69999776	0.00000000	34.31963000	-15.28666000
40.89999775	0.00000000	37.39542000	-14.12401000
41.09999774	0.00000000	38.97638000	-8.36614100
41.29999772	0.00000000	38.97638000	0.46136810
41.49999771	0.00000000	37.39542000	10.07628000
41.69999770	0.00000000	34.31963000	17.74729000
41.89999769	0.00000000	30.41338000	21.60433000
42.09999768	0.00000000	26.54404000	20.48474000
42.29999767	0.00000000	23.10531000	15.14518000
42.49999765	0.00000000	21.52436000	7.43110200
42.69999764	0.00000000	21.85039000	-1.07037400
42.89999763	0.00000000	23.01919000	-8.31692900
43.09999762	0.00000000	25.38755000	-12.21703000
43.29999761	0.00000000	28.41412000	-11.89715000
43.49999759	0.00000000	31.15157000	-8.45226300
43.69999758	0.00000000	33.11393000	-2.64517700
43.89999757	0.00000000	34.27657000	4.18307100
44.09999756	0.00000000	34.31963000	9.61491000
44.29999755	0.00000000	33.61835000	12.35851000
44.49999753	0.00000000	33.24311000	12.81373000
44.69999752	0.00000000	33.20005000	10.86983000
44.89999751	0.00000000	33.15699000	7.47416300
45.09999750	0.00000000	32.78174000	3.57406500
45.29999749	0.00000000	31.95128000	0.13533460
45.49999748	0.00000000	30.73326000	-2.22687000
45.69999746	0.00000000	28.36491000	-3.02042300
45.89999745	0.00000000	25.29527000	-2.64517700
46.09999744	0.00000000	22.22564000	-1.11343500
46.29999743	0.00000000	19.94340000	1.20570900
46.49999742	0.00000000	19.56816000	3.53100400
46.69999740	0.00000000	21.14911000	5.85014700
46.89999739	0.00000000	24.73548000	7.33882900
47.09999738	0.00000000	30.50566000	7.38188900
47.29999737	0.00000000	37.06324000	6.26845500
47.49999736	0.00000000	42.46432000	4.68750000
47.69999734	0.00000000	45.90305000	2.73745100
47.89999733	0.00000000	45.81693000	0.41830710
48.09999732	0.00000000	41.58464000	-1.43946800
48.29999731	0.00000000	34.27657000	-2.22687000
48.49999730	0.00000000	25.76279000	-1.48868100
48.69999729	0.00000000	18.03642000	0.04306102
48.89999727	0.00000000	12.64149000	2.04232300
49.09999726	0.00000000	11.14665000	4.73671200
49.29999725	0.00000000	14.22244000	7.38188900
49.49999724	0.00000000	21.19833000	8.91978400
49.69999723	0.00000000	30.41338000	8.96284400
49.89999721	0.00000000	39.67150000	7.75713500
50.09999720	0.00000000	46.23523000	5.43184000
50.29999719	0.00000000	48.93578000	1.95004900
50.49999718	0.00000000	46.97957000	-1.48868100
50.69999717	0.00000000	40.46506000	-4.22613100
50.89999715	0.00000000	31.61909000	-5.71481200
51.09999714	0.00000000	22.73007000	-5.33956700
51.29999713	0.00000000	15.80339000	-2.97736200
51.49999712	0.00000000	12.72761000	0.83661410
51.69999711	0.00000000	14.26550000	5.47490100
51.89999710	0.00000000	19.99262000	9.29502900
52.09999708	0.00000000	28.03888000	11.61417000
52.29999707	0.00000000	35.76525000	11.61417000
52.49999706	0.00000000	41.53543000	9.33809000
52.69999705	0.00000000	43.86073000	5.89320800
52.89999704	0.00000000	41.95989000	1.99311000
53.09999702	0.00000000	36.97096000	-1.44562000
53.29999701	0.00000000	30.03814000	-3.80782500
53.49999700	0.00000000	23.15453000	-4.55831700
53.69999699	0.00000000	18.54700000	-3.76476400
53.89999698	0.00000000	17.38435000	-1.11343500
54.09999696	0.00000000	20.03568000	2.31914400
54.29999695	0.00000000	25.38755000	5.01968500
54.49999694	0.00000000	31.53297000	6.96358300
54.69999693	0.00000000	36.92790000	7.29576700
54.89999692	0.00000000	40.04675000	5.85014700
55.09999691	0.00000000	40.42199000	3.57406500
55.29999689	0.00000000	38.09055000	1.66707700
55.49999688	0.00000000	33.11393000	0.51058070
55.69999687	0.00000000	27.38681000	0.55364170
55.89999686	0.00000000	22.73007000	2.04232300
56.09999685	0.00000000	20.03568000	4.26919300
56.29999683	0.00000000	20.03568000	5.80093500
56.49999682	0.00000000	22.73007000	6.21924200
56.69999681	0.00000000	27.29453000	5.80093500
56.89999680	0.00000000	32.27116000	4.18307100
57.09999679	0.00000000	35.76525000	1.15649600
57.29999677	0.00000000	37.39542000	-2.22687000
57.49999676	0.00000000	37.35236000	-4.14000900
57.69999675	0.00000000	35.43922000	-4.14000900
57.89999674	0.00000000	31.99434000	-2.22687000
58.09999673	0.00000000	28.54946000	1.29183100
58.29999672	0.00000000	25.80585000	5.53026500
58.49999670	0.00000000	24.26796000	10.16855000
58.69999669	0.00000000	24.22490000	13.52116000
58.89999668	0.00000000	25.38755000	14.30241000
59.09999667	0.00000000	27.29453000	11.94021000
59.29999666	0.00000000	29.61983000	6.96358300
59.49999664	0.00000000	31.48376000	0.41830710
59.69999663	0.00000000	32.31422000	-5.71481200
59.89999662	0.00000000	31.95128000	-9.98400600
60.09999661	0.00000000	31.24384000	-11.47269000
60.29999660	0.00000000	30.41338000	-9.52263600
60.49999658	0.00000000	29.66289000	-4.14000900
60.69999657	0.00000000	28.87549000	3.15575800
60.89999656	0.00000000	28.54946000	10.45152000
61.09999655	0.00000000	28.87549000	15.84030000
61.29999654	0.00000000	29.66289000	17.79035000
61.49999653	0.00000000	30.41338000	16.21555000
61.69999651	0.00000000	31.15157000	11.18971000
61.89999650	0.00000000	31.10851000	3.53100400
62.09999649	0.00000000	29.99508000	-4.14000900
62.29999648	0.00000000	28.50024000	-9.99015700
62.49999647	0.00000000	27.29453000	-13.05364000
62.69999645	0.00000000	26.54404000	-12.63533000
62.89999644	0.00000000	26.18110000	-8.40920300
63.09999643	0.00000000	26.96850000	-1.48868100
63.29999642	0.00000000	28.45718000	6.22539300
63.49999641	0.00000000	30.03814000	13.14591000
63.69999639	0.00000000	31.57603000	17.37205000
63.89999638	0.00000000	32.73252000	17.83957000
64.09999637	0.00000000	33.10777000	15.14518000
64.29999636	0.00000000	32.73252000	10.11934000
64.49999635	0.00000000	31.52682000	3.53100400
64.69999634	0.00000000	29.66289000	-2.97736200
64.89999632	0.00000000	27.71284000	-7.99089500
65.09999631	0.00000000	26.59326000	-9.99015700
65.29999630	0.00000000	26.13189000	-9.29502900
65.49999629	0.00000000	26.59326000	-6.96358300
65.69999628	0.00000000	27.71284000	-3.06963600
65.89999626	0.00000000	29.61983000	1.53174200
66.09999625	0.00000000	31.10851000	5.85014700
66.29999624	0.00000000	31.52682000	9.33809000
66.49999623	0.00000000	31.15157000	11.65723000
66.69999622	0.00000000	29.99508000	12.07554000
66.89999620	0.00000000	28.45718000	10.96211000
67.09999619	0.00000000	26.96850000	9.00590400
67.29999618	0.00000000	26.22416000	6.26845500
67.49999617	0.00000000	26.96850000	3.15575800
67.69999616	0.00000000	28.50024000	0.04306102
67.89999615	0.00000000	30.45644000	-2.73745100
68.09999613	0.00000000	32.73868000	-5.01968500
68.29999612	0.00000000	34.27657000	-6.54527500
68.49999611	0.00000000	34.65182000	-6.13312000
68.69999610	0.00000000	33.80905000	-4.22613100
68.89999609	0.00000000	31.10851000	-1.07037400
69.09999607	0.00000000	27.29453000	3.15575800
69.29999606	0.00000000	23.80659000	7.43110200
69.49999605	0.00000000	21.10605000	10.91289000
69.69999604	0.00000000	19.99262000	13.23819000
69.89999603	0.00000000	21.19833000	13.56422000
70.09999601	0.00000000	24.64321000	11.65723000
70.29999600	0.00000000	29.66289000	7.80019600
70.49999599	0.00000000	34.65182000	3.15575800
70.69999598	0.00000000	38.55807000	-1.53174200
70.89999597	0.00000000	40.46506000	-5.75787400
71.09999596	0.00000000	40.08981000	-8.40920300
71.29999594	0.00000000	37.34621000	-8.40920300
71.49999593	0.00000000	32.68946000	-5.75787400
71.69999592	0.00000000	26.91929000	-1.53174200
71.89999591	0.00000000	21.52436000	3.11269700
72.09999590	0.00000000	18.03642000	7.38188900
72.29999588	0.00000000	16.87377000	10.45152000
72.49999587	0.00000000	18.45472000	11.60802000
72.69999586	0.00000000	22.68701000	10.49459000
72.89999585	0.00000000	28.45718000	7.84940900
73.09999584	0.00000000	34.23351000	4.73671200
73.29999582	0.00000000	38.50886000	1.66707700
73.49999581	0.00000000	40.46506000	-0.64591530
73.69999580	0.00000000	40.08981000	-1.39640700
73.89999579	0.00000000	37.34621000	-0.73818890
74.09999578	0.00000000	32.78174000	0.78124990
74.29999577	0.00000000	27.76206000	1.90698800
74.49999575	0.00000000	23.89271000	2.68823800
74.69999574	0.00000000	21.52436000	2.64517700
74.89999573	0.00000000	21.10605000	1.57480300
75.09999572	0.00000000	22.26870000	0.41830710
75.29999571	0.00000000	24.60015000	-0.32603340
75.49999569	0.00000000	28.03888000	-0.64591530
75.69999568	0.00000000	31.10851000	0.55364170
75.89999567	0.00000000	33.06471000	3.19881900
76.09999566	0.00000000	33.85211000	6.26845500
76.29999565	0.00000000	33.15699000	8.96284400
76.49999563	0.00000000	32.03740000	10.45152000
76.69999562	0.00000000	31.20078000	10.07628000
76.89999561	0.00000000	30.03814000	7.71407400
77.09999560	0.00000000	28.92470000	3.85703700
77.29999559	0.00000000	28.50024000	-1.15649600
77.49999558	0.00000000	28.45718000	-5.71481200
77.69999556	0.00000000	28.45718000	-8.45226300
77.89999555	0.00000000	28.41412000	-8.82750900
78.09999554	0.00000000	28.03888000	-6.87746000
78.29999553	0.00000000	27.29453000	-2.60211600
78.49999552	0.00000000	26.91929000	3.15575800
78.69999550	0.00000000	26.87623000	8.91978400
78.89999549	0.00000000	26.96850000	13.14591000
79.09999548	0.00000000	27.76206000	14.72687000
79.29999547	0.00000000	29.66289000	13.60728000
79.49999546	0.00000000	31.57603000	10.49459000
79.69999544	0.00000000	33.15699000	5.85014700
79.89999543	0.00000000	34.27657000	0.46136810
80.09999542	0.00000000	34.23351000	-4.18307100
80.29999541	0.00000000	32.68946000	-7.29576700
80.49999540	0.00000000	29.99508000	-8.45226300
80.69999539	0.00000000	26.96850000	-7.29576700
80.89999537	0.00000000	24.64321000	-4.26919300
81.09999536	0.00000000	23.80659000	-0.37524600
81.29999535	0.00000000	23.80659000	3.48794300
81.49999534	0.00000000	24.64321000	7.05585600
81.69999533	0.00000000	26.96850000	9.71333600
81.89999531	0.00000000	29.99508000	11.28199000
82.09999530	0.00000000	32.68946000	10.91289000
82.29999529	0.00000000	34.23351000	9.38115100
82.49999528	0.00000000	34.27657000	7.01279500
82.69999527	0.00000000	33.11393000	3.53100400
82.89999525	0.00000000	31.20078000	0.09227362
83.09999524	0.00000000	28.87549000	-2.69439000
83.29999523	0.00000000	26.96850000	-4.64443900
83.49999522	0.00000000	25.80585000	-5.80093500
83.69999521	0.00000000	25.76279000	-5.75787400
83.89999520	0.00000000	26.50098000	-4.22613100
84.09999518	0.00000000	27.25147000	-1.48868100
84.29999517	0.00000000	28.08194000	1.99311000
84.49999516	0.00000000	28.83243000	5.89320800
84.69999515	0.00000000	29.61983000	9.33809000
84.89999514	0.00000000	29.99508000	11.65723000
85.09999512	0.00000000	30.03814000	12.03248000
85.29999511	0.00000000	30.03814000	10.45152000
85.49999510	0.00000000	30.03814000	6.96358300
85.69999509	0.00000000	30.08120000	1.99311000
85.89999508	0.00000000	30.41338000	-2.64517700
86.09999506	0.00000000	30.78248000	-6.13312000
86.29999505	0.00000000	30.37032000	-8.03395600
86.49999504	0.00000000	29.61983000	-7.25270600
86.69999503	0.00000000	28.41412000	-4.22613100
86.89999502	0.00000000	26.87623000	0.09227362
87.09999501	0.00000000	25.43061000	5.06274600
87.29999499	0.00000000	25.01845000	9.65797200
87.49999498	0.00000000	26.12574000	11.98327000
87.69999497	0.00000000	27.25147000	12.03248000
87.89999496	0.00000000	28.50024000	10.07628000
88.09999495	0.00000000	30.03814000	6.21924200
88.29999493	0.00000000	31.57603000	1.57480300
88.49999492	0.00000000	32.68946000	-3.02042300
88.69999491	0.00000000	32.68946000	-6.45300100
88.89999490	0.00000000	31.52682000	-7.24655500
89.09999489	0.00000000	29.66289000	-5.71481200
89.29999487	0.00000000	27.71284000	-2.22687000
89.49999486	0.00000000	26.54404000	2.78051200
89.69999485	0.00000000	25.76279000	7.75713500
89.89999484	0.00000000	25.80585000	11.56496000
90.09999483	0.00000000	26.87623000	12.72761000
90.29999482	0.00000000	28.03888000	10.82677000
90.49999480	0.00000000	28.83243000	7.00664300
90.69999479	0.00000000	29.61983000	1.95004900
90.89999478	0.00000000	29.99508000	-2.97736200
91.09999477	0.00000000	30.03814000	-6.45300100
91.29999476	0.00000000	29.99508000	-7.20349400
91.49999474	0.00000000	29.61983000	-5.29650500
91.69999473	0.00000000	28.92470000	-1.06422200
91.89999472	0.00000000	28.87549000	4.27534400
92.09999471	0.00000000	29.24459000	8.87672100
92.29999470	0.00000000	29.25074000	11.61417000
92.49999468	0.00000000	29.61983000	11.98327000
92.69999467	0.00000000	29.57062000	10.03322000
92.89999466	0.00000000	28.83243000	5.80093500
93.09999465	0.00000000	28.08194000	0.51058070
93.29999464	0.00000000	27.25147000	-3.76476400
93.49999463	0.00000000	26.54404000	-6.09005900
93.69999461	0.00000000	26.18110000	-6.45300100
93.89999460	0.00000000	26.96850000	-4.14000900
94.09999459	0.00000000	28.45718000	0.04306102
94.29999458	0.00000000	30.03814000	4.64443900
94.49999457	0.00000000	31.61909000	8.50147600
94.69999455	0.00000000	33.15699000	10.40846000
94.89999454	0.00000000	34.27657000	10.03322000
95.09999453	0.00000000	34.23351000	7.33882900
95.29999452	0.00000000	32.68946000	3.15575800
95.49999451	0.00000000	29.99508000	-1.02116100
95.69999449	0.00000000	26.87623000	-3.76476400
95.89999448	0.00000000	23.80659000	-4.55831700
96.09999447	0.00000000	21.52436000	-3.80782500
96.29999446	0.00000000	21.14911000	-1.48868100
96.49999445	0.00000000	22.64394000	1.58095500
96.69999444	0.00000000	25.38755000	4.64443900
96.89999442	0.00000000	28.87549000	6.96358300
97.09999441	0.00000000	32.73868000	7.71407400
97.29999440	0.00000000	35.81446000	7.01279500
97.49999439	0.00000000	37.35236000	5.06274600
97.69999438	0.00000000	36.97712000	2.78051200
97.89999436	0.00000000	34.65182000	0.46751960
98.09999435	0.00000000	31.20078000	-1.02116100
98.29999434	0.00000000	27.29453000	-1.11343500
98.49999433	0.00000000	23.80659000	-0.37524600
98.69999432	0.00000000	21.10605000	0.41830710
98.89999430	0.00000000	19.99262000	1.57480300
99.09999429	0.00000000	21.10605000	2.68823800
99.29999428	0.00000000	23.80659000	3.11269700
99.49999427	0.00000000	27.29453000	3.15575800
99.69999426	0.00000000	31.15772000	3.15575800
99.89999425	0.00000000	34.27657000	3.19881900
100.09999423	0.00000000	36.23277000	3.57406500
100.29999422	0.00000000	36.97712000	4.31840500
100.49999421	0.00000000	35.81446000	4.69365100
100.69999420	0.00000000	33.15699000	4.69365100
100.89999419	0.00000000	30.08120000	4.31840500
101.09999417	0.00000000	27.29453000	3.48794300
101.29999416	0.00000000	24.96309000	2.27608300
101.49999415	0.00000000	23.06225000	0.04306102
101.69999414	0.00000000	22.68701000	-1.85162400
101.89999413	0.00000000	23.75738000	-2.23302100
102.09999411	0.00000000	25.33834000	-1.90083600
102.29999410	0.00000000	27.29453000	-0.28297240
102.49999409	0.00000000	29.61983000	1.99311000
102.69999408	0.00000000	31.52682000	4.73671200
102.89999407	0.00000000	32.73252000	7.33882900
103.09999406	0.00000000	33.10777000	8.50147600
103.29999404	0.00000000	32.73252000	7.75713500
103.49999403	0.00000000	31.52682000	5.85014700
103.69999402	0.00000000	29.61983000	3.11269700
103.89999401	0.00000000	27.29453000	0.04306102
104.09999400	0.00000000	25.38755000	-2.64517700
104.29999398	0.00000000	24.22490000	-4.18307100
104.49999397	0.00000000	24.22490000	-4.18307100
104.69999396	0.00000000	25.33834000	-2.64517700
104.89999395	0.00000000	26.87623000	0.04306102
105.09999394	0.00000000	28.45718000	3.11269700
105.29999392	0.00000000	29.99508000	5.80093500
105.49999391	0.00000000	31.15157000	7.33882900
105.69999390	0.00000000	31.52682000	7.38188900
105.89999389	0.00000000	31.15157000	6.22539300
106.09999388	0.00000000	30.03814000	4.26919300
106.29999387	0.00000000	28.87549000	1.62401600
106.49999385	0.00000000	28.08194000	-0.64591530
106.69999384	0.00000000	27.29453000	-1.43946800
106.89999383	0.00000000	26.96850000	-1.11343500
107.09999382	0.00000000	27.29453000	0.04306102
107.29999381	0.00000000	28.08194000	1.57480300
107.49999379	0.00000000	28.83243000	3.15575800
107.69999378	0.00000000	29.61983000	4.64443900
107.89999377	0.00000000	29.94586000	5.38262700
108.09999376	0.00000000	29.61983000	4.64443900
108.29999375	0.00000000	28.83243000	3.15575800
108.49999374	0.00000000	28.08194000	1.62401600
108.69999372	0.00000000	27.29453000	0.41830710
108.89999371	0.00000000	26.91929000	-0.32603340
109.09999370	0.00000000	26.91929000	-0.69512790
109.29999369	0.00000000	27.29453000	0.09227362
109.49999368	0.00000000	28.08194000	1.57480300
109.69999366	0.00000000	28.87549000	3.15575800
109.89999365	0.00000000	29.99508000	4.64443900
110.09999364	0.00000000	30.78248000	5.43184000
110.29999363	0.00000000	30.78863000	5.06274600
110.49999362	0.00000000	30.78248000	4.31840500
110.69999360	0.00000000	29.94586000	3.11269700
110.89999359	0.00000000	28.50024000	1.57480300
111.09999358	0.00000000	27.34375000	0.04306102
111.29999357	0.00000000	26.91929000	-1.06422200
111.49999356	0.00000000	26.87623000	-1.11343500
111.69999355	0.00000000	26.91929000	-0.37524600
111.89999353	0.00000000	27.29453000	0.41830710
112.09999352	0.00000000	28.08194000	1.57480300
112.29999351	0.00000000	28.83243000	2.73745100
112.49999350	0.00000000	29.61983000	3.53100400
112.69999349	0.00000000	29.94586000	4.26919300
112.89999347	0.00000000	29.61983000	4.26919300
113.09999346	0.00000000	28.87549000	3.57406500
113.29999345	0.00000000	28.50024000	3.19881900
113.49999344	0.00000000	28.45718000	3.11269700
113.69999343	0.00000000	28.45718000	2.73745100
113.89999341	0.00000000	28.45718000	1.99311000
114.09999340	0.00000000	28.45718000	1.61786400
114.29999339	0.00000000	28.45718000	1.57480300
114.49999338	0.00000000	28.45718000	1.57480300
114.69999337	0.00000000	28.45718000	1.53174200
114.89999336	0.00000000	28.45718000	1.19955700
115.09999334	0.00000000	28.45718000	0.83661410
115.29999333	0.00000000	28.45718000	1.19955700
115.49999332	0.00000000	28.45718000	1.53174200
115.69999331	0.00000000	28.45718000	1.61786400
115.89999330	0.00000000	28.45718000	1.99311000
116.09999328	0.00000000	28.45718000	2.78051200
116.29999327	0.00000000	28.45718000	3.53100400
116.49999326	0.00000000	28.41412000	4.31840500
116.69999325	0.00000000	28.08194000	4.64443900
116.89999324	0.00000000	27.71284000	4.31840500
117.09999322	0.00000000	28.08194000	3.53100400
117.29999321	0.00000000	28.45718000	2.73745100
117.49999320	0.00000000	28.87549000	1.57480300
117.69999319	0.00000000	29.61983000	0.46136810
117.89999318	0.00000000	29.99508000	0.04306102
118.09999317	0.00000000	30.03814000	0.04306102
118.29999315	0.00000000	29.99508000	0.41830710
118.49999314	0.00000000	29.61983000	1.19955700
118.69999313	0.00000000	28.83243000	1.95004900
118.89999312	0.00000000	28.08194000	2.78051200
119.09999311	0.00000000	27.25147000	3.53100400
119.29999309	0.00000000	26.54404000	4.31840500
119.49999308	0.00000000	26.13189000	4.64443900
119.69999307	0.00000000	26.54404000	4.31840500
119.89999306	0.00000000	27.29453000	3.57406500
120.09999305	0.00000000	28.45718000	3.15575800
120.29999303	0.00000000	29.61983000	2.73745100
120.49999302	0.00000000	30.41338000	1.99311000
120.69999301	0.00000000	31.15157000	1.61786400
120.89999300	0.00000000	31.15157000	1.53174200
121.09999299	0.00000000	30.41338000	1.19955700
121.29999298	0.00000000	29.61983000	0.83661410
121.49999296	0.00000000	28.41412000	1.19955700
121.69999295	0.00000000	26.91929000	1.53174200
121.89999294	0.00000000	25.76279000	1.61786400
122.09999293	0.00000000	25.38755000	1.99311000
122.29999292	0.00000000	25.71358000	2.73745100
122.49999290	0.00000000	26.50098000	3.11269700
122.69999289	0.00000000	27.25147000	3.15575800
122.89999288	0.00000000	28.08194000	3.15575800
123.09999287	0.00000000	28.83243000	3.15575800
123.29999286	0.00000000	29.61983000	3.15575800
123.49999284	0.00000000	29.99508000	3.11269700
123.69999283	0.00000000	30.03814000	2.73745100
123.89999282	0.00000000	29.99508000	1.99311000
124.09999281	0.00000000	29.61983000	1.57480300
124.29999280	0.00000000	28.83243000	1.19955700
124.49999279	0.00000000	28.08194000	0.83661410
124.69999277	0.00000000	27.25147000	1.19955700
124.89999276	0.00000000	26.50098000	1.53174200
125.09999275	0.00000000	25.76279000	1.61786400
125.29999274	0.00000000	25.76279000	1.99311000
125.49999273	0.00000000	26.45792000	2.73745100
125.69999271	0.00000000	26.87623000	3.11269700
125.89999270	0.00000000	27.34375000	3.15575800
126.09999269	0.00000000	28.45718000	3.15575800
126.29999268	0.00000000	29.57062000	3.11269700
126.49999267	0.00000000	29.99508000	2.73745100
126.69999265	0.00000000	29.99508000	1.99311000
126.89999264	0.00000000	29.61983000	1.61786400
127.09999263	0.00000000	28.83243000	1.57480300
127.29999262	0.00000000	28.03888000	1.57480300
127.49999261	0.00000000	26.87623000	1.57480300
127.69999260	0.00000000	25.76279000	1.57480300
127.89999258	0.00000000	25.38755000	1.57480300
128.09999257	0.00000000	25.71358000	1.57480300
128.29999256	0.00000000	26.50098000	1.61786400
128.49999255	0.00000000	27.29453000	1.99311000
128.69999254	0.00000000	28.45718000	2.73745100
128.89999252	0.00000000	29.57062000	3.11269700
129.09999251	0.00000000	29.99508000	3.11269700
129.29999250	0.00000000	29.99508000	2.73745100
129.49999249	0.00000000	29.57062000	1.99311000
129.69999248	0.00000000	28.45718000	1.61786400
129.89999246	0.00000000	27.29453000	1.57480300
130.09999245	0.00000000	26.50098000	1.57480300
130.29999244	0.00000000	25.76279000	1.57480300
130.49999243	0.00000000	25.76279000	1.61786400
130.69999242	0.00000000	26.50098000	1.99311000
130.89999241	0.00000000	27.29453000	2.73745100
131.09999239	0.00000000	28.45718000	3.11269700
131.29999238	0.00000000	29.57062000	3.11269700
131.49999237	0.00000000	29.99508000	2.73745100
131.69999236	0.00000000	29.99508000	1.99311000
131.89999235	0.00000000	29.61983000	1.57480300
132.09999233	0.00000000	28.83243000	1.15649600
132.29999232	0.00000000	28.12500000	0.46136810
132.49999231	0.00000000	27.66978000	0.46136810
132.69999230	0.00000000	27.66363000	1.15649600
132.89999229	0.00000000	27.25147000	1.57480300
133.09999227	0.00000000	26.96850000	1.99311000
133.29999226	0.00000000	27.29453000	2.73745100
133.49999225	0.00000000	28.03888000	3.11269700
133.69999224	0.00000000	28.41412000	3.15575800
133.89999223	0.00000000	28.45718000	3.15575800
134.09999222	0.00000000	28.41412000	3.11269700
134.29999220	0.00000000	28.08194000	2.73745100
134.49999219	0.00000000	27.71284000	1.95004900
134.69999218	0.00000000	28.08194000	1.19955700
134.89999217	0.00000000	28.41412000	0.41830710
135.09999216	0.00000000	28.45718000	0.04306102
135.29999214	0.00000000	28.45718000	0.04306102
135.49999213	0.00000000	28.45718000	0.41830710
135.69999212	0.00000000	28.45718000	1.19955700
135.89999211	0.00000000	28.41412000	1.95004900
136.09999210	0.00000000	28.03888000	2.73745100
136.29999208	0.00000000	27.29453000	3.11269700
136.49999207	0.00000000	26.91929000	3.15575800
136.69999206	0.00000000	26.87623000	3.15575800
136.89999205	0.00000000	26.87623000	3.11269700
137.09999204	0.00000000	26.91929000	2.73745100
137.29999203	0.00000000	27.29453000	1.99311000
137.49999201	0.00000000	28.08194000	1.57480300
137.69999200	0.00000000	28.83243000	1.15649600
137.89999199	0.00000000	29.57062000	0.41830710
138.09999198	0.00000000	29.57062000	0.04306102
138.29999197	0.00000000	28.87549000	0.04306102
138.49999195	0.00000000	28.45718000	0.41830710
138.69999194	0.00000000	28.03888000	1.19955700
138.89999193	0.00000000	27.29453000	1.95004900
139.09999192	0.00000000	26.91929000	2.73745100
139.29999191	0.00000000	26.87623000	3.11269700
139.49999189	0.00000000	26.91929000	3.15575800
139.69999188	0.00000000	27.29453000	3.15575800
139.89999187	0.00000000	28.03888000	3.15575800
140.09999186	0.00000000	28.41412000	3.11269700
140.29999185	0.00000000	28.45718000	2.73745100
140.49999184	0.00000000	28.45718000	1.95004900
140.69999182	0.00000000	28.45718000	1.19955700
140.89999181	0.00000000	28.41412000	0.41830710
141.09999180	0.00000000	28.03888000	0.09227362
141.29999179	0.00000000	27.29453000	0.41830710
141.49999178	0.00000000	26.91929000	1.19955700
141.69999176	0.00000000	26.87623000	1.95004900
141.89999175	0.00000000	26.91929000	2.73745100
142.09999174	0.00000000	27.29453000	3.15575800
142.29999173	0.00000000	28.03888000	3.53100400
142.49999172	0.00000000	28.41412000	3.90009800
142.69999170	0.00000000	28.45718000	3.53100400
142.89999169	0.00000000	28.45718000	3.15575800
143.09999168	0.00000000	28.41412000	2.68823800
143.29999167	0.00000000	28.03888000	1.57480300
143.49999166	0.00000000	27.29453000	0.46136810
143.69999165	0.00000000	26.91929000	0.04306102
143.89999163	0.00000000	26.87623000	0.04306102
144.09999162	0.00000000	26.91929000	0.41830710
144.29999161	0.00000000	27.29453000	1.19955700
144.49999160	0.00000000	28.03888000	1.95004900
144.69999159	0.00000000	28.41412000	2.73745100
144.89999157	0.00000000	28.45718000	3.11269700
145.09999156	0.00000000	28.45718000	3.15575800
145.29999155	0.00000000	28.41412000	3.15575800
145.49999154	0.00000000	28.03888000	3.11269700
145.69999153	0.00000000	27.29453000	2.73745100
145.89999151	0.00000000	26.91929000	1.95004900
146.09999150	0.00000000	26.87623000	1.19955700
146.29999149	0.00000000	26.87623000	0.41830710
146.49999148	0.00000000	26.91929000	0.09227362
146.69999147	0.00000000	27.29453000	0.41830710
146.89999146	0.00000000	28.03888000	1.15649600
147.09999144	0.00000000	28.41412000	1.57480300
147.29999143	0.00000000	28.45718000	1.99311000
147.49999142	0.00000000	28.45718000	2.73745100
147.69999141	0.00000000	28.45718000	3.11269700
147.89999140	0.00000000	28.41412000	3.15575800
148.09999138	0.00000000	28.03888000	3.15575800
148.29999137	0.00000000	27.29453000	3.11269700
148.49999136	0.00000000	26.91929000	2.73745100
148.69999135	0.00000000	26.87623000	1.99311000
148.89999134	0.00000000	26.91929000	1.57480300
149.09999132	0.00000000	27.29453000	1.15649600
149.29999131	0.00000000	28.03888000	0.46136810
149.49999130	0.00000000	28.41412000	0.46136810
149.69999129	0.00000000	28.45718000	1.15649600
149.89999128	0.00000000	28.45718000	1.53174200
150.09999127	0.00000000	28.45718000	1.61786400
150.29999125	0.00000000	28.45718000	1.99311000
150.49999124	0.00000000	28.45718000	2.73745100
150.69999123	0.00000000	28.41412000	3.11269700
150.89999122	0.00000000	28.03888000	3.15575800
151.09999121	0.00000000	27.29453000	3.11269700
151.29999119	0.00000000	26.91929000	2.73745100
151.49999118	0.00000000	26.87623000	1.99311000
151.69999117	0.00000000	26.87623000	1.61786400
151.89999116	0.00000000	26.91929000	1.57480300
152.09999115	0.00000000	27.29453000	1.57480300
152.29999113	0.00000000	28.03888000	1.57480300
152.49999112	0.00000000	28.41412000	1.57480300
152.69999111	0.00000000	28.45718000	1.57480300
152.89999110	0.00000000	28.45718000	1.57480300
153.09999109	0.00000000	28.45718000	1.57480300
153.29999108	0.00000000	28.45718000	1.61786400
153.49999106	0.00000000	28.41412000	1.95004900
153.69999105	0.00000000	28.03888000	2.31914400
153.89999104	0.00000000	27.29453000	1.99311000
154.09999103	0.00000000	26.91929000	1.99311000
154.29999102	0.00000000	26.87623000	2.31914400
154.49999100	0.00000000	26.87623000	1.95004900
154.69999099	0.00000000	26.87623000	1.61786400
154.89999098	0.00000000	26.91929000	1.57480300
155.09999097	0.00000000	27.29453000	1.57480300
155.29999096	0.00000000	28.03888000	1.57480300
155.49999094	0.00000000	28.41412000	1.57480300
155.69999093	0.00000000	28.45718000	1.57480300
155.89999092	0.00000000	28.45718000	1.57480300
156.09999091	0.00000000	28.45718000	1.61786400
156.29999090	0.00000000	28.41412000	1.99311000
156.49999089	0.00000000	28.03888000	2.73745100
156.69999087	0.00000000	27.29453000	3.11269700
156.89999086	0.00000000	26.91929000	3.15575800
157.09999085	0.00000000	26.87623000	3.15575800
157.29999084	0.00000000	26.87623000	3.11269700
157.49999083	0.00000000	26.87623000	2.73745100
157.69999081	0.00000000	26.87623000	1.99311000
157.89999080	0.00000000	26.91929000	1.61786400
158.09999079	0.00000000	27.25147000	1.57480300
158.29999078	0.00000000	27.66363000	1.57480300
158.49999077	0.00000000	27.66978000	1.57480300
158.69999075	0.00000000	28.08194000	1.57480300
158.89999074	0.00000000	28.41412000	1.57480300
159.09999073	0.00000000	28.45718000	1.57480300
159.29999072	0.00000000	28.41412000	1.61786400
159.49999071	0.00000000	28.03888000	1.99311000
159.69999070	0.00000000	27.29453000	2.73745100
159.89999068	0.00000000	26.91929000	3.11269700
160.09999067	0.00000000	26.87623000	3.15575800
160.29999066	0.00000000	26.87623000	3.11269700
160.49999065	0.00000000	26.87623000	2.73745100
160.69999064	0.00000000	26.87623000	1.99311000
160.89999062	0.00000000	26.87623000	1.61786400
161.09999061	0.00000000	26.87623000	1.57480300
161.29999060	0.00000000	26.91929000	1.57480300
161.49999059	0.00000000	27.29453000	1.57480300
161.69999058	0.00000000	28.03888000	1.57480300
161.89999056	0.00000000	28.41412000	1.57480300
162.09999055	0.00000000	28.45718000	1.57480300
162.29999054	0.00000000	28.45718000	1.61786400
162.49999053	0.00000000	28.41412000	1.99311000
162.69999052	0.00000000	28.03888000	2.68823800
162.89999051	0.00000000	27.29453000	2.73745100
163.09999049	0.00000000	26.91929000	2.36835600
163.29999048	0.00000000	26.87623000	2.36220500
163.49999047	0.00000000	26.87623000	1.95004900
163.69999046	0.00000000	26.87623000	1.61786400
163.89999045	0.00000000	26.87623000	1.57480300
164.09999043	0.00000000	26.91929000	1.57480300
164.29999042	0.00000000	27.29453000	1.57480300
164.49999041	0.00000000	28.03888000	1.57480300
164.69999040	0.00000000	28.41412000	1.57480300
164.89999039	0.00000000	28.45718000	1.57480300
165.09999037	0.00000000	28.45718000	1.57480300
165.29999036	0.00000000	28.45718000	1.57480300
165.49999035	0.00000000	28.41412000	1.57480300
165.69999034	0.00000000	28.03888000	1.57480300
165.89999033	0.00000000	27.29453000	1.57480300
166.09999032	0.00000000	26.91929000	1.57480300
166.29999030	0.00000000	26.87623000	1.57480300
166.49999029	0.00000000	26.87623000	1.57480300
166.69999028	0.00000000	26.87623000	1.57480300
166.89999027	0.00000000	26.87623000	1.57480300
167.09999026	0.00000000	26.91929000	1.57480300
167.29999024	0.00000000	27.29453000	1.61786400
167.49999023	0.00000000	27.98966000	1.95004900
167.69999022	0.00000000	28.03888000	2.31914400
167.89999021	0.00000000	27.71284000	1.95004900
168.09999020	0.00000000	28.03888000	1.61786400
168.29999018	0.00000000	28.03888000	1.57480300
168.49999017	0.00000000	27.66978000	1.57480300
168.69999016	0.00000000	27.66363000	1.57480300
168.89999015	0.00000000	27.25147000	1.57480300
169.09999014	0.00000000	26.91929000	1.57480300
169.29999013	0.00000000	26.87623000	1.57480300
169.49999011	0.00000000	26.87623000	1.57480300
169.69999010	0.00000000	26.87623000	1.57480300
169.89999009	0.00000000	26.87623000	1.57480300
170.09999008	0.00000000	26.87623000	1.57480300
170.29999007	0.00000000	26.87623000	1.57480300
170.49999005	0.00000000	26.87623000	1.57480300
170.69999004	0.00000000	26.87623000	1.57480300
170.89999003	0.00000000	26.91929000	1.57480300
171.09999002	0.00000000	27.29453000	1.57480300
171.29999001	0.00000000	27.98966000	1.57480300
171.49998999	0.00000000	28.03888000	1.57480300
171.69998998	0.00000000	27.66978000	1.57480300
171.89998997	0.00000000	27.66363000	1.57480300
172.09998996	0.00000000	27.25147000	1.57480300
172.29998995	0.00000000	26.91929000	1.57480300
172.49998994	0.00000000	26.87623000	1.57480300
172.69998992	0.00000000	26.87623000	1.57480300
172.89998991	0.00000000	26.87623000	1.57480300
173.09998990	0.00000000	26.87623000	1.57480300
173.29998989	0.00000000	26.87623000	1.57480300
173.49998988	0.00000000	26.87623000	1.57480300
173.69998986	0.00000000	26.87623000	1.57480300
173.89998985	0.00000000	26.87623000	1.57480300
174.09998984	0.00000000	26.91929000	1.57480300
174.29998983	0.00000000	27.29453000	1.57480300
174.49998982	0.00000000	27.98966000	1.57480300
174.69998980	0.00000000	27.98966000	1.57480300
174.89998979	0.00000000	27.29453000	1.57480300
175.09998978	0.00000000	26.91929000	1.57480300
175.29998977	0.00000000	26.87623000	1.57480300
175.49998976	0.00000000	26.87623000	1.57480300
175.69998975	0.00000000	26.87623000	1.57480300
175.89998973	0.00000000	26.87623000	1.57480300
176.09998972	0.00000000	26.87623000	1.57480300
176.29998971	0.00000000	26.87623000	1.57480300
176.49998970	0.00000000	26.87623000	1.57480300
176.69998969	0.00000000	26.87623000	1.57480300
176.89998967	0.00000000	26.87623000	1.57480300
177.09998966	0.00000000	26.87623000	1.57480300
177.29998965	0.00000000	26.87623000	1.57480300
177.49998964	0.00000000	26.87623000	1.57480300
177.69998963	0.00000000	26.87623000	1.57480300
177.89998961	0.00000000	26.87623000	1.57480300
178.09998960	0.00000000	26.87623000	1.57480300
178.29998959	0.00000000	26.87623000	1.57480300
178.49998958	0.00000000	26.87623000	1.57480300
178.69998957	0.00000000	26.87623000	1.57480300
178.89998956	0.00000000	26.87623000	1.57480300
179.09998954	0.00000000	26.87623000	1.57480300
179.29998953	0.00000000	26.87623000	1.57480300
179.49998952	0.00000000	26.87623000	1.57480300
179.69998951	0.00000000	26.87623000	1.57480300
179.89998950	0.00000000	26.87623000	1.57480300
180.09998948	0.00000000	26.87623000	1.57480300
180.29998947	0.00000000	26.87623000	1.57480300
180.49998946	0.00000000	26.87623000	1.57480300
180.69998945	0.00000000	26.87623000	1.57480300
180.89998944	0.00000000	26.87623000	1.57480300
181.09998942	0.00000000	26.87623000	1.57480300
181.29998941	0.00000000	26.87623000	1.57480300
181.49998940	0.00000000	26.87623000	1.57480300
181.69998939	0.00000000	26.87623000	1.57480300
181.89998938	0.00000000	26.87623000	1.57480300
182.09998937	0.00000000	26.87623000	1.57480300
182.29998935	0.00000000	26.87623000	1.57480300
182.49998934	0.00000000	26.87623000	1.57480300
182.69998933	0.00000000	26.87623000	1.57480300
182.89998932	0.00000000	26.87623000	1.57480300
183.09998931	0.00000000	26.83317000	1.53174200
183.29998929	0.00000000	26.50098000	1.19955700
183.49998928	0.00000000	26.13189000	0.83661410
183.69998927	0.00000000	26.50098000	1.19955700
183.89998926	0.00000000	26.83317000	1.53174200
184.09998925	0.00000000	26.87623000	1.57480300
184.29998923	0.00000000	26.87623000	1.61786400
184.49998922	0.00000000	26.87623000	1.99311000
184.69998921	0.00000000	26.87623000	2.73745100
184.89998920	0.00000000	26.87623000	3.11269700
185.09998919	0.00000000	26.87623000	3.11269700
185.29998918	0.00000000	26.87623000	2.73745100
185.49998916	0.00000000	26.87623000	1.99311000
185.69998915	0.00000000	26.87623000	1.61786400
185.89998914	0.00000000	26.87623000	1.53174200
186.09998913	0.00000000	26.87623000	1.15649600
186.29998912	0.00000000	26.87623000	0.41830710
186.49998910	0.00000000	26.87623000	0.09227362
186.69998909	0.00000000	26.87623000	0.41830710
186.89998908	0.00000000	26.87623000	1.15649600
187.09998907	0.00000000	26.87623000	1.53174200
187.29998906	0.00000000	26.87623000	1.61786400
187.49998904	0.00000000	26.87623000	1.99311000
187.69998903	0.00000000	26.87623000	2.73745100
187.89998902	0.00000000	26.87623000	3.11269700
188.09998901	0.00000000	26.87623000	3.11269700
188.29998900	0.00000000	26.87623000	2.73745100
188.49998899	0.00000000	26.87623000	1.99311000
188.69998897	0.00000000	26.87623000	1.61786400
188.89998896	0.00000000	26.87623000	1.57480300
189.09998895	0.00000000	26.87623000	1.57480300
189.29998894	0.00000000	26.87623000	1.57480300
189.49998893	0.00000000	26.87623000	1.57480300
189.69998891	0.00000000	26.87623000	1.57480300
189.89998890	0.00000000	26.87623000	1.57480300
190.09998889	0.00000000	26.87623000	1.57480300
190.29998888	0.00000000	26.87623000	1.57480300
190.49998887	0.00000000	26.87623000	1.57480300
190.69998885	0.00000000	26.87623000	1.57480300
190.89998884	0.00000000	26.87623000	1.57480300
191.09998883	0.00000000	26.87623000	1.57480300
191.29998882	0.00000000	26.87623000	1.57480300
191.49998881	0.00000000	26.87623000	1.57480300
191.69998880	0.00000000	26.87623000	1.57480300
191.89998878	0.00000000	26.87623000	1.57480300
192.09998877	0.00000000	26.87623000	1.57480300
192.29998876	0.00000000	26.87623000	1.57480300
192.49998875	0.00000000	26.87623000	1.57480300
192.69998874	0.00000000	26.87623000	1.57480300
192.89998872	0.00000000	26.87623000	1.57480300
193.09998871	0.00000000	26.83317000	1.57480300
193.29998870	0.00000000	26.50098000	1.57480300
193.49998869	0.00000000	26.13189000	1.57480300
193.69998868	0.00000000	26.50098000	1.57480300
193.89998866	0.00000000	26.83317000	1.57480300
194.09998865	0.00000000	26.87623000	1.57480300
194.29998864	0.00000000	26.87623000	1.57480300
194.49998863	0.00000000	26.87623000	1.57480300
194.69998862	0.00000000	26.87623000	1.57480300
194.89998861	0.00000000	26.87623000	1.57480300
195.09998859	0.00000000	26.87623000	1.57480300
195.29998858	0.00000000	26.87623000	1.57480300
195.49998857	0.00000000	26.87623000	1.57480300
195.69998856	0.00000000	26.87623000	1.57480300
195.89998855	0.00000000	26.87623000	1.57480300
196.09998853	0.00000000	26.87623000	1.57480300
