Time	Channel A	Channel B	Channel C
(us)	(V)	(mV)	(mV)

-4.59999956	0.00000000	-9.95324800	-9.47342500
-4.39999957	0.00000000	-9.95324800	-9.47342500
-4.19999958	0.00000000	-10.59916000	-9.47342500
-3.99999959	0.00000000	-10.64838000	-9.47342500
-3.79999960	0.00000000	-10.32234000	-9.43036400
-3.59999962	0.00000000	-10.69144000	-9.09817800
-3.39999963	0.00000000	-11.02362000	-8.72908400
-3.19999964	0.00000000	-11.06668000	-9.09817800
-2.99999965	0.00000000	-11.06668000	-9.43036400
-2.79999966	0.00000000	-11.06668000	-9.47342500
-2.59999968	0.00000000	-11.06668000	-9.47342500
-2.39999969	0.00000000	-11.06668000	-9.47342500
-2.19999970	0.00000000	-11.06668000	-9.47342500
-1.99999971	0.00000000	-11.06668000	-9.47342500
-1.79999972	0.00000000	-11.06668000	-9.47342500
-1.59999973	0.00000000	-11.06668000	-9.47342500
-1.39999975	0.00000000	-11.06668000	-9.47342500
-1.19999976	0.00000000	-11.06668000	-9.47342500
-0.99999977	0.00000000	-11.06668000	-9.47342500
-0.79999978	0.00000000	-11.06668000	-9.47342500
-0.59999979	0.00000000	-11.02362000	-9.47342500
-0.39999981	0.15871060	-10.69144000	-9.47342500
-0.19999982	0.47736220	-10.32234000	-9.47342500
0.00000017	0.79601380	-10.69144000	-9.47342500
0.20000016	0.95533960	-11.02362000	-9.47342500
0.40000015	0.95533960	-11.06668000	-9.47342500
0.60000013	0.63668800	-11.02362000	-9.47342500
0.80000012	0.00000000	-10.64838000	-9.47342500
1.00000011	-0.79601380	-9.95324800	-9.47342500
1.20000010	-1.75196900	-9.95324800	-9.47342500
1.40000009	-2.54859700	-10.64838000	-9.47342500
1.60000008	-2.70792300	-10.97441000	-9.47342500
1.80000006	-2.07062000	-10.69144000	-9.47342500
2.00000005	-0.63668800	-10.32234000	-9.47342500
2.20000004	1.27399100	-10.69144000	-9.47342500
2.40000003	3.34522600	-11.02362000	-9.47342500
2.60000002	4.93786900	-11.06668000	-9.47342500
2.80000000	5.41584600	-11.06668000	-9.47342500
2.99999999	4.30056600	-11.06668000	-9.47342500
3.19999998	1.91129400	-11.06668000	-9.47342500
3.39999997	-1.27399100	-11.06668000	-9.47342500
3.59999996	-4.61921700	-11.06668000	-9.47342500
3.79999994	-7.16781500	-11.02362000	-9.47342500
3.99999993	-7.96444400	-10.69144000	-9.43036400
4.19999992	-6.84916400	-10.32234000	-9.05511800
4.39999991	-3.66326300	-10.64838000	-8.31077700
4.59999990	0.47736220	-10.64838000	-7.98474400
4.79999989	4.93786900	-10.32234000	-8.31077700
4.99999987	8.12377000	-10.69144000	-9.05511800
5.19999986	9.55770200	-10.97441000	-9.47342500
5.39999985	8.44242100	-10.69144000	-9.84867000
5.59999984	5.25652100	-10.32234000	-10.21161000
5.79999983	0.63668800	-10.69144000	-9.84867000
5.99999981	-4.14124000	-10.97441000	-9.51648500
6.19999980	-7.80511800	-10.69144000	-9.47342500
6.39999979	-9.39837600	-10.32234000	-9.47342500
6.59999978	-8.76107300	-10.69144000	-9.43036400
6.79999977	-5.89382400	-11.02362000	-9.05511800
6.99999975	-1.75196900	-11.06668000	-8.35998900
7.19999974	2.54859700	-11.06668000	-8.35998900
7.39999973	5.89382400	-11.06668000	-9.05511800
7.59999972	7.64579200	-11.06668000	-9.43036400
7.79999971	7.32714100	-11.06668000	-9.47342500
7.99999970	5.25652100	-11.06668000	-9.47342500
8.19999968	2.22994600	-11.06668000	-9.47342500
8.39999967	-0.95533960	-11.06668000	-9.47342500
8.59999966	-3.66326300	-11.06668000	-9.47342500
8.79999965	-5.09719500	-11.06668000	-9.47342500
8.99999964	-5.09719500	-11.06668000	-9.47342500
9.19999962	-3.82258900	-11.02362000	-9.47342500
9.39999961	-1.91129400	-10.69144000	-9.47342500
9.59999960	0.00000000	-10.32234000	-9.47342500
9.79999959	1.59264300	-10.69144000	-9.47342500
9.99999958	2.38927200	-11.02362000	-9.47342500
10.19999956	2.54859700	-11.06668000	-9.47342500
10.39999955	1.91129400	-11.06668000	-9.47342500
10.59999954	1.11466500	-11.06668000	-9.47342500
10.79999953	0.31803640	-11.06668000	-9.47342500
10.99999952	-0.47736220	-11.06668000	-9.43036400
11.19999951	-0.79601380	-11.06668000	-9.09817800
11.39999949	-0.95533960	-11.06668000	-8.72908400
11.59999948	-0.79601380	-11.06668000	-9.09817800
11.79999947	-0.63668800	-11.06668000	-9.43036400
11.99999946	-0.31803640	-11.06668000	-9.47342500
12.19999945	-0.15871060	-11.06668000	-9.47342500
12.39999943	-0.15871060	-11.06668000	-9.47342500
12.59999942	0.00000000	-11.06668000	-9.47342500
12.79999941	0.00000000	-11.06668000	-9.47342500
12.99999940	0.00000000	-11.06668000	-9.47342500
13.19999939	0.00000000	-11.06668000	-9.47342500
13.39999937	0.00000000	-11.06668000	-9.47342500
13.59999936	0.00000000	-11.06668000	-9.47342500
13.79999935	0.00000000	-11.06668000	-9.47342500
13.99999934	0.00000000	-11.06668000	-9.47342500
14.19999933	-0.15871060	-11.06668000	-9.47342500
14.39999932	-0.15871060	-11.06668000	-9.47342500
14.59999930	-0.15871060	-11.06668000	-9.47342500
14.79999929	0.00000000	-11.06668000	-9.47342500
14.99999928	0.00000000	-11.06668000	-9.47342500
15.19999927	0.00000000	-11.06668000	-9.47342500
15.39999926	0.00000000	-11.06668000	-9.47342500
15.59999924	0.00000000	-11.06668000	-9.47342500
15.79999923	0.00000000	-11.06668000	-9.47342500
15.99999922	0.00000000	-11.06668000	-9.47342500
16.19999921	0.00000000	-11.06668000	-9.47342500
16.39999920	0.00000000	-11.06668000	-9.47342500
16.59999919	-0.15871060	-11.02362000	-9.47342500
16.79999917	0.00000000	-10.64838000	-9.47342500
16.99999916	0.00000000	-9.90403500	-9.47342500
17.19999915	0.00000000	-9.52879000	-9.47342500
17.39999914	0.00000000	-9.48572700	-9.47342500
17.59999913	0.00000000	-9.48572700	-9.47342500
17.79999911	0.00000000	-9.52879000	-9.47342500
17.99999910	0.00000000	-9.90403500	-9.47342500
18.19999909	0.00000000	-10.73450000	-9.47342500
18.39999908	0.00000000	-11.86024000	-9.47342500
18.59999907	0.00000000	-13.43504000	-9.47342500
18.79999905	0.00000000	-14.56078000	-9.47342500
18.99999904	0.00000000	-15.34203000	-9.47342500
19.19999903	0.00000000	-15.29897000	-9.47342500
19.39999902	0.00000000	-14.05020000	-9.47342500
19.59999901	0.00000000	-11.34350000	-9.47342500
19.79999900	0.00000000	-7.11737200	-9.47342500
19.99999898	0.00000000	-3.29724400	-9.47342500
20.19999897	0.00000000	-0.55364170	-9.47342500
20.39999896	0.00000000	0.55979330	-9.47342500
20.59999895	0.00000000	-0.68897630	-9.47342500
20.79999894	0.00000000	-4.60137700	-9.47342500
20.99999892	0.00000000	-11.20202000	-9.47342500
21.19999891	0.00000000	-18.87918000	-9.47342500
21.39999890	0.00000000	-25.85507000	-9.47342500
21.59999889	0.00000000	-30.41954000	-9.47342500
21.79999888	0.00000000	-31.11466000	-9.47342500
21.99999886	0.00000000	-26.74705000	-9.47342500
22.19999885	0.00000000	-17.48893000	-9.47342500
22.39999884	0.00000000	-5.11811000	-9.47342500
22.59999883	0.00000000	7.21579700	-9.47342500
22.79999882	0.00000000	16.84301000	-9.47342500
22.99999881	0.00000000	20.98917000	-9.47342500
23.19999879	0.00000000	17.87033000	-9.43036400
23.39999878	0.00000000	7.77559000	-9.05511800
23.59999877	0.00000000	-7.34498000	-8.31077700
23.79999876	0.00000000	-24.78469000	-7.89247000
23.99999875	0.00000000	-40.93873000	-7.51722400
24.19999873	0.00000000	-51.63632000	-7.14812900
24.39999872	0.00000000	-53.08193000	-7.60949800
24.59999871	0.00000000	-44.19291000	-8.72908400
24.79999870	0.00000000	-26.79626000	-10.67298000
24.99999869	0.00000000	-4.78592500	-12.58612000
25.19999867	0.00000000	16.84301000	-14.16092000
25.39999866	0.00000000	33.04010000	-15.27436000
25.59999865	0.00000000	39.92372000	-15.23130000
25.79999864	0.00000000	35.27313000	-13.65650000
25.99999863	0.00000000	19.82652000	-10.53765000
26.19999862	0.00000000	-2.60211600	-6.31151500
26.39999860	0.00000000	-27.30684000	-2.08538400
26.59999859	0.00000000	-48.51747000	1.02116100
26.79999858	0.00000000	-60.90059000	2.50984200
26.99999857	0.00000000	-62.10630000	1.67322800
27.19999856	0.00000000	-52.01156000	-2.22071800
27.39999854	0.00000000	-32.70177000	-8.40305000
27.59999853	0.00000000	-8.41535400	-15.78494000
27.79999852	0.00000000	14.75148000	-23.08686000
27.99999851	0.00000000	31.41609000	-28.47564000
28.19999850	0.00000000	38.39198000	-30.29035000
28.39999848	0.00000000	34.20275000	-27.54675000
28.59999847	0.00000000	20.33710000	-19.79577000
28.79999846	0.00000000	0.65206690	-9.01205700
28.99999845	0.00000000	-20.65084000	2.64517700
29.19999844	0.00000000	-38.84719000	13.05364000
29.39999843	0.00000000	-50.47367000	19.88804000
29.59999841	0.00000000	-53.21727000	20.58317000
29.79999840	0.00000000	-46.70890000	14.03789000
29.99999839	0.00000000	-33.21235000	2.04847400
30.19999838	0.00000000	-15.80955000	-13.04749000
30.39999837	0.00000000	1.58710600	-28.51870000
30.59999835	0.00000000	15.16978000	-40.79109000
30.79999834	0.00000000	22.61319000	-46.91806000
30.99999833	0.00000000	23.03149000	-44.59892000
31.19999832	0.00000000	16.84301000	-34.56570000
31.39999831	0.00000000	5.25959600	-19.08834000
31.59999829	0.00000000	-8.97514600	-0.92888770
31.79999828	0.00000000	-22.18873000	15.66191000
31.99999827	0.00000000	-31.91437000	27.27608000
32.19999826	0.00000000	-36.98326000	31.50221000
32.39999825	0.00000000	-36.23893000	27.23302000
32.59999824	0.00000000	-30.46875000	15.24360000
32.79999822	0.00000000	-21.16142000	-2.12844500
32.99999821	0.00000000	-9.95324800	-21.03838000
33.19999820	0.00000000	0.47367120	-37.26009000
33.39999819	0.00000000	7.82480200	-47.33637000
33.59999818	0.00000000	10.56225000	-49.29256000
33.79999816	0.00000000	8.28617100	-43.11023000
33.99999815	0.00000000	2.14074800	-29.95817000
34.19999814	0.00000000	-6.36687900	-12.62918000
34.39999813	0.00000000	-15.21284000	4.74286400
34.59999812	0.00000000	-22.13952000	18.31324000
34.79999810	0.00000000	-25.30143000	25.65207000
34.99999809	0.00000000	-24.56324000	25.27682000
35.19999808	0.00000000	-20.73696000	17.19365000
35.39999807	0.00000000	-14.56078000	3.76476400
35.59999806	0.00000000	-8.04010800	-11.70029000
35.79999805	0.00000000	-2.64517700	-25.59670000
35.99999803	0.00000000	0.04921259	-35.26082000
36.19999802	0.00000000	-0.68897630	-38.37352000
36.39999801	0.00000000	-4.09079700	-34.56570000
36.59999800	0.00000000	-9.11048200	-25.31373000
36.79999799	0.00000000	-14.09326000	-12.62918000
36.99999797	0.00000000	-17.95029000	0.00615157
37.19999796	0.00000000	-19.48819000	8.87672100
37.39999795	0.00000000	-18.37475000	12.03863000
37.59999794	0.00000000	-15.29897000	9.38730200
37.79999793	0.00000000	-11.06668000	2.09153500
37.99999791	0.00000000	-6.83439900	-7.89247000
38.19999790	0.00000000	-3.71555100	-17.83957000
38.39999789	0.00000000	-2.17765700	-24.71703000
38.59999788	0.00000000	-2.60211600	-26.24877000
38.79999787	0.00000000	-5.25344500	-22.06570000
38.99999786	0.00000000	-9.06742000	-13.69956000
39.19999784	0.00000000	-12.60458000	-4.12770700
39.39999783	0.00000000	-15.71727000	3.53715500
39.59999782	0.00000000	-18.04257000	7.39419200
39.79999781	0.00000000	-18.79306000	6.18848400
39.99999780	0.00000000	-18.04257000	0.09227362
40.19999778	0.00000000	-15.71727000	-9.14739100
40.39999777	0.00000000	-12.64764000	-18.72539000
40.59999776	0.00000000	-9.48572700	-26.38410000
40.79999775	0.00000000	-6.41609200	-29.40452000
40.99999774	0.00000000	-4.09079700	-26.75935000
41.19999772	0.00000000	-3.29724400	-19.46358000
41.39999771	0.00000000	-3.62942900	-9.43036400
41.59999770	0.00000000	-4.83513700	0.88582670
41.79999769	0.00000000	-6.79133800	8.55068800
41.99999768	0.00000000	-9.52879000	10.87598000
42.19999767	0.00000000	-12.60458000	7.89862200
42.39999765	0.00000000	-15.29897000	0.97810030
42.59999764	0.00000000	-16.87992000	-7.89247000
42.79999763	0.00000000	-17.29823000	-16.76919000
42.99999762	0.00000000	-16.87992000	-23.68971000
43.19999761	0.00000000	-15.34203000	-26.75935000
43.39999759	0.00000000	-13.06594000	-25.27067000
43.59999758	0.00000000	-11.10974000	-19.97416000
43.79999757	0.00000000	-9.48572700	-13.04749000
43.99999756	0.00000000	-7.94783400	-6.44685000
44.19999755	0.00000000	-6.79133800	-1.01501000
44.39999753	0.00000000	-6.36687900	2.04847400
44.59999752	0.00000000	-6.32381900	2.09153500
44.79999751	0.00000000	-6.32381900	-0.55364170
44.99999750	0.00000000	-6.36687900	-4.77977300
45.19999749	0.00000000	-6.79133800	-9.38115100
45.39999748	0.00000000	-7.99704600	-13.28125000
45.59999746	0.00000000	-9.95324800	-15.60654000
45.79999745	0.00000000	-12.73991000	-16.43701000
45.99999744	0.00000000	-16.18479000	-15.64960000
46.19999743	0.00000000	-19.62352000	-13.74262000
46.39999742	0.00000000	-21.53666000	-11.04823000
46.59999740	0.00000000	-21.53666000	-8.35383800
46.79999739	0.00000000	-19.53125000	-6.40378900
46.99999738	0.00000000	-15.21284000	-5.19808000
47.19999737	0.00000000	-9.06742000	-4.82898600
47.39999736	0.00000000	-2.50984200	-5.24729300
47.59999734	0.00000000	2.51599400	-6.77903500
47.79999733	0.00000000	5.21653500	-9.05511800
47.99999732	0.00000000	4.74901600	-11.04823000
48.19999731	0.00000000	0.47367120	-13.00443000
48.39999730	0.00000000	-6.87746000	-14.85605000
48.59999729	0.00000000	-15.71727000	-15.18824000
48.79999727	0.00000000	-23.81275000	-13.69956000
48.99999726	0.00000000	-28.83858000	-11.00517000
49.19999725	0.00000000	-29.95817000	-7.89247000
49.39999724	0.00000000	-26.46407000	-4.82283400
49.59999723	0.00000000	-18.74385000	-2.54675200
49.79999721	0.00000000	-9.15354300	-2.17150600
49.99999720	0.00000000	0.14148620	-3.66633800
50.19999719	0.00000000	6.66215500	-6.40378900
50.39999718	0.00000000	9.03051100	-9.89173200
50.59999717	0.00000000	6.66215500	-13.74262000
50.79999715	0.00000000	0.14148620	-16.76919000
50.99999714	0.00000000	-9.11048200	-17.97490000
51.19999713	0.00000000	-18.28248000	-17.14444000
51.39999712	0.00000000	-24.92618000	-14.48696000
51.59999711	0.00000000	-27.63287000	-10.21776000
51.79999710	0.00000000	-26.46407000	-6.02854300
51.99999708	0.00000000	-21.06914000	-2.50369100
52.19999707	0.00000000	-13.06594000	-0.63976370
52.39999706	0.00000000	-5.33956700	-1.01501000
52.59999705	0.00000000	0.42445860	-3.66633800
52.79999704	0.00000000	2.74975400	-7.51722400
52.99999702	0.00000000	0.89197830	-11.38041000
53.19999701	0.00000000	-3.71555100	-14.85605000
53.39999700	0.00000000	-9.90403500	-16.76919000
53.59999699	0.00000000	-16.41855000	-16.76919000
53.79999698	0.00000000	-20.97687000	-14.85605000
53.99999696	0.00000000	-22.18258000	-11.46653000
54.19999695	0.00000000	-19.90650000	-8.40305000
54.39999694	0.00000000	-15.29897000	-6.44685000
54.59999693	0.00000000	-9.52879000	-5.66560000
54.79999692	0.00000000	-4.18307100	-6.44685000
54.99999691	0.00000000	-1.10728300	-8.31077700
55.19999689	0.00000000	-1.06422200	-10.58686000
55.39999688	0.00000000	-3.71555100	-12.07554000
55.59999687	0.00000000	-7.99704600	-12.11860000
55.79999686	0.00000000	-12.93061000	-10.96211000
55.99999685	0.00000000	-17.19980000	-9.00590400
56.19999683	0.00000000	-19.11909000	-6.36072800
56.39999682	0.00000000	-19.15600000	-4.12770700
56.59999681	0.00000000	-16.79380000	-3.75246000
56.79999680	0.00000000	-12.64764000	-5.29035400
56.99999679	0.00000000	-8.41535400	-8.40305000
57.19999677	0.00000000	-5.33956700	-12.58612000
57.39999676	0.00000000	-4.13385800	-16.39395000
57.59999675	0.00000000	-4.87819900	-18.35015000
57.79999674	0.00000000	-6.79133800	-18.30093000
57.99999673	0.00000000	-9.48572700	-15.92642000
58.19999672	0.00000000	-12.18012000	-10.91289000
58.39999670	0.00000000	-14.13632000	-4.82898600
58.59999669	0.00000000	-15.29897000	0.55979330
58.79999668	0.00000000	-15.25591000	3.62942900
58.99999667	0.00000000	-13.76107000	3.62942900
59.19999666	0.00000000	-11.48499000	0.51673230
59.39999664	0.00000000	-9.57800100	-5.33341500
59.59999663	0.00000000	-8.41535400	-12.96137000
59.79999662	0.00000000	-8.37229300	-20.24483000
59.99999661	0.00000000	-9.11048200	-24.48326000
60.19999660	0.00000000	-9.86097400	-25.27067000
60.39999658	0.00000000	-10.69144000	-22.15797000
60.59999657	0.00000000	-11.44193000	-15.60654000
60.79999656	0.00000000	-12.18012000	-7.51722400
60.99999655	0.00000000	-12.13706000	0.55979330
61.19999654	0.00000000	-11.02362000	6.27460600
61.39999653	0.00000000	-9.52879000	7.85556000
61.59999651	0.00000000	-8.41535400	5.16117100
61.79999650	0.00000000	-8.37229300	-0.97194880
61.99999649	0.00000000	-9.15354300	-9.09817800
62.19999648	0.00000000	-10.32234000	-17.18750000
62.39999647	0.00000000	-12.27239000	-23.73892000
62.59999645	0.00000000	-14.13632000	-26.75935000
62.79999644	0.00000000	-15.34203000	-25.31373000
62.99999643	0.00000000	-15.67421000	-20.30020000
63.19999642	0.00000000	-14.88066000	-13.33046000
63.39999641	0.00000000	-12.55536000	-5.20423200
63.59999639	0.00000000	-9.52879000	2.00541300
63.79999638	0.00000000	-6.83439900	5.89936000
63.99999637	0.00000000	-5.25344500	5.62253900
64.19999636	0.00000000	-4.87819900	2.55905500
64.39999635	0.00000000	-5.67175200	-2.50369100
64.59999634	0.00000000	-7.99704600	-9.05511800
64.79999632	0.00000000	-11.02362000	-15.18824000
64.99999631	0.00000000	-13.76107000	-19.50664000
65.19999630	0.00000000	-15.67421000	-21.46284000
65.39999629	0.00000000	-16.46161000	-21.08760000
65.59999628	0.00000000	-15.67421000	-18.39321000
65.79999626	0.00000000	-13.76107000	-14.16708000
65.99999625	0.00000000	-11.06668000	-9.56569900
66.19999624	0.00000000	-8.41535400	-5.61638700
66.39999623	0.00000000	-6.87746000	-2.87278500
66.59999622	0.00000000	-6.83439900	-0.87967510
66.79999620	0.00000000	-7.99704600	-0.13533460
66.99999619	0.00000000	-9.90403500	-0.51058070
67.19999618	0.00000000	-12.22933000	-2.08538400
67.39999617	0.00000000	-14.09326000	-4.77977300
67.59999616	0.00000000	-14.83760000	-7.89247000
67.79999615	0.00000000	-13.67495000	-11.04823000
67.99999613	0.00000000	-11.06668000	-14.21014000
68.19999612	0.00000000	-8.37229300	-17.27977000
68.39999611	0.00000000	-6.45915300	-19.55585000
68.59999610	0.00000000	-5.67175200	-19.88189000
68.79999609	0.00000000	-6.50221400	-17.97490000
68.99999607	0.00000000	-8.79060000	-14.11786000
69.19999606	0.00000000	-12.27239000	-9.47342500
69.39999605	0.00000000	-15.71727000	-4.77977300
69.59999604	0.00000000	-18.46087000	-0.55364170
69.79999603	0.00000000	-19.90650000	2.09153500
69.99999601	0.00000000	-19.11294000	2.14074800
70.19999600	0.00000000	-15.63115000	-0.17839570
70.39999599	0.00000000	-10.64838000	-4.08464600
70.59999598	0.00000000	-5.25344500	-9.47342500
70.79999597	0.00000000	-1.02116100	-14.85605000
70.99999596	0.00000000	0.93503930	-18.71924000
71.19999594	0.00000000	0.51673230	-20.66929000
71.39999593	0.00000000	-2.60211600	-19.88189000
71.59999592	0.00000000	-7.99704600	-16.85531000
71.79999591	0.00000000	-14.13632000	-12.58612000
71.99999590	0.00000000	-19.58046000	-7.93553100
72.19999588	0.00000000	-23.02534000	-3.70939900
72.39999587	0.00000000	-23.81275000	-1.06422200
72.59999586	0.00000000	-21.48745000	-1.01501000
72.79999585	0.00000000	-16.87992000	-3.19881900
72.99999584	0.00000000	-11.06668000	-5.89320800
73.19999582	0.00000000	-5.29650500	-8.26771600
73.39999581	0.00000000	-1.02116100	-10.58686000
73.59999580	0.00000000	0.89197830	-12.07554000
73.79999579	0.00000000	0.14148620	-12.11860000
73.99999578	0.00000000	-3.29724400	-11.04823000
74.19999577	0.00000000	-7.90477300	-9.89173200
74.39999575	0.00000000	-12.60458000	-9.14124000
74.59999574	0.00000000	-16.83686000	-8.77829600
74.79999573	0.00000000	-19.53125000	-9.55954600
74.99999572	0.00000000	-19.95571000	-11.04823000
75.19999571	0.00000000	-18.41781000	-12.58612000
75.39999569	0.00000000	-15.34203000	-13.65650000
75.59999568	0.00000000	-11.53420000	-13.28125000
75.79999567	0.00000000	-8.41535400	-11.33735000
75.99999566	0.00000000	-6.45915300	-8.63681000
76.19999565	0.00000000	-5.67175200	-5.15501900
76.39999563	0.00000000	-6.41609200	-2.12844500
76.59999562	0.00000000	-7.90477300	-0.59670270
76.79999561	0.00000000	-9.44266700	-1.01501000
76.99999560	0.00000000	-10.59916000	-3.75246000
77.19999559	0.00000000	-11.06668000	-8.35998900
77.39999558	0.00000000	-11.44193000	-13.74262000
77.59999556	0.00000000	-11.85408000	-18.35015000
77.79999555	0.00000000	-11.86024000	-21.08760000
77.99999554	0.00000000	-12.27239000	-21.41363000
78.19999553	0.00000000	-12.60458000	-19.08834000
78.39999552	0.00000000	-12.69070000	-14.07480000
78.59999550	0.00000000	-13.06594000	-7.93553100
78.79999549	0.00000000	-13.76107000	-2.12844500
78.99999548	0.00000000	-13.71801000	2.09768700
79.19999547	0.00000000	-12.55536000	3.67249000
79.39999546	0.00000000	-10.64838000	2.51599400
79.59999544	0.00000000	-8.37229300	-0.92888770
79.79999543	0.00000000	-6.79133800	-5.98548200
79.99999542	0.00000000	-5.99163300	-11.38041000
80.19999541	0.00000000	-5.67175200	-16.39395000
80.39999540	0.00000000	-6.87746000	-19.50664000
80.59999539	0.00000000	-9.52879000	-20.34941000
80.79999537	0.00000000	-12.60458000	-19.55585000
80.99999536	0.00000000	-15.29897000	-16.81225000
81.19999535	0.00000000	-16.83686000	-12.62918000
81.39999534	0.00000000	-16.83686000	-8.35998900
81.59999533	0.00000000	-15.29897000	-4.82283400
81.79999531	0.00000000	-12.64764000	-2.08538400
81.99999530	0.00000000	-9.95324800	-0.55364170
82.19999529	0.00000000	-7.99704600	-0.51058070
82.39999528	0.00000000	-6.79133800	-1.71013800
82.59999527	0.00000000	-6.45915300	-4.03543200
82.79999525	0.00000000	-7.20964500	-7.51722400
82.99999524	0.00000000	-9.11048200	-11.00517000
83.19999523	0.00000000	-11.02362000	-14.16092000
83.39999522	0.00000000	-12.60458000	-16.85531000
83.59999521	0.00000000	-13.71801000	-18.39321000
83.79999520	0.00000000	-13.76107000	-18.39321000
83.99999518	0.00000000	-13.02288000	-16.81225000
84.19999517	0.00000000	-12.27239000	-13.69956000
84.39999516	0.00000000	-11.48499000	-9.47342500
84.59999515	0.00000000	-11.10974000	-5.24729300
84.79999514	0.00000000	-11.06668000	-2.12844500
84.99999512	0.00000000	-11.06668000	-0.51058070
85.19999511	0.00000000	-11.06668000	-0.17839570
85.39999510	0.00000000	-11.06668000	-1.39025600
85.59999509	0.00000000	-11.02362000	-4.87204700
85.79999508	0.00000000	-10.64838000	-9.47342500
85.99999506	0.00000000	-9.90403500	-14.11786000
86.19999505	0.00000000	-9.52879000	-17.97490000
86.39999504	0.00000000	-9.52879000	-19.88189000
86.59999503	0.00000000	-9.95324800	-19.50664000
86.79999502	0.00000000	-11.10974000	-16.81225000
86.99999501	0.00000000	-12.60458000	-12.58612000
87.19999499	0.00000000	-13.76107000	-7.93553100
87.39999498	0.00000000	-14.18553000	-3.66633800
87.59999497	0.00000000	-14.18553000	-0.64591530
87.79999496	0.00000000	-13.71801000	0.14148620
87.99999495	0.00000000	-12.18012000	-1.80241100
88.19999493	0.00000000	-9.95324800	-5.57332700
88.39999492	0.00000000	-8.37229300	-10.21161000
88.59999491	0.00000000	-7.57258800	-14.07480000
88.79999490	0.00000000	-7.20964500	-16.81225000
88.99999489	0.00000000	-7.99704600	-17.92569000
89.19999487	0.00000000	-9.48572700	-16.76919000
89.39999486	0.00000000	-11.06668000	-13.69956000
89.59999485	0.00000000	-12.60458000	-9.47342500
89.79999484	0.00000000	-13.76107000	-5.24729300
89.99999483	0.00000000	-14.13632000	-2.17765700
90.19999482	0.00000000	-13.76107000	-1.05807100
90.39999480	0.00000000	-12.60458000	-2.59596400
90.59999479	0.00000000	-11.10974000	-6.35457700
90.79999478	0.00000000	-9.95324800	-10.58686000
90.99999477	0.00000000	-9.52879000	-14.07480000
91.19999476	0.00000000	-9.48572700	-16.39395000
91.39999474	0.00000000	-9.48572700	-16.71998000
91.59999473	0.00000000	-9.52879000	-14.85605000
91.79999472	0.00000000	-9.90403500	-11.38041000
91.99999471	0.00000000	-10.64838000	-7.51722400
92.19999470	0.00000000	-11.02362000	-3.70939900
92.39999468	0.00000000	-11.06668000	-1.48253000
92.59999467	0.00000000	-11.10974000	-2.17765700
92.79999466	0.00000000	-11.48499000	-4.82283400
92.99999465	0.00000000	-12.22933000	-8.35998900
93.19999464	0.00000000	-12.64764000	-12.58612000
93.39999463	0.00000000	-13.06594000	-16.35089000
93.59999461	0.00000000	-13.76107000	-17.88263000
93.79999460	0.00000000	-13.71801000	-16.76919000
93.99999459	0.00000000	-12.60458000	-13.69956000
94.19999458	0.00000000	-11.06668000	-9.47342500
94.39999457	0.00000000	-9.48572700	-5.24729300
94.59999455	0.00000000	-7.90477300	-2.17765700
94.79999454	0.00000000	-6.41609200	-1.05807100
94.99999453	0.00000000	-5.67175200	-2.54675200
95.19999452	0.00000000	-6.45915300	-5.98548200
95.39999451	0.00000000	-8.37229300	-9.84867000
95.59999449	0.00000000	-11.10974000	-13.69956000
95.79999448	0.00000000	-14.18553000	-16.35089000
95.99999447	0.00000000	-16.87992000	-16.76919000
96.19999446	0.00000000	-18.41781000	-15.27436000
96.39999445	0.00000000	-18.41781000	-12.53691000
96.59999444	0.00000000	-16.83686000	-9.09817800
96.79999442	0.00000000	-13.76107000	-5.66560000
96.99999441	0.00000000	-9.90403500	-3.75246000
97.19999440	0.00000000	-6.41609200	-3.70939900
97.39999439	0.00000000	-3.71555100	-5.24729300
97.59999438	0.00000000	-2.55290300	-7.89247000
97.79999436	0.00000000	-3.34030500	-10.58686000
97.99999435	0.00000000	-5.62869100	-12.53691000
98.19999434	0.00000000	-9.15354300	-13.69956000
98.39999433	0.00000000	-12.97982000	-13.69956000
98.59999432	0.00000000	-16.50467000	-12.58612000
98.79999430	0.00000000	-18.79306000	-11.04823000
98.99999429	0.00000000	-19.58046000	-9.47342500
99.19999428	0.00000000	-18.41781000	-7.98474400
99.39999427	0.00000000	-15.76649000	-7.24040300
99.59999426	0.00000000	-12.60458000	-7.93553100
99.79999425	0.00000000	-9.11048200	-9.00590400
99.99999423	0.00000000	-5.67175200	-9.43036400
100.19999422	0.00000000	-3.75861200	-9.43036400
100.39999421	0.00000000	-3.67249000	-9.05511800
100.59999420	0.00000000	-4.83513700	-8.31077700
100.79999419	0.00000000	-6.79133800	-7.93553100
100.99999417	0.00000000	-9.52879000	-7.93553100
101.19999416	0.00000000	-12.60458000	-8.35998900
101.39999415	0.00000000	-15.29897000	-9.51648500
101.59999414	0.00000000	-16.87992000	-11.04823000
101.79999413	0.00000000	-17.29823000	-12.53691000
101.99999411	0.00000000	-16.87992000	-13.32431000
102.19999410	0.00000000	-15.29897000	-12.91215000
102.39999409	0.00000000	-12.64764000	-11.74951000
102.59999408	0.00000000	-9.95324800	-9.42421200
102.79999407	0.00000000	-7.99704600	-6.77903500
102.99999406	0.00000000	-6.79133800	-4.82283400
103.19999404	0.00000000	-6.41609200	-3.66633800
103.39999403	0.00000000	-6.79133800	-3.70939900
103.59999402	0.00000000	-7.99704600	-5.24729300
103.79999401	0.00000000	-9.90403500	-7.93553100
103.99999400	0.00000000	-12.22933000	-11.00517000
104.19999398	0.00000000	-14.13632000	-13.69956000
104.39999397	0.00000000	-15.29897000	-15.23130000
104.59999396	0.00000000	-15.29897000	-15.27436000
104.79999395	0.00000000	-14.18553000	-14.07480000
104.99999394	0.00000000	-12.64764000	-11.79257000
105.19999392	0.00000000	-11.10974000	-8.72908400
105.39999391	0.00000000	-9.90403500	-6.44685000
105.59999390	0.00000000	-9.15354300	-5.19808000
105.79999389	0.00000000	-8.79060000	-4.87204700
105.99999388	0.00000000	-9.52879000	-5.61638700
106.19999387	0.00000000	-10.64838000	-7.56643700
106.39999385	0.00000000	-11.44193000	-9.79945900
106.59999384	0.00000000	-12.22933000	-11.74951000
106.79999383	0.00000000	-12.60458000	-12.53691000
106.99999382	0.00000000	-12.60458000	-12.53691000
107.19999381	0.00000000	-12.18012000	-11.74951000
107.39999379	0.00000000	-11.06668000	-9.84867000
107.59999378	0.00000000	-9.95324800	-7.98474400
107.79999377	0.00000000	-9.52879000	-6.77903500
107.99999376	0.00000000	-9.52879000	-6.40378900
108.19999375	0.00000000	-9.95324800	-6.77903500
108.39999374	0.00000000	-11.10974000	-7.93553100
108.59999372	0.00000000	-12.60458000	-9.47342500
108.79999371	0.00000000	-13.76107000	-11.00517000
108.99999370	0.00000000	-14.13632000	-12.11860000
109.19999369	0.00000000	-13.76107000	-12.11860000
109.39999368	0.00000000	-12.60458000	-11.00517000
109.59999366	0.00000000	-11.06668000	-9.47342500
109.79999365	0.00000000	-9.52879000	-7.89247000
109.99999364	0.00000000	-8.37229300	-6.40378900
110.19999363	0.00000000	-7.99704600	-5.66560000
110.39999362	0.00000000	-8.37229300	-6.40378900
110.59999360	0.00000000	-9.52879000	-7.89247000
110.79999359	0.00000000	-11.06668000	-9.47342500
110.99999358	0.00000000	-12.60458000	-11.00517000
111.19999357	0.00000000	-13.76107000	-12.16166000
111.39999356	0.00000000	-14.18553000	-12.58612000
111.59999355	0.00000000	-14.18553000	-12.58612000
111.79999353	0.00000000	-13.76107000	-12.16166000
111.99999352	0.00000000	-12.60458000	-11.00517000
112.19999351	0.00000000	-11.06668000	-9.51648500
112.39999350	0.00000000	-9.57800100	-8.35998900
112.59999349	0.00000000	-8.79060000	-7.93553100
112.79999347	0.00000000	-9.11048200	-7.89247000
112.99999346	0.00000000	-9.48572700	-7.93553100
113.19999345	0.00000000	-9.95324800	-8.31077700
113.39999344	0.00000000	-11.06668000	-9.05511800
113.59999343	0.00000000	-12.18012000	-9.43036400
113.79999341	0.00000000	-12.60458000	-9.47342500
113.99999340	0.00000000	-12.64764000	-9.51648500
114.19999339	0.00000000	-12.60458000	-9.84867000
114.39999338	0.00000000	-12.22933000	-10.25467000
114.59999337	0.00000000	-11.48499000	-10.26698000
114.79999336	0.00000000	-11.06668000	-10.67298000
114.99999334	0.00000000	-10.64838000	-11.00517000
115.19999333	0.00000000	-9.90403500	-11.04823000
115.39999332	0.00000000	-9.57800100	-11.04823000
115.59999331	0.00000000	-9.90403500	-11.00517000
115.79999330	0.00000000	-10.64838000	-10.62992000
115.99999328	0.00000000	-11.06668000	-9.84867000
116.19999327	0.00000000	-11.48499000	-9.09817800
116.39999326	0.00000000	-12.22933000	-8.31077700
116.59999325	0.00000000	-12.60458000	-7.93553100
116.79999324	0.00000000	-12.64764000	-7.89247000
116.99999322	0.00000000	-12.60458000	-7.93553100
117.19999321	0.00000000	-12.18012000	-8.31077700
117.39999320	0.00000000	-11.06668000	-9.09817800
117.59999319	0.00000000	-9.90403500	-9.84867000
117.79999318	0.00000000	-9.11048200	-10.62992000
117.99999317	0.00000000	-8.32308000	-11.00517000
118.19999315	0.00000000	-7.99704600	-11.04823000
118.39999314	0.00000000	-8.37229300	-11.00517000
118.59999313	0.00000000	-9.52879000	-10.62992000
118.79999312	0.00000000	-11.06668000	-9.89173200
118.99999311	0.00000000	-12.60458000	-9.47342500
119.19999309	0.00000000	-13.76107000	-9.05511800
119.39999308	0.00000000	-14.18553000	-8.31077700
119.59999307	0.00000000	-14.18553000	-7.93553100
119.79999306	0.00000000	-13.76107000	-7.89247000
119.99999305	0.00000000	-12.60458000	-7.93553100
120.19999303	0.00000000	-11.06668000	-8.31077700
120.39999302	0.00000000	-9.52879000	-9.05511800
120.59999301	0.00000000	-8.37229300	-9.43036400
120.79999300	0.00000000	-7.99704600	-9.51648500
120.99999299	0.00000000	-8.37229300	-9.89173200
121.19999298	0.00000000	-9.48572700	-10.62992000
121.39999296	0.00000000	-10.64838000	-11.00517000
121.59999295	0.00000000	-11.48499000	-11.04823000
121.79999294	0.00000000	-12.64764000	-11.00517000
121.99999293	0.00000000	-13.76107000	-10.62992000
122.19999292	0.00000000	-14.13632000	-9.84867000
122.39999290	0.00000000	-13.81028000	-9.09817800
122.59999289	0.00000000	-13.02288000	-8.31077700
122.79999288	0.00000000	-12.22933000	-7.93553100
122.99999287	0.00000000	-11.06668000	-7.89247000
123.19999286	0.00000000	-9.95324800	-7.89247000
123.39999284	0.00000000	-9.52879000	-7.93553100
123.59999283	0.00000000	-9.48572700	-8.31077700
123.79999282	0.00000000	-9.48572700	-9.09817800
123.99999281	0.00000000	-9.52879000	-9.84867000
124.19999280	0.00000000	-9.90403500	-10.62992000
124.39999279	0.00000000	-10.64838000	-11.00517000
124.59999277	0.00000000	-11.06668000	-11.04823000
124.79999276	0.00000000	-11.53420000	-11.00517000
124.99999275	0.00000000	-12.60458000	-10.62992000
125.19999274	0.00000000	-13.34276000	-9.84867000
125.39999273	0.00000000	-13.02288000	-9.09817800
125.59999271	0.00000000	-12.64764000	-8.31077700
125.79999270	0.00000000	-12.22933000	-7.93553100
125.99999269	0.00000000	-11.44193000	-7.93553100
126.19999268	0.00000000	-10.69144000	-8.31077700
126.39999267	0.00000000	-9.90403500	-9.05511800
126.59999265	0.00000000	-9.52879000	-9.43036400
126.79999264	0.00000000	-9.52879000	-9.47342500
126.99999263	0.00000000	-9.90403500	-9.51648500
127.19999262	0.00000000	-10.69144000	-9.84867000
127.39999261	0.00000000	-11.44193000	-10.21161000
127.59999260	0.00000000	-12.27239000	-9.84867000
127.79999258	0.00000000	-13.02288000	-9.51648500
127.99999257	0.00000000	-13.76107000	-9.47342500
128.19999256	0.00000000	-13.71801000	-9.47342500
128.39999255	0.00000000	-12.64764000	-9.47342500
128.59999254	0.00000000	-11.48499000	-9.43036400
128.79999252	0.00000000	-10.69144000	-9.05511800
128.99999251	0.00000000	-9.90403500	-8.35998900
129.19999250	0.00000000	-9.52879000	-8.35998900
129.39999249	0.00000000	-9.52879000	-9.05511800
129.59999248	0.00000000	-9.90403500	-9.47342500
129.79999246	0.00000000	-10.69144000	-9.84867000
129.99999245	0.00000000	-11.48499000	-10.21161000
130.19999244	0.00000000	-12.64764000	-9.84867000
130.39999243	0.00000000	-13.71801000	-9.51648500
130.59999242	0.00000000	-13.76107000	-9.47342500
130.79999241	0.00000000	-13.02288000	-9.47342500
130.99999239	0.00000000	-12.22933000	-9.47342500
131.19999238	0.00000000	-11.06668000	-9.47342500
131.39999237	0.00000000	-9.95324800	-9.47342500
131.59999236	0.00000000	-9.52879000	-9.51648500
131.79999235	0.00000000	-9.52879000	-9.89173200
131.99999233	0.00000000	-9.90403500	-10.62992000
132.19999232	0.00000000	-10.69144000	-11.00517000
132.39999231	0.00000000	-11.44193000	-11.04823000
132.59999230	0.00000000	-12.22933000	-11.04823000
132.79999229	0.00000000	-12.60458000	-11.00517000
132.99999227	0.00000000	-12.60458000	-10.58686000
133.19999226	0.00000000	-12.22933000	-9.47342500
133.39999225	0.00000000	-11.48499000	-8.35998900
133.59999224	0.00000000	-11.10974000	-7.93553100
133.79999223	0.00000000	-11.06668000	-7.89247000
133.99999222	0.00000000	-11.06668000	-7.93553100
134.19999220	0.00000000	-11.06668000	-8.35998900
134.39999219	0.00000000	-11.06668000	-9.47342500
134.59999218	0.00000000	-11.06668000	-10.58686000
134.79999217	0.00000000	-11.06668000	-11.04823000
134.99999216	0.00000000	-11.06668000	-11.46653000
135.19999214	0.00000000	-11.06668000	-12.16166000
135.39999213	0.00000000	-11.06668000	-12.11860000
135.59999212	0.00000000	-11.06668000	-11.04823000
135.79999211	0.00000000	-11.06668000	-9.89173200
135.99999210	0.00000000	-11.06668000	-9.09817800
136.19999208	0.00000000	-11.10974000	-8.31077700
136.39999207	0.00000000	-11.48499000	-7.93553100
136.59999206	0.00000000	-12.22933000	-7.93553100
136.79999205	0.00000000	-12.60458000	-8.31077700
136.99999204	0.00000000	-12.64764000	-9.05511800
137.19999203	0.00000000	-12.60458000	-9.47342500
137.39999201	0.00000000	-12.22933000	-9.89173200
137.59999200	0.00000000	-11.44193000	-10.62992000
137.79999199	0.00000000	-10.69144000	-11.00517000
137.99999198	0.00000000	-9.90403500	-11.04823000
138.19999197	0.00000000	-9.57800100	-11.04823000
138.39999195	0.00000000	-9.90403500	-11.04823000
138.59999194	0.00000000	-10.69144000	-11.00517000
138.79999193	0.00000000	-11.44193000	-10.62992000
138.99999192	0.00000000	-12.22933000	-9.89173200
139.19999191	0.00000000	-12.60458000	-9.47342500
139.39999189	0.00000000	-12.64764000	-9.05511800
139.59999188	0.00000000	-12.64764000	-8.31077700
139.79999187	0.00000000	-12.55536000	-7.89247000
139.99999186	0.00000000	-11.85408000	-7.51722400
140.19999185	0.00000000	-10.69759000	-7.19734200
140.39999184	0.00000000	-10.35925000	-7.98474400
140.59999182	0.00000000	-10.27928000	-9.42421200
140.79999181	0.00000000	-10.69144000	-10.58686000
140.99999180	0.00000000	-11.02362000	-11.00517000
141.19999179	0.00000000	-11.06668000	-11.04823000
141.39999178	0.00000000	-11.10974000	-11.04823000
141.59999176	0.00000000	-11.48499000	-11.00517000
141.79999175	0.00000000	-12.18012000	-10.58686000
141.99999174	0.00000000	-12.18012000	-9.47342500
142.19999173	0.00000000	-11.48499000	-8.31077700
142.39999172	0.00000000	-11.10974000	-7.51722400
142.59999170	0.00000000	-11.06668000	-6.77903500
142.79999169	0.00000000	-11.06668000	-6.82209600
142.99999168	0.00000000	-11.06668000	-7.89247000
143.19999167	0.00000000	-11.06668000	-9.05511800
143.39999166	0.00000000	-11.10974000	-9.89173200
143.59999165	0.00000000	-11.44193000	-11.00517000
143.79999163	0.00000000	-11.81102000	-11.74336000
143.99999162	0.00000000	-11.44193000	-11.42347000
144.19999161	0.00000000	-11.10974000	-11.04823000
144.39999160	0.00000000	-11.06668000	-10.62992000
144.59999159	0.00000000	-11.06668000	-9.84867000
144.79999157	0.00000000	-11.06668000	-9.09817800
144.99999156	0.00000000	-11.06668000	-8.31077700
145.19999155	0.00000000	-11.06668000	-7.93553100
145.39999154	0.00000000	-11.10974000	-7.93553100
145.59999153	0.00000000	-11.48499000	-8.31077700
145.79999151	0.00000000	-12.22933000	-9.05511800
145.99999150	0.00000000	-12.60458000	-9.47342500
146.19999149	0.00000000	-12.64764000	-9.89173200
146.39999148	0.00000000	-12.60458000	-10.62992000
146.59999147	0.00000000	-12.22933000	-10.95595000
146.79999146	0.00000000	-11.48499000	-10.62992000
146.99999144	0.00000000	-11.06668000	-9.89173200
147.19999143	0.00000000	-10.69144000	-9.51648500
147.39999142	0.00000000	-10.32234000	-9.47342500
147.59999141	0.00000000	-10.64838000	-9.43036400
147.79999140	0.00000000	-10.69144000	-9.09817800
147.99999138	0.00000000	-10.74680000	-8.72908400
148.19999137	0.00000000	-11.85408000	-9.09817800
148.39999136	0.00000000	-12.55536000	-9.43036400
148.59999135	0.00000000	-12.64764000	-9.47342500
148.79999134	0.00000000	-12.64764000	-9.47342500
148.99999132	0.00000000	-12.60458000	-9.47342500
149.19999131	0.00000000	-12.22933000	-9.47342500
149.39999130	0.00000000	-11.48499000	-9.47342500
149.59999129	0.00000000	-11.06668000	-9.47342500
149.79999128	0.00000000	-10.64838000	-9.47342500
149.99999127	0.00000000	-9.95324800	-9.47342500
150.19999125	0.00000000	-9.95324800	-9.47342500
150.39999124	0.00000000	-10.64838000	-9.47342500
150.59999123	0.00000000	-11.06668000	-9.47342500
150.79999122	0.00000000	-11.48499000	-9.47342500
150.99999121	0.00000000	-12.22933000	-9.47342500
151.19999119	0.00000000	-12.60458000	-9.47342500
151.39999118	0.00000000	-12.64764000	-9.47342500
151.59999117	0.00000000	-12.60458000	-9.47342500
151.79999116	0.00000000	-12.22933000	-9.47342500
151.99999115	0.00000000	-11.48499000	-9.47342500
152.19999113	0.00000000	-11.10974000	-9.47342500
152.39999112	0.00000000	-11.06668000	-9.47342500
152.59999111	0.00000000	-11.06668000	-9.47342500
152.79999110	0.00000000	-11.06668000	-9.47342500
152.99999109	0.00000000	-11.06668000	-9.47342500
153.19999108	0.00000000	-11.06668000	-9.47342500
153.39999106	0.00000000	-11.06668000	-9.47342500
153.59999105	0.00000000	-11.10974000	-9.47342500
153.79999104	0.00000000	-11.48499000	-9.47342500
153.99999103	0.00000000	-12.22933000	-9.47342500
154.19999102	0.00000000	-12.60458000	-9.47342500
154.39999100	0.00000000	-12.64764000	-9.47342500
154.59999099	0.00000000	-12.64764000	-9.47342500
154.79999098	0.00000000	-12.60458000	-9.47342500
154.99999097	0.00000000	-12.22933000	-9.47342500
155.19999096	0.00000000	-11.48499000	-9.47342500
155.39999094	0.00000000	-11.10974000	-9.47342500
155.59999093	0.00000000	-11.06668000	-9.51648500
155.79999092	0.00000000	-11.06668000	-9.84867000
155.99999091	0.00000000	-11.06668000	-10.21161000
156.19999090	0.00000000	-11.06668000	-9.84867000
156.39999089	0.00000000	-11.06668000	-9.47342500
156.59999087	0.00000000	-11.06668000	-9.09817800
156.79999086	0.00000000	-11.10974000	-8.68602300
156.99999085	0.00000000	-11.48499000	-8.67987200
157.19999084	0.00000000	-12.22933000	-8.26771600
157.39999083	0.00000000	-12.60458000	-7.93553100
157.59999081	0.00000000	-12.60458000	-7.93553100
157.79999080	0.00000000	-12.22933000	-8.31077700
157.99999079	0.00000000	-11.48499000	-9.05511800
158.19999078	0.00000000	-11.10974000	-9.47342500
158.39999077	0.00000000	-11.06668000	-9.84867000
158.59999075	0.00000000	-11.06668000	-10.21161000
158.79999074	0.00000000	-11.06668000	-9.84867000
158.99999073	0.00000000	-11.06668000	-9.51648500
159.19999072	0.00000000	-11.06668000	-9.47342500
159.39999071	0.00000000	-11.06668000	-9.47342500
159.59999070	0.00000000	-11.06668000	-9.43036400
159.79999068	0.00000000	-11.06668000	-9.05511800
159.99999067	0.00000000	-11.10974000	-8.31077700
160.19999066	0.00000000	-11.48499000	-7.93553100
160.39999065	0.00000000	-12.22933000	-7.93553100
160.59999064	0.00000000	-12.60458000	-8.31077700
160.79999062	0.00000000	-12.64764000	-9.05511800
160.99999061	0.00000000	-12.60458000	-9.43036400
161.19999060	0.00000000	-12.22933000	-9.51648500
161.39999059	0.00000000	-11.48499000	-9.84867000
161.59999058	0.00000000	-11.10974000	-10.25467000
161.79999056	0.00000000	-11.06668000	-10.21776000
161.99999055	0.00000000	-11.06668000	-10.25467000
162.19999054	0.00000000	-11.06668000	-9.84867000
162.39999053	0.00000000	-11.06668000	-9.51648500
162.59999052	0.00000000	-11.06668000	-9.47342500
162.79999051	0.00000000	-11.06668000	-9.47342500
162.99999049	0.00000000	-11.06668000	-9.47342500
163.19999048	0.00000000	-11.10974000	-9.47342500
163.39999047	0.00000000	-11.48499000	-9.47342500
163.59999046	0.00000000	-12.22933000	-9.47342500
163.79999045	0.00000000	-12.60458000	-9.47342500
163.99999043	0.00000000	-12.64764000	-9.51648500
164.19999042	0.00000000	-12.60458000	-9.84867000
164.39999041	0.00000000	-12.22933000	-10.21161000
164.59999040	0.00000000	-11.48499000	-9.84867000
164.79999039	0.00000000	-11.10974000	-9.51648500
164.99999037	0.00000000	-11.06668000	-9.47342500
165.19999036	0.00000000	-11.06668000	-9.47342500
165.39999035	0.00000000	-11.06668000	-9.47342500
165.59999034	0.00000000	-11.06668000	-9.47342500
165.79999033	0.00000000	-11.06668000	-9.47342500
165.99999032	0.00000000	-11.10974000	-9.47342500
166.19999030	0.00000000	-11.48499000	-9.47342500
166.39999029	0.00000000	-12.22933000	-9.47342500
166.59999028	0.00000000	-12.60458000	-9.47342500
166.79999027	0.00000000	-12.64764000	-9.47342500
166.99999026	0.00000000	-12.64764000	-9.47342500
167.19999024	0.00000000	-12.64764000	-9.47342500
167.39999023	0.00000000	-12.60458000	-9.47342500
167.59999022	0.00000000	-12.22933000	-9.47342500
167.79999021	0.00000000	-11.48499000	-9.47342500
167.99999020	0.00000000	-11.10974000	-9.47342500
168.19999018	0.00000000	-11.06668000	-9.47342500
168.39999017	0.00000000	-11.06668000	-9.47342500
168.59999016	0.00000000	-11.06668000	-9.47342500
168.79999015	0.00000000	-11.06668000	-9.47342500
168.99999014	0.00000000	-11.06668000	-9.47342500
169.19999013	0.00000000	-11.10974000	-9.47342500
169.39999011	0.00000000	-11.48499000	-9.47342500
169.59999010	0.00000000	-12.22933000	-9.47342500
169.79999009	0.00000000	-12.60458000	-9.47342500
169.99999008	0.00000000	-12.64764000	-9.47342500
170.19999007	0.00000000	-12.60458000	-9.47342500
170.39999005	0.00000000	-12.22933000	-9.47342500
170.59999004	0.00000000	-11.48499000	-9.47342500
170.79999003	0.00000000	-11.10974000	-9.47342500
170.99999002	0.00000000	-11.06668000	-9.47342500
171.19999001	0.00000000	-11.06668000	-9.47342500
171.39998999	0.00000000	-11.06668000	-9.47342500
171.59998998	0.00000000	-11.06668000	-9.47342500
171.79998997	0.00000000	-11.06668000	-9.51648500
171.99998996	0.00000000	-11.06668000	-9.89173200
172.19998995	0.00000000	-11.06668000	-10.62992000
172.39998994	0.00000000	-11.10974000	-10.95595000
172.59998992	0.00000000	-11.48499000	-10.62992000
172.79998991	0.00000000	-12.22933000	-9.89173200
172.99998990	0.00000000	-12.60458000	-9.51648500
173.19998989	0.00000000	-12.60458000	-9.47342500
173.39998988	0.00000000	-12.22933000	-9.47342500
173.59998986	0.00000000	-11.48499000	-9.47342500
173.79998985	0.00000000	-11.10974000	-9.47342500
173.99998984	0.00000000	-11.06668000	-9.51648500
174.19998983	0.00000000	-11.06668000	-9.84867000
174.39998982	0.00000000	-11.06668000	-10.21161000
174.59998980	0.00000000	-11.06668000	-9.89173200
174.79998979	0.00000000	-11.06668000	-9.89173200
174.99998978	0.00000000	-11.06668000	-10.21161000
175.19998977	0.00000000	-11.10974000	-9.84867000
175.39998976	0.00000000	-11.44193000	-9.51648500
175.59998975	0.00000000	-11.85408000	-9.47342500
175.79998973	0.00000000	-11.81717000	-9.47342500
175.99998972	0.00000000	-11.85408000	-9.47342500
176.19998971	0.00000000	-11.44193000	-9.47342500
176.39998970	0.00000000	-11.10974000	-9.47342500
176.59998969	0.00000000	-11.06668000	-9.47342500
176.79998967	0.00000000	-11.06668000	-9.47342500
176.99998966	0.00000000	-11.06668000	-9.47342500
177.19998965	0.00000000	-11.10974000	-9.47342500
177.39998964	0.00000000	-11.44193000	-9.47342500
177.59998963	0.00000000	-11.81102000	-9.47342500
177.79998961	0.00000000	-11.48499000	-9.47342500
177.99998960	0.00000000	-11.53420000	-9.47342500
178.19998959	0.00000000	-12.22933000	-9.47342500
178.39998958	0.00000000	-12.55536000	-9.47342500
178.59998957	0.00000000	-12.27239000	-9.47342500
178.79998956	0.00000000	-11.90330000	-9.47342500
178.99998954	0.00000000	-12.22933000	-9.47342500
179.19998953	0.00000000	-12.18012000	-9.47342500
179.39998952	0.00000000	-11.48499000	-9.47342500
179.59998951	0.00000000	-11.06668000	-9.47342500
179.79998950	0.00000000	-10.69144000	-9.47342500
179.99998948	0.00000000	-10.37155000	-9.47342500
180.19998947	0.00000000	-11.06668000	-9.51648500
180.39998946	0.00000000	-11.76181000	-9.84867000
180.59998945	0.00000000	-11.44193000	-10.21161000
180.79998944	0.00000000	-11.15896000	-9.84867000
180.99998942	0.00000000	-11.48499000	-9.51648500
181.19998941	0.00000000	-12.22933000	-9.47342500
181.39998940	0.00000000	-12.55536000	-9.47342500
181.59998939	0.00000000	-12.22933000	-9.47342500
181.79998938	0.00000000	-11.48499000	-9.47342500
181.99998937	0.00000000	-11.10974000	-9.47342500
182.19998935	0.00000000	-11.06668000	-9.47342500
182.39998934	0.00000000	-11.06668000	-9.47342500
182.59998933	0.00000000	-11.06668000	-9.47342500
182.79998932	0.00000000	-11.06668000	-9.47342500
182.99998931	0.00000000	-11.06668000	-9.47342500
183.19998929	0.00000000	-11.06668000	-9.51648500
183.39998928	0.00000000	-11.06668000	-9.84867000
183.59998927	0.00000000	-11.10974000	-10.21161000
183.79998926	0.00000000	-11.44193000	-9.84867000
183.99998925	0.00000000	-11.85408000	-9.51648500
184.19998923	0.00000000	-11.81717000	-9.47342500
184.39998922	0.00000000	-11.89715000	-9.47342500
184.59998921	0.00000000	-11.81717000	-9.47342500
184.79998920	0.00000000	-11.89715000	-9.47342500
184.99998919	0.00000000	-11.81717000	-9.47342500
185.19998918	0.00000000	-11.85408000	-9.47342500
185.39998916	0.00000000	-11.44193000	-9.47342500
185.59998915	0.00000000	-11.10974000	-9.47342500
185.79998914	0.00000000	-11.06668000	-9.47342500
185.99998913	0.00000000	-11.06668000	-9.51648500
186.19998912	0.00000000	-11.06668000	-9.89173200
186.39998910	0.00000000	-11.06668000	-10.62992000
186.59998909	0.00000000	-11.06668000	-11.00517000
186.79998908	0.00000000	-11.06668000	-11.00517000
186.99998907	0.00000000	-11.10974000	-10.62992000
187.19998906	0.00000000	-11.48499000	-9.89173200
187.39998904	0.00000000	-12.18012000	-9.47342500
187.59998903	0.00000000	-12.22933000	-9.09817800
187.79998902	0.00000000	-11.90330000	-8.72908400
187.99998901	0.00000000	-12.27239000	-9.09817800
188.19998900	0.00000000	-12.55536000	-9.43036400
188.39998899	0.00000000	-12.22933000	-9.43036400
188.59998897	0.00000000	-11.48499000	-9.09817800
188.79998896	0.00000000	-11.10974000	-8.77829600
188.99998895	0.00000000	-11.06668000	-9.51648500
189.19998894	0.00000000	-11.06668000	-10.58686000
189.39998893	0.00000000	-11.06668000	-11.00517000
189.59998891	0.00000000	-11.06668000	-11.04823000
189.79998890	0.00000000	-11.10974000	-11.00517000
189.99998889	0.00000000	-11.48499000	-10.62992000
190.19998888	0.00000000	-12.22933000	-9.89173200
190.39998887	0.00000000	-12.55536000	-9.51648500
190.59998885	0.00000000	-12.27239000	-9.47342500
190.79998884	0.00000000	-11.90330000	-9.47342500
190.99998883	0.00000000	-12.22933000	-9.47342500
191.19998882	0.00000000	-12.18012000	-9.47342500
191.39998881	0.00000000	-11.48499000	-9.47342500
191.59998880	0.00000000	-11.10974000	-9.47342500
191.79998878	0.00000000	-11.06668000	-9.47342500
191.99998877	0.00000000	-11.06668000	-9.47342500
192.19998876	0.00000000	-11.06668000	-9.47342500
192.39998875	0.00000000	-11.06668000	-9.51648500
192.59998874	0.00000000	-11.06668000	-9.84867000
192.79998872	0.00000000	-11.10974000	-10.21161000
192.99998871	0.00000000	-11.48499000	-9.84867000
193.19998870	0.00000000	-12.22933000	-9.51648500
193.39998869	0.00000000	-12.60458000	-9.47342500
193.59998868	0.00000000	-12.64764000	-9.47342500
193.79998866	0.00000000	-12.64764000	-9.47342500
193.99998865	0.00000000	-12.60458000	-9.47342500
194.19998864	0.00000000	-12.22933000	-9.47342500
194.39998863	0.00000000	-11.48499000	-9.47342500
194.59998862	0.00000000	-11.10974000	-9.47342500
194.79998861	0.00000000	-11.06668000	-9.47342500
194.99998859	0.00000000	-11.06668000	-9.47342500
195.19998858	0.00000000	-11.06668000	-9.47342500
195.39998857	0.00000000	-11.06668000	-9.47342500
195.59998856	0.00000000	-11.10974000	-9.47342500
195.79998855	0.00000000	-11.48499000	-9.47342500
195.99998853	0.00000000	-12.22933000	-9.47342500
