Time	Channel A	Channel B	Channel C
(us)	(V)	(mV)	(mV)

-4.49999956	0.00000000	11.81102000	-3.15575800
-4.29999957	0.00000000	11.44193000	-3.15575800
-4.09999958	0.00000000	11.10974000	-3.15575800
-3.89999959	0.00000000	11.10974000	-3.15575800
-3.69999960	0.00000000	11.44193000	-3.15575800
-3.49999962	0.00000000	11.81102000	-3.15575800
-3.29999963	0.00000000	11.44193000	-3.15575800
-3.09999964	0.00000000	11.10974000	-3.15575800
-2.89999965	0.00000000	11.06668000	-3.15575800
-2.69999966	0.00000000	11.06668000	-3.15575800
-2.49999968	0.00000000	11.06668000	-3.15575800
-2.29999969	0.00000000	11.10974000	-3.15575800
-2.09999970	0.00000000	11.44193000	-3.15575800
-1.89999971	0.00000000	11.81102000	-3.15575800
-1.69999972	0.00000000	11.44193000	-3.15575800
-1.49999973	0.00000000	11.10974000	-3.15575800
-1.29999975	0.00000000	11.06668000	-3.15575800
-1.09999976	0.00000000	11.06668000	-3.15575800
-0.89999977	0.00000000	11.10974000	-3.15575800
-0.69999978	0.00000000	11.44193000	-3.15575800
-0.49999979	0.00000000	11.81102000	-3.15575800
-0.29999981	0.31803640	11.48499000	-3.15575800
-0.09999982	0.63668800	11.48499000	-3.15575800
0.10000017	0.95533960	11.81102000	-3.15575800
0.30000016	1.11466500	11.44193000	-3.15575800
0.50000015	0.79601380	11.10974000	-3.15575800
0.70000013	0.15871060	11.06668000	-3.15575800
0.90000012	-0.63668800	11.06668000	-3.15575800
1.10000011	-1.59264300	11.06668000	-3.15575800
1.30000010	-2.38927200	11.06668000	-3.15575800
1.50000009	-2.70792300	11.10974000	-3.11269700
1.70000008	-2.38927200	11.48499000	-2.73745100
1.90000006	-0.95533960	12.18012000	-2.04232300
2.10000005	0.95533960	12.18012000	-2.04232300
2.30000004	3.02657500	11.48499000	-2.73745100
2.50000003	4.61921700	11.10974000	-3.11269700
2.70000002	5.41584600	11.06668000	-3.15575800
2.90000000	4.61921700	11.06668000	-3.15575800
3.09999999	2.54859700	11.06668000	-3.15575800
3.29999998	-0.63668800	11.06668000	-3.15575800
3.49999997	-3.98191400	11.06668000	-3.15575800
3.69999996	-6.84916400	11.06668000	-3.15575800
3.89999994	-7.96444400	11.06668000	-3.11269700
4.09999993	-7.16781500	11.10974000	-2.73745100
4.29999992	-4.45989200	11.48499000	-1.99311000
4.49999991	-0.31803640	12.18012000	-1.66707700
4.69999990	4.14124000	12.22933000	-1.99311000
4.89999989	7.64579200	11.86024000	-2.73745100
5.09999987	9.39837600	11.85408000	-3.11269700
5.29999986	8.92039900	11.44193000	-3.19881900
5.49999985	6.05315000	11.10974000	-3.53100400
5.69999984	1.59264300	11.06668000	-3.90009800
5.89999983	-3.18590100	11.06668000	-3.53100400
6.09999981	-7.16781500	11.10974000	-3.19881900
6.29999980	-9.23905000	11.48499000	-3.11269700
6.49999979	-9.07972400	12.22933000	-2.73745100
6.69999978	-6.53112700	12.60458000	-1.99311000
6.89999977	-2.70792300	12.64764000	-1.61786400
7.09999975	1.59264300	12.60458000	-1.57480300
7.29999974	5.25652100	12.22933000	-1.61786400
7.49999973	7.48646600	11.48499000	-1.99311000
7.69999972	7.48646600	11.15896000	-2.73745100
7.89999971	5.89382400	11.44193000	-3.11269700
8.09999970	2.86724900	11.81102000	-3.15575800
8.29999968	-0.31803640	11.44193000	-3.15575800
8.49999967	-3.18590100	11.10974000	-3.15575800
8.69999966	-4.93786900	11.10974000	-3.15575800
8.89999965	-5.09719500	11.44193000	-3.15575800
9.09999964	-4.14124000	11.81102000	-3.15575800
9.29999962	-2.38927200	11.44193000	-3.15575800
9.49999961	-0.31803640	11.10974000	-3.15575800
9.69999960	1.27399100	11.06668000	-3.15575800
9.89999959	2.38927200	11.06668000	-3.15575800
10.09999958	2.54859700	11.06668000	-3.15575800
10.29999956	2.07062000	11.06668000	-3.15575800
10.49999955	1.27399100	11.10974000	-3.15575800
10.69999954	0.47736220	11.44193000	-3.15575800
10.89999953	-0.31803640	11.81102000	-3.15575800
11.09999952	-0.79601380	11.44193000	-3.15575800
11.29999951	-0.95533960	11.10974000	-3.15575800
11.49999949	-0.95533960	11.06668000	-3.15575800
11.69999948	-0.63668800	11.06668000	-3.15575800
11.89999947	-0.31803640	11.10974000	-3.15575800
12.09999946	-0.15871060	11.44193000	-3.15575800
12.29999945	-0.15871060	11.81102000	-3.15575800
12.49999943	0.00000000	11.44193000	-3.15575800
12.69999942	0.00000000	11.10974000	-3.15575800
12.89999941	0.00000000	11.06668000	-3.15575800
13.09999940	0.00000000	11.06668000	-3.15575800
13.29999939	0.15871060	11.06668000	-3.15575800
13.49999937	0.00000000	11.06668000	-3.15575800
13.69999936	0.00000000	11.06668000	-3.15575800
13.89999935	0.00000000	11.06668000	-3.15575800
14.09999934	-0.15871060	11.06668000	-3.15575800
14.29999933	-0.15871060	11.06668000	-3.15575800
14.49999932	-0.15871060	11.06668000	-3.15575800
14.69999930	0.00000000	11.06668000	-3.15575800
14.89999929	0.00000000	11.06668000	-3.15575800
15.09999928	0.00000000	11.06668000	-3.15575800
15.29999927	0.00000000	11.06668000	-3.15575800
15.49999926	0.00000000	11.06668000	-3.15575800
15.69999924	0.00000000	11.06668000	-3.15575800
15.89999923	0.00000000	11.06668000	-3.15575800
16.09999922	0.00000000	11.06668000	-3.15575800
16.29999921	0.00000000	11.06668000	-3.15575800
16.49999920	0.00000000	11.10974000	-3.15575800
16.69999919	0.00000000	11.48499000	-3.15575800
16.89999917	0.00000000	12.22933000	-3.15575800
17.09999916	0.00000000	12.60458000	-3.15575800
17.29999915	0.00000000	12.64764000	-3.15575800
17.49999914	0.00000000	12.64764000	-3.15575800
17.69999913	0.00000000	12.60458000	-3.15575800
17.89999911	0.00000000	12.22933000	-3.15575800
18.09999910	0.00000000	11.39887000	-3.15575800
18.29999909	0.00000000	10.23007000	-3.15575800
18.49999908	0.00000000	8.32308000	-3.15575800
18.69999907	0.00000000	6.83439900	-3.15575800
18.89999905	0.00000000	6.41609200	-3.15575800
19.09999904	0.00000000	6.79133800	-3.15575800
19.29999903	0.00000000	8.04010800	-3.15575800
19.49999902	0.00000000	10.41462000	-3.15575800
19.69999901	0.00000000	14.27165000	-3.15575800
19.89999900	0.00000000	18.46087000	-3.15575800
20.09999898	0.00000000	21.53666000	-3.15575800
20.29999897	0.00000000	22.69316000	-3.15575800
20.49999896	0.00000000	21.48745000	-3.15575800
20.69999895	0.00000000	17.95029000	-3.15575800
20.89999894	0.00000000	12.09400000	-3.15575800
21.09999892	0.00000000	4.74286400	-3.15575800
21.29999891	0.00000000	-2.56520700	-3.15575800
21.49999890	0.00000000	-7.91092400	-3.15575800
21.69999889	0.00000000	-9.35654400	-3.11269700
21.89999888	0.00000000	-5.86860200	-2.78051200
22.09999886	0.00000000	2.31299200	-2.41141700
22.29999885	0.00000000	13.57652000	-2.78051200
22.49999884	0.00000000	26.32259000	-3.11269700
22.69999883	0.00000000	37.40157000	-3.15575800
22.89999882	0.00000000	43.12869000	-3.11269700
23.09999881	0.00000000	41.54773000	-2.73745100
23.29999879	0.00000000	32.60949000	-1.99311000
23.49999878	0.00000000	17.86417000	-1.61786400
23.69999877	0.00000000	0.09227362	-1.53174200
23.89999876	0.00000000	-16.84301000	-1.19955700
24.09999875	0.00000000	-28.34030000	-0.87967510
24.29999873	0.00000000	-31.03469000	-1.62401600
24.49999872	0.00000000	-24.01575000	-2.78051200
24.69999871	0.00000000	-8.51993000	-3.99237200
24.89999870	0.00000000	12.73991000	-5.89320800
25.09999869	0.00000000	34.70103000	-7.42495000
25.29999867	0.00000000	52.10384000	-8.22465500
25.49999866	0.00000000	60.94365000	-8.54453700
25.69999865	0.00000000	58.94439000	-7.33882900
25.89999864	0.00000000	45.77386000	-4.64443900
26.09999863	0.00000000	24.18799000	-1.15649600
26.29999862	0.00000000	-0.51673230	2.73745100
26.49999860	0.00000000	-22.57013000	6.17618100
26.69999859	0.00000000	-37.22933000	8.45226300
26.89999858	0.00000000	-41.08636000	8.36614100
27.09999857	0.00000000	-32.94783000	5.25344500
27.29999856	0.00000000	-14.84375000	-0.55364170
27.49999854	0.00000000	9.06742000	-7.89247000
27.69999853	0.00000000	32.65871000	-15.23130000
27.89999852	0.00000000	50.89813000	-20.99532000
28.09999851	0.00000000	60.52534000	-23.64665000
28.29999850	0.00000000	58.98745000	-22.02264000
28.49999848	0.00000000	46.70890000	-15.79724000
28.69999847	0.00000000	27.44217000	-5.71481200
28.89999846	0.00000000	5.76402500	6.26845500
29.09999845	0.00000000	-13.58883000	17.79650000
29.29999844	0.00000000	-26.80241000	25.83046000
29.49999843	0.00000000	-31.45915000	27.69439000
29.69999841	0.00000000	-26.89468000	22.67470000
29.89999840	0.00000000	-14.56693000	11.43578000
30.09999839	0.00000000	2.04847400	-3.62327700
30.29999838	0.00000000	19.48819000	-19.46358000
30.49999837	0.00000000	34.19045000	-32.56643000
30.69999835	0.00000000	43.17175000	-39.86220000
30.89999834	0.00000000	45.12795000	-39.44390000
31.09999833	0.00000000	40.14518000	-30.94242000
31.29999832	0.00000000	29.34916000	-16.25861000
31.49999831	0.00000000	15.85261000	1.53174200
31.69999829	0.00000000	2.60211600	18.90994000
31.89999828	0.00000000	-8.24311000	32.01279000
32.09999827	0.00000000	-14.79454000	37.81988000
32.29999826	0.00000000	-15.21900000	35.08243000
32.49999825	0.00000000	-9.91018600	24.29257000
32.69999824	0.00000000	-0.98425190	7.67101300
32.89999822	0.00000000	9.86097400	-10.86983000
33.09999821	0.00000000	20.69390000	-27.87278000
33.29999820	0.00000000	28.75246000	-39.44390000
33.49999819	0.00000000	32.28346000	-42.97490000
33.69999818	0.00000000	30.41954000	-38.33046000
33.89999816	0.00000000	24.69857000	-26.38410000
34.09999815	0.00000000	16.92298000	-9.75639700
34.29999814	0.00000000	8.41535400	7.62180000
34.49999813	0.00000000	1.10728300	22.67470000
34.69999812	0.00000000	-3.12500000	31.55143000
34.89999810	0.00000000	-3.16806100	32.38804000
35.09999809	0.00000000	0.59670270	25.87352000
35.29999808	0.00000000	6.36687900	13.47810000
35.49999807	0.00000000	12.55536000	-1.90698800
35.69999806	0.00000000	17.95029000	-16.95374000
35.89999805	0.00000000	21.02608000	-27.73745000
36.09999803	0.00000000	21.06914000	-32.05585000
36.29999802	0.00000000	18.37475000	-29.40452000
36.49999801	0.00000000	13.76107000	-20.95226000
36.69999800	0.00000000	8.41535400	-9.00590400
36.89999799	0.00000000	4.18307100	3.71555100
37.09999797	0.00000000	2.22687000	14.03789000
37.29999796	0.00000000	2.60211600	19.05143000
37.49999795	0.00000000	5.29650500	17.19365000
37.69999794	0.00000000	9.52879000	9.99015700
37.89999793	0.00000000	14.13632000	-0.04306102
38.09999791	0.00000000	17.99951000	-10.36540000
38.29999790	0.00000000	19.95571000	-18.02411000
38.49999789	0.00000000	19.95571000	-20.35556000
38.69999788	0.00000000	17.99951000	-17.32899000
38.89999787	0.00000000	14.18553000	-10.03322000
39.09999786	0.00000000	9.95324800	-0.46136810
39.29999784	0.00000000	6.45915300	8.31692900
39.49999783	0.00000000	4.09079700	13.66265000
39.69999782	0.00000000	3.29724400	13.66265000
39.89999781	0.00000000	3.67249000	8.31692900
40.09999780	0.00000000	5.25344500	-0.51058070
40.29999778	0.00000000	7.99704600	-10.49459000
40.49999777	0.00000000	11.44193000	-18.90994000
40.69999776	0.00000000	14.92372000	-23.09301000
40.89999775	0.00000000	17.25517000	-21.55512000
41.09999774	0.00000000	18.46087000	-14.67766000
41.29999772	0.00000000	18.46087000	-4.69365100
41.49999771	0.00000000	17.29823000	5.67175200
41.69999770	0.00000000	15.34203000	13.74877000
41.89999769	0.00000000	12.60458000	17.19365000
42.09999768	0.00000000	9.52879000	15.32972000
42.29999767	0.00000000	6.83439900	8.82750900
42.49999765	0.00000000	5.25344500	0.00000000
42.69999764	0.00000000	4.83513700	-8.91978400
42.89999763	0.00000000	5.21038300	-16.21555000
43.09999762	0.00000000	6.41609200	-20.06643000
43.29999761	0.00000000	8.32308000	-19.32825000
43.49999759	0.00000000	10.64838000	-14.76993000
43.69999758	0.00000000	12.55536000	-7.84940900
43.89999757	0.00000000	13.76107000	-0.55364170
44.09999756	0.00000000	14.22859000	5.25344500
44.29999755	0.00000000	14.64690000	8.36614100
44.49999753	0.00000000	15.39124000	8.45226300
44.69999752	0.00000000	15.76649000	6.13312000
44.89999751	0.00000000	15.76649000	2.31914400
45.09999750	0.00000000	15.34203000	-2.31914400
45.29999749	0.00000000	14.18553000	-6.17618100
45.49999748	0.00000000	12.55536000	-8.91978400
45.69999746	0.00000000	10.18086000	-10.07628000
45.89999745	0.00000000	6.69906400	-9.38115100
46.09999744	0.00000000	3.29724400	-7.84940900
46.29999743	0.00000000	0.97194880	-5.85014700
46.49999742	0.00000000	0.59670270	-3.15575800
46.69999740	0.00000000	2.17765700	-0.51058070
46.89999739	0.00000000	5.76402500	1.06422200
47.09999738	0.00000000	11.57726000	1.48253000
47.29999737	0.00000000	18.46087000	1.11343500
47.49999736	0.00000000	24.23105000	-0.09227362
47.69999734	0.00000000	27.30069000	-1.99311000
47.89999733	0.00000000	26.92544000	-4.36146600
48.09999732	0.00000000	22.98228000	-6.64370100
48.29999731	0.00000000	16.04331000	-8.54453700
48.49999730	0.00000000	7.16043300	-8.91978400
48.69999729	0.00000000	-0.89197830	-7.80019600
48.89999727	0.00000000	-6.32997000	-5.85014700
49.09999726	0.00000000	-7.86786400	-3.11269700
49.29999725	0.00000000	-5.12426100	-0.04306102
49.49999724	0.00000000	1.43946800	2.64517700
49.69999723	0.00000000	10.69144000	4.14000900
49.89999721	0.00000000	19.95571000	3.71555100
50.09999720	0.00000000	27.25763000	1.07037400
50.29999719	0.00000000	30.69636000	-2.78051200
50.49999718	0.00000000	28.79552000	-6.64370100
50.69999717	0.00000000	22.69316000	-10.11934000
50.89999715	0.00000000	14.18553000	-11.98327000
51.09999714	0.00000000	5.33956700	-11.61417000
51.29999713	0.00000000	-1.63016700	-8.91978400
51.49999712	0.00000000	-5.08120100	-4.69365100
51.69999711	0.00000000	-4.33070900	-0.09227362
51.89999710	0.00000000	0.64591530	3.76476400
52.09999708	0.00000000	7.90477300	5.71481200
52.29999707	0.00000000	15.25591000	5.71481200
52.49999706	0.00000000	21.06914000	3.76476400
52.69999705	0.00000000	24.13878000	-0.04306102
52.89999704	0.00000000	23.72047000	-4.26919300
53.09999702	0.00000000	19.53125000	-7.75713500
53.29999701	0.00000000	13.02288000	-10.07628000
53.49999700	0.00000000	6.50221400	-10.45152000
53.69999699	0.00000000	1.48253000	-8.91978400
53.89999698	0.00000000	-0.38139760	-5.89320800
54.09999696	0.00000000	1.43946800	-2.46063000
54.29999695	0.00000000	6.04084600	-0.13533460
54.49999694	0.00000000	11.39887000	1.06422200
54.69999693	0.00000000	16.46161000	1.02116100
54.89999692	0.00000000	19.86343000	-0.46751960
55.09999691	0.00000000	20.69390000	-2.73745100
55.29999689	0.00000000	18.74385000	-4.64443900
55.49999688	0.00000000	14.92372000	-5.75787400
55.69999687	0.00000000	9.90403500	-5.38262700
55.89999686	0.00000000	5.33956700	-3.48179100
56.09999685	0.00000000	2.64517700	-1.24877000
56.29999683	0.00000000	2.60211600	0.69512790
56.49999682	0.00000000	4.87819900	1.39640700
56.69999681	0.00000000	8.37229300	0.60285430
56.89999680	0.00000000	12.55536000	-2.12844500
57.09999679	0.00000000	16.04331000	-6.26845500
57.29999677	0.00000000	17.58735000	-10.11934000
57.49999676	0.00000000	17.62426000	-12.40157000
57.69999675	0.00000000	15.67421000	-12.77067000
57.89999674	0.00000000	12.69070000	-10.40846000
58.09999673	0.00000000	9.95324800	-5.80093500
58.29999672	0.00000000	7.99704600	0.00000000
58.49999670	0.00000000	6.83439900	5.71481200
58.69999669	0.00000000	6.83439900	9.56569900
58.89999668	0.00000000	7.94783400	10.31619000
59.09999667	0.00000000	9.48572700	7.99089500
59.29999666	0.00000000	11.06668000	2.55905500
59.49999664	0.00000000	12.55536000	-4.73671200
59.69999663	0.00000000	13.29970000	-12.03248000
59.89999662	0.00000000	12.60458000	-17.37205000
60.09999661	0.00000000	11.48499000	-18.90994000
60.29999660	0.00000000	10.69144000	-16.25861000
60.49999658	0.00000000	9.90403500	-10.45152000
60.69999657	0.00000000	9.57800100	-2.73745100
60.89999656	0.00000000	9.95324800	5.33956700
61.09999655	0.00000000	11.10974000	11.47884000
61.29999654	0.00000000	12.60458000	14.16708000
61.49999653	0.00000000	13.76107000	12.59227000
61.69999651	0.00000000	14.13632000	6.83439900
61.89999650	0.00000000	13.71801000	-1.57480300
62.09999649	0.00000000	12.18012000	-10.07628000
62.29999648	0.00000000	9.90403500	-16.63386000
62.49999647	0.00000000	7.94783400	-20.15871000
62.69999645	0.00000000	6.36687900	-19.74655000
62.89999644	0.00000000	5.29650500	-15.88336000
63.09999643	0.00000000	5.71481200	-8.91978400
63.29999642	0.00000000	7.99704600	-0.51058070
63.49999641	0.00000000	11.02362000	6.82824800
63.69999639	0.00000000	13.76107000	11.47884000
63.89999638	0.00000000	15.71727000	12.63533000
64.09999637	0.00000000	16.83686000	9.99015700
64.29999636	0.00000000	16.41855000	4.64443900
64.49999635	0.00000000	14.13632000	-1.57480300
64.69999634	0.00000000	11.10974000	-7.75713500
64.89999632	0.00000000	8.37229300	-12.77067000
65.09999631	0.00000000	6.41609200	-15.14518000
65.29999630	0.00000000	5.25344500	-15.18824000
65.49999629	0.00000000	5.29650500	-13.23819000
65.69999628	0.00000000	6.83439900	-9.38115100
65.89999626	0.00000000	9.48572700	-4.77977300
66.09999625	0.00000000	12.18012000	-0.46751960
66.29999624	0.00000000	14.09326000	3.02042300
66.49999623	0.00000000	14.88066000	5.38262700
66.69999622	0.00000000	14.09326000	6.13312000
66.89999620	0.00000000	12.22933000	5.43184000
67.09999619	0.00000000	9.90403500	3.48179100
67.29999618	0.00000000	8.04010800	1.15649600
67.49999617	0.00000000	7.25270600	-1.62401600
67.69999616	0.00000000	8.04010800	-4.73671200
67.89999615	0.00000000	9.95324800	-7.84940900
68.09999613	0.00000000	12.60458000	-10.53765000
68.29999612	0.00000000	14.92372000	-12.07554000
68.49999611	0.00000000	16.04946000	-12.11860000
68.69999610	0.00000000	16.04331000	-10.91289000
68.89999609	0.00000000	14.05020000	-8.54453700
69.09999607	0.00000000	10.64838000	-4.64443900
69.29999606	0.00000000	6.74212600	0.00000000
69.49999605	0.00000000	3.34030500	4.60137700
69.69999604	0.00000000	1.43946800	8.03395600
69.89999603	0.00000000	2.22687000	8.78444900
70.09999601	0.00000000	5.29650500	6.92052100
70.29999600	0.00000000	9.95324800	3.02042300
70.49999599	0.00000000	15.29897000	-1.99311000
70.69999598	0.00000000	19.58046000	-7.42495000
70.89999597	0.00000000	21.90576000	-11.98327000
71.09999596	0.00000000	22.23179000	-14.35162000
71.29999594	0.00000000	19.48819000	-13.98253000
71.49999593	0.00000000	14.13632000	-11.65723000
71.69999592	0.00000000	7.94783400	-7.43110200
71.89999591	0.00000000	2.17765700	-2.46063000
72.09999590	0.00000000	-1.67938000	1.44562000
72.29999588	0.00000000	-2.47293300	4.13385800
72.49999587	0.00000000	-0.55979330	4.92125900
72.69999586	0.00000000	3.71555100	3.43873000
72.89999585	0.00000000	9.48572700	1.15649600
73.09999584	0.00000000	15.29897000	-1.58095500
73.29999582	0.00000000	19.95571000	-4.22613100
73.49999581	0.00000000	22.65010000	-5.75787400
73.69999580	0.00000000	22.65010000	-5.80093500
73.89999579	0.00000000	19.95571000	-4.73671200
74.09999578	0.00000000	15.34203000	-3.57406500
74.29999577	0.00000000	9.95324800	-2.82357300
74.49999575	0.00000000	5.33956700	-2.46063000
74.69999574	0.00000000	2.60211600	-3.24803100
74.89999573	0.00000000	2.13459600	-4.73671200
75.09999572	0.00000000	3.29724400	-6.26845500
75.29999571	0.00000000	5.62869100	-7.38188900
75.49999569	0.00000000	9.11048200	-7.33882900
75.69999568	0.00000000	12.51230000	-5.80093500
75.89999567	0.00000000	14.88066000	-3.06348400
76.09999566	0.00000000	15.67421000	0.37524600
76.29999565	0.00000000	15.34203000	3.80782500
76.49999563	0.00000000	14.18553000	5.67175200
76.69999562	0.00000000	12.64764000	5.29650500
76.89999561	0.00000000	11.10974000	2.55905500
77.09999560	0.00000000	9.95324800	-2.04232300
77.29999559	0.00000000	9.52879000	-7.42495000
77.49999558	0.00000000	9.52879000	-12.07554000
77.69999556	0.00000000	9.86097400	-15.14518000
77.89999555	0.00000000	10.23007000	-15.88336000
78.09999554	0.00000000	9.81791200	-13.56422000
78.29999553	0.00000000	9.11048200	-8.96284400
78.49999552	0.00000000	8.32308000	-3.15575800
78.69999550	0.00000000	7.94783400	2.64517700
78.89999549	0.00000000	7.99704600	7.24655500
79.09999548	0.00000000	8.79060000	9.56569900
79.29999547	0.00000000	10.73450000	8.82750900
79.49999546	0.00000000	12.97982000	5.75787400
79.69999544	0.00000000	14.92372000	1.06422200
79.89999543	0.00000000	15.67421000	-4.69365100
80.09999542	0.00000000	15.34203000	-10.07628000
80.29999541	0.00000000	14.13632000	-13.56422000
80.49999540	0.00000000	12.18012000	-14.76993000
80.69999539	0.00000000	9.48572700	-13.65650000
80.89999537	0.00000000	6.83439900	-10.96211000
81.09999536	0.00000000	5.29650500	-7.43110200
81.29999535	0.00000000	5.25344500	-3.15575800
81.49999534	0.00000000	6.41609200	1.07037400
81.69999533	0.00000000	8.37229300	4.18307100
81.89999531	0.00000000	11.06668000	5.75787400
82.09999530	0.00000000	13.71801000	5.80093500
82.29999529	0.00000000	15.29897000	4.64443900
82.49999528	0.00000000	15.67421000	2.64517700
82.69999527	0.00000000	14.92372000	-0.46751960
82.89999525	0.00000000	13.02288000	-4.31840500
83.09999524	0.00000000	11.10974000	-7.80019600
83.29999523	0.00000000	9.52879000	-10.53765000
83.49999522	0.00000000	8.37229300	-12.07554000
83.69999521	0.00000000	7.99704600	-12.07554000
83.89999520	0.00000000	8.32308000	-10.53765000
84.09999518	0.00000000	9.11048200	-7.80019600
84.29999517	0.00000000	9.86097400	-4.26919300
84.49999516	0.00000000	10.64838000	-0.04306102
84.69999515	0.00000000	11.02362000	3.80782500
84.89999514	0.00000000	11.06668000	6.13312000
85.09999512	0.00000000	11.06668000	6.87130900
85.29999511	0.00000000	11.06668000	5.33956700
85.49999510	0.00000000	11.10974000	1.86392700
85.69999509	0.00000000	11.48499000	-2.36835600
85.89999508	0.00000000	12.22933000	-7.05585600
86.09999506	0.00000000	12.60458000	-10.86983000
86.29999505	0.00000000	12.60458000	-13.18898000
86.49999504	0.00000000	12.18012000	-13.18898000
86.69999503	0.00000000	11.02362000	-10.86983000
86.89999502	0.00000000	9.52879000	-7.00664300
87.09999501	0.00000000	8.32308000	-1.99311000
87.29999499	0.00000000	7.57258800	2.60211600
87.49999498	0.00000000	7.20964500	5.71481200
87.69999497	0.00000000	7.99704600	6.87130900
87.89999496	0.00000000	9.48572700	5.67175200
88.09999495	0.00000000	11.06668000	2.22687000
88.29999493	0.00000000	12.60458000	-2.73745100
88.49999492	0.00000000	13.76107000	-7.33882900
88.69999491	0.00000000	14.13632000	-10.45152000
88.89999490	0.00000000	13.76107000	-11.60802000
89.09999489	0.00000000	12.55536000	-10.49459000
89.29999487	0.00000000	10.69144000	-7.75713500
89.49999486	0.00000000	8.79060000	-3.90009800
89.69999485	0.00000000	7.99704600	0.69512790
89.89999484	0.00000000	7.90477300	4.09079700
90.09999483	0.00000000	7.94783400	5.29650500
90.29999482	0.00000000	8.37229300	4.13385800
90.49999480	0.00000000	9.52879000	1.07037400
90.69999479	0.00000000	11.02362000	-3.15575800
90.89999478	0.00000000	12.18012000	-7.33882900
91.09999477	0.00000000	12.60458000	-10.03322000
91.29999476	0.00000000	12.60458000	-10.45152000
91.49999474	0.00000000	12.22933000	-8.91978400
91.69999473	0.00000000	11.48499000	-5.80093500
91.89999472	0.00000000	11.10974000	-1.62401600
92.09999471	0.00000000	11.06668000	2.22687000
92.29999470	0.00000000	11.06668000	4.50910400
92.49999468	0.00000000	11.02362000	4.87819900
92.69999467	0.00000000	10.64838000	2.55905500
92.89999466	0.00000000	9.86097400	-1.57480300
93.09999465	0.00000000	9.11048200	-5.85014700
93.29999464	0.00000000	8.32308000	-9.33809000
93.49999463	0.00000000	7.94783400	-11.61417000
93.69999461	0.00000000	7.94783400	-11.56496000
93.89999460	0.00000000	8.37229300	-8.91978400
94.09999459	0.00000000	9.57800100	-4.73671200
94.29999458	0.00000000	11.44193000	-0.51058070
94.49999457	0.00000000	13.39198000	2.60211600
94.69999455	0.00000000	14.56078000	4.14000900
94.89999454	0.00000000	15.34203000	3.71555100
95.09999453	0.00000000	15.25591000	1.02116100
95.29999452	0.00000000	13.71801000	-3.15575800
95.49999451	0.00000000	11.02362000	-7.33882900
95.69999449	0.00000000	7.94783400	-10.07628000
95.89999448	0.00000000	5.25344500	-10.86983000
96.09999447	0.00000000	3.71555100	-10.07628000
96.29999446	0.00000000	3.71555100	-7.38188900
96.49999445	0.00000000	5.25344500	-3.57406500
96.69999444	0.00000000	7.94783400	-0.13533460
96.89999442	0.00000000	11.10974000	2.18380900
97.09999441	0.00000000	14.60384000	2.60211600
97.29999440	0.00000000	17.99951000	1.48868100
97.49999439	0.00000000	19.53125000	-0.46751960
97.69999438	0.00000000	18.83612000	-3.15575800
97.89999436	0.00000000	16.87992000	-5.80093500
98.09999435	0.00000000	13.71801000	-7.33882900
98.29999434	0.00000000	9.52879000	-7.38188900
98.49999433	0.00000000	5.67175200	-6.26845500
98.69999432	0.00000000	3.29724400	-4.73671200
98.89999430	0.00000000	2.13459600	-3.19881900
99.09999429	0.00000000	2.55290300	-2.04232300
99.29999428	0.00000000	4.87819900	-1.61786400
99.49999427	0.00000000	8.32308000	-1.61786400
99.69999426	0.00000000	12.22933000	-1.99311000
99.89999425	0.00000000	15.67421000	-2.68823800
100.09999423	0.00000000	17.99951000	-2.68823800
100.29999422	0.00000000	18.41781000	-1.99311000
100.49999421	0.00000000	17.29823000	-1.61786400
100.69999420	0.00000000	15.34203000	-1.57480300
100.89999419	0.00000000	12.60458000	-1.61786400
101.09999417	0.00000000	9.52879000	-2.04232300
101.29999416	0.00000000	6.79133800	-3.19881900
101.49999415	0.00000000	4.83513700	-4.68750000
101.69999414	0.00000000	3.71555100	-5.85014700
101.89999413	0.00000000	4.09079700	-6.26845500
102.09999411	0.00000000	5.99163300	-6.26845500
102.29999410	0.00000000	8.32308000	-5.80093500
102.49999409	0.00000000	11.06668000	-4.22613100
102.69999408	0.00000000	13.71801000	-1.58095500
102.89999407	0.00000000	15.25591000	1.07037400
103.09999406	0.00000000	15.34203000	2.60211600
103.29999404	0.00000000	14.56078000	2.60211600
103.49999403	0.00000000	13.39198000	1.07037400
103.69999402	0.00000000	11.44193000	-1.62401600
103.89999401	0.00000000	9.52879000	-4.68750000
104.09999400	0.00000000	7.94783400	-7.38188900
104.29999398	0.00000000	6.79133800	-8.96284400
104.49999397	0.00000000	6.41609200	-9.33809000
104.69999396	0.00000000	6.79133800	-8.54453700
104.89999395	0.00000000	7.94783400	-6.22539300
105.09999394	0.00000000	9.48572700	-3.19881900
105.29999392	0.00000000	11.02362000	-0.46751960
105.49999391	0.00000000	12.18012000	1.43946800
105.69999390	0.00000000	12.55536000	2.22687000
105.89999389	0.00000000	12.22933000	1.43946800
106.09999388	0.00000000	11.44193000	-0.46751960
106.29999387	0.00000000	10.64838000	-3.15575800
106.49999385	0.00000000	9.48572700	-5.80093500
106.69999384	0.00000000	8.41535400	-7.33882900
106.89999383	0.00000000	8.37229300	-7.38188900
107.09999382	0.00000000	9.11048200	-6.26845500
107.29999381	0.00000000	9.90403500	-4.73671200
107.49999379	0.00000000	11.06668000	-3.15575800
107.69999378	0.00000000	12.13706000	-1.66707700
107.89999377	0.00000000	12.18012000	-0.87967510
108.09999376	0.00000000	11.44193000	-1.24877000
108.29999375	0.00000000	10.64838000	-1.99311000
108.49999374	0.00000000	9.44266700	-3.19881900
108.69999372	0.00000000	7.99704600	-4.68750000
108.89999371	0.00000000	7.20964500	-5.85014700
109.09999370	0.00000000	7.57258800	-6.17618100
109.29999369	0.00000000	8.32308000	-5.43184000
109.49999368	0.00000000	9.52879000	-3.53100400
109.69999366	0.00000000	11.06668000	-1.66707700
109.89999365	0.00000000	12.60458000	-0.46136810
110.09999364	0.00000000	13.71801000	-0.09227362
110.29999363	0.00000000	13.71801000	-0.46136810
110.49999362	0.00000000	12.60458000	-1.62401600
110.69999360	0.00000000	11.06668000	-3.15575800
110.89999359	0.00000000	9.48572700	-4.68750000
111.09999358	0.00000000	7.94783400	-5.85014700
111.29999357	0.00000000	6.83439900	-6.26845500
111.49999356	0.00000000	6.83439900	-6.26845500
111.69999355	0.00000000	7.94783400	-5.85014700
111.89999353	0.00000000	9.44266700	-4.73671200
112.09999352	0.00000000	10.64838000	-3.57406500
112.29999351	0.00000000	11.44193000	-2.78051200
112.49999350	0.00000000	12.22933000	-1.99311000
112.69999349	0.00000000	12.55536000	-1.61786400
112.89999347	0.00000000	12.22933000	-1.61786400
113.09999346	0.00000000	11.44193000	-1.99311000
113.29999345	0.00000000	10.69144000	-2.73745100
113.49999344	0.00000000	9.90403500	-3.11269700
113.69999343	0.00000000	9.48572700	-3.19881900
113.89999341	0.00000000	9.11048200	-3.53100400
114.09999340	0.00000000	8.74138700	-3.90009800
114.29999339	0.00000000	9.11048200	-3.57406500
114.49999338	0.00000000	9.48572700	-3.62327700
114.69999337	0.00000000	9.90403500	-4.31840500
114.89999336	0.00000000	10.64838000	-4.69365100
115.09999334	0.00000000	11.02362000	-4.73671200
115.29999333	0.00000000	11.06668000	-4.69365100
115.49999332	0.00000000	11.06668000	-4.31840500
115.69999331	0.00000000	11.02362000	-3.57406500
115.89999330	0.00000000	10.64838000	-3.19881900
116.09999328	0.00000000	9.86097400	-3.11269700
116.29999327	0.00000000	9.11048200	-2.73745100
116.49999326	0.00000000	8.32308000	-1.99311000
116.69999325	0.00000000	7.99704600	-1.61786400
116.89999324	0.00000000	8.32308000	-1.61786400
117.09999322	0.00000000	9.11048200	-1.99311000
117.29999321	0.00000000	9.90403500	-2.78051200
117.49999320	0.00000000	11.10974000	-3.53100400
117.69999319	0.00000000	12.55536000	-4.31840500
117.89999318	0.00000000	13.34276000	-4.69365100
118.09999317	0.00000000	12.97982000	-4.73671200
118.29999315	0.00000000	12.27239000	-4.73671200
118.49999314	0.00000000	11.44193000	-4.69365100
118.69999313	0.00000000	10.64838000	-4.31840500
118.89999312	0.00000000	9.48572700	-3.53100400
119.09999311	0.00000000	8.32308000	-2.78051200
119.29999309	0.00000000	7.57258800	-1.99311000
119.49999308	0.00000000	7.20964500	-1.61786400
119.69999307	0.00000000	7.94783400	-1.57480300
119.89999306	0.00000000	9.06742000	-1.61786400
120.09999305	0.00000000	9.90403500	-1.99311000
120.29999303	0.00000000	11.06668000	-2.73745100
120.49999302	0.00000000	12.18012000	-3.15575800
120.69999301	0.00000000	12.60458000	-3.53100400
120.89999300	0.00000000	12.60458000	-3.94315900
121.09999299	0.00000000	12.18012000	-3.94931100
121.29999298	0.00000000	11.06668000	-4.36146600
121.49999296	0.00000000	9.90403500	-4.69365100
121.69999295	0.00000000	9.06742000	-4.73671200
121.89999294	0.00000000	7.94783400	-4.69365100
122.09999293	0.00000000	7.20964500	-4.31840500
122.29999292	0.00000000	7.57258800	-3.53100400
122.49999290	0.00000000	8.28001900	-2.78051200
122.69999289	0.00000000	9.11048200	-1.99311000
122.89999288	0.00000000	9.86097400	-1.61786400
123.09999287	0.00000000	10.69144000	-1.57480300
123.29999286	0.00000000	11.44193000	-1.61786400
123.49999284	0.00000000	12.22933000	-1.99311000
123.69999283	0.00000000	12.55536000	-2.78051200
123.89999282	0.00000000	12.22933000	-3.53100400
124.09999281	0.00000000	11.44193000	-4.31840500
124.29999280	0.00000000	10.69144000	-4.69365100
124.49999279	0.00000000	9.90403500	-4.73671200
124.69999277	0.00000000	9.48572700	-4.69365100
124.89999276	0.00000000	9.06742000	-4.31840500
125.09999275	0.00000000	8.32308000	-3.57406500
125.29999274	0.00000000	7.99704600	-3.15575800
125.49999273	0.00000000	8.32308000	-2.73745100
125.69999271	0.00000000	9.11048200	-1.99311000
125.89999270	0.00000000	9.86097400	-1.66707700
126.09999269	0.00000000	10.69144000	-1.99311000
126.29999268	0.00000000	11.44193000	-2.73745100
126.49999267	0.00000000	12.22933000	-3.11269700
126.69999265	0.00000000	12.55536000	-3.15575800
126.89999264	0.00000000	12.22933000	-3.15575800
127.09999263	0.00000000	11.44193000	-3.19881900
127.29999262	0.00000000	10.64838000	-3.57406500
127.49999261	0.00000000	9.48572700	-4.31840500
127.69999260	0.00000000	8.37229300	-4.64443900
127.89999258	0.00000000	7.94783400	-4.31840500
128.09999257	0.00000000	7.94783400	-3.57406500
128.29999256	0.00000000	8.37229300	-3.19881900
128.49999255	0.00000000	9.48572700	-3.15575800
128.69999254	0.00000000	10.64838000	-3.15575800
128.89999252	0.00000000	11.44193000	-3.15575800
129.09999251	0.00000000	12.22933000	-3.15575800
129.29999250	0.00000000	12.55536000	-3.15575800
129.49999249	0.00000000	12.18012000	-3.19881900
129.69999248	0.00000000	11.02362000	-3.57406500
129.89999246	0.00000000	9.52879000	-4.26919300
130.09999245	0.00000000	8.37229300	-4.26919300
130.29999244	0.00000000	7.94783400	-3.57406500
130.49999243	0.00000000	7.94783400	-3.15575800
130.69999242	0.00000000	8.37229300	-2.73745100
130.89999241	0.00000000	9.48572700	-2.04232300
131.09999239	0.00000000	10.59916000	-2.04232300
131.29999238	0.00000000	11.06668000	-2.73745100
131.49999237	0.00000000	11.44193000	-3.15575800
131.69999236	0.00000000	11.81102000	-3.57406500
131.89999235	0.00000000	11.39887000	-4.31840500
132.09999233	0.00000000	10.69144000	-4.69365100
132.29999232	0.00000000	9.86097400	-4.73671200
132.49999231	0.00000000	9.15354300	-4.69365100
132.69999230	0.00000000	8.74138700	-4.31840500
132.89999229	0.00000000	9.11048200	-3.53100400
133.09999227	0.00000000	9.44266700	-2.78051200
133.29999226	0.00000000	9.52879000	-1.99311000
133.49999225	0.00000000	9.90403500	-1.61786400
133.69999224	0.00000000	10.59916000	-1.57480300
133.89999223	0.00000000	10.59916000	-1.61786400
134.09999222	0.00000000	9.90403500	-1.99311000
134.29999220	0.00000000	9.52879000	-2.78051200
134.49999219	0.00000000	9.48572700	-3.53100400
134.69999218	0.00000000	9.48572700	-4.31840500
134.89999217	0.00000000	9.48572700	-4.73671200
135.09999216	0.00000000	9.52879000	-5.11195900
135.29999214	0.00000000	9.90403500	-5.47490100
135.49999213	0.00000000	10.64838000	-5.06274600
135.69999212	0.00000000	10.97441000	-4.36146600
135.89999211	0.00000000	10.64838000	-3.53100400
136.09999210	0.00000000	9.90403500	-2.78051200
136.29999208	0.00000000	9.48572700	-1.99311000
136.49999207	0.00000000	9.06742000	-1.61786400
136.69999206	0.00000000	8.32308000	-1.61786400
136.89999205	0.00000000	7.99704600	-1.99311000
137.09999204	0.00000000	8.32308000	-2.73745100
137.29999203	0.00000000	9.11048200	-3.15575800
137.49999201	0.00000000	9.86097400	-3.57406500
137.69999200	0.00000000	10.64838000	-4.31840500
137.89999199	0.00000000	11.02362000	-4.69365100
138.09999198	0.00000000	11.06668000	-4.73671200
138.29999197	0.00000000	11.02362000	-4.73671200
138.49999195	0.00000000	10.64838000	-4.73671200
138.69999194	0.00000000	9.86097400	-4.69365100
138.89999193	0.00000000	9.11048200	-4.31840500
139.09999192	0.00000000	8.32308000	-3.53100400
139.29999191	0.00000000	7.94783400	-2.78051200
139.49999189	0.00000000	7.94783400	-1.99311000
139.69999188	0.00000000	8.37229300	-1.61786400
139.89999187	0.00000000	9.48572700	-1.57480300
140.09999186	0.00000000	10.59916000	-1.61786400
140.29999185	0.00000000	11.02362000	-2.04232300
140.49999184	0.00000000	11.06668000	-3.15575800
140.69999182	0.00000000	11.06668000	-4.26919300
140.89999181	0.00000000	11.02362000	-4.73671200
141.09999180	0.00000000	10.64838000	-5.11195900
141.29999179	0.00000000	9.90403500	-5.47490100
141.49999178	0.00000000	9.52879000	-5.06274600
141.69999176	0.00000000	9.48572700	-4.31840500
141.89999175	0.00000000	9.48572700	-3.15575800
142.09999174	0.00000000	9.52879000	-1.99311000
142.29999173	0.00000000	9.90403500	-1.24877000
142.49999172	0.00000000	10.64838000	-0.83661410
142.69999170	0.00000000	11.02362000	-1.24877000
142.89999169	0.00000000	11.02362000	-1.95004900
143.09999168	0.00000000	10.64838000	-2.78051200
143.29999167	0.00000000	9.90403500	-3.57406500
143.49999166	0.00000000	9.52879000	-4.73671200
143.69999165	0.00000000	9.48572700	-5.80093500
143.89999163	0.00000000	9.48572700	-5.85014700
144.09999162	0.00000000	9.48572700	-5.11195900
144.29999161	0.00000000	9.48572700	-4.36146600
144.49999160	0.00000000	9.52879000	-3.53100400
144.69999159	0.00000000	9.90403500	-2.78051200
144.89999157	0.00000000	10.59916000	-2.04232300
145.09999156	0.00000000	10.64838000	-2.04232300
145.29999155	0.00000000	10.27928000	-2.73745100
145.49999154	0.00000000	10.27313000	-3.11269700
145.69999153	0.00000000	9.86097400	-3.19881900
145.89999151	0.00000000	9.52879000	-3.57406500
146.09999150	0.00000000	9.48572700	-4.31840500
146.29999149	0.00000000	9.48572700	-4.69365100
146.49999148	0.00000000	9.48572700	-4.73671200
146.69999147	0.00000000	9.52879000	-4.73671200
146.89999146	0.00000000	9.90403500	-4.69365100
147.09999144	0.00000000	10.64838000	-4.31840500
147.29999143	0.00000000	11.02362000	-3.57406500
147.49999142	0.00000000	11.02362000	-3.19881900
147.69999141	0.00000000	10.64838000	-3.15575800
147.89999140	0.00000000	9.90403500	-3.15575800
148.09999138	0.00000000	9.52879000	-3.15575800
148.29999137	0.00000000	9.44266700	-3.15575800
148.49999136	0.00000000	9.11048200	-3.15575800
148.69999135	0.00000000	8.74138700	-3.15575800
148.89999134	0.00000000	9.11048200	-3.19881900
149.09999132	0.00000000	9.48572700	-3.53100400
149.29999131	0.00000000	9.90403500	-3.94315900
149.49999130	0.00000000	10.64838000	-3.94931100
149.69999129	0.00000000	11.02362000	-4.31840500
149.89999128	0.00000000	11.06668000	-4.31840500
150.09999127	0.00000000	11.02362000	-3.94931100
150.29999125	0.00000000	10.64838000	-3.94315900
150.49999124	0.00000000	9.90403500	-3.53100400
150.69999123	0.00000000	9.52879000	-3.19881900
150.89999122	0.00000000	9.48572700	-3.15575800
151.09999121	0.00000000	9.48572700	-3.15575800
151.29999119	0.00000000	9.48572700	-3.15575800
151.49999118	0.00000000	9.48572700	-3.15575800
151.69999117	0.00000000	9.48572700	-3.19881900
151.89999116	0.00000000	9.52879000	-3.53100400
152.09999115	0.00000000	9.86097400	-3.90009800
152.29999113	0.00000000	10.27313000	-3.57406500
152.49999112	0.00000000	10.27928000	-3.57406500
152.69999111	0.00000000	10.69144000	-3.90009800
152.89999110	0.00000000	11.02362000	-3.53100400
153.09999109	0.00000000	11.02362000	-3.19881900
153.29999108	0.00000000	10.64838000	-3.15575800
153.49999106	0.00000000	9.90403500	-3.15575800
153.69999105	0.00000000	9.52879000	-3.15575800
153.89999104	0.00000000	9.48572700	-3.15575800
154.09999103	0.00000000	9.44266700	-3.15575800
154.29999102	0.00000000	9.11048200	-3.15575800
154.49999100	0.00000000	8.74138700	-3.15575800
154.69999099	0.00000000	9.11048200	-3.15575800
154.89999098	0.00000000	9.44266700	-3.15575800
155.09999097	0.00000000	9.52879000	-3.15575800
155.29999096	0.00000000	9.90403500	-3.15575800
155.49999094	0.00000000	10.64838000	-3.19881900
155.69999093	0.00000000	11.02362000	-3.57406500
155.89999092	0.00000000	11.06668000	-4.26919300
156.09999091	0.00000000	11.02362000	-4.26919300
156.29999090	0.00000000	10.64838000	-3.57406500
156.49999089	0.00000000	9.90403500	-3.19881900
156.69999087	0.00000000	9.52879000	-3.15575800
156.89999086	0.00000000	9.44266700	-3.15575800
157.09999085	0.00000000	9.06742000	-3.15575800
157.29999084	0.00000000	8.37229300	-3.15575800
157.49999083	0.00000000	8.37229300	-3.15575800
157.69999081	0.00000000	9.06742000	-3.15575800
157.89999080	0.00000000	9.44266700	-3.19881900
158.09999079	0.00000000	9.52879000	-3.57406500
158.29999078	0.00000000	9.90403500	-4.31840500
158.49999077	0.00000000	10.64838000	-4.69365100
158.69999075	0.00000000	11.02362000	-4.73671200
158.89999074	0.00000000	11.06668000	-4.69365100
159.09999073	0.00000000	11.06668000	-4.31840500
159.29999072	0.00000000	11.02362000	-3.57406500
159.49999071	0.00000000	10.64838000	-3.19881900
159.69999070	0.00000000	9.90403500	-3.11269700
159.89999068	0.00000000	9.52879000	-2.78051200
160.09999067	0.00000000	9.48572700	-2.41141700
160.29999066	0.00000000	9.48572700	-2.78051200
160.49999065	0.00000000	9.48572700	-3.11269700
160.69999064	0.00000000	9.48572700	-3.15575800
160.89999062	0.00000000	9.48572700	-3.15575800
161.09999061	0.00000000	9.48572700	-3.19881900
161.29999060	0.00000000	9.48572700	-3.57406500
161.49999059	0.00000000	9.48572700	-4.31840500
161.69999058	0.00000000	9.52879000	-4.69365100
161.89999056	0.00000000	9.86097400	-4.69365100
162.09999055	0.00000000	10.27313000	-4.31840500
162.29999054	0.00000000	10.23622000	-3.57406500
162.49999053	0.00000000	10.27313000	-3.19881900
162.69999052	0.00000000	9.86097400	-3.15575800
162.89999051	0.00000000	9.52879000	-3.15575800
163.09999049	0.00000000	9.48572700	-3.15575800
163.29999048	0.00000000	9.48572700	-3.15575800
163.49999047	0.00000000	9.44266700	-3.15575800
163.69999046	0.00000000	9.11048200	-3.15575800
163.89999045	0.00000000	8.69832600	-3.15575800
164.09999043	0.00000000	8.73523500	-3.15575800
164.29999042	0.00000000	8.69832600	-3.19881900
164.49999041	0.00000000	9.11048200	-3.53100400
164.69999040	0.00000000	9.44266700	-3.90009800
164.89999039	0.00000000	9.52879000	-3.53100400
165.09999037	0.00000000	9.90403500	-3.19881900
165.29999036	0.00000000	10.64838000	-3.15575800
165.49999035	0.00000000	10.97441000	-3.15575800
165.69999034	0.00000000	10.64838000	-3.15575800
165.89999033	0.00000000	9.90403500	-3.15575800
166.09999032	0.00000000	9.52879000	-3.15575800
166.29999030	0.00000000	9.44266700	-3.15575800
166.49999029	0.00000000	9.11048200	-3.15575800
166.69999028	0.00000000	8.74138700	-3.15575800
166.89999027	0.00000000	9.06742000	-3.15575800
167.09999026	0.00000000	9.06742000	-3.15575800
167.29999024	0.00000000	8.74138700	-3.15575800
167.49999023	0.00000000	9.11048200	-3.15575800
167.69999022	0.00000000	9.44266700	-3.15575800
167.89999021	0.00000000	9.48572700	-3.19881900
168.09999020	0.00000000	9.52879000	-3.53100400
168.29999018	0.00000000	9.90403500	-3.90009800
168.49999017	0.00000000	10.59916000	-3.53100400
168.69999016	0.00000000	10.59916000	-3.19881900
168.89999015	0.00000000	9.90403500	-3.15575800
169.09999014	0.00000000	9.52879000	-3.15575800
169.29999013	0.00000000	9.48572700	-3.15575800
169.49999011	0.00000000	9.48572700	-3.15575800
169.69999010	0.00000000	9.48572700	-3.15575800
169.89999009	0.00000000	9.48572700	-3.15575800
170.09999008	0.00000000	9.48572700	-3.15575800
170.29999007	0.00000000	9.48572700	-3.15575800
170.49999005	0.00000000	9.48572700	-3.15575800
170.69999004	0.00000000	9.48572700	-3.15575800
170.89999003	0.00000000	9.52879000	-3.15575800
171.09999002	0.00000000	9.86097400	-3.15575800
171.29999001	0.00000000	10.23007000	-3.15575800
171.49998999	0.00000000	9.86097400	-3.15575800
171.69998998	0.00000000	9.52879000	-3.15575800
171.89998997	0.00000000	9.48572700	-3.19881900
172.09998996	0.00000000	9.48572700	-3.57406500
172.29998995	0.00000000	9.48572700	-4.26919300
172.49998994	0.00000000	9.48572700	-4.26919300
172.69998992	0.00000000	9.48572700	-3.57406500
172.89998991	0.00000000	9.48572700	-3.19881900
173.09998990	0.00000000	9.48572700	-3.15575800
173.29998989	0.00000000	9.48572700	-3.15575800
173.49998988	0.00000000	9.48572700	-3.15575800
173.69998986	0.00000000	9.48572700	-3.15575800
173.89998985	0.00000000	9.48572700	-3.15575800
174.09998984	0.00000000	9.48572700	-3.15575800
174.29998983	0.00000000	9.48572700	-3.15575800
174.49998982	0.00000000	9.48572700	-3.15575800
174.69998980	0.00000000	9.48572700	-3.15575800
174.89998979	0.00000000	9.48572700	-3.15575800
175.09998978	0.00000000	9.48572700	-3.15575800
175.29998977	0.00000000	9.48572700	-3.15575800
175.49998976	0.00000000	9.44266700	-3.19881900
175.69998975	0.00000000	9.11048200	-3.53100400
175.89998973	0.00000000	8.74138700	-3.90009800
176.09998972	0.00000000	9.11048200	-3.53100400
176.29998971	0.00000000	9.44266700	-3.19881900
176.49998970	0.00000000	9.48572700	-3.15575800
176.69998969	0.00000000	9.48572700	-3.15575800
176.89998967	0.00000000	9.48572700	-3.15575800
177.09998966	0.00000000	9.48572700	-3.19881900
177.29998965	0.00000000	9.48572700	-3.57406500
177.49998964	0.00000000	9.48572700	-4.31840500
177.69998963	0.00000000	9.48572700	-4.69365100
177.89998961	0.00000000	9.48572700	-4.73671200
178.09998960	0.00000000	9.48572700	-4.69365100
178.29998959	0.00000000	9.48572700	-4.31840500
178.49998958	0.00000000	9.48572700	-3.57406500
178.69998957	0.00000000	9.48572700	-3.19881900
178.89998956	0.00000000	9.48572700	-3.15575800
179.09998954	0.00000000	9.48572700	-3.15575800
179.29998953	0.00000000	9.48572700	-3.15575800
179.49998952	0.00000000	9.48572700	-3.15575800
179.69998951	0.00000000	9.48572700	-3.19881900
179.89998950	0.00000000	9.48572700	-3.57406500
180.09998948	0.00000000	9.48572700	-4.31840500
180.29998947	0.00000000	9.48572700	-4.69365100
180.49998946	0.00000000	9.48572700	-4.73671200
180.69998945	0.00000000	9.48572700	-4.73671200
180.89998944	0.00000000	9.48572700	-4.69365100
181.09998942	0.00000000	9.48572700	-4.31840500
181.29998941	0.00000000	9.48572700	-3.57406500
181.49998940	0.00000000	9.48572700	-3.19881900
181.69998939	0.00000000	9.48572700	-3.15575800
181.89998938	0.00000000	9.48572700	-3.15575800
182.09998937	0.00000000	9.48572700	-3.11269700
182.29998935	0.00000000	9.48572700	-2.78051200
182.49998934	0.00000000	9.48572700	-2.41141700
182.69998933	0.00000000	9.48572700	-2.78051200
182.89998932	0.00000000	9.48572700	-3.15575800
183.09998931	0.00000000	9.48572700	-3.57406500
183.29998929	0.00000000	9.48572700	-4.31840500
183.49998928	0.00000000	9.48572700	-4.69365100
183.69998927	0.00000000	9.48572700	-4.73671200
183.89998926	0.00000000	9.44266700	-4.69365100
184.09998925	0.00000000	9.11048200	-4.31840500
184.29998923	0.00000000	8.74138700	-3.57406500
184.49998922	0.00000000	9.11048200	-3.19881900
184.69998921	0.00000000	9.44266700	-3.15575800
184.89998920	0.00000000	9.48572700	-3.15575800
185.09998919	0.00000000	9.48572700	-3.15575800
185.29998918	0.00000000	9.48572700	-3.15575800
185.49998916	0.00000000	9.48572700	-3.15575800
185.69998915	0.00000000	9.48572700	-3.19881900
185.89998914	0.00000000	9.48572700	-3.57406500
186.09998913	0.00000000	9.48572700	-4.31840500
186.29998912	0.00000000	9.48572700	-4.69365100
186.49998910	0.00000000	9.48572700	-4.73671200
186.69998909	0.00000000	9.48572700	-4.73671200
186.89998908	0.00000000	9.48572700	-4.69365100
187.09998907	0.00000000	9.44266700	-4.31840500
187.29998906	0.00000000	9.11048200	-3.57406500
187.49998904	0.00000000	8.74138700	-3.19881900
187.69998903	0.00000000	9.11048200	-3.15575800
187.89998902	0.00000000	9.44266700	-3.15575800
188.09998901	0.00000000	9.48572700	-3.15575800
188.29998900	0.00000000	9.48572700	-3.15575800
188.49998899	0.00000000	9.48572700	-3.15575800
188.69998897	0.00000000	9.48572700	-3.19881900
188.89998896	0.00000000	9.48572700	-3.57406500
189.09998895	0.00000000	9.48572700	-4.31840500
189.29998894	0.00000000	9.48572700	-4.69365100
189.49998893	0.00000000	9.48572700	-4.73671200
189.69998891	0.00000000	9.48572700	-4.73671200
189.89998890	0.00000000	9.44266700	-4.69365100
190.09998889	0.00000000	9.11048200	-4.31840500
190.29998888	0.00000000	8.74138700	-3.57406500
190.49998887	0.00000000	9.11048200	-3.19881900
190.69998885	0.00000000	9.44266700	-3.15575800
190.89998884	0.00000000	9.48572700	-3.15575800
191.09998883	0.00000000	9.52879000	-3.15575800
191.29998882	0.00000000	9.86097400	-3.15575800
191.49998881	0.00000000	10.23007000	-3.15575800
191.69998880	0.00000000	9.86097400	-3.19881900
191.89998878	0.00000000	9.52879000	-3.57406500
192.09998877	0.00000000	9.48572700	-4.31840500
192.29998876	0.00000000	9.48572700	-4.69365100
192.49998875	0.00000000	9.48572700	-4.73671200
192.69998874	0.00000000	9.48572700	-4.69365100
192.89998872	0.00000000	9.44266700	-4.36146600
193.09998871	0.00000000	9.11048200	-3.94931100
193.29998870	0.00000000	8.74138700	-3.94315900
193.49998869	0.00000000	9.11048200	-3.53100400
193.69998868	0.00000000	9.44266700	-3.19881900
193.89998866	0.00000000	9.48572700	-3.15575800
194.09998865	0.00000000	9.48572700	-3.15575800
194.29998864	0.00000000	9.48572700	-3.15575800
194.49998863	0.00000000	9.48572700	-3.15575800
194.69998862	0.00000000	9.48572700	-3.15575800
194.89998861	0.00000000	9.48572700	-3.15575800
195.09998859	0.00000000	9.48572700	-3.15575800
195.29998858	0.00000000	9.48572700	-3.15575800
195.49998857	0.00000000	9.48572700	-3.19881900
195.69998856	0.00000000	9.48572700	-3.57406500
195.89998855	0.00000000	9.48572700	-4.26919300
196.09998853	0.00000000	9.48572700	-4.26919300
