Time	Channel A	Channel B	Channel C
(us)	(V)	(mV)	(mV)

-4.59999956	0.00000000	39.53002000	7.47416300
-4.39999957	0.00000000	39.53002000	7.14812900
-4.19999958	0.00000000	39.53002000	7.47416300
-3.99999959	0.00000000	39.53002000	7.47416300
-3.79999960	0.00000000	39.53002000	7.14812900
-3.59999962	0.00000000	39.53002000	7.51722400
-3.39999963	0.00000000	39.53002000	7.84940900
-3.19999964	0.00000000	39.53002000	7.89247000
-2.99999965	0.00000000	39.53002000	7.89247000
-2.79999966	0.00000000	39.53002000	7.84940900
-2.59999968	0.00000000	39.53002000	7.47416300
-2.39999969	0.00000000	39.53002000	6.77903500
-2.19999970	0.00000000	39.53002000	6.77903500
-1.99999971	0.00000000	39.53002000	7.47416300
-1.79999972	0.00000000	39.53002000	7.80019600
-1.59999973	0.00000000	39.53002000	7.51722400
-1.39999975	0.00000000	39.53002000	7.14812900
-1.19999976	0.00000000	39.53002000	7.51722400
-0.99999977	0.00000000	39.53002000	7.84940900
-0.79999978	0.00000000	39.53002000	7.89247000
-0.59999979	0.00000000	39.53002000	7.89247000
-0.39999981	0.15871060	39.53002000	7.89247000
-0.19999982	0.47736220	39.53002000	7.89247000
0.00000017	0.79601380	39.53002000	7.89247000
0.20000016	0.95533960	39.53002000	7.84940900
0.40000015	0.95533960	39.53002000	7.47416300
0.60000013	0.63668800	39.53002000	6.72982200
0.80000012	0.00000000	39.53002000	6.40378900
1.00000011	-0.79601380	39.53002000	6.68676100
1.20000010	-1.75196900	39.53002000	7.09891700
1.40000009	-2.54859700	39.53002000	7.10506800
1.60000008	-2.70792300	39.53002000	7.51722400
1.80000006	-2.07062000	39.53002000	7.84940900
2.00000005	-0.63668800	39.53002000	7.89247000
2.20000004	1.27399100	39.53002000	7.84940900
2.40000003	3.34522600	39.53002000	7.47416300
2.60000002	4.93786900	39.53002000	6.72982200
2.80000000	5.25652100	39.53002000	6.35457700
2.99999999	4.30056600	39.53002000	6.31151500
3.19999998	1.91129400	39.53002000	6.31151500
3.39999997	-1.27399100	39.53002000	6.31151500
3.59999996	-4.77854300	39.53002000	6.35457700
3.79999994	-7.16781500	39.53002000	6.72982200
3.99999993	-7.96444400	39.53002000	7.47416300
4.19999992	-6.84916400	39.53002000	7.84940900
4.39999991	-3.66326300	39.53002000	7.89247000
4.59999990	0.63668800	39.53002000	7.89247000
4.79999989	4.93786900	39.53002000	7.89247000
4.99999987	8.12377000	39.53002000	7.84940900
5.19999986	9.55770200	39.48696000	7.47416300
5.39999985	8.44242100	39.11171000	6.72982200
5.59999984	5.09719500	38.36737000	6.35457700
5.79999983	0.47736220	38.04134000	6.31151500
5.99999981	-3.98191400	38.36737000	6.35457700
6.19999980	-7.80511800	39.11171000	6.72982200
6.39999979	-9.39837600	39.48696000	7.47416300
6.59999978	-8.76107300	39.53002000	7.84940900
6.79999977	-5.89382400	39.53002000	7.89247000
6.99999975	-1.75196900	39.53002000	7.89247000
7.19999974	2.54859700	39.53002000	7.89247000
7.39999973	5.89382400	39.53002000	7.84940900
7.59999972	7.64579200	39.53002000	7.47416300
7.79999971	7.32714100	39.53002000	6.72982200
7.99999970	5.25652100	39.53002000	6.35457700
8.19999968	2.22994600	39.53002000	6.31151500
8.39999967	-0.95533960	39.53002000	6.35457700
8.59999966	-3.66326300	39.53002000	6.68676100
8.79999965	-5.09719500	39.53002000	7.05585600
8.99999964	-4.93786900	39.53002000	6.72982200
9.19999962	-3.82258900	39.53002000	6.77903500
9.39999961	-1.91129400	39.53002000	7.47416300
9.59999960	0.00000000	39.53002000	7.80019600
9.79999959	1.59264300	39.53002000	7.51722400
9.99999958	2.38927200	39.48696000	7.14812900
10.19999956	2.38927200	39.15477000	7.47416300
10.39999955	1.91129400	38.78568000	7.47416300
10.59999954	1.11466500	39.15477000	7.14812900
10.79999953	0.31803640	39.48696000	7.47416300
10.99999952	-0.47736220	39.48696000	7.42495000
11.19999951	-0.79601380	39.15477000	6.72982200
11.39999949	-0.95533960	38.78568000	6.35457700
11.59999948	-0.95533960	39.11171000	6.35457700
11.79999947	-0.63668800	39.11171000	6.68676100
11.99999946	-0.31803640	38.78568000	7.05585600
12.19999945	-0.15871060	39.15477000	6.72982200
12.39999943	-0.15871060	39.48696000	6.72982200
12.59999942	0.00000000	39.53002000	7.09891700
12.79999941	0.00000000	39.53002000	7.10506800
12.99999940	0.00000000	39.53002000	7.47416300
13.19999939	0.15871060	39.53002000	7.42495000
13.39999937	0.00000000	39.48696000	6.72982200
13.59999936	0.00000000	39.15477000	6.40378900
13.79999935	0.00000000	38.74261000	6.68676100
13.99999934	0.00000000	38.77953000	7.05585600
14.19999933	-0.15871060	38.74261000	6.68676100
14.39999932	-0.15871060	39.15477000	6.35457700
14.59999930	-0.15871060	39.48696000	6.31151500
14.79999929	0.00000000	39.53002000	6.35457700
14.99999928	0.00000000	39.53002000	6.72982200
15.19999927	0.00000000	39.48696000	7.42495000
15.39999926	0.00000000	39.11171000	7.42495000
15.59999924	0.00000000	38.36737000	6.77903500
15.79999923	0.00000000	37.99213000	6.72982200
15.99999922	0.00000000	37.94907000	7.09891700
16.19999921	0.00000000	37.99213000	7.06200700
16.39999920	0.00000000	38.36737000	7.14197800
16.59999919	-0.15871060	39.11171000	7.06200700
16.79999917	0.00000000	39.48696000	7.14197800
16.99999916	0.00000000	39.57308000	7.10506800
17.19999915	0.00000000	39.94832000	7.47416300
17.39999914	0.00000000	40.69267000	7.42495000
17.59999913	0.00000000	41.01870000	6.77903500
17.79999911	0.00000000	40.69267000	6.77903500
17.99999910	0.00000000	39.90526000	7.42495000
18.19999909	0.00000000	39.11171000	7.47416300
18.39999908	0.00000000	37.90600000	7.10506800
18.59999907	0.00000000	36.36811000	7.14197800
18.79999905	0.00000000	34.83022000	7.06200700
18.99999904	0.00000000	33.71063000	7.14197800
19.19999903	0.00000000	33.75369000	7.10506800
19.39999902	0.00000000	35.34079000	7.51722400
19.59999901	0.00000000	38.41658000	7.84940900
19.79999900	0.00000000	42.31668000	7.84940900
19.99999898	0.00000000	46.13681000	7.47416300
20.19999897	0.00000000	49.24950000	6.72982200
20.39999896	0.00000000	50.28297000	6.35457700
20.59999895	0.00000000	48.73892000	6.31151500
20.79999894	0.00000000	44.04527000	6.31151500
20.99999892	0.00000000	37.48154000	6.31151500
21.19999891	0.00000000	30.08735000	6.31151500
21.39999890	0.00000000	23.19759000	6.31151500
21.59999889	0.00000000	19.00837000	6.31151500
21.79999888	0.00000000	19.00837000	6.31151500
21.99999886	0.00000000	23.37598000	6.31151500
22.19999885	0.00000000	31.94513000	6.31151500
22.39999884	0.00000000	43.94069000	6.31151500
22.59999883	0.00000000	56.23154000	6.31151500
22.79999882	0.00000000	65.86491000	6.31151500
22.99999881	0.00000000	70.05413000	6.35457700
23.19999879	0.00000000	67.26746000	6.72982200
23.39999878	0.00000000	57.53568000	7.47416300
23.59999877	0.00000000	42.04601000	7.89247000
23.79999876	0.00000000	24.31717000	8.31077700
23.99999875	0.00000000	8.45226300	9.00590400
24.19999873	0.00000000	-1.88238200	9.00590400
24.39999872	0.00000000	-3.69094500	8.26771600
24.59999871	0.00000000	4.86589500	7.42495000
24.79999870	0.00000000	22.17027000	5.85014700
24.99999869	0.00000000	43.85457000	3.61712600
25.19999867	0.00000000	65.12057000	2.08538400
25.39999866	0.00000000	81.68060000	1.66707700
25.59999865	0.00000000	88.93946000	2.08538400
25.79999864	0.00000000	84.66412000	3.66633800
25.99999863	0.00000000	69.58661000	6.40378900
26.19999862	0.00000000	46.78888000	9.89173200
26.39999860	0.00000000	21.75197000	13.74262000
26.59999859	0.00000000	0.49827750	16.81225000
26.79999858	0.00000000	-11.88484000	18.35015000
26.99999857	0.00000000	-13.04134000	17.83957000
27.19999856	0.00000000	-2.62057100	14.30241000
27.39999854	0.00000000	17.05217000	7.75713500
27.59999853	0.00000000	41.01870000	0.04306102
27.79999852	0.00000000	64.19168000	-7.29576700
27.99999851	0.00000000	81.17003000	-12.63533000
28.19999850	0.00000000	87.82603000	-14.12401000
28.39999848	0.00000000	83.63681000	-11.01132000
28.59999847	0.00000000	70.09719000	-3.58636800
28.79999846	0.00000000	50.04306000	7.24040300
28.99999845	0.00000000	28.40797000	19.59892000
29.19999844	0.00000000	10.16855000	30.33341000
29.39999843	0.00000000	-1.45792300	36.88484000
29.59999841	0.00000000	-4.20152500	37.16781000
29.79999840	0.00000000	2.30684000	30.61023000
29.99999839	0.00000000	15.80339000	18.21481000
30.19999838	0.00000000	33.20005000	2.78051200
30.39999837	0.00000000	50.60285000	-12.68455000
30.59999835	0.00000000	64.19168000	-24.62475000
30.79999834	0.00000000	71.63509000	-30.38878000
30.99999833	0.00000000	72.05339000	-28.38951000
31.19999832	0.00000000	65.86491000	-18.35630000
31.39999831	0.00000000	54.27534000	-2.51599400
31.59999829	0.00000000	40.04060000	15.65576000
31.79999828	0.00000000	26.82701000	32.60949000
31.99999827	0.00000000	17.10138000	44.22367000
32.19999826	0.00000000	12.03248000	48.08686000
32.39999825	0.00000000	12.81988000	43.80536000
32.59999824	0.00000000	18.92224000	31.45300000
32.79999822	0.00000000	28.59252000	14.11786000
32.99999821	0.00000000	39.43774000	-4.09079700
33.19999820	0.00000000	49.53248000	-19.98031000
33.39999819	0.00000000	56.84055000	-30.33957000
33.59999818	0.00000000	59.57800000	-32.65871000
33.79999816	0.00000000	57.30192000	-26.11343000
33.99999815	0.00000000	51.15649000	-12.68455000
34.19999814	0.00000000	42.64272000	4.31840500
34.39999813	0.00000000	33.80290000	20.95226000
34.59999812	0.00000000	26.82701000	34.14124000
34.79999810	0.00000000	23.33292000	41.44316000
34.99999809	0.00000000	23.70817000	41.06791000
35.19999808	0.00000000	27.89739000	33.03395000
35.39999807	0.00000000	34.41191000	19.93110000
35.59999806	0.00000000	40.97564000	4.82898600
35.79999805	0.00000000	46.37057000	-9.43036400
35.99999803	0.00000000	49.06496000	-19.42667000
36.19999802	0.00000000	48.32677000	-22.53937000
36.39999801	0.00000000	44.92495000	-18.39936000
36.59999800	0.00000000	39.90526000	-8.78444900
36.79999799	0.00000000	34.92249000	3.53100400
36.99999797	0.00000000	31.01624000	15.88336000
37.19999796	0.00000000	29.14616000	25.08612000
37.39999795	0.00000000	29.89665000	28.94316000
37.59999794	0.00000000	33.33538000	26.29183000
37.79999793	0.00000000	37.89985000	18.30093000
37.99999791	0.00000000	42.18134000	7.94168200
38.19999790	0.00000000	45.30019000	-2.04847400
38.39999789	0.00000000	46.83809000	-8.92593500
38.59999788	0.00000000	46.46284000	-10.45768000
38.79999787	0.00000000	44.13755000	-6.27460600
38.99999786	0.00000000	40.64345000	2.12844500
39.19999784	0.00000000	36.41117000	12.03248000
39.39999783	0.00000000	32.59719000	20.11565000
39.59999782	0.00000000	30.59178000	23.92962000
39.79999781	0.00000000	30.17347000	22.81004000
39.99999780	0.00000000	30.96703000	16.59080000
40.19999778	0.00000000	33.29232000	7.05585600
40.39999777	0.00000000	36.36811000	-3.29724400
40.59999776	0.00000000	39.53002000	-10.92520000
40.79999775	0.00000000	42.59965000	-13.66265000
40.99999774	0.00000000	44.92495000	-10.92520000
41.19999772	0.00000000	45.71850000	-3.25418300
41.39999771	0.00000000	45.38631000	7.47416300
41.59999770	0.00000000	44.13755000	17.79035000
41.79999769	0.00000000	41.85531000	24.80315000
41.99999768	0.00000000	38.74261000	27.13459000
42.19999767	0.00000000	36.03592000	24.80315000
42.39999765	0.00000000	33.66756000	17.88263000
42.59999764	0.00000000	32.12967000	8.31077700
42.79999763	0.00000000	31.71137000	-0.93503930
42.99999762	0.00000000	32.12967000	-7.85556000
43.19999761	0.00000000	33.66756000	-10.59301000
43.39999759	0.00000000	35.94980000	-8.74138700
43.59999758	0.00000000	37.90600000	-3.76476400
43.79999757	0.00000000	39.48696000	3.15575800
43.99999756	0.00000000	40.69267000	10.07628000
44.19999755	0.00000000	41.44316000	15.14518000
44.39999753	0.00000000	41.89838000	17.88263000
44.59999752	0.00000000	41.90453000	17.88263000
44.79999751	0.00000000	42.31668000	15.23130000
44.99999750	0.00000000	42.59965000	11.00517000
45.19999749	0.00000000	42.22441000	6.40378900
45.39999748	0.00000000	41.01870000	2.54675200
45.59999746	0.00000000	39.06250000	0.55364170
45.79999745	0.00000000	36.27584000	0.13533460
45.99999744	0.00000000	32.82480000	0.92888770
46.19999743	0.00000000	29.38607000	3.19881900
46.39999742	0.00000000	27.47293000	5.85014700
46.59999740	0.00000000	27.47293000	7.84940900
46.79999739	0.00000000	29.47835000	9.42421200
46.99999738	0.00000000	33.80290000	10.58686000
47.19999737	0.00000000	39.94832000	10.95595000
47.39999736	0.00000000	46.50590000	10.58686000
47.59999734	0.00000000	51.53174000	9.38115100
47.79999733	0.00000000	54.23228000	7.43110200
47.99999732	0.00000000	53.76476000	4.73671200
48.19999731	0.00000000	49.44020000	2.12844500
48.39999730	0.00000000	41.76304000	0.92888770
48.59999729	0.00000000	32.50492000	1.29183100
48.79999727	0.00000000	24.44636000	2.46063000
48.99999726	0.00000000	19.38361000	4.82283400
49.19999725	0.00000000	18.68233000	7.89247000
49.39999724	0.00000000	22.50246000	10.96211000
49.59999723	0.00000000	30.21653000	13.23819000
49.79999721	0.00000000	39.48080000	13.65650000
49.99999720	0.00000000	48.36983000	12.49385000
50.19999719	0.00000000	54.92741000	10.11934000
50.39999718	0.00000000	57.20964000	6.26845500
50.59999717	0.00000000	54.92741000	2.08538400
50.79999715	0.00000000	48.36983000	-0.97810030
50.99999714	0.00000000	39.53002000	-2.13459600
51.19999713	0.00000000	30.64099000	-1.02116100
51.39999712	0.00000000	23.70817000	1.71013800
51.59999711	0.00000000	20.63238000	5.57332700
51.79999710	0.00000000	22.17027000	10.16855000
51.99999708	0.00000000	27.89739000	13.60728000
52.19999707	0.00000000	35.94980000	15.18824000
52.39999706	0.00000000	43.62696000	14.81299000
52.59999705	0.00000000	49.06496000	12.49385000
52.79999704	0.00000000	51.02116000	9.00590400
52.99999702	0.00000000	49.48942000	4.77977300
53.19999701	0.00000000	44.88189000	0.97194880
53.39999700	0.00000000	38.36737000	-0.93503930
53.59999699	0.00000000	32.22195000	-0.60285430
53.79999698	0.00000000	27.98351000	1.66707700
53.99999696	0.00000000	26.82701000	4.73671200
54.19999695	0.00000000	29.10310000	7.80019600
54.39999694	0.00000000	33.66756000	10.07628000
54.59999693	0.00000000	39.06250000	10.49459000
54.79999692	0.00000000	43.67618000	9.42421200
54.99999691	0.00000000	46.41363000	7.84940900
55.19999689	0.00000000	46.78888000	5.93626900
55.39999688	0.00000000	44.83267000	4.08464600
55.59999687	0.00000000	40.64345000	3.70939900
55.79999686	0.00000000	35.66683000	4.82283400
55.99999685	0.00000000	31.79749000	6.77903500
56.19999683	0.00000000	29.47835000	9.42421200
56.39999682	0.00000000	29.52141000	11.65723000
56.59999681	0.00000000	32.12967000	12.03248000
56.79999680	0.00000000	35.99286000	10.49459000
56.99999679	0.00000000	39.81299000	7.38188900
57.19999677	0.00000000	42.96875000	3.20497000
57.39999676	0.00000000	44.46973000	-0.60285430
57.59999675	0.00000000	44.50664000	-2.55905500
57.79999674	0.00000000	42.55659000	-2.50984200
57.99999673	0.00000000	39.57308000	-0.14148620
58.19999672	0.00000000	36.83563000	4.87204700
58.39999670	0.00000000	34.87328000	10.96211000
58.59999669	0.00000000	33.71063000	16.39395000
58.79999668	0.00000000	33.71063000	19.78961000
58.99999667	0.00000000	34.87328000	20.15871000
59.19999666	0.00000000	36.74335000	16.63386000
59.39999664	0.00000000	38.69341000	10.16855000
59.59999663	0.00000000	39.81299000	2.46063000
59.79999662	0.00000000	40.22515000	-4.09694900
59.99999661	0.00000000	39.43774000	-8.31692900
60.19999660	0.00000000	37.99213000	-9.06126900
60.39999658	0.00000000	36.83563000	-5.57947800
60.59999657	0.00000000	36.41117000	0.92888770
60.79999656	0.00000000	36.41117000	9.05511800
60.99999655	0.00000000	36.83563000	16.72613000
61.19999654	0.00000000	37.99213000	22.10876000
61.39999653	0.00000000	39.48696000	23.64665000
61.59999651	0.00000000	40.64345000	20.95226000
61.79999650	0.00000000	40.97564000	14.76993000
61.99999649	0.00000000	40.22515000	6.31151500
62.19999648	0.00000000	38.32431000	-2.14074800
62.39999647	0.00000000	36.41117000	-8.31692900
62.59999645	0.00000000	34.78716000	-11.01132000
62.79999644	0.00000000	33.29232000	-9.52263600
62.99999643	0.00000000	32.59104000	-4.51525500
63.19999642	0.00000000	33.71063000	2.41141700
63.39999641	0.00000000	35.99286000	10.16855000
63.59999639	0.00000000	38.36737000	16.71998000
63.79999638	0.00000000	41.06791000	20.99532000
63.99999637	0.00000000	43.30093000	22.10876000
64.19999636	0.00000000	43.71924000	19.42052000
64.39999635	0.00000000	42.55659000	13.69956000
64.59999634	0.00000000	40.27436000	6.77903500
64.79999632	0.00000000	37.16166000	0.59670270
64.99999631	0.00000000	34.49803000	-3.71555100
65.19999630	0.00000000	32.50492000	-5.67175200
65.39999629	0.00000000	31.79749000	-5.29650500
65.59999628	0.00000000	32.54798000	-2.60211600
65.79999626	0.00000000	34.87328000	1.62401600
65.99999625	0.00000000	37.85679000	6.26845500
66.19999624	0.00000000	40.22515000	10.53765000
66.39999623	0.00000000	41.39394000	13.65650000
66.59999622	0.00000000	41.76304000	15.27436000
66.79999620	0.00000000	40.60039000	15.69267000
66.99999619	0.00000000	38.32431000	15.27436000
67.19999618	0.00000000	36.03592000	13.69956000
67.39999617	0.00000000	34.12894000	10.96211000
67.59999616	0.00000000	33.75369000	7.47416300
67.79999615	0.00000000	34.87328000	3.62327700
67.99999613	0.00000000	36.83563000	0.51058070
68.19999612	0.00000000	39.53002000	-1.48868100
68.39999611	0.00000000	42.13828000	-2.64517700
68.59999610	0.00000000	43.30093000	-2.60211600
68.79999609	0.00000000	42.51353000	-1.02116100
68.99999607	0.00000000	40.18209000	2.08538400
69.19999606	0.00000000	36.31890000	6.35457700
69.39999605	0.00000000	32.12967000	11.00517000
69.59999604	0.00000000	29.05389000	15.23130000
69.79999603	0.00000000	27.89739000	17.88263000
69.99999601	0.00000000	29.10310000	17.92569000
70.19999600	0.00000000	32.54798000	15.60654000
70.39999599	0.00000000	37.57381000	11.70029000
70.59999598	0.00000000	42.59965000	6.31151500
70.79999597	0.00000000	46.88115000	0.92888770
70.99999596	0.00000000	49.48942000	-2.93430100
71.19999594	0.00000000	49.06496000	-4.87819900
71.39999593	0.00000000	45.25713000	-4.09079700
71.59999592	0.00000000	39.48080000	-1.07037400
71.79999591	0.00000000	33.29232000	3.20497000
71.99999590	0.00000000	27.89739000	7.80019600
72.19999588	0.00000000	24.77854000	11.70029000
72.39999587	0.00000000	24.40330000	13.98253000
72.59999586	0.00000000	26.73474000	14.39468000
72.79999585	0.00000000	31.75443000	12.53691000
72.99999584	0.00000000	37.85679000	9.89173200
73.19999582	0.00000000	43.34399000	7.51722400
73.39999581	0.00000000	47.20718000	5.19808000
73.59999580	0.00000000	49.15723000	3.70939900
73.79999579	0.00000000	48.36983000	3.66633800
73.99999578	0.00000000	45.30019000	4.73671200
74.19999577	0.00000000	40.64345000	5.89320800
74.39999575	0.00000000	35.29773000	6.64370100
74.59999574	0.00000000	31.05930000	7.00664300
74.79999573	0.00000000	29.05389000	6.22539300
74.99999572	0.00000000	29.01082000	4.73671200
75.19999571	0.00000000	30.54872000	3.19881900
75.39999569	0.00000000	33.24926000	2.12844500
75.59999568	0.00000000	36.36811000	2.54675200
75.79999567	0.00000000	39.43774000	4.82283400
75.99999566	0.00000000	41.76304000	7.89247000
76.19999565	0.00000000	42.55659000	11.04823000
76.39999563	0.00000000	42.22441000	14.07480000
76.59999562	0.00000000	41.06791000	15.92642000
76.79999561	0.00000000	39.53002000	15.14518000
76.99999560	0.00000000	37.99213000	12.07554000
77.19999559	0.00000000	36.83563000	7.42495000
77.39999558	0.00000000	36.41117000	2.04232300
77.59999556	0.00000000	36.36811000	-2.60211600
77.79999555	0.00000000	36.36811000	-5.67175200
77.99999554	0.00000000	36.36811000	-6.40994000
78.19999553	0.00000000	36.32505000	-4.04773600
78.39999552	0.00000000	35.94980000	0.92888770
78.59999550	0.00000000	35.20546000	7.47416300
78.79999549	0.00000000	34.83022000	13.61343000
78.99999548	0.00000000	34.87943000	17.88263000
79.19999547	0.00000000	35.67298000	19.46358000
79.39999546	0.00000000	37.61687000	18.30093000
79.59999544	0.00000000	39.86220000	14.81299000
79.79999543	0.00000000	41.80610000	9.42421200
79.99999542	0.00000000	42.55659000	3.66633800
80.19999541	0.00000000	42.18134000	-0.97810030
80.39999540	0.00000000	40.60039000	-3.76476400
80.59999539	0.00000000	37.90600000	-4.55831700
80.79999537	0.00000000	34.87328000	-3.76476400
80.99999536	0.00000000	32.54798000	-1.02116100
81.19999535	0.00000000	31.75443000	3.15575800
81.39999534	0.00000000	32.12967000	7.47416300
81.59999533	0.00000000	33.66756000	11.33120000
81.79999531	0.00000000	36.03592000	14.43775000
81.99999530	0.00000000	38.69955000	15.60654000
82.19999529	0.00000000	41.38779000	15.27436000
82.39999528	0.00000000	42.51353000	13.69956000
82.59999527	0.00000000	42.22441000	11.00517000
82.79999525	0.00000000	41.01870000	7.84940900
82.99999524	0.00000000	39.11171000	4.36146600
83.19999523	0.00000000	36.83563000	0.88582670
83.39999522	0.00000000	35.29773000	-1.43946800
83.59999521	0.00000000	34.83022000	-2.64517700
83.79999520	0.00000000	34.78716000	-2.60211600
83.99999518	0.00000000	34.83022000	-1.02116100
84.19999517	0.00000000	35.25467000	2.08538400
84.39999516	0.00000000	36.36811000	6.31151500
84.59999515	0.00000000	37.48154000	10.58686000
84.79999514	0.00000000	37.90600000	14.07480000
84.99999512	0.00000000	37.90600000	16.35089000
85.19999511	0.00000000	37.57381000	16.35089000
85.39999510	0.00000000	37.20472000	14.07480000
85.59999509	0.00000000	37.57381000	10.58686000
85.79999508	0.00000000	37.94907000	6.26845500
85.99999506	0.00000000	38.36737000	1.66707700
86.19999505	0.00000000	39.06250000	-2.18380900
86.39999504	0.00000000	39.01944000	-4.09079700
86.59999503	0.00000000	37.94907000	-3.71555100
86.79999502	0.00000000	36.78642000	-1.02116100
86.99999501	0.00000000	35.94980000	3.20497000
87.19999499	0.00000000	34.78716000	7.84940900
87.39999498	0.00000000	33.71063000	12.11860000
87.59999497	0.00000000	33.71063000	15.14518000
87.79999496	0.00000000	34.83022000	15.92642000
87.99999495	0.00000000	36.36811000	14.03174000
88.19999493	0.00000000	37.94907000	10.58686000
88.39999492	0.00000000	39.48696000	6.31151500
88.59999491	0.00000000	40.60039000	2.04232300
88.79999490	0.00000000	40.64345000	-1.35334600
88.99999489	0.00000000	39.90526000	-2.83587600
89.19999487	0.00000000	39.06250000	-0.97810030
89.39999486	0.00000000	37.48154000	2.78051200
89.59999485	0.00000000	35.24852000	6.68676100
89.79999484	0.00000000	33.71063000	10.58686000
89.99999483	0.00000000	33.29232000	13.60728000
90.19999482	0.00000000	33.66756000	14.72687000
90.39999480	0.00000000	34.83022000	13.18898000
90.59999479	0.00000000	36.36811000	9.38115100
90.79999478	0.00000000	37.85679000	4.82898600
90.99999477	0.00000000	38.69341000	0.97194880
91.19999476	0.00000000	38.69955000	-0.97810030
91.39999474	0.00000000	38.73647000	-0.97810030
91.59999473	0.00000000	38.32431000	0.97194880
91.79999472	0.00000000	37.94907000	4.77977300
91.99999471	0.00000000	37.53075000	8.96284400
92.19999470	0.00000000	36.78642000	12.07554000
92.39999468	0.00000000	36.41117000	13.65650000
92.59999467	0.00000000	36.36811000	13.61343000
92.79999466	0.00000000	36.32505000	11.65723000
92.99999465	0.00000000	35.94980000	7.75713500
93.19999464	0.00000000	35.20546000	2.87278500
93.39999463	0.00000000	34.83022000	-1.29798200
93.59999461	0.00000000	34.78716000	-2.46678100
93.79999460	0.00000000	34.83022000	-1.02116100
93.99999459	0.00000000	35.25467000	2.04232300
94.19999458	0.00000000	36.41117000	5.93626900
94.39999457	0.00000000	37.99213000	9.79945900
94.59999455	0.00000000	39.90526000	13.18898000
94.79999454	0.00000000	41.76304000	14.30241000
94.99999453	0.00000000	42.13828000	12.49385000
95.19999452	0.00000000	41.01870000	9.42421200
95.39999451	0.00000000	39.06250000	5.89320800
95.59999449	0.00000000	36.36811000	2.08538400
95.79999448	0.00000000	33.61835000	-0.55979330
95.99999447	0.00000000	31.28691000	-0.97810030
96.19999446	0.00000000	29.42913000	0.51058070
96.39999445	0.00000000	29.47835000	3.24803100
96.59999444	0.00000000	31.71137000	6.68676100
96.79999442	0.00000000	34.78716000	10.11934000
96.99999441	0.00000000	37.94907000	12.03248000
97.19999440	0.00000000	41.06791000	12.07554000
97.39999439	0.00000000	43.76230000	10.53765000
97.59999438	0.00000000	45.25713000	7.89247000
97.79999436	0.00000000	44.88189000	5.19808000
97.99999435	0.00000000	42.55659000	3.24803100
98.19999434	0.00000000	39.06250000	2.08538400
98.39999433	0.00000000	34.83022000	2.08538400
98.59999432	0.00000000	30.96703000	3.19881900
98.79999430	0.00000000	28.63558000	4.73671200
98.99999429	0.00000000	27.84818000	6.26845500
99.19999428	0.00000000	29.01082000	7.42495000
99.39999427	0.00000000	31.71137000	7.80019600
99.59999426	0.00000000	35.20546000	7.47416300
99.79999425	0.00000000	39.06250000	6.72982200
99.99999423	0.00000000	42.13828000	6.35457700
100.19999422	0.00000000	43.76230000	6.35457700
100.39999421	0.00000000	44.13755000	6.72982200
100.59999420	0.00000000	43.34399000	7.47416300
100.79999419	0.00000000	41.01870000	7.84940900
100.99999417	0.00000000	37.94907000	7.84940900
101.19999416	0.00000000	34.83022000	7.42495000
101.39999415	0.00000000	32.12967000	6.26845500
101.59999414	0.00000000	30.54872000	4.73671200
101.79999413	0.00000000	30.17347000	3.19881900
101.99999411	0.00000000	30.92396000	2.08538400
102.19999410	0.00000000	32.87401000	2.12844500
102.39999409	0.00000000	35.20546000	3.66633800
102.59999408	0.00000000	37.90600000	6.31151500
102.79999407	0.00000000	40.18209000	9.00590400
102.99999406	0.00000000	41.01870000	10.96211000
103.19999404	0.00000000	41.06791000	12.11860000
103.39999403	0.00000000	40.64345000	12.07554000
103.59999402	0.00000000	39.43774000	10.53765000
103.79999401	0.00000000	37.53075000	7.84940900
103.99999400	0.00000000	35.24852000	4.77977300
104.19999398	0.00000000	33.71063000	2.08538400
104.39999397	0.00000000	33.24311000	0.55364170
104.59999396	0.00000000	33.24311000	0.51058070
104.79999395	0.00000000	33.66756000	1.71013800
104.99999394	0.00000000	34.83022000	3.99237200
105.19999392	0.00000000	36.36811000	7.05585600
105.39999391	0.00000000	37.90600000	9.33809000
105.59999390	0.00000000	39.01944000	10.53765000
105.79999389	0.00000000	39.06250000	10.53765000
105.99999388	0.00000000	38.32431000	9.38115100
106.19999387	0.00000000	37.53075000	7.47416300
106.39999385	0.00000000	36.36811000	5.15501900
106.59999384	0.00000000	35.25467000	3.29109200
106.79999383	0.00000000	34.87943000	2.46063000
106.99999382	0.00000000	35.20546000	2.82357300
107.19999381	0.00000000	35.99286000	3.57406500
107.39999379	0.00000000	36.74335000	4.77977300
107.59999378	0.00000000	37.53075000	6.26845500
107.79999377	0.00000000	37.90600000	7.47416300
107.99999376	0.00000000	37.90600000	8.17544300
108.19999375	0.00000000	37.48154000	8.21235200
108.39999374	0.00000000	36.32505000	7.06200700
108.59999372	0.00000000	34.83022000	5.93626900
108.79999371	0.00000000	33.66756000	4.73671200
108.99999370	0.00000000	33.29232000	3.66633800
109.19999369	0.00000000	33.66756000	3.66633800
109.39999368	0.00000000	34.83022000	4.77977300
109.59999366	0.00000000	36.36811000	6.31151500
109.79999365	0.00000000	37.90600000	7.84940900
109.99999364	0.00000000	39.06250000	9.00590400
110.19999363	0.00000000	39.43774000	9.38115100
110.39999362	0.00000000	39.06250000	9.00590400
110.59999360	0.00000000	37.90600000	7.84940900
110.79999359	0.00000000	36.36811000	6.31151500
110.99999358	0.00000000	34.83022000	4.73671200
111.19999357	0.00000000	33.66756000	3.24803100
111.39999356	0.00000000	33.29232000	2.46063000
111.59999355	0.00000000	33.61835000	2.82357300
111.79999353	0.00000000	34.41191000	3.57406500
111.99999352	0.00000000	35.20546000	4.73671200
112.19999351	0.00000000	36.36811000	5.89320800
112.39999350	0.00000000	37.48154000	6.68676100
112.59999349	0.00000000	37.90600000	7.47416300
112.79999347	0.00000000	37.94907000	7.80019600
112.99999346	0.00000000	37.90600000	7.47416300
113.19999345	0.00000000	37.53075000	6.68676100
113.39999344	0.00000000	36.74335000	5.93626900
113.59999343	0.00000000	35.99286000	5.15501900
113.79999341	0.00000000	35.20546000	4.77977300
113.99999340	0.00000000	34.83022000	4.73671200
114.19999339	0.00000000	34.83022000	4.73671200
114.39999338	0.00000000	35.20546000	4.73671200
114.59999337	0.00000000	35.94980000	4.73671200
114.79999336	0.00000000	36.32505000	4.73671200
114.99999334	0.00000000	36.41117000	4.73671200
115.19999333	0.00000000	36.78642000	4.73671200
115.39999332	0.00000000	37.53075000	4.73671200
115.59999331	0.00000000	37.85679000	4.77977300
115.79999330	0.00000000	37.53075000	5.15501900
115.99999328	0.00000000	36.74335000	5.89320800
116.19999327	0.00000000	35.99286000	6.31151500
116.39999326	0.00000000	35.20546000	6.72982200
116.59999325	0.00000000	34.83022000	7.47416300
116.79999324	0.00000000	34.83022000	7.84940900
116.99999322	0.00000000	35.20546000	7.84940900
117.19999321	0.00000000	35.94980000	7.42495000
117.39999320	0.00000000	36.36811000	6.31151500
117.59999319	0.00000000	36.78642000	5.19808000
117.79999318	0.00000000	37.57381000	4.77977300
117.99999317	0.00000000	38.28125000	4.73671200
118.19999315	0.00000000	38.69341000	4.73671200
118.39999314	0.00000000	38.28125000	4.77977300
118.59999313	0.00000000	37.53075000	5.15501900
118.79999312	0.00000000	36.32505000	5.89320800
118.99999311	0.00000000	34.83022000	6.26845500
119.19999309	0.00000000	33.66756000	6.35457700
119.39999308	0.00000000	33.29232000	6.72982200
119.59999307	0.00000000	33.61835000	7.47416300
119.79999306	0.00000000	34.41191000	7.84940900
119.99999305	0.00000000	35.20546000	7.84940900
120.19999303	0.00000000	36.41117000	7.47416300
120.39999302	0.00000000	37.90600000	6.72982200
120.59999301	0.00000000	39.06250000	6.35457700
120.79999300	0.00000000	39.43774000	6.26845500
120.99999299	0.00000000	39.06250000	5.89320800
121.19999298	0.00000000	37.94907000	5.15501900
121.39999296	0.00000000	36.78642000	4.77977300
121.59999295	0.00000000	35.94980000	4.73671200
121.79999294	0.00000000	34.78716000	4.73671200
121.99999293	0.00000000	33.66756000	4.77977300
122.19999292	0.00000000	33.29232000	5.15501900
122.39999290	0.00000000	33.61835000	5.93626900
122.59999289	0.00000000	34.41191000	6.68676100
122.79999288	0.00000000	35.16240000	7.47416300
122.99999287	0.00000000	35.99286000	7.84940900
123.19999286	0.00000000	36.74335000	7.84940900
123.39999284	0.00000000	37.53075000	7.51722400
123.59999283	0.00000000	37.90600000	7.06200700
123.79999282	0.00000000	37.94907000	6.68061000
123.99999281	0.00000000	37.90600000	5.53026500
124.19999280	0.00000000	37.53075000	4.82898600
124.39999279	0.00000000	36.74335000	4.73671200
124.59999277	0.00000000	35.99286000	4.73671200
124.79999276	0.00000000	35.20546000	4.73671200
124.99999275	0.00000000	34.83022000	4.77977300
125.19999274	0.00000000	34.78716000	5.15501900
125.39999273	0.00000000	34.78716000	5.89320800
125.59999271	0.00000000	34.78716000	6.31151500
125.79999270	0.00000000	34.83022000	6.72982200
125.99999269	0.00000000	35.25467000	7.42495000
126.19999268	0.00000000	36.36811000	7.42495000
126.39999267	0.00000000	37.48154000	6.72982200
126.59999265	0.00000000	37.90600000	6.35457700
126.79999264	0.00000000	37.90600000	6.26845500
126.99999263	0.00000000	37.53075000	5.89320800
127.19999262	0.00000000	36.74335000	5.15501900
127.39999261	0.00000000	35.94980000	4.77977300
127.59999260	0.00000000	34.78716000	4.73671200
127.79999258	0.00000000	33.71063000	4.77977300
127.99999257	0.00000000	33.66756000	5.15501900
128.19999256	0.00000000	34.36884000	5.89320800
128.39999255	0.00000000	34.78716000	6.26845500
128.59999254	0.00000000	35.25467000	6.31151500
128.79999252	0.00000000	36.36811000	6.31151500
128.99999251	0.00000000	37.48154000	6.31151500
129.19999250	0.00000000	37.90600000	6.31151500
129.39999249	0.00000000	37.90600000	6.26845500
129.59999248	0.00000000	37.48154000	5.89320800
129.79999246	0.00000000	36.36811000	5.15501900
129.99999245	0.00000000	35.20546000	4.82898600
130.19999244	0.00000000	34.41191000	5.15501900
130.39999243	0.00000000	33.66756000	5.89320800
130.59999242	0.00000000	33.66756000	6.26845500
130.79999241	0.00000000	34.41191000	6.31151500
130.99999239	0.00000000	35.20546000	6.31151500
131.19999238	0.00000000	36.36811000	6.31151500
131.39999237	0.00000000	37.48154000	6.31151500
131.59999236	0.00000000	37.90600000	6.26845500
131.79999235	0.00000000	37.90600000	5.89320800
131.99999233	0.00000000	37.53075000	5.15501900
132.19999232	0.00000000	36.74335000	4.77977300
132.39999231	0.00000000	35.99286000	4.73671200
132.59999230	0.00000000	35.20546000	4.73671200
132.79999229	0.00000000	34.83022000	4.77977300
132.99999227	0.00000000	34.78716000	5.15501900
133.19999226	0.00000000	34.83022000	5.93626900
133.39999225	0.00000000	35.20546000	6.68676100
133.59999224	0.00000000	35.94980000	7.42495000
133.79999223	0.00000000	36.32505000	7.42495000
133.99999222	0.00000000	36.36811000	6.72982200
134.19999220	0.00000000	36.36811000	6.31151500
134.39999219	0.00000000	36.32505000	5.89320800
134.59999218	0.00000000	35.94980000	5.11195900
134.79999217	0.00000000	35.25467000	4.36146600
134.99999216	0.00000000	35.25467000	3.57406500
135.19999214	0.00000000	35.90059000	3.24803100
135.39999213	0.00000000	35.94980000	3.57406500
135.59999212	0.00000000	35.62377000	4.36146600
135.79999211	0.00000000	35.99286000	5.11195900
135.99999210	0.00000000	36.27584000	5.93626900
136.19999208	0.00000000	35.94980000	6.68676100
136.39999207	0.00000000	35.20546000	7.42495000
136.59999206	0.00000000	34.78716000	7.42495000
136.79999205	0.00000000	34.41191000	6.72982200
136.99999204	0.00000000	34.04282000	6.35457700
137.19999203	0.00000000	34.45497000	6.26845500
137.39999201	0.00000000	35.16240000	5.89320800
137.59999200	0.00000000	35.94980000	5.15501900
137.79999199	0.00000000	36.36811000	4.77977300
137.99999198	0.00000000	36.74335000	4.73671200
138.19999197	0.00000000	37.11245000	4.73671200
138.39999195	0.00000000	36.74335000	4.77977300
138.59999194	0.00000000	36.36811000	5.15501900
138.79999193	0.00000000	35.94980000	5.85014700
138.99999192	0.00000000	35.20546000	5.89320800
139.19999191	0.00000000	34.78716000	5.57332700
139.39999189	0.00000000	34.41191000	5.98548200
139.59999188	0.00000000	34.04282000	6.68676100
139.79999187	0.00000000	34.45497000	7.47416300
139.99999186	0.00000000	35.16240000	7.80019600
140.19999185	0.00000000	35.94980000	7.47416300
140.39999184	0.00000000	36.32505000	6.68676100
140.59999182	0.00000000	36.36811000	5.89320800
140.79999181	0.00000000	36.36811000	4.73671200
140.99999180	0.00000000	36.32505000	3.62327700
141.19999179	0.00000000	35.94980000	3.19881900
141.39999178	0.00000000	35.20546000	3.19881900
141.59999176	0.00000000	34.83022000	3.62327700
141.79999175	0.00000000	34.78716000	4.77977300
141.99999174	0.00000000	34.83022000	6.26845500
142.19999173	0.00000000	35.20546000	7.42495000
142.39999172	0.00000000	35.94980000	7.84940900
142.59999170	0.00000000	36.32505000	7.89247000
142.79999169	0.00000000	36.36811000	7.84940900
142.99999168	0.00000000	36.36811000	7.42495000
143.19999167	0.00000000	36.32505000	6.26845500
143.39999166	0.00000000	35.94980000	4.77977300
143.59999165	0.00000000	35.20546000	3.62327700
143.79999163	0.00000000	34.83022000	3.24803100
143.99999162	0.00000000	34.83022000	3.57406500
144.19999161	0.00000000	35.20546000	4.36146600
144.39999160	0.00000000	35.94980000	5.11195900
144.59999159	0.00000000	36.32505000	5.89320800
144.79999157	0.00000000	36.36811000	6.26845500
144.99999156	0.00000000	36.36811000	6.35457700
145.19999155	0.00000000	36.36811000	6.68676100
145.39999154	0.00000000	36.32505000	7.05585600
145.59999153	0.00000000	35.94980000	6.64370100
145.79999151	0.00000000	35.20546000	5.93626900
145.99999150	0.00000000	34.83022000	5.15501900
146.19999149	0.00000000	34.78716000	4.77977300
146.39999148	0.00000000	34.78716000	4.73671200
146.59999147	0.00000000	34.83022000	4.73671200
146.79999146	0.00000000	35.20546000	4.77977300
146.99999144	0.00000000	35.94980000	5.11195900
147.19999143	0.00000000	36.32505000	5.51796200
147.39999142	0.00000000	36.36811000	5.53026500
147.59999141	0.00000000	36.32505000	5.93626900
147.79999140	0.00000000	35.94980000	6.26845500
147.99999138	0.00000000	35.20546000	6.31151500
148.19999137	0.00000000	34.83022000	6.31151500
148.39999136	0.00000000	34.78716000	6.31151500
148.59999135	0.00000000	34.78716000	6.31151500
148.79999134	0.00000000	34.78716000	6.31151500
148.99999132	0.00000000	34.78716000	6.26845500
149.19999131	0.00000000	34.83022000	5.89320800
149.39999130	0.00000000	35.20546000	5.15501900
149.59999129	0.00000000	35.94980000	4.77977300
149.79999128	0.00000000	36.32505000	4.73671200
149.99999127	0.00000000	36.36811000	4.73671200
150.19999125	0.00000000	36.36811000	4.77977300
150.39999124	0.00000000	36.32505000	5.15501900
150.59999123	0.00000000	35.99286000	5.89320800
150.79999122	0.00000000	35.58071000	6.26845500
150.99999121	0.00000000	35.57455000	6.31151500
151.19999119	0.00000000	35.16240000	6.31151500
151.39999118	0.00000000	34.83022000	6.31151500
151.59999117	0.00000000	34.78716000	6.31151500
151.79999116	0.00000000	34.78716000	6.26845500
151.99999115	0.00000000	34.83022000	5.89320800
152.19999113	0.00000000	35.20546000	5.15501900
152.39999112	0.00000000	35.94980000	4.77977300
152.59999111	0.00000000	36.32505000	4.77977300
152.79999110	0.00000000	36.36811000	5.11195900
152.99999109	0.00000000	36.32505000	5.47490100
153.19999108	0.00000000	35.99286000	5.15501900
153.39999106	0.00000000	35.58071000	5.19808000
153.59999105	0.00000000	35.57455000	5.85014700
153.79999104	0.00000000	35.16240000	5.89320800
153.99999103	0.00000000	34.83022000	5.57332700
154.19999102	0.00000000	34.78716000	5.93626900
154.39999100	0.00000000	34.78716000	6.26845500
154.59999099	0.00000000	34.78716000	6.31151500
154.79999098	0.00000000	34.78716000	6.31151500
154.99999097	0.00000000	34.78716000	6.31151500
155.19999096	0.00000000	34.83022000	6.26845500
155.39999094	0.00000000	35.20546000	5.89320800
155.59999093	0.00000000	35.94980000	5.15501900
155.79999092	0.00000000	36.32505000	4.77977300
155.99999091	0.00000000	36.36811000	4.73671200
156.19999090	0.00000000	36.32505000	4.73671200
156.39999089	0.00000000	35.94980000	4.77977300
156.59999087	0.00000000	35.20546000	5.15501900
156.79999086	0.00000000	34.78716000	5.89320800
156.99999085	0.00000000	34.41191000	6.26845500
157.19999084	0.00000000	34.04282000	6.31151500
157.39999083	0.00000000	34.41191000	6.31151500
157.59999081	0.00000000	34.74409000	6.31151500
157.79999080	0.00000000	34.78716000	6.31151500
157.99999079	0.00000000	34.83022000	6.26845500
158.19999078	0.00000000	35.20546000	5.89320800
158.39999077	0.00000000	35.94980000	5.15501900
158.59999075	0.00000000	36.32505000	4.77977300
158.79999074	0.00000000	36.36811000	4.73671200
158.99999073	0.00000000	36.36811000	4.73671200
159.19999072	0.00000000	36.32505000	4.77977300
159.39999071	0.00000000	35.94980000	5.15501900
159.59999070	0.00000000	35.20546000	5.89320800
159.79999068	0.00000000	34.83022000	6.26845500
159.99999067	0.00000000	34.78716000	6.31151500
160.19999066	0.00000000	34.78716000	6.31151500
160.39999065	0.00000000	34.78716000	6.31151500
160.59999064	0.00000000	34.78716000	6.31151500
160.79999062	0.00000000	34.78716000	6.26845500
160.99999061	0.00000000	34.78716000	5.89320800
161.19999060	0.00000000	34.78716000	5.15501900
161.39999059	0.00000000	34.78716000	4.77977300
161.59999058	0.00000000	34.83022000	4.73671200
161.79999056	0.00000000	35.20546000	4.73671200
161.99999055	0.00000000	35.90059000	4.73671200
162.19999054	0.00000000	35.94980000	4.77977300
162.39999053	0.00000000	35.62377000	5.15501900
162.59999052	0.00000000	35.94980000	5.89320800
162.79999051	0.00000000	35.90059000	6.26845500
162.99999049	0.00000000	35.20546000	6.31151500
163.19999048	0.00000000	34.83022000	6.31151500
163.39999047	0.00000000	34.78716000	6.31151500
163.59999046	0.00000000	34.74409000	6.31151500
163.79999045	0.00000000	34.41191000	6.26845500
163.99999043	0.00000000	34.04282000	5.89320800
164.19999042	0.00000000	34.41191000	5.15501900
164.39999041	0.00000000	34.74409000	4.77977300
164.59999040	0.00000000	34.78716000	4.73671200
164.79999039	0.00000000	34.78716000	4.73671200
164.99999037	0.00000000	34.83022000	4.73671200
165.19999036	0.00000000	35.20546000	4.73671200
165.39999035	0.00000000	35.94980000	4.73671200
165.59999034	0.00000000	36.27584000	4.77977300
165.79999033	0.00000000	35.94980000	5.15501900
165.99999032	0.00000000	35.20546000	5.89320800
166.19999030	0.00000000	34.83022000	6.26845500
166.39999029	0.00000000	34.78716000	6.31151500
166.59999028	0.00000000	34.78716000	6.31151500
166.79999027	0.00000000	34.74409000	6.26845500
166.99999026	0.00000000	34.41191000	5.93626900
167.19999024	0.00000000	34.04282000	5.53026500
167.39999023	0.00000000	34.41191000	5.51796200
167.59999022	0.00000000	34.74409000	5.11195900
167.79999021	0.00000000	34.78716000	4.77977300
167.99999020	0.00000000	34.83022000	4.73671200
168.19999018	0.00000000	35.20546000	4.73671200
168.39999017	0.00000000	35.94980000	4.73671200
168.59999016	0.00000000	36.27584000	4.77977300
168.79999015	0.00000000	35.94980000	5.11195900
168.99999014	0.00000000	35.20546000	5.47490100
169.19999013	0.00000000	34.83022000	5.11195900
169.39999011	0.00000000	34.78716000	4.77977300
169.59999010	0.00000000	34.78716000	4.73671200
169.79999009	0.00000000	34.78716000	4.73671200
169.99999008	0.00000000	34.78716000	4.77977300
170.19999007	0.00000000	34.78716000	5.15501900
170.39999005	0.00000000	34.78716000	5.85014700
170.59999004	0.00000000	34.78716000	5.89320800
170.79999003	0.00000000	34.78716000	5.53026500
170.99999002	0.00000000	34.78716000	5.51796200
171.19999001	0.00000000	34.83022000	5.11195900
171.39998999	0.00000000	35.20546000	4.82898600
171.59998998	0.00000000	35.90059000	5.11195900
171.79998997	0.00000000	35.90059000	5.47490100
171.99998996	0.00000000	35.20546000	5.11195900
172.19998995	0.00000000	34.83022000	4.77977300
172.39998994	0.00000000	34.78716000	4.73671200
172.59998992	0.00000000	34.78716000	4.73671200
172.79998991	0.00000000	34.78716000	4.73671200
172.99998990	0.00000000	34.78716000	4.77977300
173.19998989	0.00000000	34.78716000	5.15501900
173.39998988	0.00000000	34.78716000	5.89320800
173.59998986	0.00000000	34.78716000	6.21924200
173.79998985	0.00000000	34.78716000	5.89320800
173.99998984	0.00000000	34.78716000	5.15501900
174.19998983	0.00000000	34.78716000	4.77977300
174.39998982	0.00000000	34.78716000	4.73671200
174.59998980	0.00000000	34.78716000	4.73671200
174.79998979	0.00000000	34.78716000	4.73671200
174.99998978	0.00000000	34.78716000	4.73671200
175.19998977	0.00000000	34.78716000	4.73671200
175.39998976	0.00000000	34.78716000	4.73671200
175.59998975	0.00000000	34.78716000	4.73671200
175.79998973	0.00000000	34.78716000	4.77977300
175.99998972	0.00000000	34.78716000	5.15501900
176.19998971	0.00000000	34.78716000	5.89320800
176.39998970	0.00000000	34.78716000	6.26845500
176.59998969	0.00000000	34.78716000	6.31151500
176.79998967	0.00000000	34.78716000	6.26845500
176.99998966	0.00000000	34.78716000	5.89320800
177.19998965	0.00000000	34.78716000	5.19808000
177.39998964	0.00000000	34.78716000	5.15501900
177.59998963	0.00000000	34.78716000	5.47490100
177.79998961	0.00000000	34.78716000	5.11195900
177.99998960	0.00000000	34.78716000	4.77977300
178.19998959	0.00000000	34.78716000	4.73671200
178.39998958	0.00000000	34.78716000	4.73671200
178.59998957	0.00000000	34.78716000	4.77977300
178.79998956	0.00000000	34.78716000	5.15501900
178.99998954	0.00000000	34.78716000	5.89320800
179.19998953	0.00000000	34.78716000	6.26845500
179.39998952	0.00000000	34.78716000	6.31151500
179.59998951	0.00000000	34.78716000	6.26845500
179.79998950	0.00000000	34.78716000	5.89320800
179.99998948	0.00000000	34.78716000	5.15501900
180.19998947	0.00000000	34.78716000	4.77977300
180.39998946	0.00000000	34.78716000	4.73671200
180.59998945	0.00000000	34.78716000	4.73671200
180.79998944	0.00000000	34.78716000	4.73671200
180.99998942	0.00000000	34.78716000	4.73671200
181.19998941	0.00000000	34.78716000	4.77977300
181.39998940	0.00000000	34.78716000	5.15501900
181.59998939	0.00000000	34.78716000	5.85014700
181.79998938	0.00000000	34.78716000	5.89320800
181.99998937	0.00000000	34.78716000	5.57332700
182.19998935	0.00000000	34.78716000	5.93626900
182.39998934	0.00000000	34.78716000	6.21924200
182.59998933	0.00000000	34.78716000	5.89320800
182.79998932	0.00000000	34.78716000	5.15501900
182.99998931	0.00000000	34.78716000	4.77977300
183.19998929	0.00000000	34.78716000	4.73671200
183.39998928	0.00000000	34.78716000	4.73671200
183.59998927	0.00000000	34.78716000	4.73671200
183.79998926	0.00000000	34.78716000	4.77977300
183.99998925	0.00000000	34.78716000	5.11195900
184.19998923	0.00000000	34.78716000	5.51796200
184.39998922	0.00000000	34.78716000	5.53026500
184.59998921	0.00000000	34.78716000	5.93626900
184.79998920	0.00000000	34.78716000	6.26845500
184.99998919	0.00000000	34.78716000	6.35457700
185.19998918	0.00000000	34.78716000	6.68676100
185.39998916	0.00000000	34.78716000	7.00664300
185.59998915	0.00000000	34.78716000	6.26845500
185.79998914	0.00000000	34.78716000	5.19808000
185.99998913	0.00000000	34.78716000	4.77977300
186.19998912	0.00000000	34.78716000	4.73671200
186.39998910	0.00000000	34.78716000	4.73671200
186.59998909	0.00000000	34.78716000	4.73671200
186.79998908	0.00000000	34.78716000	4.73671200
186.99998907	0.00000000	34.74409000	4.73671200
187.19998906	0.00000000	34.41191000	4.77977300
187.39998904	0.00000000	34.04282000	5.15501900
187.59998903	0.00000000	34.41191000	5.89320800
187.79998902	0.00000000	34.74409000	6.26845500
187.99998901	0.00000000	34.78716000	6.31151500
188.19998900	0.00000000	34.78716000	6.31151500
188.39998899	0.00000000	34.78716000	6.26845500
188.59998897	0.00000000	34.78716000	5.89320800
188.79998896	0.00000000	34.78716000	5.15501900
188.99998895	0.00000000	34.78716000	4.77977300
189.19998894	0.00000000	34.78716000	4.73671200
189.39998893	0.00000000	34.78716000	4.73671200
189.59998891	0.00000000	34.78716000	4.73671200
189.79998890	0.00000000	34.78716000	4.73671200
189.99998889	0.00000000	34.78716000	4.73671200
190.19998888	0.00000000	34.74409000	4.77977300
190.39998887	0.00000000	34.36884000	5.15501900
190.59998885	0.00000000	33.66756000	5.89320800
190.79998884	0.00000000	33.66756000	6.26845500
190.99998883	0.00000000	34.36884000	6.31151500
191.19998882	0.00000000	34.74409000	6.31151500
191.39998881	0.00000000	34.78716000	6.31151500
191.59998880	0.00000000	34.78716000	6.26845500
191.79998878	0.00000000	34.78716000	5.89320800
191.99998877	0.00000000	34.78716000	5.15501900
192.19998876	0.00000000	34.78716000	4.77977300
192.39998875	0.00000000	34.78716000	4.73671200
192.59998874	0.00000000	34.78716000	4.73671200
192.79998872	0.00000000	34.78716000	4.73671200
192.99998871	0.00000000	34.74409000	4.73671200
193.19998870	0.00000000	34.36884000	4.73671200
193.39998869	0.00000000	33.61835000	4.73671200
193.59998868	0.00000000	33.24311000	4.73671200
193.79998866	0.00000000	33.20005000	4.73671200
193.99998865	0.00000000	33.20005000	4.73671200
194.19998864	0.00000000	33.24311000	4.77977300
194.39998863	0.00000000	33.61835000	5.15501900
194.59998862	0.00000000	34.36884000	5.89320800
194.79998861	0.00000000	34.74409000	6.21924200
194.99998859	0.00000000	34.78716000	5.89320800
195.19998858	0.00000000	34.78716000	5.15501900
195.39998857	0.00000000	34.78716000	4.77977300
195.59998856	0.00000000	34.74409000	4.73671200
195.79998855	0.00000000	34.36884000	4.73671200
195.99998853	0.00000000	33.61835000	4.73671200
