Time	Channel A	Channel B	Channel C
(us)	(V)	(mV)	(mV)

-4.49999956	0.00000000	26.87623000	2.78051200
-4.29999957	0.00000000	26.91929000	3.11269700
-4.09999958	0.00000000	27.25147000	3.15575800
-3.89999959	0.00000000	27.62057000	3.11269700
-3.69999960	0.00000000	27.25147000	2.73745100
-3.49999962	0.00000000	26.96850000	2.04232300
-3.29999963	0.00000000	27.25147000	2.04232300
-3.09999964	0.00000000	27.66363000	2.73745100
-2.89999965	0.00000000	27.66978000	3.06348400
-2.69999966	0.00000000	28.03888000	2.78051200
-2.49999968	0.00000000	27.98966000	2.41141700
-2.29999969	0.00000000	27.29453000	2.78051200
-2.09999970	0.00000000	26.91929000	3.06348400
-1.89999971	0.00000000	26.87623000	2.78051200
-1.69999972	0.00000000	26.87623000	2.41141700
-1.49999973	0.00000000	26.87623000	2.78051200
-1.29999975	0.00000000	26.87623000	3.11269700
-1.09999976	0.00000000	26.87623000	3.15575800
-0.89999977	0.00000000	26.87623000	3.15575800
-0.69999978	0.00000000	26.91929000	3.15575800
-0.49999979	0.00000000	27.25147000	3.15575800
-0.29999981	0.31803640	27.62057000	3.15575800
-0.09999982	0.63668800	27.25147000	3.15575800
0.10000017	0.95533960	26.91929000	3.15575800
0.30000016	1.11466500	26.87623000	3.11269700
0.50000015	0.79601380	26.87623000	2.73745100
0.70000013	0.31803640	26.87623000	1.99311000
0.90000012	-0.47736220	26.87623000	1.61786400
1.10000011	-1.43331700	26.91929000	1.61786400
1.30000010	-2.38927200	27.29453000	1.99311000
1.50000009	-2.86724900	28.03888000	2.73745100
1.70000008	-2.38927200	28.41412000	3.11269700
1.90000006	-1.27399100	28.41412000	3.15575800
2.10000005	0.47736220	28.03888000	3.15575800
2.30000004	2.54859700	27.29453000	3.15575800
2.50000003	4.45989200	26.91929000	3.11269700
2.70000002	5.25652100	26.87623000	2.73745100
2.90000000	4.93786900	26.87623000	1.99311000
3.09999999	3.02657500	26.87623000	1.61786400
3.29999998	0.00000000	26.87623000	1.57480300
3.49999997	-3.50393700	26.91929000	1.61786400
3.69999996	-6.37180100	27.29453000	1.99311000
3.89999994	-7.96444400	27.98966000	2.73745100
4.09999993	-7.48646600	28.03888000	3.11269700
4.29999992	-5.09719500	27.71284000	3.15575800
4.49999991	-1.11466500	28.03888000	3.15575800
4.69999990	3.18590100	27.98966000	3.15575800
4.89999989	7.00848900	27.29453000	3.11269700
5.09999987	9.23905000	26.91929000	2.73745100
5.29999986	9.23905000	26.87623000	1.99311000
5.49999985	6.69045300	26.87623000	1.61786400
5.69999984	2.54859700	26.87623000	1.61786400
5.89999983	-2.22994600	26.87623000	1.95004900
6.09999981	-6.53112700	26.87623000	2.36220500
6.29999980	-9.07972400	26.87623000	2.36835600
6.49999979	-9.23905000	26.91929000	2.78051200
6.69999978	-7.16781500	27.29453000	3.11269700
6.89999977	-3.50393700	27.98966000	3.15575800
7.09999975	0.79601380	27.98966000	3.15575800
7.29999974	4.77854300	27.29453000	3.11269700
7.49999973	7.16781500	26.91929000	2.73745100
7.69999972	7.64579200	26.87623000	2.04232300
7.89999971	6.21247500	26.87623000	1.99311000
8.09999970	3.50393700	26.87623000	2.31914400
8.29999968	0.15871060	26.87623000	1.95004900
8.49999967	-2.70792300	26.87623000	1.66707700
8.69999966	-4.61921700	26.87623000	1.99311000
8.89999965	-5.09719500	26.87623000	2.73745100
9.09999964	-4.45989200	26.87623000	3.11269700
9.29999962	-2.70792300	26.87623000	3.15575800
9.49999961	-0.79601380	26.87623000	3.15575800
9.69999960	1.11466500	26.87623000	3.15575800
9.89999959	2.22994600	26.87623000	3.15575800
10.09999958	2.54859700	26.91929000	3.15575800
10.29999956	2.22994600	27.25147000	3.11269700
10.49999955	1.43331700	27.62057000	2.78051200
10.69999954	0.63668800	27.25147000	2.41141700
10.89999953	-0.15871060	26.91929000	2.73745100
11.09999952	-0.79601380	26.87623000	2.68823800
11.29999951	-0.95533960	26.87623000	2.04232300
11.49999949	-0.95533960	26.87623000	2.04232300
11.69999948	-0.63668800	26.87623000	2.73745100
11.89999947	-0.47736220	26.87623000	3.11269700
12.09999946	-0.15871060	26.87623000	3.15575800
12.29999945	-0.15871060	26.87623000	3.15575800
12.49999943	-0.15871060	26.87623000	3.15575800
12.69999942	0.00000000	26.87623000	3.15575800
12.89999941	0.00000000	26.87623000	3.15575800
13.09999940	0.00000000	26.87623000	3.15575800
13.29999939	0.15871060	26.87623000	3.15575800
13.49999937	0.00000000	26.87623000	3.11269700
13.69999936	0.00000000	26.87623000	2.78051200
13.89999935	0.00000000	26.87623000	2.41141700
14.09999934	-0.15871060	26.87623000	2.78051200
14.29999933	-0.15871060	26.87623000	3.06348400
14.49999932	-0.15871060	26.91929000	2.78051200
14.69999930	0.00000000	27.25147000	2.41141700
14.89999929	0.00000000	27.62057000	2.78051200
15.09999928	0.00000000	27.25147000	3.11269700
15.29999927	0.00000000	26.91929000	3.15575800
15.49999926	0.00000000	26.87623000	3.15575800
15.69999924	0.00000000	26.87623000	3.11269700
15.89999923	0.00000000	26.91929000	2.78051200
16.09999922	0.00000000	27.25147000	2.41141700
16.29999921	0.00000000	27.62057000	2.73745100
16.49999920	-0.15871060	27.25147000	2.68823800
16.69999919	-0.15871060	26.96850000	2.04232300
16.89999917	0.00000000	27.29453000	2.04232300
17.09999916	0.00000000	28.03888000	2.73745100
17.29999915	0.00000000	28.45718000	3.06348400
17.49999914	0.00000000	28.83243000	2.78051200
17.69999913	0.00000000	29.20152000	2.41141700
17.89999911	0.00000000	28.78937000	2.78051200
18.09999910	0.00000000	28.03888000	3.06348400
18.29999909	0.00000000	26.83317000	2.78051200
18.49999908	0.00000000	25.29527000	2.41141700
18.69999907	0.00000000	23.75738000	2.73745100
18.89999905	0.00000000	22.60088000	2.73745100
19.09999904	0.00000000	22.26870000	2.41141700
19.29999903	0.00000000	23.06225000	2.73745100
19.49999902	0.00000000	25.43061000	2.73745100
19.69999901	0.00000000	28.92470000	2.41141700
19.89999900	0.00000000	33.15699000	2.73745100
20.09999898	0.00000000	36.97096000	2.68823800
20.29999897	0.00000000	38.88410000	2.04232300
20.49999896	0.00000000	38.46580000	1.99311000
20.69999895	0.00000000	35.30389000	2.36220500
20.89999894	0.00000000	29.48450000	2.32529500
21.09999892	0.00000000	22.09030000	2.36220500
21.29999891	0.00000000	14.40699000	1.99311000
21.49999890	0.00000000	8.31692900	1.99311000
21.69999889	0.00000000	6.40378900	2.31914400
21.89999888	0.00000000	9.14739100	1.99311000
22.09999886	0.00000000	16.22170000	1.99311000
22.29999885	0.00000000	27.42987000	2.31914400
22.49999884	0.00000000	40.13287000	1.99311000
22.69999883	0.00000000	50.93504000	2.04232300
22.89999882	0.00000000	57.44340000	2.73745100
23.09999881	0.00000000	57.35728000	3.11269700
23.29999879	0.00000000	49.95694000	3.15575800
23.49999878	0.00000000	36.37426000	3.19881900
23.69999877	0.00000000	19.02067000	3.57406500
23.89999876	0.00000000	2.03617100	4.31840500
24.09999875	0.00000000	-10.29158000	4.64443900
24.29999873	0.00000000	-15.22515000	4.26919300
24.49999872	0.00000000	-10.48228000	3.11269700
24.69999871	0.00000000	3.80167300	1.57480300
24.89999870	0.00000000	24.26796000	0.00000000
25.09999869	0.00000000	46.27829000	-1.53174200
25.29999867	0.00000000	64.84375000	-2.68823800
25.49999866	0.00000000	75.59670000	-3.02042300
25.69999865	0.00000000	75.92273000	-2.22687000
25.89999864	0.00000000	64.66535000	0.13533460
26.09999863	0.00000000	44.23597000	3.57406500
26.29999862	0.00000000	19.52510000	7.47416300
26.49999860	0.00000000	-3.64173200	10.91289000
26.69999859	0.00000000	-19.87574000	13.23819000
26.89999858	0.00000000	-25.68897000	13.52116000
27.09999857	0.00000000	-19.87574000	11.18971000
27.29999856	0.00000000	-3.68479300	6.09005900
27.49999854	0.00000000	19.15600000	-0.83661410
27.69999853	0.00000000	43.44857000	-8.58759800
27.89999852	0.00000000	63.91486000	-15.05290000
28.09999851	0.00000000	75.13533000	-18.49163000
28.29999850	0.00000000	75.22145000	-17.28592000
28.49999848	0.00000000	64.88680000	-11.42962000
28.69999847	0.00000000	47.07800000	-1.76550200
28.89999846	0.00000000	26.17495000	10.21161000
29.09999845	0.00000000	5.66560000	21.37057000
29.29999844	0.00000000	-9.36269600	29.49680000
29.49999843	0.00000000	-15.64345000	32.47416000
29.69999841	0.00000000	-12.61688000	28.98622000
29.89999840	0.00000000	-1.45177200	19.23597000
30.09999839	0.00000000	14.73917000	4.97047200
30.29999838	0.00000000	32.18504000	-11.23893000
30.49999837	0.00000000	47.30561000	-25.08612000
30.69999835	0.00000000	57.44340000	-33.58760000
30.89999834	0.00000000	60.93750000	-34.70718000
31.09999833	0.00000000	57.48647000	-27.73745000
31.29999832	0.00000000	47.85925000	-14.17323000
31.49999831	0.00000000	34.73794000	3.57406500
31.69999829	0.00000000	21.15526000	21.73966000
31.89999828	0.00000000	9.52263600	35.96210000
32.09999827	0.00000000	2.17150600	43.34399000
32.29999826	0.00000000	0.54749010	41.76919000
32.49999825	0.00000000	4.40452700	32.14813000
32.69999824	0.00000000	12.50615000	16.25861000
32.89999822	0.00000000	23.33907000	-2.60211600
33.09999821	0.00000000	34.14124000	-20.02337000
33.29999820	0.00000000	42.65502000	-32.43110000
33.49999819	0.00000000	46.93036000	-37.81988000
33.69999818	0.00000000	46.23523000	-34.70718000
33.89999816	0.00000000	41.62770000	-23.55438000
34.09999815	0.00000000	34.23351000	-7.38804100
34.29999814	0.00000000	25.38755000	10.03322000
34.49999813	0.00000000	17.29208000	25.13533000
34.69999812	0.00000000	12.26624000	35.21161000
34.89999810	0.00000000	11.10359000	38.23819000
35.09999809	0.00000000	14.13017000	33.26156000
35.29999808	0.00000000	20.26944000	21.37057000
35.49999807	0.00000000	27.16535000	6.31151500
35.69999806	0.00000000	33.34769000	-8.74138700
35.89999805	0.00000000	36.84178000	-20.67544000
36.09999803	0.00000000	37.30315000	-26.11343000
36.29999802	0.00000000	35.30389000	-24.66781000
36.49999801	0.00000000	30.73942000	-17.32899000
36.69999800	0.00000000	25.01845000	-5.80708600
36.89999799	0.00000000	20.78002000	6.92052100
37.09999797	0.00000000	18.36245000	17.66117000
37.29999796	0.00000000	18.03642000	23.78814000
37.49999795	0.00000000	19.99262000	23.09301000
37.69999794	0.00000000	24.18184000	16.67692000
37.89999793	0.00000000	29.15231000	7.43110200
38.09999791	0.00000000	33.02165000	-2.60211600
38.29999790	0.00000000	35.39001000	-10.96826000
38.49999789	0.00000000	35.72219000	-14.77608000
38.69999788	0.00000000	33.85827000	-12.54921000
38.89999787	0.00000000	30.37032000	-5.67175200
39.09999786	0.00000000	26.54404000	3.53100400
39.29999784	0.00000000	22.96998000	12.72761000
39.49999783	0.00000000	20.31250000	18.77460000
39.69999782	0.00000000	18.73770000	19.60507000
39.89999781	0.00000000	19.14985000	14.96063000
40.09999780	0.00000000	21.01993000	6.58833600
40.29999778	0.00000000	23.75738000	-3.43257800
40.49999777	0.00000000	26.87623000	-11.85408000
40.69999776	0.00000000	29.99508000	-16.86762000
40.89999775	0.00000000	32.68946000	-16.77534000
41.09999774	0.00000000	34.27657000	-11.06053000
41.29999772	0.00000000	34.65182000	-1.48868100
41.49999771	0.00000000	33.85827000	8.87672100
41.69999770	0.00000000	31.53297000	17.37820000
41.89999769	0.00000000	28.45718000	21.97957000
42.09999768	0.00000000	25.33834000	21.60433000
42.29999767	0.00000000	22.60088000	16.25861000
42.49999765	0.00000000	20.68774000	7.80634800
42.69999764	0.00000000	19.90034000	-1.43946800
42.89999763	0.00000000	20.64468000	-9.52263600
43.09999762	0.00000000	22.13336000	-14.12401000
43.29999761	0.00000000	23.71432000	-14.21629000
43.49999759	0.00000000	25.29527000	-10.40846000
43.69999758	0.00000000	26.87623000	-4.26919300
43.89999757	0.00000000	28.41412000	2.69439000
44.09999756	0.00000000	29.57062000	8.87672100
44.29999755	0.00000000	29.99508000	13.10285000
44.49999753	0.00000000	30.08120000	14.25935000
44.69999752	0.00000000	30.45644000	12.03248000
44.89999751	0.00000000	31.15157000	7.89247000
45.09999750	0.00000000	31.10851000	3.62327700
45.29999749	0.00000000	29.94586000	0.09227362
45.49999748	0.00000000	27.98966000	-2.64517700
45.69999746	0.00000000	25.25221000	-4.18307100
45.89999745	0.00000000	22.13336000	-4.18307100
46.09999744	0.00000000	19.01451000	-2.69439000
46.29999743	0.00000000	16.36319000	-0.37524600
46.49999742	0.00000000	15.24975000	1.95004900
46.69999740	0.00000000	16.45546000	4.31840500
46.89999739	0.00000000	19.99262000	6.22539300
47.09999738	0.00000000	25.80585000	7.38188900
47.29999737	0.00000000	32.68946000	7.33882900
47.49999736	0.00000000	38.50886000	5.85014700
47.69999734	0.00000000	42.00295000	3.53100400
47.89999733	0.00000000	42.69808000	1.20570900
48.09999732	0.00000000	39.57923000	-1.15649600
48.29999731	0.00000000	33.02165000	-3.02042300
48.49999730	0.00000000	24.87697000	-3.76476400
48.69999729	0.00000000	16.40625000	-2.64517700
48.89999727	0.00000000	9.89788300	-0.33218500
49.09999726	0.00000000	7.56643700	2.41141700
49.29999725	0.00000000	9.47957600	5.85014700
49.49999724	0.00000000	15.33587000	8.50147600
49.69999723	0.00000000	24.18184000	9.33809000
49.89999721	0.00000000	33.80905000	8.91978400
50.09999720	0.00000000	41.53543000	6.96358300
50.29999719	0.00000000	45.77386000	3.48794300
50.49999718	0.00000000	45.34940000	-0.37524600
50.69999717	0.00000000	39.99754000	-4.22613100
50.89999715	0.00000000	31.53297000	-6.82824800
51.09999714	0.00000000	22.26870000	-6.82824800
51.29999713	0.00000000	14.17938000	-4.18307100
51.49999712	0.00000000	9.56569900	0.00000000
51.69999711	0.00000000	9.52263600	4.26919300
51.89999710	0.00000000	13.80413000	7.80019600
52.09999708	0.00000000	21.38902000	10.49459000
52.29999707	0.00000000	29.85359000	11.56496000
52.49999706	0.00000000	36.05438000	10.03322000
52.69999705	0.00000000	39.57923000	6.26845500
52.89999704	0.00000000	39.53617000	2.04232300
53.09999702	0.00000000	35.72219000	-1.44562000
53.29999701	0.00000000	29.61983000	-3.80782500
53.49999700	-0.15871060	23.06225000	-4.55831700
53.69999699	0.00000000	18.07948000	-3.76476400
53.89999698	0.00000000	15.71112000	-1.07037400
54.09999696	0.00000000	16.49852000	2.64517700
54.29999695	0.00000000	19.94340000	5.33956700
54.49999694	0.00000000	25.29527000	6.17618100
54.69999693	0.00000000	30.64714000	5.85014700
54.89999692	0.00000000	34.14124000	4.64443900
55.09999691	0.00000000	35.34695000	2.78051200
55.29999689	0.00000000	34.14124000	0.87967510
55.49999688	0.00000000	30.69020000	0.13533460
55.69999687	0.00000000	25.71358000	0.51058070
55.89999686	0.00000000	21.14911000	2.04232300
56.09999685	0.00000000	18.41166000	4.31840500
56.29999683	0.00000000	17.98720000	6.22539300
56.49999682	0.00000000	19.52510000	7.33882900
56.69999681	0.00000000	22.64394000	6.92052100
56.89999680	0.00000000	26.83317000	4.55831700
57.09999679	0.00000000	30.69020000	0.73818890
57.29999677	0.00000000	33.02165000	-3.80782500
57.49999676	0.00000000	33.76599000	-6.82824800
57.69999675	0.00000000	32.27116000	-7.24655500
57.89999674	0.00000000	29.25074000	-5.29650500
58.09999673	0.00000000	26.54404000	-1.02116100
58.29999672	0.00000000	24.18184000	4.73671200
58.49999670	0.00000000	22.64394000	10.49459000
58.69999669	0.00000000	22.26870000	14.72072000
58.89999668	0.00000000	23.01919000	16.20940000
59.09999667	0.00000000	24.92003000	14.25935000
59.29999666	0.00000000	26.78395000	8.87057000
59.49999664	0.00000000	27.98966000	1.58095500
59.69999663	0.00000000	28.36491000	-5.75787400
59.89999662	0.00000000	28.03888000	-11.47884000
60.09999661	0.00000000	27.25147000	-13.79798000
60.29999660	0.00000000	26.50098000	-11.89715000
60.49999658	0.00000000	25.71358000	-6.87746000
60.69999657	0.00000000	25.38755000	0.51058070
60.89999656	0.00000000	25.71358000	8.91978400
61.09999655	0.00000000	26.50098000	15.79724000
61.29999654	0.00000000	27.29453000	18.90994000
61.49999653	0.00000000	28.41412000	17.79650000
61.69999651	0.00000000	29.15231000	13.14591000
61.89999650	0.00000000	28.74015000	5.80708600
62.09999649	0.00000000	27.62057000	-2.64517700
62.29999648	0.00000000	25.62746000	-9.94094400
62.49999647	0.00000000	23.38214000	-14.21629000
62.69999645	0.00000000	21.43824000	-14.58538000
62.89999644	0.00000000	20.73080000	-11.14665000
63.09999643	0.00000000	21.48130000	-4.60137700
63.29999642	0.00000000	23.75738000	3.11269700
63.49999641	0.00000000	26.45792000	10.45152000
63.69999639	0.00000000	28.83243000	15.84030000
63.89999638	0.00000000	31.15157000	17.79035000
64.09999637	0.00000000	32.60334000	16.25861000
64.29999636	0.00000000	32.27116000	11.65723000
64.49999635	0.00000000	30.32111000	5.11195900
64.69999634	0.00000000	27.62057000	-1.43946800
64.89999632	0.00000000	24.18184000	-6.87130900
65.09999631	0.00000000	21.52436000	-9.98400600
65.29999630	0.00000000	20.68774000	-10.40846000
65.49999629	0.00000000	21.06299000	-8.50147600
65.69999628	0.00000000	22.64394000	-4.64443900
65.89999626	0.00000000	25.29527000	-0.04306102
66.09999625	0.00000000	27.98966000	4.26919300
66.29999624	0.00000000	29.90280000	7.80019600
66.49999623	0.00000000	30.69020000	10.49459000
66.69999622	0.00000000	29.90280000	11.70029000
66.89999620	0.00000000	28.03888000	11.33120000
67.09999619	0.00000000	25.71358000	10.16855000
67.29999618	0.00000000	23.80659000	7.80019600
67.49999617	0.00000000	22.68701000	4.73671200
67.69999616	0.00000000	23.06225000	1.53174200
67.89999615	0.00000000	24.96309000	-1.95004900
68.09999613	0.00000000	27.29453000	-5.38262700
68.29999612	0.00000000	29.94586000	-7.29576700
68.49999611	0.00000000	31.80364000	-7.38188900
68.69999610	0.00000000	31.44069000	-6.17618100
68.89999609	0.00000000	29.52756000	-3.80782500
69.09999607	0.00000000	26.40871000	0.09227362
69.29999606	0.00000000	22.55167000	4.69365100
69.49999605	0.00000000	19.10679000	8.96284400
69.69999604	0.00000000	16.83071000	12.07554000
69.89999603	0.00000000	16.87377000	13.56422000
70.09999601	0.00000000	19.56816000	12.77067000
70.29999600	0.00000000	24.18184000	9.29502900
70.49999599	0.00000000	29.57677000	4.31840500
70.69999598	0.00000000	34.23351000	-1.11343500
70.89999597	0.00000000	37.30315000	-5.71481200
71.09999596	0.00000000	38.04749000	-8.45226300
71.29999594	0.00000000	35.72219000	-8.82750900
71.49999593	0.00000000	31.10851000	-6.92052100
71.69999592	0.00000000	25.29527000	-3.06963600
71.89999591	0.00000000	19.48204000	1.53174200
72.09999590	0.00000000	14.87451000	5.80093500
72.29999588	0.00000000	12.59842000	8.87057000
72.49999587	0.00000000	13.71186000	10.07628000
72.69999586	0.00000000	17.56890000	9.29502900
72.89999585	0.00000000	23.01919000	7.05585600
73.09999584	0.00000000	29.52756000	3.94931100
73.29999582	0.00000000	34.88558000	1.29183100
73.49999581	0.00000000	37.30315000	-0.64591530
73.69999580	0.00000000	37.35236000	-1.02116100
73.89999579	0.00000000	35.39001000	0.00000000
74.09999578	0.00000000	31.48376000	1.15649600
74.29999577	0.00000000	26.50098000	1.95004900
74.49999575	0.00000000	21.48130000	2.68823800
74.69999574	0.00000000	18.03642000	2.60211600
74.89999573	0.00000000	16.83071000	1.15649600
75.09999572	0.00000000	17.94414000	-0.73818890
75.29999571	0.00000000	20.64468000	-1.85777500
75.49999569	0.00000000	24.08957000	-2.22687000
75.69999568	0.00000000	27.57136000	-1.02116100
75.89999567	0.00000000	29.90280000	1.62401600
76.09999566	0.00000000	31.10851000	4.73671200
76.29999565	0.00000000	31.10851000	7.80019600
76.49999563	0.00000000	29.99508000	10.07628000
76.69999562	0.00000000	28.45718000	10.45152000
76.89999561	0.00000000	26.91929000	8.87057000
77.09999560	0.00000000	25.76279000	5.33956700
77.29999559	0.00000000	25.33834000	0.00000000
77.49999558	0.00000000	25.29527000	-5.33956700
77.69999556	0.00000000	25.29527000	-8.82750900
77.89999555	0.00000000	25.29527000	-9.99015700
78.09999554	0.00000000	25.25221000	-8.45226300
78.29999553	0.00000000	24.87697000	-4.55831700
78.49999552	0.00000000	24.13263000	0.83661410
78.69999550	0.00000000	23.75738000	7.01279500
78.89999549	0.00000000	23.75738000	11.98327000
79.09999548	0.00000000	24.22490000	14.72072000
79.29999547	0.00000000	25.76279000	14.72072000
79.49999546	0.00000000	28.03888000	12.03248000
79.69999544	0.00000000	29.94586000	7.42495000
79.89999543	0.00000000	31.10851000	1.99311000
80.09999542	0.00000000	31.10851000	-3.02042300
80.29999541	0.00000000	29.94586000	-6.92052100
80.49999540	0.00000000	27.98966000	-8.82750900
80.69999539	0.00000000	25.29527000	-8.50147600
80.89999537	0.00000000	22.60088000	-6.17618100
81.09999536	0.00000000	20.68774000	-2.69439000
81.29999535	0.00000000	19.94340000	1.57480300
81.49999534	0.00000000	21.06299000	5.80093500
81.69999533	0.00000000	23.33907000	8.91978400
81.89999531	0.00000000	25.67052000	10.53765000
82.09999530	0.00000000	28.03888000	10.91289000
82.29999529	0.00000000	29.90280000	10.11934000
82.49999528	0.00000000	30.69020000	7.80019600
82.69999527	0.00000000	29.94586000	4.73671200
82.89999525	0.00000000	28.45718000	1.58095500
83.09999524	0.00000000	26.87623000	-1.53174200
83.29999523	0.00000000	25.33834000	-4.26919300
83.49999522	0.00000000	24.18184000	-6.17618100
83.69999521	0.00000000	23.75738000	-6.96358300
83.89999520	0.00000000	23.75738000	-6.13312000
84.09999518	0.00000000	24.13263000	-3.80782500
84.29999517	0.00000000	24.92003000	0.09227362
84.49999516	0.00000000	25.67052000	4.64443900
84.69999515	0.00000000	26.40871000	8.54453700
84.89999514	0.00000000	26.40871000	10.86983000
85.09999512	0.00000000	25.76279000	11.65723000
85.29999511	0.00000000	25.76279000	10.45152000
85.49999510	0.00000000	26.45792000	7.38188900
85.69999509	0.00000000	26.87623000	3.11269700
85.89999508	0.00000000	27.29453000	-1.48868100
86.09999506	0.00000000	27.98966000	-5.38262700
86.29999505	0.00000000	27.98966000	-7.71407400
86.49999504	0.00000000	27.25147000	-8.45226300
86.69999503	0.00000000	26.45792000	-6.87746000
86.89999502	0.00000000	25.25221000	-3.02042300
87.09999501	0.00000000	23.75738000	1.95004900
87.29999499	0.00000000	22.60088000	6.96358300
87.49999498	0.00000000	22.22564000	10.40846000
87.69999497	0.00000000	22.60088000	11.60802000
87.89999496	0.00000000	23.80659000	10.45152000
88.09999495	0.00000000	25.71358000	7.38188900
88.29999493	0.00000000	27.98966000	3.15575800
88.49999492	0.00000000	29.48450000	-1.11343500
88.69999491	0.00000000	29.57062000	-4.55831700
88.89999490	0.00000000	28.83243000	-6.50221400
89.09999489	0.00000000	27.98966000	-6.09005900
89.29999487	0.00000000	26.40871000	-3.80782500
89.49999486	0.00000000	24.18184000	0.04306102
89.69999485	0.00000000	22.64394000	4.26919300
89.89999484	0.00000000	22.22564000	7.71407400
90.09999483	0.00000000	22.60088000	9.65797200
90.29999482	0.00000000	23.75738000	9.24581600
90.49999480	0.00000000	25.25221000	6.96358300
90.69999479	0.00000000	26.45792000	3.11269700
90.89999478	0.00000000	27.20841000	-1.07037400
91.09999477	0.00000000	27.66363000	-4.13385800
91.29999476	0.00000000	27.62672000	-5.33956700
91.49999474	0.00000000	27.66363000	-4.50910400
91.69999473	0.00000000	27.25147000	-1.80856300
91.89999472	0.00000000	26.87623000	2.78051200
92.09999471	0.00000000	26.45792000	7.29576700
92.29999470	0.00000000	25.71358000	10.03322000
92.49999468	0.00000000	25.33834000	10.40846000
92.69999467	0.00000000	25.29527000	8.50147600
92.89999466	0.00000000	25.25221000	4.64443900
93.09999465	0.00000000	24.87697000	0.09227362
93.29999464	0.00000000	24.13263000	-3.80782500
93.49999463	0.00000000	23.75738000	-6.09005900
93.69999461	0.00000000	23.75738000	-6.45300100
93.89999460	0.00000000	24.13263000	-4.14000900
94.09999459	0.00000000	24.96309000	0.00000000
94.29999458	0.00000000	26.13189000	4.26919300
94.49999457	0.00000000	28.08194000	7.75713500
94.69999455	0.00000000	29.94586000	10.03322000
94.89999454	0.00000000	31.10851000	9.98400600
95.09999453	0.00000000	31.06545000	7.33882900
95.29999452	0.00000000	29.52756000	3.15575800
95.49999451	0.00000000	26.83317000	-1.07037400
95.69999449	0.00000000	23.71432000	-4.18307100
95.89999448	0.00000000	20.64468000	-5.71481200
96.09999447	0.00000000	18.36245000	-5.29650500
96.29999446	0.00000000	17.98720000	-2.64517700
96.49999445	0.00000000	19.48204000	1.15649600
96.69999444	0.00000000	22.22564000	4.60137700
96.89999442	0.00000000	25.71358000	6.96358300
97.09999441	0.00000000	29.57062000	7.71407400
97.29999440	0.00000000	32.64640000	7.01279500
97.49999439	0.00000000	34.23351000	5.06274600
97.69999438	0.00000000	34.23351000	2.73745100
97.89999436	0.00000000	32.64640000	0.04306102
98.09999435	0.00000000	29.52756000	-2.18380900
98.29999434	0.00000000	25.29527000	-2.60211600
98.49999433	0.00000000	21.06299000	-1.53174200
98.69999432	0.00000000	17.98720000	0.00000000
98.89999430	0.00000000	16.78149000	1.53174200
99.09999429	0.00000000	17.52584000	2.68823800
99.29999428	0.00000000	19.48204000	3.11269700
99.49999427	0.00000000	22.60088000	3.15575800
99.69999426	0.00000000	26.45792000	3.15575800
99.89999425	0.00000000	29.94586000	3.15575800
100.09999423	0.00000000	32.64640000	3.15575800
100.29999422	0.00000000	33.80905000	3.15575800
100.49999421	0.00000000	33.06471000	3.19881900
100.69999420	0.00000000	31.10851000	3.53100400
100.89999419	0.00000000	28.03888000	3.90009800
101.09999417	0.00000000	24.60015000	3.48794300
101.29999416	0.00000000	22.22564000	2.69439000
101.49999415	0.00000000	20.59547000	1.15649600
101.69999414	0.00000000	19.48204000	-0.69512790
101.89999413	0.00000000	19.52510000	-1.48253000
102.09999411	0.00000000	21.01993000	-1.53174200
102.29999410	0.00000000	23.33907000	-1.06422200
102.49999409	0.00000000	25.67052000	0.51058070
102.69999408	0.00000000	28.03888000	3.15575800
102.89999407	0.00000000	29.90280000	5.80093500
103.09999406	0.00000000	30.73326000	7.38188900
103.29999404	0.00000000	30.32111000	7.75713500
103.49999403	0.00000000	29.20152000	6.96358300
103.69999402	0.00000000	27.25147000	4.64443900
103.89999401	0.00000000	25.33834000	1.62401600
104.09999400	0.00000000	23.71432000	-1.11343500
104.29999398	0.00000000	22.22564000	-3.02042300
104.49999397	0.00000000	21.43824000	-3.80782500
104.69999396	0.00000000	21.85039000	-3.02042300
104.89999395	0.00000000	22.96998000	-1.11343500
105.09999394	0.00000000	24.87697000	1.58095500
105.29999392	0.00000000	26.40871000	4.26919300
105.49999391	0.00000000	27.25147000	6.17618100
105.69999390	0.00000000	27.98966000	6.96358300
105.89999389	0.00000000	27.94660000	6.17618100
106.09999388	0.00000000	26.83317000	4.31840500
106.29999387	0.00000000	25.33834000	1.99311000
106.49999385	0.00000000	24.18184000	0.09227362
106.69999384	0.00000000	23.75738000	-1.11343500
106.89999383	0.00000000	23.75738000	-1.48253000
107.09999382	0.00000000	24.18184000	-1.11343500
107.29999381	0.00000000	25.29527000	0.09227362
107.49999379	0.00000000	26.45792000	1.95004900
107.69999378	0.00000000	27.20841000	3.85088600
107.89999377	0.00000000	27.62057000	4.60137700
108.09999376	0.00000000	27.15920000	4.26919300
108.29999375	0.00000000	26.08268000	3.11269700
108.49999374	0.00000000	24.50787000	1.57480300
108.69999372	0.00000000	23.38214000	0.04306102
108.89999371	0.00000000	22.60088000	-1.06422200
109.09999370	0.00000000	22.60088000	-1.06422200
109.29999369	0.00000000	23.38214000	0.04306102
109.49999368	0.00000000	24.55093000	1.57480300
109.69999366	0.00000000	26.45792000	3.11269700
109.89999365	0.00000000	27.94660000	4.26919300
110.09999364	0.00000000	28.41412000	4.69365100
110.29999363	0.00000000	28.41412000	4.69365100
110.49999362	0.00000000	27.98966000	4.26919300
110.69999360	0.00000000	26.83317000	3.11269700
110.89999359	0.00000000	25.29527000	1.57480300
111.09999358	0.00000000	23.75738000	0.04306102
111.29999357	0.00000000	22.60088000	-1.11343500
111.49999356	0.00000000	22.22564000	-1.48253000
111.69999355	0.00000000	22.60088000	-1.11343500
111.89999353	0.00000000	23.75738000	0.04306102
112.09999352	0.00000000	25.25221000	1.53174200
112.29999351	0.00000000	26.40871000	2.68823800
112.49999350	0.00000000	26.83317000	3.11269700
112.69999349	0.00000000	26.87623000	3.15575800
112.89999347	0.00000000	26.87623000	3.11269700
113.09999346	0.00000000	26.83317000	2.73745100
113.29999345	0.00000000	26.40871000	1.99311000
113.49999344	0.00000000	25.29527000	1.61786400
113.69999343	0.00000000	24.18184000	1.57480300
113.89999341	0.00000000	23.75738000	1.57480300
114.09999340	0.00000000	23.75738000	1.57480300
114.29999339	0.00000000	24.13263000	1.57480300
114.49999338	0.00000000	24.87697000	1.57480300
114.69999337	0.00000000	25.29527000	1.53174200
114.89999336	0.00000000	25.71358000	1.15649600
115.09999334	0.00000000	26.45792000	0.41830710
115.29999333	0.00000000	26.83317000	0.04306102
115.49999332	0.00000000	26.83317000	0.04306102
115.69999331	0.00000000	26.45792000	0.41830710
115.89999330	0.00000000	25.71358000	1.19955700
116.09999328	0.00000000	25.29527000	1.99311000
116.29999327	0.00000000	24.87697000	3.11269700
116.49999326	0.00000000	24.13263000	3.90009800
116.69999325	0.00000000	23.75738000	3.90625000
116.89999324	0.00000000	23.75738000	3.94315900
117.09999322	0.00000000	24.13263000	3.48794300
117.29999321	0.00000000	24.92003000	2.78051200
117.49999320	0.00000000	25.71358000	1.95004900
117.69999319	0.00000000	26.87623000	1.19955700
117.89999318	0.00000000	27.94660000	0.41830710
118.09999317	0.00000000	27.98966000	0.04306102
118.29999315	0.00000000	27.25147000	0.00000000
118.49999314	0.00000000	26.45792000	0.04306102
118.69999313	0.00000000	25.29527000	0.41830710
118.89999312	0.00000000	24.13263000	1.15649600
119.09999311	0.00000000	23.33907000	1.57480300
119.29999309	0.00000000	22.55167000	1.99311000
119.49999308	0.00000000	22.22564000	2.73745100
119.69999307	0.00000000	22.60088000	3.11269700
119.89999306	0.00000000	23.75738000	3.11269700
120.09999305	0.00000000	25.29527000	2.73745100
120.29999303	0.00000000	26.83317000	1.99311000
120.49999302	0.00000000	27.98966000	1.61786400
120.69999301	0.00000000	28.41412000	1.57480300
120.89999300	0.00000000	28.41412000	1.53174200
121.09999299	0.00000000	27.98966000	1.15649600
121.29999298	0.00000000	26.83317000	0.41830710
121.49999296	0.00000000	25.29527000	0.04306102
121.69999295	0.00000000	23.75738000	0.04306102
121.89999294	0.00000000	22.60088000	0.41830710
122.09999293	0.00000000	22.17643000	1.15649600
122.29999292	0.00000000	22.17643000	1.57480300
122.49999290	0.00000000	22.55167000	1.99311000
122.69999289	0.00000000	23.33907000	2.73745100
122.89999288	0.00000000	24.13263000	3.11269700
123.09999287	0.00000000	25.29527000	3.15575800
123.29999286	0.00000000	26.40871000	3.11269700
123.49999284	0.00000000	26.83317000	2.73745100
123.69999283	0.00000000	26.87623000	1.95004900
123.89999282	0.00000000	26.83317000	1.19955700
124.09999281	0.00000000	26.45792000	0.41830710
124.29999280	0.00000000	25.71358000	0.04306102
124.49999279	0.00000000	25.29527000	0.00000000
124.69999277	0.00000000	24.87697000	0.04306102
124.89999276	0.00000000	24.08957000	0.41830710
125.09999275	0.00000000	23.38214000	1.19955700
125.29999274	0.00000000	22.96998000	1.95004900
125.49999273	0.00000000	23.33907000	2.73745100
125.69999271	0.00000000	23.71432000	3.11269700
125.89999270	0.00000000	24.13263000	3.15575800
126.09999269	0.00000000	24.92003000	3.11269700
126.29999268	0.00000000	25.67052000	2.73745100
126.49999267	0.00000000	26.45792000	1.99311000
126.69999265	0.00000000	26.83317000	1.61786400
126.89999264	0.00000000	26.83317000	1.53174200
127.09999263	0.00000000	26.40871000	1.19955700
127.29999262	0.00000000	25.29527000	0.79355310
127.49999261	0.00000000	24.13263000	0.83046260
127.69999260	0.00000000	23.33907000	0.79355310
127.89999258	0.00000000	22.60088000	1.19955700
128.09999257	0.00000000	22.60088000	1.53174200
128.29999256	0.00000000	23.33907000	1.57480300
128.49999255	0.00000000	24.13263000	1.57480300
128.69999254	0.00000000	25.29527000	1.57480300
128.89999252	0.00000000	26.40871000	1.57480300
129.09999251	0.00000000	26.83317000	1.57480300
129.29999250	0.00000000	26.83317000	1.57480300
129.49999249	0.00000000	26.45792000	1.57480300
129.69999248	0.00000000	25.67052000	1.57480300
129.89999246	0.00000000	24.87697000	1.57480300
130.09999245	0.00000000	23.71432000	1.57480300
130.29999244	0.00000000	22.64394000	1.57480300
130.49999243	0.00000000	22.60088000	1.57480300
130.69999242	0.00000000	23.33907000	1.57480300
130.89999241	0.00000000	24.08957000	1.61786400
131.09999239	0.00000000	24.92003000	1.95004900
131.29999238	0.00000000	25.67052000	2.31914400
131.49999237	0.00000000	26.45792000	1.95004900
131.69999236	0.00000000	26.78395000	1.61786400
131.89999235	0.00000000	26.45792000	1.53174200
132.09999233	0.00000000	25.67052000	1.15649600
132.29999232	0.00000000	24.92003000	0.41830710
132.49999231	0.00000000	24.13263000	0.04306102
132.69999230	0.00000000	23.75738000	0.04306102
132.89999229	0.00000000	23.71432000	0.46136810
133.09999227	0.00000000	23.75738000	1.57480300
133.29999226	0.00000000	24.13263000	2.68823800
133.49999225	0.00000000	24.87697000	3.11269700
133.69999224	0.00000000	25.25221000	3.15575800
133.89999223	0.00000000	25.29527000	3.15575800
134.09999222	0.00000000	25.29527000	3.11269700
134.29999220	0.00000000	25.29527000	2.68823800
134.49999219	0.00000000	25.25221000	1.57480300
134.69999218	0.00000000	24.92003000	0.46136810
134.89999217	0.00000000	24.55093000	0.04306102
135.09999216	0.00000000	24.92003000	0.00000000
135.29999214	0.00000000	25.25221000	0.00000000
135.49999213	0.00000000	25.29527000	0.04306102
135.69999212	0.00000000	25.29527000	0.41830710
135.89999211	0.00000000	25.25221000	1.19955700
136.09999210	0.00000000	24.87697000	1.95004900
136.29999208	0.00000000	24.13263000	2.73745100
136.49999207	0.00000000	23.75738000	3.11269700
136.69999206	0.00000000	23.71432000	3.15575800
136.89999205	0.00000000	23.71432000	3.11269700
137.09999204	0.00000000	23.75738000	2.73745100
137.29999203	0.00000000	24.13263000	1.99311000
137.49999201	0.00000000	24.92003000	1.57480300
137.69999200	0.00000000	25.67052000	1.15649600
137.89999199	0.00000000	26.45792000	0.41830710
138.09999198	0.00000000	26.83317000	0.04306102
138.29999197	0.00000000	26.83317000	0.00000000
138.49999195	0.00000000	26.40871000	0.00000000
138.69999194	0.00000000	25.29527000	0.04306102
138.89999193	0.00000000	24.18184000	0.41830710
139.09999192	0.00000000	23.75738000	1.19955700
139.29999191	0.00000000	23.71432000	1.95004900
139.49999189	0.00000000	23.71432000	2.73745100
139.69999188	0.00000000	23.75738000	3.11269700
139.89999187	0.00000000	24.13263000	3.15575800
140.09999186	0.00000000	24.87697000	3.11269700
140.29999185	0.00000000	25.25221000	2.73745100
140.49999184	0.00000000	25.29527000	1.95004900
140.69999182	0.00000000	25.29527000	1.19955700
140.89999181	0.00000000	25.29527000	0.41830710
141.09999180	0.00000000	25.25221000	0.04306102
141.29999179	0.00000000	24.87697000	0.00000000
141.49999178	0.00000000	24.13263000	0.04306102
141.69999176	0.00000000	23.75738000	0.46136810
141.89999175	0.00000000	23.75738000	1.57480300
142.09999174	0.00000000	24.13263000	2.68823800
142.29999173	0.00000000	24.87697000	3.11269700
142.49999172	0.00000000	25.25221000	3.15575800
142.69999170	0.00000000	25.29527000	3.15575800
142.89999169	0.00000000	25.29527000	3.11269700
143.09999168	0.00000000	25.29527000	2.68823800
143.29999167	0.00000000	25.25221000	1.57480300
143.49999166	0.00000000	24.87697000	0.46136810
143.69999165	0.00000000	24.13263000	0.04306102
143.89999163	0.00000000	23.75738000	0.00000000
144.09999162	0.00000000	23.75738000	0.04306102
144.29999161	0.00000000	24.13263000	0.41830710
144.49999160	0.00000000	24.87697000	1.19955700
144.69999159	0.00000000	25.25221000	1.95004900
144.89999157	0.00000000	25.29527000	2.73745100
145.09999156	0.00000000	25.29527000	3.11269700
145.29999155	0.00000000	25.25221000	3.11269700
145.49999154	0.00000000	24.87697000	2.73745100
145.69999153	0.00000000	24.13263000	1.99311000
145.89999151	0.00000000	23.75738000	1.57480300
146.09999150	0.00000000	23.71432000	1.15649600
146.29999149	0.00000000	23.71432000	0.41830710
146.49999148	0.00000000	23.75738000	0.04306102
146.69999147	0.00000000	24.13263000	0.04306102
146.89999146	0.00000000	24.87697000	0.41830710
147.09999144	0.00000000	25.25221000	1.15649600
147.29999143	0.00000000	25.29527000	1.53174200
147.49999142	0.00000000	25.29527000	1.57480300
147.69999141	0.00000000	25.25221000	1.57480300
147.89999140	0.00000000	24.92003000	1.61786400
148.09999138	0.00000000	24.46481000	1.95004900
148.29999137	0.00000000	24.12647000	2.31914400
148.49999136	0.00000000	23.34522000	1.95004900
148.69999135	0.00000000	23.38214000	1.61786400
148.89999134	0.00000000	23.67126000	1.57480300
149.09999132	0.00000000	23.75738000	1.57480300
149.29999131	0.00000000	24.13263000	1.57480300
149.49999130	0.00000000	24.87697000	1.57480300
149.69999129	0.00000000	25.25221000	1.57480300
149.89999128	0.00000000	25.29527000	1.57480300
150.09999127	0.00000000	25.29527000	1.57480300
150.29999125	0.00000000	25.29527000	1.57480300
150.49999124	0.00000000	25.29527000	1.57480300
150.69999123	0.00000000	25.25221000	1.57480300
150.89999122	0.00000000	24.87697000	1.57480300
151.09999121	0.00000000	24.13263000	1.57480300
151.29999119	0.00000000	23.75738000	1.57480300
151.49999118	0.00000000	23.71432000	1.57480300
151.69999117	0.00000000	23.71432000	1.57480300
151.89999116	0.00000000	23.75738000	1.53174200
152.09999115	0.00000000	24.13263000	1.19955700
152.29999113	0.00000000	24.87697000	0.79355310
152.49999112	0.00000000	25.25221000	0.83046260
152.69999111	0.00000000	25.29527000	0.79355310
152.89999110	0.00000000	25.29527000	1.19955700
153.09999109	0.00000000	25.29527000	1.53174200
153.29999108	0.00000000	25.25221000	1.57480300
153.49999106	0.00000000	24.87697000	1.57480300
153.69999105	0.00000000	24.13263000	1.57480300
153.89999104	0.00000000	23.75738000	1.57480300
154.09999103	0.00000000	23.71432000	1.57480300
154.29999102	0.00000000	23.71432000	1.57480300
154.49999100	0.00000000	23.71432000	1.57480300
154.69999099	0.00000000	23.71432000	1.57480300
154.89999098	0.00000000	23.71432000	1.57480300
155.09999097	0.00000000	23.75738000	1.57480300
155.29999096	0.00000000	24.13263000	1.57480300
155.49999094	0.00000000	24.87697000	1.57480300
155.69999093	0.00000000	25.25221000	1.57480300
155.89999092	0.00000000	25.29527000	1.57480300
156.09999091	0.00000000	25.29527000	1.57480300
156.29999090	0.00000000	25.25221000	1.57480300
156.49999089	0.00000000	24.87697000	1.57480300
156.69999087	0.00000000	24.13263000	1.57480300
156.89999086	0.00000000	23.71432000	1.61786400
157.09999085	0.00000000	23.33907000	1.99311000
157.29999084	0.00000000	22.96998000	2.73745100
157.49999083	0.00000000	23.33907000	3.06348400
157.69999081	0.00000000	23.67126000	2.73745100
157.89999080	0.00000000	23.71432000	1.99311000
158.09999079	0.00000000	23.75738000	1.61786400
158.29999078	0.00000000	24.13263000	1.53174200
158.49999077	0.00000000	24.87697000	1.15649600
158.69999075	0.00000000	25.25221000	0.41830710
158.89999074	0.00000000	25.29527000	0.09227362
159.09999073	0.00000000	25.25221000	0.41830710
159.29999072	0.00000000	24.87697000	1.15649600
159.49999071	0.00000000	24.13263000	1.53174200
159.69999070	0.00000000	23.75738000	1.61786400
159.89999068	0.00000000	23.71432000	1.99311000
160.09999067	0.00000000	23.71432000	2.68823800
160.29999066	0.00000000	23.71432000	2.68823800
160.49999065	0.00000000	23.71432000	1.99311000
160.69999064	0.00000000	23.71432000	1.61786400
160.89999062	0.00000000	23.71432000	1.57480300
161.09999061	0.00000000	23.71432000	1.53174200
161.29999060	0.00000000	23.75738000	1.19955700
161.49999059	0.00000000	24.13263000	0.79355310
161.69999058	0.00000000	24.87697000	0.83046260
161.89999056	0.00000000	25.25221000	0.79355310
162.09999055	0.00000000	25.29527000	1.19955700
162.29999054	0.00000000	25.29527000	1.53174200
162.49999053	0.00000000	25.29527000	1.61786400
162.69999052	0.00000000	25.25221000	1.95004900
162.89999051	0.00000000	24.87697000	2.31914400
163.09999049	0.00000000	24.13263000	1.95004900
163.29999048	0.00000000	23.75738000	1.61786400
163.49999047	0.00000000	23.71432000	1.57480300
163.69999046	0.00000000	23.71432000	1.57480300
163.89999045	0.00000000	23.71432000	1.57480300
164.09999043	0.00000000	23.71432000	1.57480300
164.29999042	0.00000000	23.75738000	1.57480300
164.49999041	0.00000000	24.08957000	1.53174200
164.69999040	0.00000000	24.50172000	1.19955700
164.89999039	0.00000000	24.50787000	0.79355310
165.09999037	0.00000000	24.92003000	0.83046260
165.29999036	0.00000000	25.25221000	0.79355310
165.49999035	0.00000000	25.29527000	1.19955700
165.69999034	0.00000000	25.25221000	1.53174200
165.89999033	0.00000000	24.87697000	1.57480300
166.09999032	0.00000000	24.13263000	1.57480300
166.29999030	0.00000000	23.75738000	1.57480300
166.49999029	0.00000000	23.71432000	1.57480300
166.69999028	0.00000000	23.71432000	1.57480300
166.89999027	0.00000000	23.71432000	1.57480300
167.09999026	0.00000000	23.71432000	1.53174200
167.29999024	0.00000000	23.71432000	1.19955700
167.49999023	0.00000000	23.71432000	0.83661410
167.69999022	0.00000000	23.75738000	1.19955700
167.89999021	0.00000000	24.13263000	1.53174200
168.09999020	0.00000000	24.87697000	1.57480300
168.29999018	0.00000000	25.25221000	1.57480300
168.49999017	0.00000000	25.29527000	1.57480300
168.69999016	0.00000000	25.25221000	1.57480300
168.89999015	0.00000000	24.87697000	1.57480300
169.09999014	0.00000000	24.13263000	1.57480300
169.29999013	0.00000000	23.71432000	1.57480300
169.49999011	0.00000000	23.33907000	1.57480300
169.69999010	0.00000000	22.96998000	1.57480300
169.89999009	0.00000000	23.33907000	1.57480300
170.09999008	0.00000000	23.67126000	1.57480300
170.29999007	0.00000000	23.71432000	1.57480300
170.49999005	0.00000000	23.75738000	1.57480300
170.69999004	0.00000000	24.08957000	1.57480300
170.89999003	0.00000000	24.50172000	1.57480300
171.09999002	0.00000000	24.50787000	1.57480300
171.29999001	0.00000000	24.92003000	1.57480300
171.49998999	0.00000000	25.20300000	1.57480300
171.69998998	0.00000000	24.87697000	1.57480300
171.89998997	0.00000000	24.13263000	1.57480300
172.09998996	0.00000000	23.75738000	1.57480300
172.29998995	0.00000000	23.71432000	1.57480300
172.49998994	0.00000000	23.71432000	1.57480300
172.69998992	0.00000000	23.71432000	1.57480300
172.89998991	0.00000000	23.71432000	1.57480300
173.09998990	0.00000000	23.71432000	1.57480300
173.29998989	0.00000000	23.71432000	1.57480300
173.49998988	0.00000000	23.71432000	1.57480300
173.69998986	0.00000000	23.71432000	1.57480300
173.89998985	0.00000000	23.75738000	1.57480300
174.09998984	0.00000000	24.08957000	1.57480300
174.29998983	0.00000000	24.45866000	1.57480300
174.49998982	0.00000000	24.08957000	1.57480300
174.69998980	0.00000000	23.75738000	1.57480300
174.89998979	0.00000000	23.71432000	1.57480300
175.09998978	0.00000000	23.71432000	1.53174200
175.29998977	0.00000000	23.71432000	1.19955700
175.49998976	0.00000000	23.71432000	0.83661410
175.69998975	0.00000000	23.71432000	1.19955700
175.89998973	0.00000000	23.71432000	1.53174200
176.09998972	0.00000000	23.71432000	1.57480300
176.29998971	0.00000000	23.71432000	1.57480300
176.49998970	0.00000000	23.71432000	1.57480300
176.69998969	0.00000000	23.71432000	1.57480300
176.89998967	0.00000000	23.71432000	1.57480300
177.09998966	0.00000000	23.71432000	1.53174200
177.29998965	0.00000000	23.71432000	1.19955700
177.49998964	0.00000000	23.71432000	0.79355310
177.69998963	0.00000000	23.71432000	0.78124990
177.89998961	0.00000000	23.71432000	0.41830710
178.09998960	0.00000000	23.71432000	0.46136810
178.29998959	0.00000000	23.71432000	1.15649600
178.49998958	0.00000000	23.71432000	1.53174200
178.69998957	0.00000000	23.71432000	1.57480300
178.89998956	0.00000000	23.71432000	1.57480300
179.09998954	0.00000000	23.71432000	1.57480300
179.29998953	0.00000000	23.71432000	1.57480300
179.49998952	0.00000000	23.75738000	1.57480300
179.69998951	0.00000000	24.08957000	1.57480300
179.89998950	0.00000000	24.50172000	1.57480300
180.09998948	0.00000000	24.46481000	1.53174200
180.29998947	0.00000000	24.50172000	1.15649600
180.49998946	0.00000000	24.08957000	0.41830710
180.69998945	0.00000000	23.75738000	0.09227362
180.89998944	0.00000000	23.71432000	0.41830710
181.09998942	0.00000000	23.71432000	1.15649600
181.29998941	0.00000000	23.71432000	1.53174200
181.49998940	0.00000000	23.71432000	1.57480300
181.69998939	0.00000000	23.71432000	1.57480300
181.89998938	0.00000000	23.71432000	1.57480300
182.09998937	0.00000000	23.71432000	1.57480300
182.29998935	0.00000000	23.71432000	1.57480300
182.49998934	0.00000000	23.71432000	1.57480300
182.69998933	0.00000000	23.71432000	1.57480300
182.89998932	0.00000000	23.71432000	1.53174200
183.09998931	0.00000000	23.71432000	1.15649600
183.29998929	0.00000000	23.71432000	0.41830710
183.49998928	0.00000000	23.71432000	0.04306102
183.69998927	0.00000000	23.71432000	0.00000000
183.89998926	0.00000000	23.71432000	0.04306102
184.09998925	0.00000000	23.71432000	0.41830710
184.29998923	0.00000000	23.71432000	1.15649600
184.49998922	0.00000000	23.71432000	1.53174200
184.69998921	0.00000000	23.71432000	1.57480300
184.89998920	0.00000000	23.71432000	1.57480300
185.09998919	0.00000000	23.71432000	1.57480300
185.29998918	0.00000000	23.71432000	1.57480300
185.49998916	0.00000000	23.71432000	1.57480300
185.69998915	0.00000000	23.71432000	1.57480300
185.89998914	0.00000000	23.71432000	1.53174200
186.09998913	0.00000000	23.71432000	1.15649600
186.29998912	0.00000000	23.71432000	0.41830710
186.49998910	0.00000000	23.71432000	0.04306102
186.69998909	0.00000000	23.71432000	0.00000000
186.89998908	0.00000000	23.71432000	0.04306102
187.09998907	0.00000000	23.71432000	0.41830710
187.29998906	0.00000000	23.71432000	1.15649600
187.49998904	0.00000000	23.71432000	1.53174200
187.69998903	0.00000000	23.71432000	1.57480300
187.89998902	0.00000000	23.71432000	1.57480300
188.09998901	0.00000000	23.71432000	1.57480300
188.29998900	0.00000000	23.71432000	1.57480300
188.49998899	0.00000000	23.71432000	1.57480300
188.69998897	0.00000000	23.71432000	1.57480300
188.89998896	0.00000000	23.71432000	1.53174200
189.09998895	0.00000000	23.75738000	1.15649600
189.29998894	0.00000000	24.08957000	0.46136810
189.49998893	0.00000000	24.45866000	0.46136810
189.69998891	0.00000000	24.08957000	1.15649600
189.89998890	0.00000000	23.75738000	1.53174200
190.09998889	0.00000000	23.71432000	1.57480300
190.29998888	0.00000000	23.71432000	1.57480300
190.49998887	0.00000000	23.71432000	1.57480300
190.69998885	0.00000000	23.71432000	1.57480300
190.89998884	0.00000000	23.71432000	1.57480300
191.09998883	0.00000000	23.71432000	1.57480300
191.29998882	0.00000000	23.71432000	1.57480300
191.49998881	0.00000000	23.71432000	1.57480300
191.69998880	0.00000000	23.71432000	1.53174200
191.89998878	0.00000000	23.71432000	1.19955700
192.09998877	0.00000000	23.75738000	0.79355310
192.29998876	0.00000000	24.08957000	0.78124990
192.49998875	0.00000000	24.45866000	0.37524600
192.69998874	0.00000000	24.08957000	0.04306102
192.89998872	0.00000000	23.75738000	0.00000000
193.09998871	0.00000000	23.71432000	0.04306102
193.29998870	0.00000000	23.71432000	0.41830710
193.49998869	0.00000000	23.71432000	1.15649600
193.69998868	0.00000000	23.71432000	1.53174200
193.89998866	0.00000000	23.71432000	1.57480300
194.09998865	0.00000000	23.71432000	1.57480300
194.29998864	0.00000000	23.71432000	1.57480300
194.49998863	0.00000000	23.71432000	1.57480300
194.69998862	0.00000000	23.71432000	1.57480300
194.89998861	0.00000000	23.71432000	1.57480300
195.09998859	0.00000000	23.71432000	1.57480300
195.29998858	0.00000000	23.75738000	1.57480300
195.49998857	0.00000000	24.08957000	1.57480300
195.69998856	0.00000000	24.45866000	1.53174200
195.89998855	0.00000000	24.08957000	1.15649600
196.09998853	0.00000000	23.75738000	0.46136810
