Time	Channel A	Channel B	Channel C
(us)	(V)	(mV)	(mV)

-4.53333289	0.00000000	-14.64690000	-9.47342500
-4.33333290	0.00000000	-15.39124000	-9.47342500
-4.13333291	0.00000000	-15.76649000	-9.47342500
-3.93333293	0.00000000	-15.80955000	-9.47342500
-3.73333294	0.00000000	-15.80955000	-9.47342500
-3.53333295	0.00000000	-15.80955000	-9.47342500
-3.33333296	0.00000000	-15.80955000	-9.47342500
-3.13333297	0.00000000	-15.76649000	-9.47342500
-2.93333299	0.00000000	-15.43430000	-9.47342500
-2.73333300	0.00000000	-15.06521000	-9.47342500
-2.53333301	0.00000000	-15.43430000	-9.47342500
-2.33333302	0.00000000	-15.76649000	-9.47342500
-2.13333303	0.00000000	-15.76649000	-9.47342500
-1.93333304	0.00000000	-15.39124000	-9.47342500
-1.73333306	0.00000000	-14.64690000	-9.47342500
-1.53333307	0.00000000	-14.32087000	-9.47342500
-1.33333308	0.00000000	-14.64690000	-9.47342500
-1.13333309	0.00000000	-15.39124000	-9.47342500
-0.93333310	0.00000000	-15.76649000	-9.47342500
-0.73333312	0.00000000	-15.80955000	-9.47342500
-0.53333313	0.00000000	-15.80955000	-9.47342500
-0.33333314	0.15871060	-15.80955000	-9.47342500
-0.13333315	0.47736220	-15.80955000	-9.47342500
0.06666684	0.95533960	-15.80955000	-9.47342500
0.26666682	0.95533960	-15.76649000	-9.47342500
0.46666681	0.95533960	-15.43430000	-9.47342500
0.66666680	0.47736220	-15.02214000	-9.47342500
0.86666679	-0.31803640	-15.05905000	-9.47342500
1.06666678	-1.27399100	-15.02214000	-9.47342500
1.26666677	-2.22994600	-15.43430000	-9.47342500
1.46666675	-2.70792300	-15.71727000	-9.43036400
1.66666674	-2.54859700	-15.43430000	-9.09817800
1.86666673	-1.59264300	-15.02214000	-8.72908400
2.06666672	0.15871060	-15.05905000	-9.09817800
2.26666671	2.22994600	-15.02214000	-9.43036400
2.46666669	4.14124000	-15.43430000	-9.47342500
2.66666668	5.25652100	-15.76649000	-9.47342500
2.86666667	5.09719500	-15.80955000	-9.47342500
3.06666666	3.50393700	-15.80955000	-9.47342500
3.26666665	0.47736220	-15.80955000	-9.47342500
3.46666663	-2.86724900	-15.80955000	-9.47342500
3.66666662	-5.89382400	-15.76649000	-9.47342500
3.86666661	-7.80511800	-15.43430000	-9.43036400
4.06666660	-7.80511800	-15.02214000	-9.05511800
4.26666659	-5.73449800	-15.05905000	-8.31077700
4.46666658	-1.91129400	-15.02214000	-7.98474400
4.66666656	2.38927200	-15.43430000	-8.31077700
4.86666655	6.53112700	-15.76649000	-9.05511800
5.06666654	8.92039900	-15.80955000	-9.43036400
5.26666653	9.23905000	-15.80955000	-9.51648500
5.46666652	7.32714100	-15.80955000	-9.89173200
5.66666650	3.34522600	-15.80955000	-10.58686000
5.86666649	-1.43331700	-15.80955000	-10.58686000
6.06666648	-5.89382400	-15.80955000	-9.89173200
6.26666647	-8.76107300	-15.76649000	-9.51648500
6.46666646	-9.39837600	-15.43430000	-9.47342500
6.66666644	-7.80511800	-15.02214000	-9.47342500
6.86666643	-4.30056600	-15.01599000	-9.47342500
7.06666642	0.00000000	-14.60384000	-9.47342500
7.26666641	4.14124000	-14.32087000	-9.47342500
7.46666640	6.84916400	-14.64690000	-9.47342500
7.66666639	7.80511800	-15.39124000	-9.47342500
7.86666637	6.69045300	-15.76649000	-9.47342500
8.06666636	4.14124000	-15.80955000	-9.47342500
8.26666635	0.79601380	-15.80955000	-9.47342500
8.46666634	-2.38927200	-15.80955000	-9.47342500
8.66666633	-4.45989200	-15.80955000	-9.47342500
8.86666631	-5.25652100	-15.80955000	-9.47342500
9.06666630	-4.61921700	-15.76649000	-9.47342500
9.26666629	-3.02657500	-15.43430000	-9.47342500
9.46666628	-1.11466500	-15.06521000	-9.47342500
9.66666627	0.79601380	-15.43430000	-9.47342500
9.86666625	2.07062000	-15.76649000	-9.47342500
10.06666624	2.54859700	-15.80955000	-9.47342500
10.26666623	2.22994600	-15.80955000	-9.47342500
10.46666622	1.59264300	-15.76649000	-9.47342500
10.66666621	0.79601380	-15.43430000	-9.47342500
10.86666620	-0.15871060	-15.06521000	-9.47342500
11.06666618	-0.63668800	-15.43430000	-9.47342500
11.26666617	-0.95533960	-15.76649000	-9.47342500
11.46666616	-0.95533960	-15.80955000	-9.47342500
11.66666615	-0.79601380	-15.80955000	-9.47342500
11.86666614	-0.47736220	-15.80955000	-9.47342500
12.06666612	-0.15871060	-15.80955000	-9.47342500
12.26666611	-0.15871060	-15.80955000	-9.47342500
12.46666610	-0.15871060	-15.80955000	-9.47342500
12.66666609	0.00000000	-15.80955000	-9.47342500
12.86666608	0.00000000	-15.80955000	-9.47342500
13.06666606	0.00000000	-15.80955000	-9.47342500
13.26666605	0.00000000	-15.80955000	-9.47342500
13.46666604	0.00000000	-15.80955000	-9.47342500
13.66666603	0.00000000	-15.80955000	-9.47342500
13.86666602	0.00000000	-15.80955000	-9.47342500
14.06666601	-0.15871060	-15.76649000	-9.47342500
14.26666599	-0.15871060	-15.43430000	-9.47342500
14.46666598	-0.15871060	-15.06521000	-9.47342500
14.66666597	-0.15871060	-15.43430000	-9.47342500
14.86666596	0.00000000	-15.76649000	-9.47342500
15.06666595	0.00000000	-15.80955000	-9.47342500
15.26666593	0.00000000	-15.80955000	-9.47342500
15.46666592	0.00000000	-15.80955000	-9.47342500
15.66666591	0.00000000	-15.76649000	-9.51648500
15.86666590	0.00000000	-15.43430000	-9.84867000
16.06666589	0.00000000	-15.02214000	-10.21161000
16.26666587	0.00000000	-15.05905000	-9.84867000
16.46666586	-0.15871060	-14.97908000	-9.51648500
16.66666585	-0.15871060	-15.01599000	-9.47342500
16.86666584	0.00000000	-14.60384000	-9.47342500
17.06666583	0.00000000	-14.22859000	-9.47342500
17.26666582	0.00000000	-13.85334000	-9.47342500
17.46666580	0.00000000	-13.48425000	-9.47342500
17.66666579	0.00000000	-13.85334000	-9.47342500
17.86666578	0.00000000	-14.22859000	-9.47342500
18.06666577	0.00000000	-14.69611000	-9.47342500
18.26666576	0.00000000	-15.85261000	-9.47342500
18.46666574	0.00000000	-17.39050000	-9.47342500
18.66666573	0.00000000	-18.92839000	-9.47342500
18.86666572	0.00000000	-20.08489000	-9.47342500
19.06666571	0.00000000	-20.41708000	-9.47342500
19.26666570	0.00000000	-19.62352000	-9.47342500
19.46666568	0.00000000	-17.25517000	-9.47342500
19.66666567	0.00000000	-13.76107000	-9.47342500
19.86666566	0.00000000	-9.52879000	-9.47342500
20.06666565	0.00000000	-5.71481200	-9.47342500
20.26666564	0.00000000	-3.80782500	-9.47342500
20.46666563	0.00000000	-4.22613100	-9.47342500
20.66666561	0.00000000	-7.38804100	-9.47342500
20.86666560	0.00000000	-13.20128000	-9.47342500
21.06666559	0.00000000	-20.55241000	-9.47342500
21.26666558	0.00000000	-27.90354000	-9.47342500
21.46666557	0.00000000	-33.63066000	-9.47342500
21.66666555	0.00000000	-35.91289000	-9.47342500
21.86666554	0.00000000	-33.49532000	-9.47342500
22.06666553	0.00000000	-26.46407000	-9.47342500
22.26666552	0.00000000	-15.21284000	-9.47342500
22.46666551	0.00000000	-2.13459600	-9.47342500
22.66666549	0.00000000	9.40575800	-9.43036400
22.86666548	0.00000000	16.28937000	-9.05511800
23.06666547	0.00000000	16.24631000	-8.31077700
23.26666546	0.00000000	8.80290300	-7.93553100
23.46666545	0.00000000	-5.15501900	-7.89247000
23.66666544	0.00000000	-23.29601000	-7.89247000
23.86666542	0.00000000	-40.98179000	-7.89247000
24.06666541	0.00000000	-53.72785000	-7.93553100
24.26666540	0.00000000	-58.29232000	-8.35998900
24.46666539	0.00000000	-53.21727000	-9.51648500
24.66666538	0.00000000	-38.89025000	-11.04823000
24.86666536	0.00000000	-18.37475000	-12.62918000
25.06666535	0.00000000	4.01082700	-14.16092000
25.26666534	0.00000000	23.26525000	-15.27436000
25.46666533	0.00000000	34.01820000	-15.23130000
25.66666532	0.00000000	33.64296000	-13.69956000
25.86666530	0.00000000	22.01649000	-10.96211000
26.06666529	0.00000000	1.54404500	-7.47416300
26.26666528	0.00000000	-23.16068000	-3.57406500
26.46666527	0.00000000	-46.33366000	-0.13533460
26.66666526	0.00000000	-62.52460000	2.14074800
26.86666525	0.00000000	-67.96874000	2.04847400
27.06666523	0.00000000	-61.36195000	-1.06422200
27.26666522	0.00000000	-44.42052000	-6.86515700
27.46666521	0.00000000	-20.84153000	-14.21014000
27.66666520	0.00000000	3.45103300	-21.54897000
27.86666519	0.00000000	23.17298000	-27.31299000
28.06666517	0.00000000	33.64296000	-29.95817000
28.26666516	0.00000000	32.94783000	-28.34030000
28.46666515	0.00000000	22.10261000	-22.10876000
28.66666514	0.00000000	3.21112200	-12.03248000
28.86666513	0.00000000	-19.16216000	-0.09227362
29.06666511	0.00000000	-39.26550000	11.06053000
29.26666510	0.00000000	-53.26033000	18.35630000
29.46666509	0.00000000	-58.33538000	19.88804000
29.66666508	0.00000000	-54.14616000	15.19439000
29.86666507	0.00000000	-42.14444000	4.74286400
30.06666506	0.00000000	-24.83391000	-9.56569900
30.26666504	0.00000000	-6.64370100	-24.61860000
30.46666503	0.00000000	8.10777600	-37.34621000
30.66666502	0.00000000	17.45202000	-44.64198000
30.86666501	0.00000000	19.35900000	-44.59892000
31.06666500	0.00000000	13.68110000	-36.84178000
31.26666498	0.00000000	2.51599400	-22.57628000
31.46666497	0.00000000	-11.02362000	-5.20423200
31.66666496	0.00000000	-24.23105000	11.42962000
31.86666495	0.00000000	-34.70103000	24.16338000
32.06666494	0.00000000	-40.56348000	29.92126000
32.26666492	0.00000000	-40.93873000	27.27608000
32.46666491	0.00000000	-35.95595000	17.19365000
32.66666490	0.00000000	-26.69783000	1.72244100
32.86666489	0.00000000	-15.90182000	-16.43701000
33.06666488	0.00000000	-5.80708600	-32.98474000
33.26666487	0.00000000	1.54404500	-44.27288000
33.46666485	0.00000000	4.66289300	-48.12992000
33.66666484	0.00000000	3.12500000	-44.31594000
33.86666483	0.00000000	-2.60211600	-33.45226000
34.06666482	0.00000000	-10.69144000	-18.01796000
34.26666481	0.00000000	-18.79306000	-1.02116100
34.46666479	0.00000000	-25.39370000	13.61959000
34.66666478	0.00000000	-28.83858000	22.58243000
34.86666477	0.00000000	-28.50640000	24.53248000
35.06666476	0.00000000	-24.69857000	19.46973000
35.26666475	0.00000000	-18.97145000	7.94783400
35.46666473	0.00000000	-13.15822000	-7.05585600
35.66666472	0.00000000	-8.50147600	-21.37057000
35.86666471	0.00000000	-5.80708600	-32.56643000
36.06666470	0.00000000	-5.80708600	-37.95522000
36.26666469	0.00000000	-8.50147600	-36.05438000
36.46666468	0.00000000	-13.11516000	-28.05118000
36.66666466	0.00000000	-18.46087000	-16.11712000
36.86666465	0.00000000	-22.69316000	-3.80167300
37.06666464	0.00000000	-24.60630000	6.23154500
37.26666463	0.00000000	-23.85581000	11.62032000
37.46666462	0.00000000	-20.41708000	10.83292000
37.66666460	0.00000000	-15.85261000	4.36761800
37.86666459	0.00000000	-11.53420000	-5.94242000
38.06666458	0.00000000	-8.04010800	-16.25861000
38.26666457	0.00000000	-5.76402500	-23.60359000
38.46666456	0.00000000	-5.80708600	-26.29798000
38.66666454	0.00000000	-8.45841400	-23.64665000
38.86666453	0.00000000	-12.69070000	-16.72613000
39.06666452	0.00000000	-17.29823000	-7.56643700
39.26666451	0.00000000	-21.20448000	1.25492100
39.46666450	0.00000000	-23.57899000	6.60679100
39.66666449	0.00000000	-24.74163000	7.34498000
39.86666447	0.00000000	-24.32333000	2.74975400
40.06666446	0.00000000	-21.99803000	-6.02854300
40.26666445	0.00000000	-18.50394000	-15.60654000
40.46666444	0.00000000	-14.22859000	-23.73892000
40.66666443	0.00000000	-9.99630800	-28.24803000
40.86666441	0.00000000	-6.92052100	-27.49754000
41.06666440	0.00000000	-5.71481200	-21.37057000
41.26666439	0.00000000	-6.45915300	-12.21087000
41.46666438	0.00000000	-8.37229300	-2.55290300
41.66666437	0.00000000	-11.20202000	5.11811000
41.86666435	0.00000000	-15.02214000	8.96899500
42.06666434	0.00000000	-19.24828000	7.85556000
42.26666433	0.00000000	-21.95497000	2.51599400
42.46666432	0.00000000	-23.20374000	-5.20423200
42.66666431	0.00000000	-23.16068000	-13.69956000
42.86666430	0.00000000	-21.62278000	-20.95226000
43.06666428	0.00000000	-18.92839000	-24.80315000
43.26666427	0.00000000	-15.85261000	-24.15723000
43.46666426	0.00000000	-13.15822000	-20.34941000
43.66666425	0.00000000	-11.57726000	-14.90526000
43.86666424	0.00000000	-11.10974000	-8.35383800
44.06666422	0.00000000	-11.10974000	-2.63902500
44.26666421	0.00000000	-11.48499000	0.51673230
44.46666420	0.00000000	-12.22933000	0.93503930
44.66666419	0.00000000	-12.60458000	-0.92888770
44.86666418	0.00000000	-12.64764000	-4.40452700
45.06666416	0.00000000	-12.69070000	-8.26771600
45.26666415	0.00000000	-13.11516000	-12.11860000
45.46666414	0.00000000	-14.32087000	-14.81299000
45.66666413	0.00000000	-16.27707000	-15.64960000
45.86666412	0.00000000	-19.01451000	-15.27436000
46.06666411	0.00000000	-22.04109000	-13.69956000
46.26666409	0.00000000	-24.32333000	-11.04823000
46.46666408	0.00000000	-24.69857000	-8.35383800
46.66666407	0.00000000	-23.11762000	-6.40378900
46.86666406	0.00000000	-19.58046000	-5.19808000
47.06666405	0.00000000	-14.13632000	-4.82898600
47.26666403	0.00000000	-7.99704600	-5.29035400
47.46666402	0.00000000	-2.60211600	-7.14812900
47.66666401	0.00000000	0.42445860	-9.83636800
47.86666400	0.00000000	0.04921259	-11.79872000
48.06666399	0.00000000	-3.89394600	-13.79183000
48.26666397	0.00000000	-10.83292000	-15.18824000
48.46666396	0.00000000	-19.71580000	-14.81299000
48.66666395	0.00000000	-27.76821000	-12.58612000
48.86666394	0.00000000	-33.21235000	-9.89173200
49.06666393	0.00000000	-34.65797000	-7.47416300
49.26666392	0.00000000	-31.20694000	-4.77977300
49.46666390	0.00000000	-23.53592000	-2.54675200
49.66666389	0.00000000	-14.27165000	-2.17150600
49.86666388	0.00000000	-5.33956700	-3.70939900
50.06666387	0.00000000	1.54404500	-6.82209600
50.26666386	0.00000000	4.19537400	-11.00517000
50.46666384	0.00000000	1.54404500	-14.85605000
50.66666383	0.00000000	-5.38877900	-17.23056000
50.86666382	0.00000000	-14.60384000	-18.35015000
51.06666381	0.00000000	-23.85581000	-17.55659000
51.26666380	0.00000000	-30.37647000	-14.49311000
51.46666379	0.00000000	-32.74483000	-10.67298000
51.66666377	0.00000000	-30.41954000	-6.72982200
51.86666376	0.00000000	-24.27411000	-3.29109200
52.06666375	0.00000000	-15.80955000	-0.97194880
52.26666374	0.00000000	-7.38804100	-0.63976370
52.46666373	0.00000000	-1.61786400	-2.54675200
52.66666371	0.00000000	-0.03690945	-6.35457700
52.86666370	0.00000000	-2.68823800	-10.58686000
53.06666369	0.00000000	-8.45841400	-14.07480000
53.26666368	0.00000000	-15.76649000	-16.39395000
53.46666367	0.00000000	-22.69316000	-16.76919000
53.66666365	0.00000000	-27.30069000	-15.27436000
53.86666364	0.00000000	-28.46333000	-12.58612000
54.06666363	0.00000000	-25.76895000	-9.51648500
54.26666362	0.00000000	-20.04183000	-6.82209600
54.46666361	0.00000000	-13.15822000	-5.29035400
54.66666360	0.00000000	-7.38804100	-5.29035400
54.86666358	0.00000000	-4.26919300	-6.77903500
55.06666357	0.00000000	-4.26919300	-9.05511800
55.26666356	0.00000000	-7.34498000	-10.91289000
55.46666355	0.00000000	-12.69070000	-11.74336000
55.66666354	0.00000000	-18.46087000	-11.33120000
55.86666352	0.00000000	-23.11762000	-10.21161000
56.06666351	0.00000000	-25.81201000	-8.26771600
56.26666350	0.00000000	-25.76895000	-6.44685000
56.46666349	0.00000000	-22.74237000	-5.66560000
56.66666348	0.00000000	-17.76575000	-6.48991100
56.86666346	0.00000000	-12.78297000	-8.77214500
57.06666345	0.00000000	-8.87672100	-12.21087000
57.26666344	0.00000000	-6.96973400	-15.23130000
57.46666343	0.00000000	-7.29576700	-16.81225000
57.66666342	0.00000000	-9.62106200	-16.76919000
57.86666341	0.00000000	-13.06594000	-14.81299000
58.06666339	0.00000000	-16.92298000	-10.95595000
58.26666338	0.00000000	-19.99877000	-6.31151500
58.46666337	0.00000000	-21.57972000	-1.71013800
58.66666336	0.00000000	-21.57972000	1.67322800
58.86666335	0.00000000	-20.04183000	2.04847400
59.06666333	0.00000000	-17.39050000	-0.64591530
59.26666332	0.00000000	-14.69611000	-5.66560000
59.46666331	0.00000000	-12.73991000	-12.21087000
59.66666330	0.00000000	-11.57726000	-18.35015000
59.86666329	0.00000000	-11.57726000	-22.57628000
60.06666327	0.00000000	-12.69070000	-23.68971000
60.26666326	0.00000000	-14.18553000	-20.99532000
60.46666325	0.00000000	-15.39124000	-15.23130000
60.66666324	0.00000000	-16.14173000	-7.93553100
60.86666323	0.00000000	-16.55389000	-0.97194880
61.06666322	0.00000000	-16.14173000	4.04773600
61.26666320	0.00000000	-15.43430000	6.32381900
61.46666319	0.00000000	-14.64690000	4.69365100
61.66666318	0.00000000	-14.32087000	-0.97194880
61.86666317	0.00000000	-14.64690000	-8.67987200
62.06666316	0.00000000	-15.43430000	-16.02485000
62.26666314	0.00000000	-16.18479000	-22.20103000
62.46666313	0.00000000	-16.97219000	-25.27067000
62.66666312	0.00000000	-17.34744000	-24.52633000
62.86666311	0.00000000	-17.34744000	-20.62008000
63.06666310	0.00000000	-16.92298000	-13.69956000
63.26666308	0.00000000	-15.80955000	-5.66560000
63.46666307	0.00000000	-14.64690000	0.88582670
63.66666306	0.00000000	-13.85334000	4.82898600
63.86666305	0.00000000	-13.06594000	5.57947800
64.06666304	0.00000000	-12.78297000	3.25418300
64.26666303	0.00000000	-13.48425000	-2.12844500
64.46666301	0.00000000	-15.01599000	-9.00590400
64.66666300	0.00000000	-16.18479000	-15.23130000
64.86666299	0.00000000	-17.39050000	-19.92495000
65.06666298	0.00000000	-18.46087000	-22.61934000
65.26666297	0.00000000	-18.46087000	-22.61934000
65.46666295	0.00000000	-17.34744000	-19.92495000
65.66666294	0.00000000	-15.85261000	-15.32357000
65.86666293	0.00000000	-14.69611000	-9.93479300
66.06666292	0.00000000	-14.27165000	-5.29035400
66.26666291	0.00000000	-14.27165000	-2.12844500
66.46666289	0.00000000	-14.69611000	-0.55364170
66.66666288	0.00000000	-15.85261000	-0.51058070
66.86666287	0.00000000	-17.34744000	-1.66707700
67.06666286	0.00000000	-18.46087000	-3.61712600
67.26666285	0.00000000	-18.46087000	-6.36072800
67.46666284	0.00000000	-17.34744000	-9.47342500
67.66666282	0.00000000	-15.76649000	-12.58612000
67.86666281	0.00000000	-13.81028000	-15.32357000
68.06666280	0.00000000	-11.53420000	-17.27362000
68.26666279	0.00000000	-10.03937000	-18.43627000
68.46666278	0.00000000	-10.03937000	-18.39321000
68.66666276	0.00000000	-11.62032000	-16.81225000
68.86666275	0.00000000	-14.73917000	-13.69956000
69.06666274	0.00000000	-18.92839000	-9.43036400
69.26666273	0.00000000	-22.74237000	-4.82898600
69.46666272	0.00000000	-24.69857000	-0.97194880
69.66666270	0.00000000	-24.69857000	0.97810030
69.86666269	0.00000000	-22.74237000	0.97810030
70.06666268	0.00000000	-18.83612000	-0.97194880
70.26666267	0.00000000	-13.85334000	-4.87204700
70.46666266	0.00000000	-8.83366100	-9.84867000
70.66666265	0.00000000	-5.33956700	-14.90526000
70.86666263	0.00000000	-3.80782500	-18.71924000
71.06666262	0.00000000	-4.64443900	-20.71235000
71.26666261	0.00000000	-8.50147600	-20.30020000
71.46666260	0.00000000	-14.27165000	-17.97490000
71.66666259	0.00000000	-20.46014000	-13.69956000
71.86666257	0.00000000	-25.85507000	-8.35998900
72.06666256	0.00000000	-28.88164000	-3.75246000
72.26666255	0.00000000	-28.55561000	-1.01501000
72.46666254	0.00000000	-25.11688000	-0.59670270
72.66666253	0.00000000	-20.08489000	-2.08538400
72.86666251	0.00000000	-14.27165000	-4.77977300
73.06666250	0.00000000	-8.87672100	-7.89247000
73.26666249	0.00000000	-5.38877900	-10.96211000
73.46666248	0.00000000	-4.18307100	-13.23819000
73.66666247	0.00000000	-5.33956700	-13.65650000
73.86666246	0.00000000	-8.45841400	-12.58612000
74.06666244	0.00000000	-13.11516000	-11.09744000
74.26666243	0.00000000	-18.46087000	-9.93479300
74.46666242	0.00000000	-22.69316000	-9.51648500
74.66666241	0.00000000	-24.64936000	-9.51648500
74.86666240	0.00000000	-24.32333000	-9.93479300
75.06666238	0.00000000	-22.04109000	-11.04823000
75.26666237	0.00000000	-18.97145000	-12.11860000
75.46666236	0.00000000	-15.85261000	-12.11860000
75.66666235	0.00000000	-13.11516000	-10.96211000
75.86666234	0.00000000	-11.20202000	-9.00590400
76.06666232	0.00000000	-10.41462000	-6.36072800
76.26666231	0.00000000	-11.15896000	-4.08464600
76.46666230	0.00000000	-12.64764000	-3.29109200
76.66666229	0.00000000	-14.22859000	-3.70939900
76.86666228	0.00000000	-15.76649000	-5.70866100
77.06666227	0.00000000	-16.87992000	-9.51648500
77.26666225	0.00000000	-16.92298000	-13.74262000
77.46666224	0.00000000	-16.22785000	-17.23056000
77.66666223	0.00000000	-15.85261000	-19.55585000
77.86666222	0.00000000	-15.85261000	-19.83883000
78.06666221	0.00000000	-16.22785000	-17.55659000
78.26666219	0.00000000	-17.01525000	-12.96137000
78.46666218	0.00000000	-17.76575000	-7.93553100
78.66666217	0.00000000	-18.50394000	-3.29109200
78.86666216	0.00000000	-18.41781000	0.14148620
79.06666215	0.00000000	-16.92298000	0.93503930
79.26666213	0.00000000	-14.64690000	-0.55364170
79.46666212	0.00000000	-12.69070000	-3.66633800
79.66666211	0.00000000	-11.15896000	-7.93553100
79.86666210	0.00000000	-10.41462000	-12.58612000
80.06666209	0.00000000	-11.15896000	-16.81225000
80.26666208	0.00000000	-12.73991000	-19.50664000
80.46666206	0.00000000	-15.06521000	-19.93110000
80.66666205	0.00000000	-18.13484000	-18.39321000
80.86666204	0.00000000	-20.37401000	-15.32357000
81.06666203	0.00000000	-21.20448000	-11.46653000
81.26666202	0.00000000	-20.46014000	-7.93553100
81.46666200	0.00000000	-18.92839000	-4.82283400
81.66666199	0.00000000	-16.92298000	-2.50369100
81.86666198	0.00000000	-14.22859000	-1.71013800
82.06666197	0.00000000	-11.57726000	-2.04232300
82.26666196	0.00000000	-10.03937000	-3.24803100
82.46666194	0.00000000	-10.03937000	-5.19808000
82.66666193	0.00000000	-11.53420000	-7.93553100
82.86666192	0.00000000	-13.81028000	-11.00517000
83.06666191	0.00000000	-15.76649000	-13.74262000
83.26666190	0.00000000	-17.34744000	-15.69882000
83.46666189	0.00000000	-18.50394000	-16.85531000
83.66666187	0.00000000	-18.87918000	-16.81225000
83.86666186	0.00000000	-18.50394000	-15.27436000
84.06666185	0.00000000	-17.39050000	-12.58612000
84.26666184	0.00000000	-16.22785000	-9.47342500
84.46666183	0.00000000	-15.43430000	-6.31151500
84.66666181	0.00000000	-14.64690000	-3.24803100
84.86666180	0.00000000	-14.27165000	-1.01501000
85.06666179	0.00000000	-14.22859000	-1.01501000
85.26666178	0.00000000	-14.22859000	-3.29109200
85.46666177	0.00000000	-14.22859000	-6.77903500
85.66666175	0.00000000	-14.22859000	-11.04823000
85.86666174	0.00000000	-14.22859000	-15.27436000
86.06666173	0.00000000	-14.27165000	-18.35015000
86.26666172	0.00000000	-14.64690000	-19.50664000
86.46666171	0.00000000	-15.43430000	-18.35015000
86.66666170	0.00000000	-16.22785000	-15.27436000
86.86666168	0.00000000	-17.39050000	-11.00517000
87.06666167	0.00000000	-18.50394000	-6.40378900
87.26666166	0.00000000	-18.87918000	-2.54675200
87.46666165	0.00000000	-18.50394000	-0.59670270
87.66666164	0.00000000	-17.34744000	-0.59670270
87.86666162	0.00000000	-15.80955000	-2.59596400
88.06666161	0.00000000	-14.27165000	-6.82209600
88.26666160	0.00000000	-13.11516000	-12.11860000
88.46666159	0.00000000	-12.73991000	-16.39395000
88.66666158	0.00000000	-13.11516000	-18.71924000
88.86666156	0.00000000	-14.27165000	-19.08834000
89.06666155	0.00000000	-15.76649000	-16.76919000
89.26666154	0.00000000	-16.97219000	-12.58612000
89.46666153	0.00000000	-17.72268000	-7.93553100
89.66666152	0.00000000	-18.13484000	-3.66633800
89.86666151	0.00000000	-17.72268000	-0.64591530
90.06666149	0.00000000	-17.01525000	0.09842519
90.26666148	0.00000000	-16.18479000	-2.22071800
90.46666147	0.00000000	-15.43430000	-6.77903500
90.66666146	0.00000000	-14.64690000	-12.11860000
90.86666145	0.00000000	-14.27165000	-16.39395000
91.06666143	0.00000000	-14.27165000	-18.71924000
91.26666142	0.00000000	-14.64690000	-19.08834000
91.46666141	0.00000000	-15.39124000	-16.72613000
91.66666140	0.00000000	-15.76649000	-12.16166000
91.86666139	0.00000000	-15.76649000	-6.77903500
92.06666137	0.00000000	-15.39124000	-2.22071800
92.26666136	0.00000000	-14.69611000	0.09842519
92.46666135	0.00000000	-14.69611000	-0.64591530
92.66666134	0.00000000	-15.43430000	-3.66633800
92.86666133	0.00000000	-16.18479000	-7.93553100
93.06666132	0.00000000	-17.01525000	-12.58612000
93.26666130	0.00000000	-17.76575000	-16.76919000
93.46666129	0.00000000	-18.55315000	-19.04527000
93.66666128	0.00000000	-18.87918000	-18.30093000
93.86666127	0.00000000	-18.46087000	-15.27436000
94.06666126	0.00000000	-16.92298000	-11.00517000
94.26666124	0.00000000	-14.64690000	-6.40378900
94.46666123	0.00000000	-12.69070000	-2.59596400
94.66666122	0.00000000	-11.10974000	-1.05807100
94.86666121	0.00000000	-10.03937000	-2.17765700
95.06666120	0.00000000	-10.45768000	-5.24729300
95.26666118	0.00000000	-12.73991000	-9.47342500
95.46666117	0.00000000	-15.80955000	-13.65650000
95.66666116	0.00000000	-18.92839000	-16.35089000
95.86666115	0.00000000	-21.62278000	-16.76919000
96.06666114	0.00000000	-23.16068000	-15.27436000
96.26666113	0.00000000	-23.16068000	-12.58612000
96.46666111	0.00000000	-21.57972000	-9.51648500
96.66666110	0.00000000	-18.50394000	-6.77903500
96.86666109	0.00000000	-14.64690000	-4.87204700
97.06666108	0.00000000	-11.10974000	-4.12770700
97.26666107	0.00000000	-8.08316900	-5.29035400
97.46666105	0.00000000	-6.55757800	-7.89247000
97.66666104	0.00000000	-7.66486200	-10.53765000
97.86666103	0.00000000	-9.95324800	-12.16166000
98.06666102	0.00000000	-13.15822000	-12.96137000
98.26666101	0.00000000	-17.34744000	-13.32431000
98.46666099	0.00000000	-21.20448000	-12.53691000
98.66666098	0.00000000	-23.53592000	-11.09744000
98.86666097	0.00000000	-24.32333000	-9.89173200
99.06666096	0.00000000	-23.16068000	-9.14124000
99.26666095	0.00000000	-20.46014000	-8.72908400
99.46666094	0.00000000	-16.97219000	-9.05511800
99.66666092	0.00000000	-13.11516000	-9.00590400
99.86666091	0.00000000	-10.03937000	-8.31077700
100.06666090	0.00000000	-8.45841400	-7.93553100
100.26666089	0.00000000	-8.41535400	-7.89247000
100.46666088	0.00000000	-9.57800100	-7.89247000
100.66666086	0.00000000	-11.57726000	-7.93553100
100.86666085	0.00000000	-14.64690000	-8.35998900
101.06666084	0.00000000	-18.08563000	-9.51648500
101.26666083	0.00000000	-20.41708000	-11.04823000
101.46666082	0.00000000	-21.66585000	-12.58612000
101.66666080	0.00000000	-21.99803000	-13.74262000
101.86666079	0.00000000	-21.24754000	-14.07480000
102.06666078	0.00000000	-19.30364000	-13.32431000
102.26666077	0.00000000	-17.01525000	-11.38041000
102.46666076	0.00000000	-14.64690000	-9.05511800
102.66666075	0.00000000	-12.73991000	-6.36072800
102.86666073	0.00000000	-11.53420000	-4.12770700
103.06666072	0.00000000	-11.15896000	-3.70939900
103.26666071	0.00000000	-11.57726000	-4.82283400
103.46666070	0.00000000	-13.11516000	-6.77903500
103.66666069	0.00000000	-15.39124000	-9.51648500
103.86666067	0.00000000	-17.34744000	-12.58612000
104.06666066	0.00000000	-18.92839000	-15.27436000
104.26666065	0.00000000	-20.04183000	-16.76919000
104.46666064	0.00000000	-20.04183000	-16.39395000
104.66666063	0.00000000	-18.92839000	-14.11786000
104.86666061	0.00000000	-17.39050000	-11.09744000
105.06666060	0.00000000	-15.80955000	-8.35383800
105.26666059	0.00000000	-14.27165000	-6.40378900
105.46666058	0.00000000	-13.11516000	-5.24729300
105.66666057	0.00000000	-12.73991000	-5.29035400
105.86666056	0.00000000	-13.11516000	-6.82209600
106.06666054	0.00000000	-14.27165000	-9.47342500
106.26666053	0.00000000	-15.76649000	-12.16781000
106.46666052	0.00000000	-16.97219000	-14.11786000
106.66666051	0.00000000	-17.72268000	-15.23130000
106.86666050	0.00000000	-18.08563000	-14.85605000
107.06666048	0.00000000	-17.34744000	-13.00443000
107.26666047	0.00000000	-16.22785000	-11.09744000
107.46666046	0.00000000	-15.43430000	-9.47342500
107.66666045	0.00000000	-14.64690000	-7.98474400
107.86666044	0.00000000	-14.32087000	-7.24040300
108.06666042	0.00000000	-14.69611000	-7.98474400
108.26666041	0.00000000	-15.80955000	-9.47342500
108.46666040	0.00000000	-16.97219000	-11.04823000
108.66666039	0.00000000	-17.76575000	-12.58612000
108.86666038	0.00000000	-18.55315000	-13.69956000
109.06666037	0.00000000	-18.87918000	-13.69956000
109.26666035	0.00000000	-18.50394000	-12.58612000
109.46666034	0.00000000	-17.34744000	-11.04823000
109.66666033	0.00000000	-15.85261000	-9.51648500
109.86666032	0.00000000	-14.69611000	-8.31077700
110.06666031	0.00000000	-14.27165000	-7.56028500
110.26666029	0.00000000	-14.27165000	-7.19734200
110.46666028	0.00000000	-14.64690000	-7.98474400
110.66666027	0.00000000	-15.43430000	-9.47342500
110.86666026	0.00000000	-16.22785000	-11.04823000
111.06666025	0.00000000	-17.39050000	-12.58612000
111.26666023	0.00000000	-18.46087000	-13.74262000
111.46666022	0.00000000	-18.50394000	-14.11786000
111.66666021	0.00000000	-17.80881000	-13.74262000
111.86666020	0.00000000	-17.39050000	-12.58612000
112.06666019	0.00000000	-16.92298000	-11.09744000
112.26666018	0.00000000	-15.85261000	-9.93479300
112.46666016	0.00000000	-15.11442000	-9.51648500
112.66666015	0.00000000	-15.43430000	-9.47342500
112.86666014	0.00000000	-15.76649000	-9.47342500
113.06666013	0.00000000	-15.80955000	-9.47342500
113.26666012	0.00000000	-15.80955000	-9.51648500
113.46666010	0.00000000	-15.85261000	-9.89173200
113.66666009	0.00000000	-16.18479000	-10.62992000
113.86666008	0.00000000	-16.59695000	-11.00517000
114.06666007	0.00000000	-16.60310000	-11.09129000
114.26666006	0.00000000	-17.01525000	-11.46653000
114.46666004	0.00000000	-17.34744000	-12.21087000
114.66666003	0.00000000	-17.39050000	-12.58612000
114.86666002	0.00000000	-17.34744000	-12.62918000
115.06666001	0.00000000	-16.97219000	-12.62918000
115.26666000	0.00000000	-16.27707000	-12.58612000
115.46665999	0.00000000	-16.22785000	-12.16166000
115.66665997	0.00000000	-16.55389000	-11.04823000
115.86665996	0.00000000	-16.22785000	-9.93479300
116.06665995	0.00000000	-16.27707000	-9.47342500
116.26665994	0.00000000	-16.97219000	-9.05511800
116.46665993	0.00000000	-17.34744000	-8.31077700
116.66665991	0.00000000	-17.39050000	-7.98474400
116.86665990	0.00000000	-17.39050000	-8.35998900
117.06665989	0.00000000	-17.34744000	-9.47342500
117.26665988	0.00000000	-16.97219000	-10.62992000
117.46665987	0.00000000	-16.18479000	-11.42347000
117.66665985	0.00000000	-15.43430000	-12.21087000
117.86665984	0.00000000	-14.64690000	-12.58612000
118.06665983	0.00000000	-14.32087000	-12.58612000
118.26665982	0.00000000	-14.64690000	-12.21087000
118.46665981	0.00000000	-15.43430000	-11.42347000
118.66665980	0.00000000	-16.22785000	-10.67298000
118.86665978	0.00000000	-17.39050000	-9.89173200
119.06665977	0.00000000	-18.50394000	-9.47342500
119.26665976	0.00000000	-18.92839000	-9.05511800
119.46665975	0.00000000	-18.97145000	-8.35998900
119.66665974	0.00000000	-18.92839000	-8.35998900
119.86665972	0.00000000	-18.50394000	-9.09817800
120.06665971	0.00000000	-17.34744000	-9.84867000
120.26665970	0.00000000	-15.85261000	-10.62992000
120.46665969	0.00000000	-14.69611000	-11.00517000
120.66665968	0.00000000	-14.27165000	-11.09129000
120.86665966	0.00000000	-14.27165000	-11.46653000
121.06665965	0.00000000	-14.69611000	-12.21087000
121.26665964	0.00000000	-15.85261000	-12.53691000
121.46665963	0.00000000	-17.34744000	-12.21087000
121.66665962	0.00000000	-18.55315000	-11.46653000
121.86665961	0.00000000	-19.34670000	-11.09129000
122.06665959	0.00000000	-20.08489000	-11.04823000
122.26665958	0.00000000	-20.08489000	-11.00517000
122.46665957	0.00000000	-19.34670000	-10.62992000
122.66665956	0.00000000	-18.55315000	-9.89173200
122.86665955	0.00000000	-17.39050000	-9.51648500
123.06665953	0.00000000	-16.22785000	-9.51648500
123.26665952	0.00000000	-15.43430000	-9.89173200
123.46665951	0.00000000	-14.64690000	-10.62992000
123.66665950	0.00000000	-14.32087000	-11.04823000
123.86665949	0.00000000	-14.64690000	-11.46653000
124.06665947	0.00000000	-15.43430000	-12.21087000
124.26665946	0.00000000	-16.22785000	-12.58612000
124.46665945	0.00000000	-17.39050000	-12.62918000
124.66665944	0.00000000	-18.50394000	-12.58612000
124.86665943	0.00000000	-18.97145000	-12.21087000
125.06665942	0.00000000	-19.34670000	-11.46653000
125.26665940	0.00000000	-19.71580000	-11.09129000
125.46665939	0.00000000	-19.30364000	-11.00517000
125.66665938	0.00000000	-18.59621000	-10.62992000
125.86665937	0.00000000	-17.76575000	-9.89173200
126.06665936	0.00000000	-17.01525000	-9.56569900
126.26665934	0.00000000	-16.18479000	-9.89173200
126.46665933	0.00000000	-15.47736000	-10.62992000
126.66665932	0.00000000	-15.06521000	-11.04823000
126.86665931	0.00000000	-15.47736000	-11.46653000
127.06665930	0.00000000	-16.22785000	-12.21087000
127.26665928	0.00000000	-17.39050000	-12.58612000
127.46665927	0.00000000	-18.55315000	-12.62918000
127.66665926	0.00000000	-19.34670000	-12.58612000
127.86665925	0.00000000	-20.08489000	-12.21087000
128.06665924	0.00000000	-20.04183000	-11.46653000
128.26665923	0.00000000	-18.97145000	-11.04823000
128.46665921	0.00000000	-17.80881000	-10.62992000
128.66665920	0.00000000	-16.97219000	-9.93479300
128.86665919	0.00000000	-15.85261000	-9.93479300
129.06665918	0.00000000	-15.11442000	-10.62992000
129.26665917	0.00000000	-15.43430000	-11.00517000
129.46665915	0.00000000	-15.80955000	-11.04823000
129.66665914	0.00000000	-16.27707000	-11.09129000
129.86665913	0.00000000	-17.39050000	-11.42347000
130.06665912	0.00000000	-18.50394000	-11.79257000
130.26665911	0.00000000	-18.92839000	-11.38041000
130.46665909	0.00000000	-18.97145000	-10.72219000
130.66665908	0.00000000	-18.92839000	-10.31004000
130.86665907	0.00000000	-18.50394000	-10.67298000
131.06665906	0.00000000	-17.39050000	-10.95595000
131.26665905	0.00000000	-16.27707000	-10.67298000
131.46665904	0.00000000	-15.85261000	-10.31004000
131.66665902	0.00000000	-15.85261000	-10.67298000
131.86665901	0.00000000	-16.22785000	-11.04823000
132.06665900	0.00000000	-17.01525000	-11.46653000
132.26665899	0.00000000	-17.72268000	-12.21087000
132.46665898	0.00000000	-18.13484000	-12.53691000
132.66665896	0.00000000	-17.80881000	-12.21087000
132.86665895	0.00000000	-17.80881000	-11.42347000
133.06665894	0.00000000	-18.13484000	-10.67298000
133.26665893	0.00000000	-17.76575000	-9.89173200
133.46665892	0.00000000	-17.43356000	-9.51648500
133.66665890	0.00000000	-17.39050000	-9.47342500
133.86665889	0.00000000	-17.39050000	-9.51648500
134.06665888	0.00000000	-17.39050000	-9.89173200
134.26665887	0.00000000	-17.39050000	-10.67298000
134.46665886	0.00000000	-17.39050000	-11.42347000
134.66665885	0.00000000	-17.39050000	-12.21087000
134.86665883	0.00000000	-17.34744000	-12.58612000
135.06665882	0.00000000	-16.97219000	-12.62918000
135.26665881	0.00000000	-16.22785000	-12.62918000
135.46665880	0.00000000	-15.90182000	-12.58612000
135.66665879	0.00000000	-16.22785000	-12.21087000
135.86665877	0.00000000	-17.01525000	-11.42347000
136.06665876	0.00000000	-17.76575000	-10.67298000
136.26665875	0.00000000	-18.55315000	-9.98400600
136.46665874	0.00000000	-18.92839000	-10.31004000
136.66665873	0.00000000	-18.97145000	-11.37426000
136.86665871	0.00000000	-18.97145000	-11.38041000
137.06665870	0.00000000	-18.92839000	-11.14050000
137.26665869	0.00000000	-18.50394000	-11.46653000
137.46665868	0.00000000	-17.39050000	-12.21087000
137.66665867	0.00000000	-16.27707000	-12.58612000
137.86665866	0.00000000	-15.90182000	-12.62918000
138.06665864	0.00000000	-16.27707000	-12.62918000
138.26665863	0.00000000	-17.39050000	-12.62918000
138.46665862	0.00000000	-18.50394000	-12.62918000
138.66665861	0.00000000	-18.92839000	-12.58612000
138.86665860	0.00000000	-18.97145000	-12.21087000
139.06665858	0.00000000	-18.97145000	-11.42347000
139.26665857	0.00000000	-18.97145000	-10.72219000
139.46665856	0.00000000	-18.97145000	-10.31004000
139.66665855	0.00000000	-18.92839000	-10.67298000
139.86665854	0.00000000	-18.55315000	-11.00517000
140.06665852	0.00000000	-17.80881000	-11.09129000
140.26665851	0.00000000	-17.43356000	-11.46653000
140.46665850	0.00000000	-17.39050000	-12.21087000
140.66665849	0.00000000	-17.39050000	-12.62918000
140.86665848	0.00000000	-17.43356000	-13.00443000
141.06665847	0.00000000	-17.80881000	-13.37352000
141.26665845	0.00000000	-18.55315000	-13.00443000
141.46665844	0.00000000	-18.92839000	-12.62918000
141.66665843	0.00000000	-18.97145000	-12.21087000
141.86665842	0.00000000	-18.92839000	-11.42347000
142.06665841	0.00000000	-18.55315000	-10.67298000
142.26665839	0.00000000	-17.80881000	-9.89173200
142.46665838	0.00000000	-17.43356000	-9.56569900
142.66665837	0.00000000	-17.43356000	-9.93479300
142.86665836	0.00000000	-17.80881000	-11.04823000
143.06665835	0.00000000	-18.55315000	-12.16166000
143.26665834	0.00000000	-18.92839000	-12.62918000
143.46665832	0.00000000	-18.97145000	-13.00443000
143.66665831	0.00000000	-18.97145000	-13.37352000
143.86665830	0.00000000	-18.92839000	-13.00443000
144.06665829	0.00000000	-18.55315000	-12.62918000
144.26665828	0.00000000	-17.80881000	-12.21087000
144.46665826	0.00000000	-17.43356000	-11.46653000
144.66665825	0.00000000	-17.39050000	-11.04823000
144.86665824	0.00000000	-17.39050000	-10.67298000
145.06665823	0.00000000	-17.43356000	-10.31004000
145.26665822	0.00000000	-17.80881000	-10.67298000
145.46665820	0.00000000	-18.55315000	-11.04823000
145.66665819	0.00000000	-18.92839000	-11.46653000
145.86665818	0.00000000	-18.97145000	-12.21087000
146.06665817	0.00000000	-18.97145000	-12.58612000
146.26665816	0.00000000	-18.92839000	-12.62918000
146.46665815	0.00000000	-18.55315000	-12.62918000
146.66665813	0.00000000	-17.80881000	-12.58612000
146.86665812	0.00000000	-17.43356000	-12.21087000
147.06665811	0.00000000	-17.39050000	-11.46653000
147.26665810	0.00000000	-17.39050000	-11.04823000
147.46665809	0.00000000	-17.39050000	-10.62992000
147.66665807	0.00000000	-17.43356000	-9.93479300
147.86665806	0.00000000	-17.80881000	-9.93479300
148.06665805	0.00000000	-18.55315000	-10.62992000
148.26665804	0.00000000	-18.92839000	-11.00517000
148.46665803	0.00000000	-18.97145000	-11.04823000
148.66665801	0.00000000	-18.97145000	-11.09129000
148.86665800	0.00000000	-18.97145000	-11.46653000
149.06665799	0.00000000	-18.97145000	-12.21087000
149.26665798	0.00000000	-18.92839000	-12.58612000
149.46665797	0.00000000	-18.55315000	-12.58612000
149.66665796	0.00000000	-17.80881000	-12.21087000
149.86665794	0.00000000	-17.43356000	-11.46653000
150.06665793	0.00000000	-17.39050000	-11.09129000
150.26665792	0.00000000	-17.43356000	-11.04823000
150.46665791	0.00000000	-17.80881000	-11.04823000
150.66665790	0.00000000	-18.55315000	-11.04823000
150.86665788	0.00000000	-18.92839000	-11.04823000
151.06665787	0.00000000	-18.97145000	-11.04823000
151.26665786	0.00000000	-18.97145000	-11.09129000
151.46665785	0.00000000	-18.97145000	-11.46653000
151.66665784	0.00000000	-18.97145000	-12.21087000
151.86665782	0.00000000	-18.97145000	-12.58612000
152.06665781	0.00000000	-18.92839000	-12.62918000
152.26665780	0.00000000	-18.55315000	-12.58612000
152.46665779	0.00000000	-17.80881000	-12.21087000
152.66665778	0.00000000	-17.43356000	-11.46653000
152.86665777	0.00000000	-17.39050000	-11.09129000
153.06665775	0.00000000	-17.39050000	-11.04823000
153.26665774	0.00000000	-17.43356000	-11.04823000
153.46665773	0.00000000	-17.80881000	-11.04823000
153.66665772	0.00000000	-18.59621000	-11.09129000
153.86665771	0.00000000	-19.34670000	-11.42347000
154.06665769	0.00000000	-20.13410000	-11.83563000
154.26665768	0.00000000	-20.46014000	-11.84178000
154.46665767	0.00000000	-20.17716000	-12.25394000
154.66665766	0.00000000	-19.76501000	-12.58612000
154.86665765	0.00000000	-19.75886000	-12.62918000
155.06665763	0.00000000	-19.34670000	-12.62918000
155.26665762	0.00000000	-18.97145000	-12.62918000
155.46665761	0.00000000	-18.55315000	-12.62918000
155.66665760	0.00000000	-17.85802000	-12.62918000
155.86665759	0.00000000	-17.85802000	-12.62918000
156.06665758	0.00000000	-18.55315000	-12.58612000
156.26665756	0.00000000	-18.92839000	-12.21087000
156.46665755	0.00000000	-19.01451000	-11.46653000
156.66665754	0.00000000	-19.38976000	-11.09129000
156.86665753	0.00000000	-20.13410000	-11.04823000
157.06665752	0.00000000	-20.50935000	-11.04823000
157.26665750	0.00000000	-20.50935000	-11.09129000
157.46665749	0.00000000	-20.13410000	-11.46653000
157.66665748	0.00000000	-19.38976000	-12.21087000
157.86665747	0.00000000	-19.01451000	-12.58612000
158.06665746	0.00000000	-18.92839000	-12.62918000
158.26665744	0.00000000	-18.55315000	-12.62918000
158.46665743	0.00000000	-17.80881000	-12.62918000
158.66665742	0.00000000	-17.48277000	-12.58612000
158.86665741	0.00000000	-17.80881000	-12.21087000
159.06665740	0.00000000	-18.55315000	-11.46653000
159.26665739	0.00000000	-18.92839000	-11.09129000
159.46665737	0.00000000	-18.97145000	-11.04823000
159.66665736	0.00000000	-18.97145000	-11.04823000
159.86665735	0.00000000	-19.01451000	-11.04823000
160.06665734	0.00000000	-19.34670000	-11.04823000
160.26665733	0.00000000	-19.71580000	-11.04823000
160.46665731	0.00000000	-19.34670000	-11.09129000
160.66665730	0.00000000	-19.01451000	-11.46653000
160.86665729	0.00000000	-18.97145000	-12.21087000
161.06665728	0.00000000	-18.97145000	-12.58612000
161.26665727	0.00000000	-18.97145000	-12.62918000
161.46665725	0.00000000	-18.97145000	-12.58612000
161.66665724	0.00000000	-18.97145000	-12.25394000
161.86665723	0.00000000	-18.97145000	-11.84178000
162.06665722	0.00000000	-18.97145000	-11.83563000
162.26665721	0.00000000	-18.97145000	-11.42347000
162.46665720	0.00000000	-18.97145000	-11.09129000
162.66665718	0.00000000	-18.97145000	-11.09129000
162.86665717	0.00000000	-19.01451000	-11.42347000
163.06665716	0.00000000	-19.38976000	-11.79257000
163.26665715	0.00000000	-20.13410000	-11.42347000
163.46665714	0.00000000	-20.50935000	-11.14050000
163.66665712	0.00000000	-20.55241000	-11.46653000
163.86665711	0.00000000	-20.50935000	-12.21087000
164.06665710	0.00000000	-20.13410000	-12.58612000
164.26665709	0.00000000	-19.38976000	-12.62918000
164.46665708	0.00000000	-19.01451000	-12.62918000
164.66665706	0.00000000	-18.97145000	-12.62918000
164.86665705	0.00000000	-18.97145000	-12.62918000
165.06665704	0.00000000	-18.97145000	-12.62918000
165.26665703	0.00000000	-18.97145000	-12.62918000
165.46665702	0.00000000	-18.97145000	-12.62918000
165.66665701	0.00000000	-18.97145000	-12.62918000
165.86665699	0.00000000	-18.97145000	-12.62918000
166.06665698	0.00000000	-19.01451000	-12.58612000
166.26665697	0.00000000	-19.38976000	-12.25394000
166.46665696	0.00000000	-20.13410000	-11.88484000
166.66665695	0.00000000	-20.50935000	-12.25394000
166.86665693	0.00000000	-20.50935000	-12.58612000
167.06665692	0.00000000	-20.13410000	-12.62918000
167.26665691	0.00000000	-19.38976000	-12.62918000
167.46665690	0.00000000	-19.01451000	-12.62918000
167.66665689	0.00000000	-18.97145000	-12.62918000
167.86665687	0.00000000	-18.97145000	-12.62918000
168.06665686	0.00000000	-18.97145000	-12.62918000
168.26665685	0.00000000	-18.97145000	-12.62918000
168.46665684	0.00000000	-18.97145000	-12.62918000
168.66665683	0.00000000	-18.97145000	-12.62918000
168.86665682	0.00000000	-18.97145000	-12.62918000
169.06665680	0.00000000	-19.01451000	-12.62918000
169.26665679	0.00000000	-19.38976000	-12.62918000
169.46665678	0.00000000	-20.08489000	-12.62918000
169.66665677	0.00000000	-20.13410000	-12.62918000
169.86665676	0.00000000	-19.80807000	-12.62918000
170.06665674	0.00000000	-20.17716000	-12.62918000
170.26665673	0.00000000	-20.46014000	-12.62918000
170.46665672	0.00000000	-20.13410000	-12.62918000
170.66665671	0.00000000	-19.43897000	-12.62918000
170.86665670	0.00000000	-19.38976000	-12.62918000
171.06665668	0.00000000	-19.71580000	-12.62918000
171.26665667	0.00000000	-19.34670000	-12.62918000
171.46665666	0.00000000	-19.01451000	-12.62918000
171.66665665	0.00000000	-19.01451000	-12.62918000
171.86665664	0.00000000	-19.34670000	-12.62918000
172.06665663	0.00000000	-19.75886000	-12.62918000
172.26665661	0.00000000	-19.76501000	-12.62918000
172.46665660	0.00000000	-20.17716000	-12.62918000
172.66665659	0.00000000	-20.50935000	-12.62918000
172.86665658	0.00000000	-20.55241000	-12.62918000
173.06665657	0.00000000	-20.55241000	-12.62918000
173.26665655	0.00000000	-20.55241000	-12.62918000
173.46665654	0.00000000	-20.55241000	-12.62918000
173.66665653	0.00000000	-20.50935000	-12.62918000
173.86665652	0.00000000	-20.17716000	-12.62918000
174.06665651	0.00000000	-19.76501000	-12.62918000
174.26665649	0.00000000	-19.75886000	-12.62918000
174.46665648	0.00000000	-19.38976000	-12.62918000
174.66665647	0.00000000	-19.38976000	-12.62918000
174.86665646	0.00000000	-19.75886000	-12.62918000
175.06665645	0.00000000	-19.76501000	-12.62918000
175.26665644	0.00000000	-20.13410000	-12.62918000
175.46665642	0.00000000	-20.13410000	-12.62918000
175.66665641	0.00000000	-19.80807000	-12.62918000
175.86665640	0.00000000	-20.17716000	-12.62918000
176.06665639	0.00000000	-20.50935000	-12.62918000
176.26665638	0.00000000	-20.50935000	-12.62918000
176.46665636	0.00000000	-20.17716000	-12.62918000
176.66665635	0.00000000	-19.80807000	-12.62918000
176.86665634	0.00000000	-20.17716000	-12.62918000
177.06665633	0.00000000	-20.50935000	-12.62918000
177.26665632	0.00000000	-20.50935000	-12.62918000
177.46665630	0.00000000	-20.13410000	-12.62918000
177.66665629	0.00000000	-19.38976000	-12.62918000
177.86665628	0.00000000	-19.06373000	-12.62918000
178.06665627	0.00000000	-19.38976000	-12.62918000
178.26665626	0.00000000	-20.13410000	-12.62918000
178.46665625	0.00000000	-20.50935000	-12.62918000
178.66665623	0.00000000	-20.55241000	-12.62918000
178.86665622	0.00000000	-20.50935000	-12.62918000
179.06665621	0.00000000	-20.17716000	-12.62918000
179.26665620	0.00000000	-19.80807000	-12.62918000
179.46665619	0.00000000	-20.17716000	-12.62918000
179.66665617	0.00000000	-20.46014000	-12.62918000
179.86665616	0.00000000	-20.17716000	-12.62918000
180.06665615	0.00000000	-19.80807000	-12.62918000
180.26665614	0.00000000	-20.17716000	-12.62918000
180.46665613	0.00000000	-20.50935000	-12.62918000
180.66665611	0.00000000	-20.55241000	-12.62918000
180.86665610	0.00000000	-20.55241000	-12.62918000
181.06665609	0.00000000	-20.55241000	-12.62918000
181.26665608	0.00000000	-20.55241000	-12.58612000
181.46665607	0.00000000	-20.55241000	-12.21087000
181.66665606	0.00000000	-20.50935000	-11.51575000
181.86665604	0.00000000	-20.17716000	-11.51575000
182.06665603	0.00000000	-19.80807000	-12.21087000
182.26665602	0.00000000	-20.17716000	-12.58612000
182.46665601	0.00000000	-20.50935000	-12.62918000
182.66665600	0.00000000	-20.55241000	-12.62918000
182.86665598	0.00000000	-20.55241000	-12.62918000
183.06665597	0.00000000	-20.55241000	-12.62918000
183.26665596	0.00000000	-20.55241000	-12.62918000
183.46665595	0.00000000	-20.55241000	-12.62918000
183.66665594	0.00000000	-20.55241000	-12.62918000
183.86665592	0.00000000	-20.55241000	-12.62918000
184.06665591	0.00000000	-20.55241000	-12.62918000
184.26665590	0.00000000	-20.55241000	-12.62918000
184.46665589	0.00000000	-20.55241000	-12.58612000
184.66665588	0.00000000	-20.55241000	-12.25394000
184.86665587	0.00000000	-20.55241000	-11.88484000
185.06665585	0.00000000	-20.55241000	-12.25394000
185.26665584	0.00000000	-20.55241000	-12.58612000
185.46665583	0.00000000	-20.55241000	-12.62918000
185.66665582	0.00000000	-20.55241000	-12.67224000
185.86665581	0.00000000	-20.55241000	-13.04749000
186.06665579	0.00000000	-20.55241000	-13.79183000
186.26665578	0.00000000	-20.55241000	-14.16708000
186.46665577	0.00000000	-20.55241000	-14.16708000
186.66665576	0.00000000	-20.55241000	-13.79183000
186.86665575	0.00000000	-20.55241000	-13.04749000
187.06665573	0.00000000	-20.55241000	-12.67224000
187.26665572	0.00000000	-20.55241000	-12.62918000
187.46665571	0.00000000	-20.55241000	-12.62918000
187.66665570	0.00000000	-20.55241000	-12.62918000
187.86665569	0.00000000	-20.55241000	-12.62918000
188.06665568	0.00000000	-20.55241000	-12.62918000
188.26665566	0.00000000	-20.55241000	-12.62918000
188.46665565	0.00000000	-20.55241000	-12.67224000
188.66665564	0.00000000	-20.55241000	-13.04749000
188.86665563	0.00000000	-20.55241000	-13.79183000
189.06665562	0.00000000	-20.55241000	-14.16708000
189.26665560	0.00000000	-20.55241000	-14.16708000
189.46665559	0.00000000	-20.55241000	-13.79183000
189.66665558	0.00000000	-20.55241000	-13.04749000
189.86665557	0.00000000	-20.55241000	-12.67224000
190.06665556	0.00000000	-20.59547000	-12.62918000
190.26665554	0.00000000	-20.92766000	-12.62918000
190.46665553	0.00000000	-21.29675000	-12.62918000
190.66665552	0.00000000	-20.92766000	-12.62918000
190.86665551	0.00000000	-20.59547000	-12.62918000
191.06665550	0.00000000	-20.55241000	-12.62918000
191.26665549	0.00000000	-20.55241000	-12.62918000
191.46665547	0.00000000	-20.55241000	-12.62918000
191.66665546	0.00000000	-20.55241000	-12.62918000
191.86665545	0.00000000	-20.55241000	-12.62918000
192.06665544	0.00000000	-20.50935000	-12.62918000
192.26665543	0.00000000	-20.17716000	-12.62918000
192.46665541	0.00000000	-19.80807000	-12.62918000
192.66665540	0.00000000	-20.17716000	-12.62918000
192.86665539	0.00000000	-20.50935000	-12.62918000
193.06665538	0.00000000	-20.55241000	-12.62918000
193.26665537	0.00000000	-20.55241000	-12.62918000
193.46665535	0.00000000	-20.55241000	-12.62918000
193.66665534	0.00000000	-20.55241000	-12.62918000
193.86665533	0.00000000	-20.55241000	-12.62918000
194.06665532	0.00000000	-20.55241000	-12.62918000
194.26665531	0.00000000	-20.55241000	-12.62918000
194.46665530	0.00000000	-20.55241000	-12.62918000
194.66665528	0.00000000	-20.55241000	-12.62918000
194.86665527	0.00000000	-20.55241000	-12.62918000
195.06665526	0.00000000	-20.55241000	-12.62918000
195.26665525	0.00000000	-20.55241000	-12.62918000
195.46665524	0.00000000	-20.55241000	-12.62918000
195.66665522	0.00000000	-20.55241000	-12.62918000
195.86665521	0.00000000	-20.55241000	-12.62918000
196.06665520	0.00000000	-20.59547000	-12.67224000
