Time	Channel A	Channel B	Channel C
(us)	(V)	(mV)	(mV)

-4.59999956	0.00000000	11.53420000	7.89247000
-4.39999957	0.00000000	11.48499000	7.89247000
-4.19999958	0.00000000	11.81102000	7.89247000
-3.99999959	0.00000000	11.44193000	7.89247000
-3.79999960	0.00000000	11.10974000	7.89247000
-3.59999962	0.00000000	11.10974000	7.89247000
-3.39999963	0.00000000	11.48499000	7.89247000
-3.19999964	0.00000000	12.18012000	7.89247000
-2.99999965	0.00000000	12.18012000	7.89247000
-2.79999966	0.00000000	11.48499000	7.89247000
-2.59999968	0.00000000	11.10974000	7.89247000
-2.39999969	0.00000000	11.06668000	7.89247000
-2.19999970	0.00000000	11.06668000	7.89247000
-1.99999971	0.00000000	11.10974000	7.89247000
-1.79999972	0.00000000	11.44193000	7.89247000
-1.59999973	0.00000000	11.81102000	7.89247000
-1.39999975	0.00000000	11.48499000	7.89247000
-1.19999976	0.00000000	11.48499000	7.89247000
-0.99999977	0.00000000	11.85408000	7.89247000
-0.79999978	0.00000000	11.86024000	7.89247000
-0.59999979	0.00000000	12.22933000	7.89247000
-0.39999981	0.00000000	12.22933000	7.89247000
-0.19999982	0.31803640	11.86024000	7.89247000
0.00000017	0.79601380	11.89715000	7.89247000
0.20000016	0.95533960	11.81717000	7.89247000
0.40000015	0.95533960	11.85408000	7.89247000
0.60000013	0.79601380	11.48499000	7.89247000
0.80000012	0.15871060	11.53420000	7.89247000
1.00000011	-0.79601380	12.18012000	7.89247000
1.20000010	-1.75196900	12.22933000	7.89247000
1.40000009	-2.54859700	11.90330000	7.93553100
1.60000008	-2.70792300	12.22933000	8.31077700
1.80000006	-2.22994600	12.22933000	9.05511800
2.00000005	-0.79601380	11.86024000	9.38115100
2.20000004	1.11466500	11.85408000	9.05511800
2.40000003	3.18590100	11.44193000	8.31077700
2.60000002	4.77854300	11.10974000	7.93553100
2.80000000	5.25652100	11.06668000	7.89247000
2.99999999	4.45989200	11.06668000	7.89247000
3.19999998	2.07062000	11.06668000	7.89247000
3.39999997	-1.11466500	11.06668000	7.89247000
3.59999996	-4.45989200	11.06668000	7.89247000
3.79999994	-7.00848900	11.10974000	7.93553100
3.99999993	-7.96444400	11.48499000	8.31077700
4.19999992	-7.00848900	12.22933000	9.05511800
4.39999991	-3.98191400	12.60458000	9.43036400
4.59999990	0.15871060	12.64764000	9.43036400
4.79999989	4.61921700	12.64764000	9.05511800
4.99999987	7.96444400	12.60458000	8.31077700
5.19999986	9.39837600	12.22933000	7.89247000
5.39999985	8.60174700	11.48499000	7.51722400
5.59999984	5.57517200	11.10974000	7.14812900
5.79999983	0.95533960	11.06668000	7.51722400
5.99999981	-3.82258900	11.06668000	7.84940900
6.19999980	-7.48646600	11.10974000	7.89247000
6.39999979	-9.39837600	11.48499000	7.93553100
6.59999978	-8.92039900	12.22933000	8.31077700
6.79999977	-6.21247500	12.60458000	9.05511800
6.99999975	-2.07062000	12.64764000	9.38115100
7.19999974	2.22994600	12.64764000	9.05511800
7.39999973	5.73449800	12.64764000	8.31077700
7.59999972	7.48646600	12.60458000	7.93553100
7.79999971	7.48646600	12.22933000	7.89247000
7.99999970	5.41584600	11.48499000	7.89247000
8.19999968	2.38927200	11.10974000	7.89247000
8.39999967	-0.79601380	11.06668000	7.89247000
8.59999966	-3.50393700	11.10974000	7.89247000
8.79999965	-4.93786900	11.48499000	7.89247000
8.99999964	-5.09719500	12.22933000	7.89247000
9.19999962	-3.98191400	12.60458000	7.89247000
9.39999961	-2.07062000	12.64764000	7.89247000
9.59999960	-0.15871060	12.60458000	7.89247000
9.79999959	1.43331700	12.27239000	7.89247000
9.99999958	2.38927200	11.86024000	7.89247000
10.19999956	2.54859700	11.89715000	7.89247000
10.39999955	2.07062000	11.86024000	7.89247000
10.59999954	1.11466500	12.27239000	7.89247000
10.79999953	0.31803640	12.55536000	7.89247000
10.99999952	-0.47736220	12.22933000	7.89247000
11.19999951	-0.79601380	11.53420000	7.89247000
11.39999949	-0.95533960	11.53420000	7.89247000
11.59999948	-0.95533960	12.22933000	7.89247000
11.79999947	-0.63668800	12.55536000	7.89247000
11.99999946	-0.31803640	12.27239000	7.89247000
12.19999945	-0.15871060	11.90330000	7.89247000
12.39999943	-0.15871060	12.27239000	7.89247000
12.59999942	0.00000000	12.60458000	7.89247000
12.79999941	0.00000000	12.64764000	7.89247000
12.99999940	0.00000000	12.60458000	7.89247000
13.19999939	0.00000000	12.27239000	7.89247000
13.39999937	0.00000000	11.90330000	7.89247000
13.59999936	0.00000000	12.27239000	7.89247000
13.79999935	0.00000000	12.55536000	7.89247000
13.99999934	-0.15871060	12.22933000	7.89247000
14.19999933	-0.15871060	11.48499000	7.89247000
14.39999932	-0.15871060	11.15896000	7.93553100
14.59999930	-0.15871060	11.48499000	8.31077700
14.79999929	0.00000000	12.22933000	9.05511800
14.99999928	0.00000000	12.60458000	9.38115100
15.19999927	0.00000000	12.60458000	9.05511800
15.39999926	0.15871060	12.27239000	8.35998900
15.59999924	0.00000000	11.86024000	8.35998900
15.79999923	0.00000000	11.85408000	8.96284400
15.99999922	0.00000000	11.44193000	8.63681000
16.19999921	0.00000000	11.15896000	7.57258800
16.39999920	-0.15871060	11.48499000	7.56028500
16.59999919	-0.15871060	12.22933000	7.84940900
16.79999917	-0.15871060	12.60458000	7.89247000
16.99999916	0.00000000	12.69070000	7.89247000
17.19999915	0.00000000	13.06594000	7.89247000
17.39999914	0.00000000	13.81028000	7.89247000
17.59999913	0.00000000	14.13632000	7.89247000
17.79999911	0.00000000	13.76107000	7.89247000
17.99999910	0.00000000	12.64764000	7.89247000
18.19999909	0.00000000	11.44193000	7.89247000
18.39999908	0.00000000	10.27313000	7.89247000
18.59999907	0.00000000	8.69832600	7.89247000
18.79999905	0.00000000	7.57258800	7.89247000
18.99999904	0.00000000	6.79133800	7.89247000
19.19999903	-0.15871060	6.92052100	7.93553100
19.39999902	0.00000000	8.83366100	8.26771600
19.59999901	0.00000000	12.31545000	8.63681000
19.79999900	0.00000000	16.18479000	8.26771600
19.99999898	0.00000000	20.04183000	7.93553100
20.19999897	0.00000000	22.69316000	7.89247000
20.39999896	0.00000000	23.06841000	7.89247000
20.59999895	0.00000000	21.11220000	7.89247000
20.79999894	0.00000000	16.74459000	7.89247000
20.99999892	0.00000000	10.18086000	7.89247000
21.19999891	0.00000000	2.46678100	7.89247000
21.39999890	0.00000000	-4.05388800	7.89247000
21.59999889	0.00000000	-7.91092400	7.89247000
21.79999888	0.00000000	-7.82480200	7.89247000
21.99999886	0.00000000	-3.08193900	7.89247000
22.19999885	0.00000000	6.27460600	7.89247000
22.39999884	0.00000000	18.97145000	7.89247000
22.59999883	0.00000000	31.67446000	7.89247000
22.79999882	0.00000000	40.88951000	7.89247000
22.99999881	0.00000000	44.33440000	7.93553100
23.19999879	0.00000000	40.38509000	8.31077700
23.39999878	0.00000000	29.49065000	9.05511800
23.59999877	0.00000000	13.25664000	9.43036400
23.79999876	0.00000000	-4.88435000	9.47342500
23.99999875	0.00000000	-20.28789000	9.47342500
24.19999873	0.00000000	-29.49680000	9.47342500
24.39999872	0.00000000	-29.41068000	9.38115100
24.59999871	0.00000000	-19.35900000	8.58759800
24.79999870	0.00000000	-1.54404500	6.68676100
24.99999869	0.00000000	20.50935000	4.82283400
25.19999867	0.00000000	42.05216000	3.62327700
25.39999866	0.00000000	57.44955000	3.24803100
25.59999865	0.00000000	62.48154000	3.66633800
25.79999864	0.00000000	56.29306000	5.29035400
25.99999863	0.00000000	39.96063000	8.35998900
26.19999862	0.00000000	16.41855000	12.21087000
26.39999860	0.00000000	-8.98129900	15.69882000
26.59999859	0.00000000	-29.41068000	18.39321000
26.79999858	0.00000000	-39.92372000	19.50664000
26.99999857	0.00000000	-38.76107000	18.25787000
27.19999856	0.00000000	-26.42716000	14.35162000
27.39999854	0.00000000	-5.54256900	7.75713500
27.59999853	0.00000000	18.79306000	0.09227362
27.79999852	0.00000000	41.59080000	-6.87746000
27.99999851	0.00000000	57.40649000	-11.42962000
28.19999850	0.00000000	62.48154000	-12.13091000
28.39999848	0.00000000	56.33612000	-7.85556000
28.59999847	0.00000000	40.51427000	0.63976370
28.79999846	0.00000000	18.97145000	11.51575000
28.99999845	0.00000000	-2.70669300	23.08686000
29.19999844	0.00000000	-19.77731000	32.65871000
29.39999843	0.00000000	-29.49680000	37.26009000
29.59999841	0.00000000	-29.91511000	35.67913000
29.79999840	0.00000000	-21.49360000	27.91584000
29.99999839	0.00000000	-6.79749000	15.14518000
30.19999838	0.00000000	10.97441000	0.09227362
30.39999837	0.00000000	28.00197000	-14.21629000
30.59999835	0.00000000	40.38509000	-24.58169000
30.79999834	0.00000000	45.91535000	-28.38951000
30.99999833	0.00000000	44.00837000	-24.11417000
31.19999832	0.00000000	35.95595000	-12.54921000
31.39999831	0.00000000	23.53592000	3.66633800
31.59999829	0.00000000	9.66412400	21.08760000
31.79999828	0.00000000	-2.79281500	36.14050000
31.99999827	0.00000000	-11.31275000	45.80462000
32.19999826	0.00000000	-14.79454000	47.71161000
32.39999825	0.00000000	-12.10015000	41.52928000
32.59999824	0.00000000	-4.09694900	28.38337000
32.79999822	0.00000000	6.32381900	11.00517000
32.99999821	0.00000000	16.83686000	-6.74212600
33.19999820	0.00000000	25.71973000	-21.05069000
33.39999819	0.00000000	31.11466000	-28.80782000
33.59999818	0.00000000	31.58218000	-28.85088000
33.79999816	0.00000000	27.76821000	-21.46899000
33.99999815	0.00000000	21.20448000	-7.94783400
34.19999814	0.00000000	13.06594000	9.00590400
34.39999813	0.00000000	5.38877900	25.22145000
34.59999812	0.00000000	-0.04921259	37.21087000
34.79999810	0.00000000	-1.96235200	42.64886000
34.99999809	0.00000000	-0.09842519	40.37278000
35.19999808	0.00000000	4.87819900	31.53912000
35.39999807	0.00000000	11.02362000	18.39321000
35.59999806	0.00000000	16.79380000	3.70939900
35.79999805	0.00000000	20.65084000	-9.38730200
35.99999803	0.00000000	21.44439000	-17.88878000
36.19999802	0.00000000	19.58046000	-19.79577000
36.39999801	0.00000000	15.71727000	-14.86836000
36.59999800	0.00000000	11.10974000	-4.50910400
36.79999799	0.00000000	6.83439900	7.80634800
36.99999797	0.00000000	3.80782500	19.37131000
37.19999796	0.00000000	3.02042300	27.41142000
37.39999795	0.00000000	4.92125900	29.36146000
37.59999794	0.00000000	8.41535400	25.22145000
37.79999793	0.00000000	13.06594000	16.81225000
37.99999791	0.00000000	17.99951000	6.82209600
38.19999790	0.00000000	21.06914000	-2.00541300
38.39999789	0.00000000	21.53666000	-7.39419200
38.59999788	0.00000000	19.99877000	-7.76943800
38.79999787	0.00000000	16.87992000	-3.16806100
38.99999786	0.00000000	12.64764000	5.24729300
39.19999784	0.00000000	8.37229300	14.76993000
39.39999783	0.00000000	4.87819900	22.06570000
39.59999782	0.00000000	2.55290300	25.13533000
39.79999781	0.00000000	2.17765700	23.17913000
39.99999780	0.00000000	3.71555100	16.30167000
40.19999778	0.00000000	6.83439900	6.73597400
40.39999777	0.00000000	11.06668000	-2.46678100
40.59999776	0.00000000	15.34203000	-8.96899500
40.79999775	0.00000000	18.83612000	-10.50074000
40.99999774	0.00000000	21.16142000	-6.69291300
41.19999772	0.00000000	21.53666000	0.97194880
41.39999771	0.00000000	20.04183000	10.58686000
41.59999770	0.00000000	17.29823000	19.42052000
41.79999769	0.00000000	13.81028000	25.22145000
41.99999768	0.00000000	9.90403500	26.75935000
42.19999767	0.00000000	6.45915300	23.68971000
42.39999765	0.00000000	4.13385800	16.81225000
42.59999764	0.00000000	3.71555100	8.35998900
42.79999763	0.00000000	4.83513700	0.59670270
42.99999762	0.00000000	6.79133800	-5.16117100
43.19999761	0.00000000	9.48572700	-7.43725300
43.39999759	0.00000000	12.22933000	-5.20423200
43.59999758	0.00000000	14.51156000	0.09227362
43.79999757	0.00000000	16.08637000	6.26845500
43.99999756	0.00000000	16.14173000	12.07554000
44.19999755	0.00000000	15.80955000	16.35089000
44.39999753	0.00000000	15.39124000	18.30093000
44.59999752	0.00000000	14.64690000	17.92569000
44.79999751	0.00000000	14.27165000	15.23130000
44.99999750	0.00000000	14.22859000	11.04823000
45.19999749	0.00000000	14.18553000	6.82209600
45.39999748	0.00000000	13.71801000	3.70939900
45.59999746	0.00000000	12.13706000	2.12844500
45.79999745	0.00000000	9.48572700	2.08538400
45.99999744	0.00000000	6.74212600	3.24803100
46.19999743	0.00000000	4.41067900	5.19808000
46.39999742	0.00000000	2.55290300	7.89247000
46.59999740	0.00000000	2.64517700	10.58686000
46.79999739	0.00000000	5.33956700	12.49385000
46.99999738	0.00000000	9.99630800	13.28125000
47.19999737	0.00000000	15.80955000	12.53691000
47.39999736	0.00000000	21.62278000	11.00517000
47.59999734	0.00000000	26.18725000	9.05511800
47.79999733	0.00000000	28.04503000	6.72982200
47.99999732	0.00000000	25.71973000	4.82283400
48.19999731	0.00000000	19.95571000	3.62327700
48.39999730	0.00000000	12.18012000	3.29109200
48.59999729	0.00000000	3.67249000	4.03543200
48.79999727	0.00000000	-3.58636800	6.02854300
48.99999726	0.00000000	-7.40034400	8.72908400
49.19999725	0.00000000	-6.24384800	12.16166000
49.39999724	0.00000000	-0.47367120	14.81299000
49.59999723	0.00000000	8.41535400	15.60654000
49.79999721	0.00000000	18.41781000	14.85605000
49.99999720	0.00000000	26.88238000	12.49385000
50.19999719	0.00000000	31.48991000	9.05511800
50.39999718	0.00000000	31.16388000	5.19808000
50.59999717	0.00000000	26.14419000	2.08538400
50.79999715	0.00000000	18.04257000	0.17839570
50.99999714	0.00000000	8.41535400	-0.18454720
51.19999713	0.00000000	-0.00615157	1.75935000
51.39999712	0.00000000	-4.66289300	5.19808000
51.59999711	0.00000000	-4.70595500	9.47342500
51.79999710	0.00000000	-0.47367120	13.69956000
51.99999708	0.00000000	6.83439900	16.76919000
52.19999707	0.00000000	15.29897000	17.92569000
52.39999706	0.00000000	22.60704000	16.76919000
52.59999705	0.00000000	26.79626000	13.69956000
52.79999704	0.00000000	26.46407000	9.47342500
52.99999702	0.00000000	21.90576000	5.24729300
53.19999701	0.00000000	15.34203000	2.17765700
53.39999700	0.00000000	8.04010800	0.97194880
53.59999699	0.00000000	1.95004900	1.71013800
53.79999698	0.00000000	-0.38139760	3.61712600
53.99999696	0.00000000	1.06422200	6.36072800
54.19999695	0.00000000	5.33956700	9.38115100
54.39999694	0.00000000	11.48499000	11.70029000
54.59999693	0.00000000	17.95029000	12.45079000
54.79999692	0.00000000	22.23179000	11.74951000
54.99999691	0.00000000	23.40059000	9.84867000
55.19999689	0.00000000	21.85654000	7.98474400
55.39999688	0.00000000	17.25517000	6.77903500
55.59999687	0.00000000	11.53420000	6.44685000
55.79999686	0.00000000	6.50221400	7.14812900
55.99999685	0.00000000	3.02042300	8.72293300
56.19999683	0.00000000	2.22687000	10.22392000
56.39999682	0.00000000	3.80782500	11.74951000
56.59999681	0.00000000	7.62795300	12.03248000
56.79999680	0.00000000	12.96752000	10.53765000
56.99999679	0.00000000	17.21210000	7.84940900
57.19999677	0.00000000	19.99877000	4.77977300
57.39999676	0.00000000	21.06914000	2.08538400
57.59999675	0.00000000	19.58046000	0.63976370
57.79999674	0.00000000	16.14173000	1.43946800
57.99999673	0.00000000	12.31545000	4.87204700
58.19999672	0.00000000	8.83366100	9.47342500
58.39999670	0.00000000	6.87746000	14.11786000
58.59999669	0.00000000	6.45915300	17.93184000
58.79999668	0.00000000	7.20964500	19.46358000
58.99999667	0.00000000	9.15354300	18.30093000
59.19999666	0.00000000	11.44193000	14.76993000
59.39999664	0.00000000	13.76107000	9.00590400
59.59999663	0.00000000	15.29897000	2.50369100
59.79999662	0.00000000	15.71727000	-2.51599400
59.99999661	0.00000000	15.34203000	-5.20423200
60.19999660	0.00000000	14.18553000	-4.78592500
60.39999658	0.00000000	12.69070000	-0.93503930
60.59999657	0.00000000	11.53420000	5.24729300
60.79999656	0.00000000	11.10974000	12.54306000
60.99999655	0.00000000	11.10974000	19.08834000
61.19999654	0.00000000	11.48499000	22.90846000
61.39999653	0.00000000	12.27239000	23.32062000
61.59999651	0.00000000	12.97982000	19.79577000
61.79999650	0.00000000	13.39198000	13.28125000
61.99999649	0.00000000	12.97982000	5.20423200
62.19999648	0.00000000	12.27239000	-2.09153500
62.39999647	0.00000000	11.44193000	-6.74212600
62.59999645	0.00000000	10.69144000	-7.89862200
62.79999644	0.00000000	9.95324800	-5.20423200
62.99999643	0.00000000	9.99630800	0.55364170
63.19999642	0.00000000	11.06668000	7.89247000
63.39999641	0.00000000	12.22933000	15.23130000
63.59999639	0.00000000	13.06594000	20.99532000
63.79999638	0.00000000	14.18553000	23.68971000
63.99999637	0.00000000	14.92372000	22.57628000
64.19999636	0.00000000	14.56078000	18.35015000
64.39999635	0.00000000	13.81028000	12.16781000
64.59999634	0.00000000	12.60458000	5.24729300
64.79999632	0.00000000	11.10974000	-0.55979330
64.99999631	0.00000000	9.95324800	-4.04773600
65.19999630	0.00000000	9.57800100	-4.87819900
65.39999629	0.00000000	9.95324800	-2.97736200
65.59999628	0.00000000	11.10974000	0.51058070
65.79999626	0.00000000	12.60458000	5.15501900
65.99999625	0.00000000	13.71801000	10.16855000
66.19999624	0.00000000	13.76107000	14.07480000
66.39999623	0.00000000	13.02288000	16.81225000
66.59999622	0.00000000	12.22933000	17.97490000
66.79999620	0.00000000	11.06668000	17.23056000
66.99999619	0.00000000	9.95324800	15.36663000
67.19999618	0.00000000	9.57800100	12.95522000
67.39999617	0.00000000	9.95324800	10.21161000
67.59999616	0.00000000	11.15896000	6.68676100
67.79999615	0.00000000	13.06594000	3.29109200
67.99999613	0.00000000	15.39124000	0.87967510
68.19999612	0.00000000	17.25517000	-0.28297240
68.39999611	0.00000000	17.99951000	-0.64591530
68.59999610	0.00000000	16.83686000	0.55364170
68.79999609	0.00000000	14.13632000	3.24803100
68.99999607	0.00000000	10.64838000	6.77903500
69.19999606	0.00000000	6.79133800	11.04823000
69.39999605	0.00000000	3.75861200	15.27436000
69.59999604	0.00000000	2.60211600	18.35015000
69.79999603	0.00000000	3.75861200	19.50664000
69.99999601	0.00000000	6.87746000	18.35015000
70.19999600	0.00000000	11.53420000	15.23130000
70.39999599	0.00000000	16.92298000	10.58686000
70.59999598	0.00000000	21.53666000	5.19808000
70.79999597	0.00000000	24.23105000	0.59670270
70.99999596	0.00000000	24.23105000	-2.14074800
71.19999594	0.00000000	21.53666000	-2.55905500
71.39999593	0.00000000	16.83686000	-1.02116100
71.59999592	0.00000000	10.69144000	2.12844500
71.79999591	0.00000000	4.55831700	6.72982200
71.99999590	0.00000000	0.68897630	11.70029000
72.19999588	0.00000000	-0.51673230	15.18824000
72.39999587	0.00000000	1.02116100	16.81225000
72.59999586	0.00000000	4.87819900	16.76919000
72.79999585	0.00000000	9.95324800	14.85605000
72.99999584	0.00000000	15.76649000	11.42347000
73.19999582	0.00000000	21.06914000	7.98474400
73.39999581	0.00000000	23.81275000	5.29035400
73.59999580	0.00000000	23.48671000	4.08464600
73.79999579	0.00000000	21.16142000	4.40452700
73.99999578	0.00000000	16.87992000	5.15501900
74.19999577	0.00000000	11.53420000	6.36072800
74.39999575	0.00000000	6.92052100	7.80019600
74.59999574	0.00000000	4.18307100	8.54453700
74.79999573	0.00000000	3.71555100	7.84940900
74.99999572	0.00000000	4.87819900	6.72982200
75.19999571	0.00000000	7.20964500	5.98548200
75.39999569	0.00000000	10.69144000	5.61638700
75.59999568	0.00000000	14.09326000	6.44685000
75.79999567	0.00000000	16.46161000	8.31077700
75.99999566	0.00000000	17.25517000	10.67298000
76.19999565	0.00000000	16.92298000	12.95522000
76.39999563	0.00000000	15.76649000	14.85605000
76.59999562	0.00000000	14.22859000	15.18824000
76.79999561	0.00000000	12.69070000	13.65650000
76.99999560	0.00000000	11.53420000	10.53765000
77.19999559	0.00000000	11.15896000	6.31151500
77.39999558	0.00000000	11.48499000	2.08538400
77.59999556	0.00000000	12.18012000	-0.97810030
77.79999555	0.00000000	12.18012000	-2.13459600
77.99999554	0.00000000	11.44193000	-0.93503930
78.19999553	0.00000000	10.69144000	2.50369100
78.39999552	0.00000000	9.90403500	7.51722400
78.59999550	0.00000000	9.52879000	12.53691000
78.79999549	0.00000000	9.52879000	16.81225000
78.99999548	0.00000000	9.99630800	19.46358000
79.19999547	0.00000000	11.53420000	19.46358000
79.39999546	0.00000000	13.81028000	16.81225000
79.59999544	0.00000000	15.71727000	12.58612000
79.79999543	0.00000000	16.87992000	7.93553100
79.99999542	0.00000000	16.87992000	3.66633800
80.19999541	0.00000000	15.71727000	0.55364170
80.39999540	0.00000000	13.81028000	-0.97810030
80.59999539	0.00000000	11.44193000	-0.60285430
80.79999537	0.00000000	9.15354300	1.71013800
80.99999536	0.00000000	7.25270600	5.15501900
81.19999535	0.00000000	6.87746000	9.05511800
81.39999534	0.00000000	7.99704600	12.53691000
81.59999533	0.00000000	9.95324800	15.23130000
81.79999531	0.00000000	12.64764000	16.43701000
81.99999530	0.00000000	15.29897000	16.06791000
82.19999529	0.00000000	16.87992000	14.90526000
82.39999528	0.00000000	17.25517000	12.58612000
82.59999527	0.00000000	16.50467000	9.89173200
82.79999525	0.00000000	14.60384000	7.51722400
82.99999524	0.00000000	12.69070000	5.11195900
83.19999523	0.00000000	11.06668000	2.82972400
83.39999522	0.00000000	9.57800100	0.92888770
83.59999521	0.00000000	8.79060000	0.55364170
83.79999520	0.00000000	9.15354300	1.66707700
83.99999518	0.00000000	9.90403500	3.66633800
84.19999517	0.00000000	11.06668000	6.77903500
84.39999516	0.00000000	12.18012000	10.62992000
84.59999515	0.00000000	12.60458000	14.07480000
84.79999514	0.00000000	12.64764000	16.43701000
84.99999512	0.00000000	12.64764000	17.18750000
85.19999511	0.00000000	12.64764000	16.39395000
85.39999510	0.00000000	12.64764000	13.65650000
85.59999509	0.00000000	12.64764000	9.47342500
85.79999508	0.00000000	12.69070000	5.19808000
85.99999506	0.00000000	13.06594000	1.71013800
86.19999505	0.00000000	13.71801000	-0.60285430
86.39999504	0.00000000	13.34276000	-0.93503930
86.59999503	0.00000000	11.86024000	0.97194880
86.79999502	0.00000000	10.73450000	4.82898600
86.99999501	0.00000000	9.90403500	9.43036400
87.19999499	0.00000000	9.52879000	13.69956000
87.39999498	0.00000000	9.52879000	16.76919000
87.59999497	0.00000000	9.95324800	17.88263000
87.79999496	0.00000000	11.10974000	16.35089000
87.99999495	0.00000000	12.64764000	12.53691000
88.19999493	0.00000000	14.18553000	7.93553100
88.39999492	0.00000000	15.29897000	3.62327700
88.59999491	0.00000000	15.34203000	0.22145670
88.79999490	0.00000000	14.60384000	-1.29798200
88.99999489	0.00000000	13.81028000	0.22145670
89.19999487	0.00000000	12.60458000	3.62327700
89.39999486	0.00000000	11.10974000	7.93553100
89.59999485	0.00000000	9.95324800	12.53691000
89.79999484	0.00000000	9.57800100	16.35089000
89.99999483	0.00000000	9.95324800	17.88263000
90.19999482	0.00000000	11.06668000	16.76919000
90.39999480	0.00000000	12.18012000	13.65650000
90.59999479	0.00000000	12.60458000	9.05511800
90.79999478	0.00000000	12.69070000	4.08464600
90.99999477	0.00000000	13.02288000	0.64591530
91.19999476	0.00000000	13.39198000	-0.55979330
91.39999474	0.00000000	13.02288000	0.59670270
91.59999473	0.00000000	12.69070000	3.70939900
91.79999472	0.00000000	12.64764000	8.31077700
91.99999471	0.00000000	12.64764000	13.28125000
92.19999470	0.00000000	12.64764000	16.72613000
92.39999468	0.00000000	12.64764000	17.88263000
92.59999467	0.00000000	12.60458000	16.35089000
92.79999466	0.00000000	12.22933000	12.53691000
92.99999465	0.00000000	11.44193000	7.93553100
93.19999464	0.00000000	10.64838000	3.66633800
93.39999463	0.00000000	9.52879000	0.64591530
93.59999461	0.00000000	8.79060000	-0.14148620
93.79999460	0.00000000	9.20275500	1.75935000
93.99999459	0.00000000	10.32234000	5.19808000
94.19999458	0.00000000	12.31545000	9.43036400
94.39999457	0.00000000	14.56078000	13.28125000
94.59999455	0.00000000	16.55389000	15.56348000
94.79999454	0.00000000	17.67347000	15.97564000
94.99999453	0.00000000	18.04257000	14.03174000
95.19999452	0.00000000	16.83686000	10.62992000
95.39999451	0.00000000	14.18553000	6.77903500
95.59999449	0.00000000	11.06668000	3.70939900
95.79999448	0.00000000	7.94783400	2.12844500
95.99999447	0.00000000	5.29650500	2.12844500
96.19999446	0.00000000	4.18307100	3.66633800
96.39999445	0.00000000	5.29650500	6.36072800
96.59999444	0.00000000	7.99704600	9.42421200
96.79999442	0.00000000	11.48499000	12.11860000
96.99999441	0.00000000	15.39124000	13.61343000
97.19999440	0.00000000	18.83612000	13.28125000
97.39999439	0.00000000	21.16142000	11.42347000
97.59999438	0.00000000	21.53666000	9.47342500
97.79999436	0.00000000	19.99877000	7.51722400
97.99999435	0.00000000	16.87992000	5.61638700
98.19999434	0.00000000	12.64764000	4.87204700
98.39999433	0.00000000	8.41535400	5.19808000
98.59999432	0.00000000	5.29650500	6.31151500
98.79999430	0.00000000	3.75861200	7.47416300
98.99999429	0.00000000	4.13385800	8.26771600
99.19999428	0.00000000	6.45915300	9.05511800
99.39999427	0.00000000	9.90403500	9.43036400
99.59999426	0.00000000	13.76107000	9.47342500
99.79999425	0.00000000	16.87992000	9.51648500
99.99999423	0.00000000	18.87918000	9.89173200
100.19999422	0.00000000	19.99877000	10.62992000
100.39999421	0.00000000	19.58046000	11.00517000
100.59999420	0.00000000	17.29823000	11.00517000
100.79999419	0.00000000	14.22859000	10.58686000
100.99999417	0.00000000	11.10974000	9.42421200
101.19999416	0.00000000	8.41535400	7.89247000
101.39999415	0.00000000	6.83439900	6.31151500
101.59999414	0.00000000	6.41609200	4.77977300
101.79999413	0.00000000	6.79133800	3.66633800
101.99999411	0.00000000	7.99704600	3.70939900
102.19999410	0.00000000	9.90403500	5.24729300
102.39999409	0.00000000	12.27239000	7.93553100
102.59999408	0.00000000	14.56078000	10.96211000
102.79999407	0.00000000	16.50467000	13.32431000
102.99999406	0.00000000	17.25517000	14.45005000
103.19999404	0.00000000	16.92298000	14.48696000
103.39999403	0.00000000	15.76649000	12.86909000
103.59999402	0.00000000	14.18553000	10.21161000
103.79999401	0.00000000	12.22933000	6.72982200
103.99999400	0.00000000	9.95324800	3.70939900
104.19999398	0.00000000	8.41535400	2.12844500
104.39999397	0.00000000	7.99704600	2.08538400
104.59999396	0.00000000	8.37229300	3.29109200
104.79999395	0.00000000	9.52879000	5.57332700
104.99999394	0.00000000	11.06668000	8.67987200
105.19999392	0.00000000	12.64764000	11.33735000
105.39999391	0.00000000	14.13632000	13.28125000
105.59999390	0.00000000	14.92372000	13.65650000
105.79999389	0.00000000	14.56078000	12.53691000
105.99999388	0.00000000	13.81028000	10.62992000
106.19999387	0.00000000	12.64764000	8.31077700
106.39999385	0.00000000	11.53420000	6.36072800
106.59999384	0.00000000	11.10974000	4.82283400
106.79999383	0.00000000	11.06668000	4.08464600
106.99999382	0.00000000	11.10974000	4.82283400
107.19999381	0.00000000	11.53420000	6.36072800
107.39999379	0.00000000	12.64764000	8.31077700
107.59999378	0.00000000	13.76107000	10.53765000
107.79999377	0.00000000	14.18553000	11.70029000
107.99999376	0.00000000	14.18553000	11.38041000
108.19999375	0.00000000	13.76107000	10.62992000
108.39999374	0.00000000	12.64764000	9.38115100
108.59999372	0.00000000	11.48499000	7.51722400
108.79999371	0.00000000	10.69144000	5.61638700
108.99999370	0.00000000	9.95324800	4.87204700
109.19999369	0.00000000	9.99630800	5.19808000
109.39999368	0.00000000	11.06668000	6.36072800
109.59999366	0.00000000	12.22933000	7.89247000
109.79999365	0.00000000	13.02288000	9.47342500
109.99999364	0.00000000	13.81028000	11.00517000
110.19999363	0.00000000	14.18553000	12.11860000
110.39999362	0.00000000	14.18553000	12.11860000
110.59999360	0.00000000	13.81028000	11.00517000
110.79999359	0.00000000	13.02288000	9.47342500
110.99999358	0.00000000	12.27239000	7.89247000
111.19999357	0.00000000	11.48499000	6.36072800
111.39999356	0.00000000	11.10974000	5.24729300
111.59999355	0.00000000	11.10974000	5.24729300
111.79999353	0.00000000	11.48499000	6.31151500
111.99999352	0.00000000	12.22933000	7.47416300
112.19999351	0.00000000	12.64764000	8.26771600
112.39999350	0.00000000	13.02288000	9.05511800
112.59999349	0.00000000	13.43504000	9.43036400
112.79999347	0.00000000	13.39813000	9.47342500
112.99999346	0.00000000	13.43504000	9.47342500
113.19999345	0.00000000	13.02288000	9.47342500
113.39999344	0.00000000	12.69070000	9.43036400
113.59999343	0.00000000	12.60458000	9.05511800
113.79999341	0.00000000	12.27239000	8.31077700
113.99999340	0.00000000	11.86024000	7.93553100
114.19999339	0.00000000	11.89715000	7.89247000
114.39999338	0.00000000	11.86024000	7.84940900
114.59999337	0.00000000	12.27239000	7.47416300
114.79999336	0.00000000	12.60458000	6.72982200
114.99999334	0.00000000	12.64764000	6.35457700
115.19999333	0.00000000	12.64764000	6.35457700
115.39999332	0.00000000	12.64764000	6.72982200
115.59999331	0.00000000	12.64764000	7.47416300
115.79999330	0.00000000	12.64764000	7.89247000
115.99999328	0.00000000	12.64764000	8.35998900
116.19999327	0.00000000	12.60458000	9.47342500
116.39999326	0.00000000	12.27239000	10.58686000
116.59999325	0.00000000	11.86024000	10.95595000
116.79999324	0.00000000	11.85408000	10.62992000
116.99999322	0.00000000	11.48499000	9.84867000
117.19999321	0.00000000	11.53420000	9.05511800
117.39999320	0.00000000	12.27239000	7.89247000
117.59999319	0.00000000	13.02288000	6.77903500
117.79999318	0.00000000	13.81028000	6.35457700
117.99999317	0.00000000	14.18553000	6.31151500
118.19999315	0.00000000	14.18553000	6.35457700
118.39999314	0.00000000	13.81028000	6.72982200
118.59999313	0.00000000	13.02288000	7.51722400
118.79999312	0.00000000	12.22933000	8.31077700
118.99999311	0.00000000	11.06668000	9.47342500
119.19999309	0.00000000	9.95324800	10.58686000
119.39999308	0.00000000	9.57800100	10.95595000
119.59999307	0.00000000	9.90403500	10.62992000
119.79999306	0.00000000	10.69144000	9.89173200
119.99999305	0.00000000	11.48499000	9.47342500
120.19999303	0.00000000	12.69070000	9.05511800
120.39999302	0.00000000	14.22859000	8.31077700
120.59999301	0.00000000	15.71727000	7.93553100
120.79999300	0.00000000	16.46161000	7.89247000
120.99999299	0.00000000	15.76649000	7.84940900
121.19999298	0.00000000	14.60384000	7.51722400
121.39999296	0.00000000	13.39198000	7.14812900
121.59999295	0.00000000	11.48499000	7.51722400
121.79999294	0.00000000	9.99630800	7.84940900
121.99999293	0.00000000	9.52879000	7.93553100
122.19999292	0.00000000	9.52879000	8.31077700
122.39999290	0.00000000	9.90403500	9.05511800
122.59999289	0.00000000	10.69144000	9.43036400
122.79999288	0.00000000	11.48499000	9.47342500
122.99999287	0.00000000	12.64764000	9.47342500
123.19999286	0.00000000	13.76107000	9.47342500
123.39999284	0.00000000	14.22859000	9.43036400
123.59999283	0.00000000	14.60384000	9.05511800
123.79999282	0.00000000	14.92372000	8.26771600
123.99999281	0.00000000	14.18553000	7.51722400
124.19999280	0.00000000	13.06594000	6.77903500
124.39999279	0.00000000	12.27239000	6.77903500
124.59999277	0.00000000	11.48499000	7.47416300
124.79999276	0.00000000	11.06668000	7.84940900
124.99999275	0.00000000	10.69144000	7.93553100
125.19999274	0.00000000	10.27928000	8.31077700
125.39999273	0.00000000	10.31619000	9.05511800
125.59999271	0.00000000	10.32234000	9.43036400
125.79999270	0.00000000	11.15896000	9.47342500
125.99999269	0.00000000	12.60458000	9.47342500
126.19999268	0.00000000	13.76107000	9.47342500
126.39999267	0.00000000	14.18553000	9.43036400
126.59999265	0.00000000	14.22859000	9.05511800
126.79999264	0.00000000	14.18553000	8.31077700
126.99999263	0.00000000	13.76107000	7.93553100
127.19999262	0.00000000	12.64764000	7.89247000
127.39999261	0.00000000	11.48499000	7.89247000
127.59999260	0.00000000	10.69144000	7.89247000
127.79999258	0.00000000	9.95324800	7.89247000
127.99999257	0.00000000	9.95324800	7.89247000
128.19999256	0.00000000	10.69144000	7.93553100
128.39999255	0.00000000	11.48499000	8.31077700
128.59999254	0.00000000	12.64764000	9.05511800
128.79999252	0.00000000	13.76107000	9.43036400
128.99999251	0.00000000	14.18553000	9.43036400
129.19999250	0.00000000	14.22859000	9.05511800
129.39999249	0.00000000	14.18553000	8.31077700
129.59999248	0.00000000	13.76107000	7.93553100
129.79999246	0.00000000	12.64764000	7.89247000
129.99999245	0.00000000	11.48499000	7.84940900
130.19999244	0.00000000	10.73450000	7.56028500
130.39999243	0.00000000	10.32234000	7.57258800
130.59999242	0.00000000	10.73450000	8.67987200
130.79999241	0.00000000	11.44193000	9.38115100
130.99999239	0.00000000	12.27239000	9.47342500
131.19999238	0.00000000	13.02288000	9.47342500
131.39999237	0.00000000	13.81028000	9.43036400
131.59999236	0.00000000	14.18553000	9.05511800
131.79999235	0.00000000	14.18553000	8.31077700
131.99999233	0.00000000	13.81028000	7.89247000
132.19999232	0.00000000	13.06594000	7.47416300
132.39999231	0.00000000	12.64764000	6.77903500
132.59999230	0.00000000	12.22933000	6.77903500
132.79999229	0.00000000	11.48499000	7.51722400
132.99999227	0.00000000	11.15896000	8.26771600
133.19999226	0.00000000	11.48499000	9.05511800
133.39999225	0.00000000	12.22933000	9.43036400
133.59999224	0.00000000	12.60458000	9.47342500
133.79999223	0.00000000	12.64764000	9.47342500
133.99999222	0.00000000	12.60458000	9.43036400
134.19999220	0.00000000	12.27239000	9.05511800
134.39999219	0.00000000	11.90330000	8.26771600
134.59999218	0.00000000	12.27239000	7.51722400
134.79999217	0.00000000	12.60458000	6.72982200
134.99999216	0.00000000	12.64764000	6.35457700
135.19999214	0.00000000	12.64764000	6.35457700
135.39999213	0.00000000	12.69070000	6.72982200
135.59999212	0.00000000	13.02288000	7.51722400
135.79999211	0.00000000	13.34276000	8.26771600
135.99999210	0.00000000	12.60458000	9.05511800
136.19999208	0.00000000	11.53420000	9.43036400
136.39999207	0.00000000	11.10974000	9.47342500
136.59999206	0.00000000	11.06668000	9.47342500
136.79999205	0.00000000	11.10974000	9.43036400
136.99999204	0.00000000	11.48499000	9.05511800
137.19999203	0.00000000	12.27239000	8.31077700
137.39999201	0.00000000	13.02288000	7.89247000
137.59999200	0.00000000	13.81028000	7.47416300
137.79999199	0.00000000	14.18553000	6.72982200
137.99999198	0.00000000	14.18553000	6.35457700
138.19999197	0.00000000	13.81028000	6.35457700
138.39999195	0.00000000	13.02288000	6.72982200
138.59999194	0.00000000	12.27239000	7.51722400
138.79999193	0.00000000	11.48499000	8.26771600
138.99999192	0.00000000	11.10974000	9.05511800
139.19999191	0.00000000	11.06668000	9.47342500
139.39999189	0.00000000	11.10974000	9.84867000
139.59999188	0.00000000	11.48499000	10.21161000
139.79999187	0.00000000	12.22933000	9.84867000
139.99999186	0.00000000	12.60458000	9.47342500
140.19999185	0.00000000	12.64764000	9.05511800
140.39999184	0.00000000	12.64764000	8.31077700
140.59999182	0.00000000	12.64764000	7.89247000
140.79999181	0.00000000	12.64764000	7.51722400
140.99999180	0.00000000	12.64764000	7.14812900
141.19999179	0.00000000	12.60458000	7.51722400
141.39999178	0.00000000	12.27239000	7.89247000
141.59999176	0.00000000	11.90330000	8.31077700
141.79999175	0.00000000	12.27239000	9.05511800
141.99999174	0.00000000	12.60458000	9.47342500
142.19999173	0.00000000	12.64764000	9.84867000
142.39999172	0.00000000	12.64764000	10.21161000
142.59999170	0.00000000	12.64764000	9.84867000
142.79999169	0.00000000	12.64764000	9.47342500
142.99999168	0.00000000	12.64764000	9.05511800
143.19999167	0.00000000	12.64764000	8.26771600
143.39999166	0.00000000	12.60458000	7.51722400
143.59999165	0.00000000	12.22933000	6.72982200
143.79999163	0.00000000	11.53420000	6.40378900
143.99999162	0.00000000	11.53420000	6.72982200
144.19999161	0.00000000	12.22933000	7.51722400
144.39999160	0.00000000	12.60458000	8.26771600
144.59999159	0.00000000	12.64764000	9.05511800
144.79999157	0.00000000	12.64764000	9.43036400
144.99999156	0.00000000	12.64764000	9.47342500
145.19999155	0.00000000	12.64764000	9.47342500
145.39999154	0.00000000	12.64764000	9.43036400
145.59999153	0.00000000	12.64764000	9.05511800
145.79999151	0.00000000	12.60458000	8.31077700
145.99999150	0.00000000	12.27239000	7.93553100
146.19999149	0.00000000	11.90330000	7.84940900
146.39999148	0.00000000	12.27239000	7.51722400
146.59999147	0.00000000	12.60458000	7.14812900
146.79999146	0.00000000	12.69070000	7.51722400
146.99999144	0.00000000	13.06594000	7.89247000
147.19999143	0.00000000	13.76107000	8.31077700
147.39999142	0.00000000	13.76107000	9.05511800
147.59999141	0.00000000	13.06594000	9.43036400
147.79999140	0.00000000	12.69070000	9.47342500
147.99999138	0.00000000	12.60458000	9.47342500
148.19999137	0.00000000	12.22933000	9.43036400
148.39999136	0.00000000	11.48499000	9.05511800
148.59999135	0.00000000	11.15896000	8.31077700
148.79999134	0.00000000	11.48499000	7.93553100
148.99999132	0.00000000	12.22933000	7.89247000
149.19999131	0.00000000	12.60458000	7.89247000
149.39999130	0.00000000	12.64764000	7.89247000
149.59999129	0.00000000	12.69070000	7.89247000
149.79999128	0.00000000	13.02288000	7.89247000
149.99999127	0.00000000	13.39198000	7.93553100
150.19999125	0.00000000	13.02288000	8.31077700
150.39999124	0.00000000	12.69070000	9.05511800
150.59999123	0.00000000	12.64764000	9.43036400
150.79999122	0.00000000	12.64764000	9.47342500
150.99999121	0.00000000	12.64764000	9.47342500
151.19999119	0.00000000	12.60458000	9.43036400
151.39999118	0.00000000	12.22933000	9.05511800
151.59999117	0.00000000	11.53420000	8.31077700
151.79999116	0.00000000	11.53420000	7.93553100
151.99999115	0.00000000	12.22933000	7.89247000
152.19999113	0.00000000	12.60458000	7.89247000
152.39999112	0.00000000	12.69070000	7.89247000
152.59999111	0.00000000	13.06594000	7.89247000
152.79999110	0.00000000	13.81028000	7.89247000
152.99999109	0.00000000	14.13632000	7.93553100
153.19999108	0.00000000	13.81028000	8.31077700
153.39999106	0.00000000	13.06594000	9.05511800
153.59999105	0.00000000	12.69070000	9.43036400
153.79999104	0.00000000	12.60458000	9.47342500
153.99999103	0.00000000	12.22933000	9.47342500
154.19999102	0.00000000	11.48499000	9.43036400
154.39999100	0.00000000	11.15896000	9.05511800
154.59999099	0.00000000	11.48499000	8.31077700
154.79999098	0.00000000	12.22933000	7.93553100
154.99999097	0.00000000	12.60458000	7.89247000
155.19999096	0.00000000	12.69070000	7.89247000
155.39999094	0.00000000	13.06594000	7.89247000
155.59999093	0.00000000	13.81028000	7.89247000
155.79999092	0.00000000	14.18553000	7.89247000
155.99999091	0.00000000	14.18553000	7.93553100
156.19999090	0.00000000	13.81028000	8.31077700
156.39999089	0.00000000	13.06594000	9.05511800
156.59999087	0.00000000	12.64764000	9.43036400
156.79999086	0.00000000	12.22933000	9.47342500
156.99999085	0.00000000	11.48499000	9.47342500
157.19999084	0.00000000	11.10974000	9.47342500
157.39999083	0.00000000	11.10974000	9.43036400
157.59999081	0.00000000	11.48499000	9.05511800
157.79999080	0.00000000	12.22933000	8.31077700
157.99999079	0.00000000	12.60458000	7.93553100
158.19999078	0.00000000	12.64764000	7.89247000
158.39999077	0.00000000	12.69070000	7.89247000
158.59999075	0.00000000	13.02288000	7.89247000
158.79999074	0.00000000	13.39198000	7.93553100
158.99999073	0.00000000	13.02288000	8.31077700
159.19999072	0.00000000	12.69070000	9.05511800
159.39999071	0.00000000	12.64764000	9.43036400
159.59999070	0.00000000	12.64764000	9.47342500
159.79999068	0.00000000	12.60458000	9.47342500
159.99999067	0.00000000	12.27239000	9.47342500
160.19999066	0.00000000	11.90330000	9.47342500
160.39999065	0.00000000	12.27239000	9.43036400
160.59999064	0.00000000	12.60458000	9.05511800
160.79999062	0.00000000	12.64764000	8.31077700
160.99999061	0.00000000	12.64764000	7.93553100
161.19999060	0.00000000	12.64764000	7.89247000
161.39999059	0.00000000	12.64764000	7.89247000
161.59999058	0.00000000	12.64764000	7.89247000
161.79999056	0.00000000	12.64764000	7.89247000
161.99999055	0.00000000	12.64764000	7.93553100
162.19999054	0.00000000	12.64764000	8.31077700
162.39999053	0.00000000	12.64764000	9.05511800
162.59999052	0.00000000	12.64764000	9.38115100
162.79999051	0.00000000	12.64764000	9.09817800
162.99999049	0.00000000	12.64764000	8.68602300
163.19999048	0.00000000	12.60458000	8.67987200
163.39999047	0.00000000	12.22933000	8.26771600
163.59999046	0.00000000	11.53420000	7.93553100
163.79999045	0.00000000	11.53420000	7.89247000
163.99999043	0.00000000	12.22933000	7.89247000
164.19999042	0.00000000	12.60458000	7.89247000
164.39999041	0.00000000	12.69070000	7.89247000
164.59999040	0.00000000	13.02288000	7.89247000
164.79999039	0.00000000	13.39198000	7.89247000
164.99999037	0.00000000	13.02288000	7.89247000
165.19999036	0.00000000	12.69070000	7.89247000
165.39999035	0.00000000	12.64764000	7.93553100
165.59999034	0.00000000	12.64764000	8.31077700
165.79999033	0.00000000	12.60458000	9.00590400
165.99999032	0.00000000	12.27239000	9.00590400
166.19999030	0.00000000	11.86024000	8.35998900
166.39999029	0.00000000	11.89715000	8.31077700
166.59999028	0.00000000	11.86024000	8.63681000
166.79999027	0.00000000	12.27239000	8.26771600
166.99999026	0.00000000	12.60458000	7.93553100
167.19999024	0.00000000	12.64764000	7.89247000
167.39999023	0.00000000	12.64764000	7.89247000
167.59999022	0.00000000	12.64764000	7.89247000
167.79999021	0.00000000	12.64764000	7.89247000
167.99999020	0.00000000	12.64764000	7.89247000
168.19999018	0.00000000	12.64764000	7.89247000
168.39999017	0.00000000	12.64764000	7.89247000
168.59999016	0.00000000	12.64764000	7.89247000
168.79999015	0.00000000	12.64764000	7.89247000
168.99999014	0.00000000	12.64764000	7.93553100
169.19999013	0.00000000	12.64764000	8.26771600
169.39999011	0.00000000	12.64764000	8.63681000
169.59999010	0.00000000	12.64764000	8.26771600
169.79999009	0.00000000	12.64764000	7.93553100
169.99999008	0.00000000	12.64764000	7.89247000
170.19999007	0.00000000	12.64764000	7.89247000
170.39999005	0.00000000	12.64764000	7.89247000
170.59999004	0.00000000	12.64764000	7.89247000
170.79999003	0.00000000	12.64764000	7.89247000
170.99999002	0.00000000	12.64764000	7.89247000
171.19999001	0.00000000	12.64764000	7.89247000
171.39998999	0.00000000	12.64764000	7.89247000
171.59998998	0.00000000	12.64764000	7.89247000
171.79998997	0.00000000	12.64764000	7.89247000
171.99998996	0.00000000	12.64764000	7.89247000
172.19998995	0.00000000	12.64764000	7.89247000
172.39998994	0.00000000	12.64764000	7.89247000
172.59998992	0.00000000	12.64764000	7.89247000
172.79998991	0.00000000	12.64764000	7.93553100
172.99998990	0.00000000	12.64764000	8.26771600
173.19998989	0.00000000	12.64764000	8.63681000
173.39998988	0.00000000	12.64764000	8.31077700
173.59998986	0.00000000	12.64764000	8.31077700
173.79998985	0.00000000	12.64764000	8.63681000
173.99998984	0.00000000	12.64764000	8.26771600
174.19998983	0.00000000	12.64764000	7.93553100
174.39998982	0.00000000	12.64764000	7.89247000
174.59998980	0.00000000	12.64764000	7.89247000
174.79998979	0.00000000	12.64764000	7.89247000
174.99998978	0.00000000	12.64764000	7.89247000
175.19998977	0.00000000	12.64764000	7.89247000
175.39998976	0.00000000	12.64764000	7.89247000
175.59998975	0.00000000	12.64764000	7.93553100
175.79998973	0.00000000	12.64764000	8.31077700
175.99998972	0.00000000	12.64764000	9.00590400
176.19998971	0.00000000	12.64764000	9.00590400
176.39998970	0.00000000	12.64764000	8.31077700
176.59998969	0.00000000	12.64764000	7.93553100
176.79998967	0.00000000	12.64764000	7.93553100
176.99998966	0.00000000	12.64764000	8.26771600
177.19998965	0.00000000	12.64764000	8.63681000
177.39998964	0.00000000	12.64764000	8.26771600
177.59998963	0.00000000	12.64764000	7.93553100
177.79998961	0.00000000	12.64764000	7.93553100
177.99998960	0.00000000	12.64764000	8.26771600
178.19998959	0.00000000	12.64764000	8.63681000
178.39998958	0.00000000	12.64764000	8.26771600
178.59998957	0.00000000	12.64764000	7.98474400
178.79998956	0.00000000	12.64764000	8.31077700
178.99998954	0.00000000	12.64764000	9.05511800
179.19998953	0.00000000	12.64764000	9.38115100
179.39998952	0.00000000	12.64764000	9.05511800
179.59998951	0.00000000	12.64764000	8.31077700
179.79998950	0.00000000	12.64764000	7.93553100
179.99998948	0.00000000	12.64764000	7.89247000
180.19998947	0.00000000	12.64764000	7.89247000
180.39998946	0.00000000	12.64764000	7.89247000
180.59998945	0.00000000	12.64764000	7.89247000
180.79998944	0.00000000	12.64764000	7.89247000
180.99998942	0.00000000	12.64764000	7.93553100
181.19998941	0.00000000	12.64764000	8.31077700
181.39998940	0.00000000	12.64764000	9.05511800
181.59998939	0.00000000	12.64764000	9.43036400
181.79998938	0.00000000	12.64764000	9.47342500
181.99998937	0.00000000	12.64764000	9.47342500
182.19998935	0.00000000	12.64764000	9.43036400
182.39998934	0.00000000	12.64764000	9.05511800
182.59998933	0.00000000	12.64764000	8.31077700
182.79998932	0.00000000	12.64764000	7.93553100
182.99998931	0.00000000	12.64764000	7.89247000
183.19998929	0.00000000	12.64764000	7.89247000
183.39998928	0.00000000	12.64764000	7.89247000
183.59998927	0.00000000	12.64764000	7.89247000
183.79998926	0.00000000	12.64764000	7.89247000
183.99998925	0.00000000	12.64764000	7.93553100
184.19998923	0.00000000	12.64764000	8.31077700
184.39998922	0.00000000	12.64764000	9.05511800
184.59998921	0.00000000	12.64764000	9.43036400
184.79998920	0.00000000	12.64764000	9.47342500
184.99998919	0.00000000	12.64764000	9.47342500
185.19998918	0.00000000	12.64764000	9.47342500
185.39998916	0.00000000	12.64764000	9.43036400
185.59998915	0.00000000	12.64764000	9.05511800
185.79998914	0.00000000	12.64764000	8.31077700
185.99998913	0.00000000	12.64764000	7.93553100
186.19998912	0.00000000	12.64764000	7.89247000
186.39998910	0.00000000	12.64764000	7.89247000
186.59998909	0.00000000	12.64764000	7.89247000
186.79998908	0.00000000	12.64764000	7.93553100
186.99998907	0.00000000	12.64764000	8.31077700
187.19998906	0.00000000	12.64764000	9.05511800
187.39998904	0.00000000	12.64764000	9.43036400
187.59998903	0.00000000	12.64764000	9.47342500
187.79998902	0.00000000	12.64764000	9.47342500
187.99998901	0.00000000	12.64764000	9.47342500
188.19998900	0.00000000	12.64764000	9.43036400
188.39998899	0.00000000	12.64764000	9.05511800
188.59998897	0.00000000	12.69070000	8.31077700
188.79998896	0.00000000	13.02288000	7.93553100
188.99998895	0.00000000	13.39198000	7.89247000
189.19998894	0.00000000	13.02288000	7.89247000
189.39998893	0.00000000	12.69070000	7.89247000
189.59998891	0.00000000	12.64764000	7.89247000
189.79998890	0.00000000	12.64764000	7.89247000
189.99998889	0.00000000	12.64764000	7.93553100
190.19998888	0.00000000	12.64764000	8.31077700
190.39998887	0.00000000	12.64764000	9.05511800
190.59998885	0.00000000	12.64764000	9.43036400
190.79998884	0.00000000	12.64764000	9.43036400
190.99998883	0.00000000	12.64764000	9.09817800
191.19998882	0.00000000	12.64764000	8.72908400
191.39998881	0.00000000	12.64764000	9.05511800
191.59998880	0.00000000	12.64764000	9.00590400
191.79998878	0.00000000	12.64764000	8.31077700
191.99998877	0.00000000	12.64764000	7.93553100
192.19998876	0.00000000	12.64764000	7.89247000
192.39998875	0.00000000	12.64764000	7.89247000
192.59998874	0.00000000	12.64764000	7.89247000
192.79998872	0.00000000	12.64764000	7.89247000
192.99998871	0.00000000	12.60458000	7.89247000
193.19998870	0.00000000	12.27239000	7.93553100
193.39998869	0.00000000	11.90330000	8.31077700
193.59998868	0.00000000	12.27239000	9.05511800
193.79998866	0.00000000	12.60458000	9.43036400
193.99998865	0.00000000	12.64764000	9.47342500
194.19998864	0.00000000	12.64764000	9.47342500
194.39998863	0.00000000	12.64764000	9.47342500
194.59998862	0.00000000	12.69070000	9.47342500
194.79998861	0.00000000	13.02288000	9.43036400
194.99998859	0.00000000	13.39198000	9.05511800
195.19998858	0.00000000	13.02288000	8.31077700
195.39998857	0.00000000	12.69070000	7.93553100
195.59998856	0.00000000	12.64764000	7.89247000
195.79998855	0.00000000	12.64764000	7.89247000
195.99998853	0.00000000	12.64764000	7.89247000
