Time	Channel A	Channel B	Channel C
(us)	(V)	(mV)	(mV)

-4.59999956	0.00000000	74.78469000	34.73794000
-4.39999957	0.00000000	75.47981000	34.73794000
-4.19999958	0.00000000	75.85506000	34.73794000
-3.99999959	0.00000000	75.85506000	34.73794000
-3.79999960	0.00000000	75.52288000	34.73794000
-3.59999962	0.00000000	75.15379000	34.73794000
-3.39999963	0.00000000	75.52288000	34.73794000
-3.19999964	0.00000000	75.85506000	34.73794000
-2.99999965	0.00000000	75.85506000	34.73794000
-2.79999966	0.00000000	75.47981000	34.73794000
-2.59999968	0.00000000	74.73548000	34.73794000
-2.39999969	0.00000000	74.36023000	34.73794000
-2.19999970	0.00000000	74.31717000	34.73794000
-1.99999971	0.00000000	74.36023000	34.73794000
-1.79999972	0.00000000	74.69241000	34.73794000
-1.59999973	0.00000000	75.06151000	34.73794000
-1.39999975	0.00000000	74.73548000	34.73794000
-1.19999976	0.00000000	74.78469000	34.73794000
-0.99999977	0.00000000	75.43060000	34.73794000
-0.79999978	0.00000000	75.43060000	34.73794000
-0.59999979	0.00000000	74.73548000	34.73794000
-0.39999981	0.15871060	74.36023000	34.73794000
-0.19999982	0.47736220	74.31717000	34.73794000
0.00000017	0.79601380	74.31717000	34.73794000
0.20000016	0.95533960	74.31717000	34.73794000
0.40000015	0.95533960	74.31717000	34.73794000
0.60000013	0.63668800	74.31717000	34.73794000
0.80000012	0.00000000	74.31717000	34.73794000
1.00000011	-0.95533960	74.31717000	34.73794000
1.20000010	-1.91129400	74.31717000	34.73794000
1.40000009	-2.70792300	74.31717000	34.73794000
1.60000008	-2.70792300	74.36023000	34.73794000
1.80000006	-1.91129400	74.69241000	34.73794000
2.00000005	-0.47736220	75.10458000	34.73794000
2.20000004	1.59264300	75.06767000	34.73794000
2.40000003	3.66326300	75.10458000	34.69488000
2.60000002	4.93786900	74.69241000	34.31963000
2.80000000	5.25652100	74.36023000	33.57529000
2.99999999	3.98191400	74.31717000	33.20005000
3.19999998	1.59264300	74.31717000	33.15699000
3.39999997	-1.75196900	74.31717000	33.20005000
3.59999996	-5.09719500	74.36023000	33.57529000
3.79999994	-7.32714100	74.73548000	34.31963000
3.99999993	-7.96444400	75.43060000	34.69488000
4.19999992	-6.53112700	75.47981000	34.78100000
4.39999991	-3.34522600	75.15379000	35.11319000
4.59999990	0.95533960	75.47981000	35.47613000
4.79999989	5.41584600	75.43060000	35.11319000
4.99999987	8.44242100	74.73548000	34.78100000
5.19999986	9.55770200	74.36023000	34.73794000
5.39999985	8.12377000	74.31717000	34.69488000
5.59999984	4.77854300	74.31717000	34.36269000
5.79999983	0.00000000	74.31717000	33.99360000
5.99999981	-4.61921700	74.36023000	34.36269000
6.19999980	-8.12377000	74.69241000	34.69488000
6.39999979	-9.39837600	75.10458000	34.78100000
6.59999978	-8.60174700	75.11072000	35.15625000
6.79999977	-5.41584600	75.47981000	35.85138000
6.99999975	-1.27399100	75.47981000	35.85138000
7.19999974	3.02657500	75.15379000	35.15625000
7.39999973	6.21247500	75.52288000	34.78100000
7.59999972	7.64579200	75.85506000	34.73794000
7.79999971	7.16781500	75.89813000	34.73794000
7.99999970	4.93786900	75.89813000	34.73794000
8.19999968	1.75196900	75.89813000	34.73794000
8.39999967	-1.43331700	75.89813000	34.73794000
8.59999966	-3.82258900	75.89813000	34.73794000
8.79999965	-5.09719500	75.89813000	34.73794000
8.99999964	-4.93786900	75.89813000	34.73794000
9.19999962	-3.66326300	75.89813000	34.73794000
9.39999961	-1.75196900	75.89813000	34.73794000
9.59999960	0.15871060	75.89813000	34.73794000
9.79999959	1.75196900	75.89813000	34.73794000
9.99999958	2.38927200	75.89813000	34.73794000
10.19999956	2.38927200	75.89813000	34.73794000
10.39999955	1.91129400	75.89813000	34.73794000
10.59999954	0.95533960	75.85506000	34.73794000
10.79999953	0.15871060	75.52288000	34.73794000
10.99999952	-0.47736220	75.15379000	34.73794000
11.19999951	-0.95533960	75.52288000	34.73794000
11.39999949	-0.95533960	75.85506000	34.73794000
11.59999948	-0.79601380	75.89813000	34.73794000
11.79999947	-0.63668800	75.85506000	34.73794000
11.99999946	-0.31803640	75.52288000	34.73794000
12.19999945	-0.15871060	75.15379000	34.73794000
12.39999943	-0.15871060	75.52288000	34.73794000
12.59999942	0.00000000	75.80585000	34.73794000
12.79999941	0.00000000	75.52288000	34.73794000
12.99999940	0.00000000	75.11072000	34.73794000
13.19999939	0.00000000	75.14763000	34.73794000
13.39999937	0.00000000	75.11072000	34.73794000
13.59999936	0.00000000	75.52288000	34.73794000
13.79999935	0.00000000	75.85506000	34.73794000
13.99999934	-0.15871060	75.89813000	34.73794000
14.19999933	-0.15871060	75.85506000	34.73794000
14.39999932	-0.15871060	75.52288000	34.73794000
14.59999930	-0.15871060	75.11072000	34.73794000
14.79999929	0.00000000	75.14763000	34.73794000
14.99999928	0.00000000	75.06767000	34.73794000
15.19999927	0.00000000	75.10458000	34.73794000
15.39999926	0.00000000	74.69241000	34.73794000
15.59999924	0.00000000	74.36023000	34.73794000
15.79999923	0.00000000	74.31717000	34.73794000
15.99999922	0.00000000	74.31717000	34.73794000
16.19999921	0.00000000	74.31717000	34.73794000
16.39999920	0.00000000	74.36023000	34.73794000
16.59999919	-0.15871060	74.73548000	34.73794000
16.79999917	-0.15871060	75.47981000	34.73794000
16.99999916	0.00000000	75.89813000	34.73794000
17.19999915	0.00000000	76.31644000	34.73794000
17.39999914	0.00000000	77.06077000	34.73794000
17.59999913	0.00000000	77.38681000	34.73794000
17.79999911	0.00000000	77.01156000	34.73794000
17.99999910	0.00000000	75.85506000	34.73794000
18.19999909	0.00000000	74.31717000	34.73794000
18.39999908	0.00000000	72.73621000	34.73794000
18.59999907	0.00000000	71.19833000	34.73794000
18.79999905	0.00000000	70.04182000	34.73794000
18.99999904	0.00000000	69.70964000	34.73794000
19.19999903	0.00000000	70.50320000	34.73794000
19.39999902	0.00000000	72.82849000	34.73794000
19.59999901	0.00000000	75.94118000	34.73794000
19.79999900	0.00000000	79.47834000	34.73794000
19.99999898	0.00000000	83.33538000	34.73794000
20.19999897	0.00000000	86.31889000	34.73794000
20.39999896	0.00000000	87.01402000	34.73794000
20.59999895	0.00000000	84.31963000	34.73794000
20.79999894	0.00000000	78.92471000	34.73794000
20.99999892	0.00000000	72.26870000	34.73794000
21.19999891	0.00000000	64.87450000	34.73794000
21.39999890	0.00000000	58.02780000	34.73794000
21.59999889	0.00000000	54.26304000	34.73794000
21.79999888	0.00000000	55.46875000	34.73794000
21.99999886	0.00000000	61.70029000	34.73794000
22.19999885	0.00000000	72.17027000	34.73794000
22.39999884	0.00000000	84.91634000	34.73794000
22.59999883	0.00000000	96.88114000	34.73794000
22.79999882	0.00000000	105.30270000	34.73794000
22.99999881	0.00000000	107.49260000	34.78100000
23.19999879	0.00000000	101.67940000	35.15625000
23.39999878	0.00000000	88.92716000	35.89444000
23.59999877	0.00000000	72.26870000	36.31274000
23.79999876	0.00000000	54.87204000	36.68799000
23.99999875	0.00000000	40.63115000	37.05708000
24.19999873	0.00000000	33.36614000	36.64493000
24.39999872	0.00000000	35.36540000	35.89444000
24.59999871	0.00000000	46.99803000	34.68873000
24.79999870	0.00000000	65.93873000	33.15699000
24.99999869	0.00000000	87.99212000	31.57603000
25.19999867	0.00000000	108.42150000	30.08735000
25.39999866	0.00000000	122.28100000	29.34916000
25.59999865	0.00000000	125.68280000	30.17962000
25.79999864	0.00000000	117.53810000	32.46186000
25.99999863	0.00000000	99.02189000	35.98671000
26.19999862	0.00000000	74.73548000	39.84990000
26.39999860	0.00000000	50.72588000	43.70079000
26.59999859	0.00000000	31.82825000	46.35211000
26.79999858	0.00000000	22.61934000	46.67815000
26.99999857	0.00000000	26.06422000	44.35285000
27.19999856	0.00000000	40.67421000	39.29626000
27.39999854	0.00000000	62.72760000	32.69562000
27.59999853	0.00000000	87.43848000	25.30758000
27.79999852	0.00000000	109.07360000	18.43012000
27.99999851	0.00000000	122.61320000	14.29011000
28.19999850	0.00000000	125.39980000	14.70842000
28.39999848	0.00000000	117.26130000	20.14641000
28.59999847	0.00000000	100.31990000	29.39222000
28.79999846	0.00000000	78.31569000	40.63730000
28.99999845	0.00000000	57.04970000	51.46407000
29.19999844	0.00000000	40.71727000	59.92249000
29.39999843	0.00000000	32.20350000	63.68724000
29.59999841	0.00000000	33.32308000	60.94365000
29.79999840	0.00000000	43.32554000	52.02386000
29.99999839	0.00000000	59.52263000	38.50270000
30.19999838	0.00000000	78.03887000	23.07455000
30.39999837	0.00000000	94.32209000	9.55339400
30.59999835	0.00000000	105.25960000	0.68282480
30.79999834	0.00000000	109.54110000	-1.59325800
30.99999833	0.00000000	106.46530000	3.83858300
31.19999832	0.00000000	96.88114000	15.87106000
31.39999831	0.00000000	83.75984000	32.46186000
31.59999829	0.00000000	70.17101000	50.20300000
31.79999828	0.00000000	58.53838000	64.47466000
31.99999827	0.00000000	51.14419000	72.60703000
32.19999826	0.00000000	49.18799000	72.60703000
32.39999825	0.00000000	52.63287000	64.52386000
32.59999824	0.00000000	60.72834000	50.57824000
32.79999822	0.00000000	71.15526000	33.15699000
32.99999821	0.00000000	81.62524000	15.82800000
33.19999820	0.00000000	90.13287000	2.68208600
33.39999819	0.00000000	94.74040000	-3.54330700
33.59999818	0.00000000	94.45743000	-2.01156500
33.79999816	0.00000000	89.81299000	6.86515700
33.99999815	0.00000000	82.54182000	21.16757000
34.19999814	0.00000000	74.04035000	37.75836000
34.39999813	0.00000000	67.09522000	53.22958000
34.59999812	0.00000000	62.77067000	64.05635000
34.79999810	0.00000000	61.65723000	68.33170000
34.99999809	0.00000000	64.30856000	65.26205000
35.19999808	0.00000000	69.66043000	55.64714000
35.39999807	0.00000000	75.80585000	42.07677000
35.59999806	0.00000000	81.24999000	27.06693000
35.79999805	0.00000000	84.69488000	14.01329000
35.99999803	0.00000000	85.48228000	7.04355200
36.19999802	0.00000000	83.15698000	6.95127900
36.39999801	0.00000000	78.59251000	13.13361000
36.59999800	0.00000000	73.24680000	24.23720000
36.79999799	0.00000000	68.96530000	36.92175000
36.99999797	0.00000000	66.63385000	47.74852000
37.19999796	0.00000000	66.26476000	54.67519000
37.39999795	0.00000000	68.59006000	55.83169000
37.59999794	0.00000000	72.77928000	50.90428000
37.79999793	0.00000000	77.43602000	42.07677000
37.99999791	0.00000000	81.66830000	31.71137000
38.19999790	0.00000000	84.36269000	22.56398000
38.39999789	0.00000000	84.78715000	17.95645000
38.59999788	0.00000000	83.24926000	19.06988000
38.79999787	0.00000000	80.13041000	25.16609000
38.99999786	0.00000000	75.85506000	34.36269000
39.19999784	0.00000000	71.24138000	43.52239000
39.39999783	0.00000000	67.38435000	50.06767000
39.59999782	0.00000000	65.47121000	51.98080000
39.79999781	0.00000000	65.80339000	48.91117000
39.99999780	0.00000000	68.12868000	41.61540000
40.19999778	0.00000000	71.62278000	32.04355000
40.39999777	0.00000000	75.89813000	23.20989000
40.59999776	0.00000000	80.13041000	17.49508000
40.79999775	0.00000000	83.24926000	16.70768000
40.99999774	0.00000000	84.83022000	21.30290000
41.19999772	0.00000000	84.83022000	29.34916000
41.39999771	0.00000000	83.24926000	39.00713000
41.59999770	0.00000000	80.17347000	47.79773000
41.79999769	0.00000000	76.31644000	53.18652000
41.99999768	0.00000000	72.77928000	53.60482000
42.19999767	0.00000000	69.66043000	49.42175000
42.39999765	0.00000000	67.38435000	42.11983000
42.59999764	0.00000000	67.00910000	33.62450000
42.79999763	0.00000000	68.50394000	25.90428000
42.99999762	0.00000000	71.19833000	20.56471000
43.19999761	0.00000000	74.27411000	19.35900000
43.39999759	0.00000000	77.01156000	22.33022000
43.59999758	0.00000000	78.92471000	27.34990000
43.79999757	0.00000000	79.75516000	33.53223000
43.99999756	0.00000000	79.43528000	39.65920000
44.19999755	0.00000000	79.06004000	43.52239000
44.39999753	0.00000000	78.64173000	44.77116000
44.59999752	0.00000000	77.89738000	43.61467000
44.79999751	0.00000000	77.52214000	40.58809000
44.99999750	0.00000000	77.47908000	36.73105000
45.19999749	0.00000000	77.43602000	33.20005000
45.39999748	0.00000000	76.96850000	30.13656000
45.59999746	0.00000000	75.38755000	28.23573000
45.79999745	0.00000000	72.69316000	28.55561000
45.99999744	0.00000000	69.61736000	30.04429000
46.19999743	0.00000000	66.91682000	32.04355000
46.39999742	0.00000000	65.42815000	34.73794000
46.59999740	0.00000000	65.88951000	37.38312000
46.79999739	0.00000000	69.00836000	38.96407000
46.99999738	0.00000000	74.40945000	39.38238000
47.19999737	0.00000000	80.59792000	38.96407000
47.39999736	0.00000000	86.36810000	37.38312000
47.59999734	0.00000000	90.17593000	34.73794000
47.79999733	0.00000000	90.55118000	32.04355000
47.99999732	0.00000000	87.48154000	30.08735000
48.19999731	0.00000000	81.57603000	28.93085000
48.39999730	0.00000000	73.47440000	28.97392000
48.59999729	0.00000000	64.64074000	30.51181000
48.79999727	0.00000000	58.16314000	33.20005000
48.99999726	0.00000000	55.79478000	36.26968000
49.19999725	0.00000000	58.16314000	39.00713000
49.39999724	0.00000000	64.68381000	40.92027000
49.59999723	0.00000000	73.98499000	41.65846000
49.79999721	0.00000000	83.57529000	40.50196000
49.99999720	0.00000000	91.29551000	37.80758000
50.19999719	0.00000000	94.74040000	34.31963000
50.39999718	0.00000000	93.25172000	30.46260000
50.59999717	0.00000000	87.48154000	27.39296000
50.79999715	0.00000000	78.96776000	25.86122000
50.99999714	0.00000000	69.75270000	26.27953000
51.19999713	0.00000000	62.03247000	28.93085000
51.39999712	0.00000000	58.21235000	32.78174000
51.59999711	0.00000000	58.95669000	36.68799000
51.79999710	0.00000000	64.30856000	40.54502000
51.99999708	0.00000000	72.36097000	43.19635000
52.19999707	0.00000000	80.46259000	43.61467000
52.39999706	0.00000000	87.01402000	42.07677000
52.59999705	0.00000000	90.08981000	39.00713000
52.79999704	0.00000000	88.97022000	35.15625000
52.99999702	0.00000000	84.36269000	31.66830000
53.19999701	0.00000000	77.43602000	28.97392000
53.39999700	0.00000000	70.17101000	27.81127000
53.59999699	0.00000000	64.77608000	28.55561000
53.79999698	0.00000000	62.81988000	30.51181000
53.99999696	0.00000000	64.35777000	33.57529000
54.19999695	0.00000000	69.00836000	36.96481000
54.39999694	0.00000000	75.85506000	38.92101000
54.59999693	0.00000000	82.36343000	39.33932000
54.79999692	0.00000000	86.23277000	38.58883000
54.99999691	0.00000000	87.06323000	36.68799000
55.19999689	0.00000000	84.73794000	34.82406000
55.39999688	0.00000000	80.13041000	33.62450000
55.59999687	0.00000000	74.36023000	33.29232000
55.79999686	0.00000000	69.00836000	34.03666000
55.99999685	0.00000000	65.93873000	35.93750000
56.19999683	0.00000000	65.88951000	37.80142000
56.39999682	0.00000000	68.54699000	38.96407000
56.59999681	0.00000000	72.77928000	38.92101000
56.79999680	0.00000000	77.43602000	37.38312000
56.99999679	0.00000000	81.66830000	34.68873000
57.19999677	0.00000000	84.36269000	31.62524000
57.39999676	0.00000000	84.73794000	28.97392000
57.59999675	0.00000000	82.87401000	27.86048000
57.79999674	0.00000000	79.39222000	29.01698000
57.99999673	0.00000000	75.56593000	32.08661000
58.19999672	0.00000000	72.08414000	36.36196000
58.39999670	0.00000000	70.17101000	40.96333000
58.59999669	0.00000000	70.08488000	44.77116000
58.79999668	0.00000000	71.24754000	46.25984000
58.99999667	0.00000000	73.15452000	44.68504000
59.19999666	0.00000000	75.47981000	40.08366000
59.39999664	0.00000000	77.38681000	33.57529000
59.59999663	0.00000000	78.54945000	27.39296000
59.79999662	0.00000000	78.59251000	22.74852000
59.99999661	0.00000000	77.85432000	20.47244000
60.19999660	0.00000000	77.06077000	21.67815000
60.39999658	0.00000000	75.89813000	26.27953000
60.59999657	0.00000000	74.78469000	33.20620000
60.79999656	0.00000000	74.36023000	40.54502000
60.99999655	0.00000000	74.36023000	46.67815000
61.19999654	0.00000000	74.78469000	50.11687000
61.39999653	0.00000000	75.89813000	49.32948000
61.59999651	0.00000000	76.96850000	44.77116000
61.79999650	0.00000000	77.01156000	37.80758000
61.99999649	0.00000000	76.27337000	30.08735000
62.19999648	0.00000000	75.47981000	23.16683000
62.39999647	0.00000000	74.31717000	18.98376000
62.59999645	0.00000000	73.20374000	18.89148000
62.79999644	0.00000000	72.82849000	22.37328000
62.99999643	0.00000000	73.20374000	28.18651000
63.19999642	0.00000000	74.36023000	35.89444000
63.39999641	0.00000000	75.89813000	43.14714000
63.59999639	0.00000000	77.43602000	47.84079000
63.79999638	0.00000000	78.54945000	49.42175000
63.99999637	0.00000000	78.59251000	47.88385000
64.19999636	0.00000000	77.85432000	43.65773000
64.39999635	0.00000000	77.06077000	37.85064000
64.59999634	0.00000000	75.85506000	31.66830000
64.79999632	0.00000000	74.36023000	26.23647000
64.99999631	0.00000000	73.24680000	22.79158000
65.19999630	0.00000000	73.20374000	21.96112000
65.39999629	0.00000000	73.94193000	23.90502000
65.59999628	0.00000000	74.73548000	27.72515000
65.79999626	0.00000000	75.89813000	32.73868000
65.99999625	0.00000000	77.01156000	37.38312000
66.19999624	0.00000000	77.38681000	40.92027000
66.39999623	0.00000000	77.01156000	43.28247000
66.59999622	0.00000000	75.85506000	44.07603000
66.79999620	0.00000000	74.36023000	43.70079000
66.99999619	0.00000000	73.20374000	42.11983000
67.19999618	0.00000000	72.82849000	39.42544000
67.39999617	0.00000000	73.24680000	36.26968000
67.59999616	0.00000000	74.78469000	32.78174000
67.79999615	0.00000000	77.10384000	29.29995000
67.99999613	0.00000000	79.39222000	26.97465000
68.19999612	0.00000000	81.29305000	25.77510000
68.39999611	0.00000000	81.62524000	25.77510000
68.59999610	0.00000000	80.08734000	26.97465000
68.79999609	0.00000000	77.01156000	29.34916000
68.99999607	0.00000000	73.15452000	33.24926000
69.19999606	0.00000000	69.66043000	37.85064000
69.39999605	0.00000000	66.95989000	42.11983000
69.59999604	0.00000000	65.88951000	45.18947000
69.79999603	0.00000000	67.42741000	46.35211000
69.99999601	0.00000000	71.29060000	45.14640000
70.19999600	0.00000000	76.31644000	41.70152000
70.39999599	0.00000000	81.71136000	36.68799000
70.59999598	0.00000000	85.94365000	31.66830000
70.79999597	0.00000000	87.89984000	27.39296000
70.99999596	0.00000000	87.48154000	24.69857000
71.19999594	0.00000000	84.36269000	24.32948000
71.39999593	0.00000000	78.96776000	26.23647000
71.59999592	0.00000000	72.82233000	30.09350000
71.79999591	0.00000000	67.38435000	34.73794000
71.99999590	0.00000000	63.93332000	39.33932000
72.19999588	0.00000000	63.10285000	42.82111000
72.39999587	0.00000000	65.09595000	43.98991000
72.59999586	0.00000000	69.29749000	43.28247000
72.79999585	0.00000000	75.10458000	40.92027000
72.99999584	0.00000000	80.50565000	37.51845000
73.19999582	0.00000000	84.83022000	34.04282000
73.39999581	0.00000000	87.48154000	31.75443000
73.59999580	0.00000000	87.48154000	30.93012000
73.79999579	0.00000000	84.78715000	31.66830000
73.99999578	0.00000000	80.17347000	33.11393000
74.19999577	0.00000000	74.78469000	34.31963000
74.39999575	0.00000000	70.17101000	35.06397000
74.59999574	0.00000000	67.42741000	35.43307000
74.79999573	0.00000000	67.00910000	34.68873000
74.99999572	0.00000000	68.50394000	33.57529000
75.19999571	0.00000000	71.24754000	32.82480000
75.39999569	0.00000000	74.69241000	32.46186000
75.59999568	0.00000000	78.17421000	33.29232000
75.79999567	0.00000000	80.46259000	35.15625000
75.99999566	0.00000000	81.29305000	37.51845000
76.19999565	0.00000000	80.54871000	39.80069000
76.39999563	0.00000000	79.06004000	41.65846000
76.59999562	0.00000000	77.47908000	41.61540000
76.79999561	0.00000000	75.94118000	39.33932000
76.99999560	0.00000000	74.82775000	35.85138000
77.19999559	0.00000000	74.78469000	31.57603000
77.39999558	0.00000000	75.47981000	27.39296000
77.59999556	0.00000000	75.85506000	24.69857000
77.79999555	0.00000000	75.85506000	24.28026000
77.99999554	0.00000000	75.47981000	25.86122000
78.19999553	0.00000000	74.64935000	29.34916000
78.39999552	0.00000000	73.56668000	34.36269000
78.59999550	0.00000000	72.45940000	39.33932000
78.79999549	0.00000000	72.87155000	43.23941000
78.99999548	0.00000000	74.31717000	45.14640000
79.19999547	0.00000000	75.94118000	44.77116000
79.39999546	0.00000000	77.85432000	42.07677000
79.59999544	0.00000000	79.75516000	37.85064000
79.79999543	0.00000000	80.50565000	33.20005000
79.99999542	0.00000000	80.17347000	28.93085000
80.19999541	0.00000000	78.96776000	25.86122000
80.39999540	0.00000000	77.01156000	24.70472000
80.59999539	0.00000000	74.31717000	25.81816000
80.79999537	0.00000000	71.66584000	28.46333000
80.99999536	0.00000000	70.12794000	31.62524000
81.19999535	0.00000000	70.12794000	35.11319000
81.39999534	0.00000000	71.66584000	38.58883000
81.59999533	0.00000000	74.31717000	40.92027000
81.79999531	0.00000000	77.01156000	42.11983000
81.99999530	0.00000000	79.01697000	42.11983000
82.19999529	0.00000000	80.54871000	40.96333000
82.39999528	0.00000000	81.29305000	39.00713000
82.59999527	0.00000000	80.50565000	36.31274000
82.79999525	0.00000000	78.64173000	33.57529000
82.99999524	0.00000000	76.31644000	31.20078000
83.19999523	0.00000000	74.40945000	28.88164000
83.39999522	0.00000000	73.20374000	27.39296000
83.59999521	0.00000000	72.82849000	27.34990000
83.79999520	0.00000000	73.20374000	28.55561000
83.99999518	0.00000000	74.36023000	30.88090000
84.19999517	0.00000000	75.85506000	34.36269000
84.39999516	0.00000000	77.01156000	37.85064000
84.59999515	0.00000000	77.43602000	40.96333000
84.79999514	0.00000000	77.47908000	43.28247000
84.99999512	0.00000000	77.47908000	44.03297000
85.19999511	0.00000000	77.43602000	43.23941000
85.39999510	0.00000000	77.10384000	40.50196000
85.59999509	0.00000000	76.73474000	36.26968000
85.79999508	0.00000000	77.10384000	31.66830000
85.99999506	0.00000000	77.43602000	27.81127000
86.19999505	0.00000000	77.43602000	25.90428000
86.39999504	0.00000000	77.06077000	26.23647000
86.59999503	0.00000000	76.27337000	28.55561000
86.79999502	0.00000000	75.47981000	32.08661000
86.99999501	0.00000000	74.36023000	36.73105000
87.19999499	0.00000000	73.62204000	41.65846000
87.39999498	0.00000000	73.94193000	44.72810000
87.59999497	0.00000000	74.36023000	45.14640000
87.79999496	0.00000000	75.20300000	43.23941000
87.99999495	0.00000000	77.06077000	39.38238000
88.19999493	0.00000000	78.54945000	34.78100000
88.39999492	0.00000000	79.01697000	30.51181000
88.59999491	0.00000000	79.01697000	27.44217000
88.79999490	0.00000000	78.59251000	26.27953000
88.99999489	0.00000000	77.43602000	27.48524000
89.19999487	0.00000000	75.89813000	30.93012000
89.39999486	0.00000000	74.40945000	35.89444000
89.59999485	0.00000000	73.62204000	40.50196000
89.79999484	0.00000000	73.94193000	43.61467000
89.99999483	0.00000000	74.31717000	44.72810000
90.19999482	0.00000000	74.78469000	43.19635000
90.39999480	0.00000000	75.89813000	39.33932000
90.59999479	0.00000000	77.01156000	34.36269000
90.79999478	0.00000000	77.43602000	29.34916000
90.99999477	0.00000000	77.43602000	25.95349000
91.19999476	0.00000000	77.06077000	25.12303000
91.39999474	0.00000000	76.31644000	27.06693000
91.59999473	0.00000000	75.94118000	30.88090000
91.79999472	0.00000000	75.94118000	35.89444000
91.99999471	0.00000000	76.31644000	40.45275000
92.19999470	0.00000000	77.01156000	43.19635000
92.39999468	0.00000000	77.01156000	43.56545000
92.59999467	0.00000000	76.31644000	41.65846000
92.79999466	0.00000000	75.89813000	37.75836000
92.99999465	0.00000000	75.43060000	32.82480000
93.19999464	0.00000000	74.31717000	28.23573000
93.39999463	0.00000000	73.20374000	25.90428000
93.59999461	0.00000000	72.82849000	25.86122000
93.79999460	0.00000000	73.20374000	27.81127000
93.99999459	0.00000000	74.40945000	31.66830000
94.19999458	0.00000000	76.31644000	36.22662000
94.39999457	0.00000000	78.64173000	40.07751000
94.59999455	0.00000000	80.54871000	41.99065000
94.79999454	0.00000000	81.71136000	41.65846000
94.99999453	0.00000000	81.66830000	39.33932000
95.19999452	0.00000000	80.13041000	35.89444000
95.39999451	0.00000000	77.43602000	32.04355000
95.59999449	0.00000000	74.31717000	29.01698000
95.79999448	0.00000000	71.24754000	27.81127000
95.99999447	0.00000000	68.92224000	28.59867000
96.19999446	0.00000000	68.17175000	30.88090000
96.39999445	0.00000000	68.96530000	34.31963000
96.59999444	0.00000000	71.70891000	37.38312000
96.79999442	0.00000000	75.89813000	39.33932000
96.99999441	0.00000000	80.13041000	40.12672000
97.19999440	0.00000000	83.24926000	39.38238000
97.39999439	0.00000000	84.83022000	37.85064000
97.59999438	0.00000000	84.78715000	35.89444000
97.79999436	0.00000000	82.87401000	33.61835000
97.99999435	0.00000000	79.39222000	32.08661000
98.19999434	0.00000000	75.56593000	31.66830000
98.39999433	0.00000000	71.99188000	31.99434000
98.59999432	0.00000000	69.33440000	32.78174000
98.79999430	0.00000000	67.75959000	33.57529000
98.99999429	0.00000000	68.21481000	34.73794000
99.19999428	0.00000000	70.46014000	35.85138000
99.39999427	0.00000000	73.98499000	36.26968000
99.59999426	0.00000000	77.81126000	36.31274000
99.79999425	0.00000000	81.29305000	36.35580000
99.99999423	0.00000000	83.24926000	36.73105000
100.19999422	0.00000000	83.66756000	37.47539000
100.39999421	0.00000000	82.87401000	37.85064000
100.59999420	0.00000000	80.54871000	37.85064000
100.79999419	0.00000000	77.52214000	37.42618000
100.99999417	0.00000000	74.73548000	36.26968000
101.19999416	0.00000000	72.40403000	34.73794000
101.39999415	0.00000000	70.46014000	33.15699000
101.59999414	0.00000000	69.75270000	31.66830000
101.79999413	0.00000000	70.46014000	30.93012000
101.99999411	0.00000000	72.40403000	31.71137000
102.19999410	0.00000000	74.69241000	33.61835000
102.39999409	0.00000000	77.06077000	36.31274000
102.59999408	0.00000000	79.01697000	39.00713000
102.79999407	0.00000000	80.54871000	40.92027000
102.99999406	0.00000000	81.29305000	41.70152000
103.19999404	0.00000000	80.54871000	40.92027000
103.39999403	0.00000000	79.06004000	39.00713000
103.59999402	0.00000000	77.47908000	36.26968000
103.79999401	0.00000000	75.89813000	33.20005000
103.99999400	0.00000000	74.36023000	30.51181000
104.19999398	0.00000000	73.20374000	28.97392000
104.39999397	0.00000000	72.82849000	28.97392000
104.59999396	0.00000000	73.20374000	30.51181000
104.79999395	0.00000000	74.36023000	33.20005000
104.99999394	0.00000000	75.89813000	36.26968000
105.19999392	0.00000000	77.43602000	38.96407000
105.39999391	0.00000000	78.59251000	40.50196000
105.59999390	0.00000000	78.96776000	40.54502000
105.79999389	0.00000000	78.59251000	39.38238000
105.99999388	0.00000000	77.47908000	37.43233000
106.19999387	0.00000000	76.31644000	34.73794000
106.39999385	0.00000000	75.52288000	32.08661000
106.59999384	0.00000000	74.73548000	30.55487000
106.79999383	0.00000000	74.40945000	30.51181000
106.99999382	0.00000000	74.73548000	31.66830000
107.19999381	0.00000000	75.52288000	33.57529000
107.39999379	0.00000000	76.27337000	35.85138000
107.59999378	0.00000000	77.06077000	37.38312000
107.79999377	0.00000000	77.43602000	37.80142000
107.99999376	0.00000000	77.43602000	37.42618000
108.19999375	0.00000000	77.01156000	36.22662000
108.39999374	0.00000000	75.85506000	34.31963000
108.59999372	0.00000000	74.36023000	32.04355000
108.79999371	0.00000000	73.24680000	30.55487000
108.99999370	0.00000000	73.20374000	30.51181000
109.19999369	0.00000000	73.94193000	31.62524000
109.39999368	0.00000000	74.73548000	33.15699000
109.59999366	0.00000000	75.89813000	34.73794000
109.79999365	0.00000000	77.06077000	36.26968000
109.99999364	0.00000000	77.81126000	37.42618000
110.19999363	0.00000000	78.17421000	37.75836000
110.39999362	0.00000000	77.43602000	37.05708000
110.59999360	0.00000000	76.36565000	35.53149000
110.79999359	0.00000000	75.89813000	34.36269000
110.99999358	0.00000000	75.47981000	33.15699000
111.19999357	0.00000000	74.73548000	32.04355000
111.39999356	0.00000000	74.36023000	31.66830000
111.59999355	0.00000000	74.36023000	31.99434000
111.79999353	0.00000000	74.73548000	32.78174000
111.99999352	0.00000000	75.52288000	33.57529000
112.19999351	0.00000000	76.27337000	34.73794000
112.39999350	0.00000000	77.06077000	35.89444000
112.59999349	0.00000000	77.43602000	36.64493000
112.79999347	0.00000000	77.47908000	37.05708000
112.99999346	0.00000000	77.43602000	36.68799000
113.19999345	0.00000000	77.06077000	36.35580000
113.39999344	0.00000000	76.31644000	36.26968000
113.59999343	0.00000000	75.94118000	35.89444000
113.79999341	0.00000000	75.89813000	35.15625000
113.99999340	0.00000000	75.85506000	34.78100000
114.19999339	0.00000000	75.52288000	34.73794000
114.39999338	0.00000000	75.15379000	34.73794000
114.59999337	0.00000000	75.52288000	34.73794000
114.79999336	0.00000000	75.85506000	34.73794000
114.99999334	0.00000000	75.89813000	34.73794000
115.19999333	0.00000000	75.94118000	34.73794000
115.39999332	0.00000000	76.31644000	34.73794000
115.59999331	0.00000000	77.06077000	34.78100000
115.79999330	0.00000000	77.43602000	35.15625000
115.99999328	0.00000000	77.43602000	35.93750000
116.19999327	0.00000000	77.06077000	36.68799000
116.39999326	0.00000000	76.31644000	37.47539000
116.59999325	0.00000000	75.94118000	37.80142000
116.79999324	0.00000000	75.89813000	37.47539000
116.99999322	0.00000000	75.89813000	36.68799000
117.19999321	0.00000000	75.94118000	35.89444000
117.39999320	0.00000000	76.31644000	34.73794000
117.59999319	0.00000000	77.06077000	33.62450000
117.79999318	0.00000000	77.47908000	33.20005000
117.99999317	0.00000000	77.85432000	33.15699000
118.19999315	0.00000000	78.22342000	33.20005000
118.39999314	0.00000000	77.81126000	33.62450000
118.59999313	0.00000000	77.10384000	34.73794000
118.79999312	0.00000000	76.27337000	35.85138000
118.99999311	0.00000000	75.52288000	36.31274000
119.19999309	0.00000000	74.69241000	36.68799000
119.39999308	0.00000000	73.98499000	37.05708000
119.59999307	0.00000000	73.62204000	36.68799000
119.79999306	0.00000000	74.40945000	36.31274000
119.99999305	0.00000000	75.89813000	35.89444000
120.19999303	0.00000000	77.43602000	35.15625000
120.39999302	0.00000000	78.59251000	34.73794000
120.59999301	0.00000000	79.01697000	34.31963000
120.79999300	0.00000000	79.01697000	33.57529000
120.99999299	0.00000000	78.59251000	33.20005000
121.19999298	0.00000000	77.47908000	33.20005000
121.39999296	0.00000000	76.31644000	33.57529000
121.59999295	0.00000000	75.47981000	34.31963000
121.79999294	0.00000000	74.31717000	34.69488000
121.99999293	0.00000000	73.20374000	34.73794000
122.19999292	0.00000000	72.82849000	34.78100000
122.39999290	0.00000000	73.20374000	35.15625000
122.59999289	0.00000000	74.36023000	35.89444000
122.79999288	0.00000000	75.85506000	36.26968000
122.99999287	0.00000000	77.06077000	36.31274000
123.19999286	0.00000000	77.85432000	36.26968000
123.39999284	0.00000000	78.59251000	35.89444000
123.59999283	0.00000000	78.59251000	35.15625000
123.79999282	0.00000000	77.89738000	34.73794000
123.99999281	0.00000000	77.47908000	34.31963000
124.19999280	0.00000000	77.06077000	33.57529000
124.39999279	0.00000000	76.27337000	33.20005000
124.59999277	0.00000000	75.52288000	33.15699000
124.79999276	0.00000000	74.73548000	33.20005000
124.99999275	0.00000000	74.36023000	33.57529000
125.19999274	0.00000000	74.31717000	34.36269000
125.39999273	0.00000000	74.36023000	35.11319000
125.59999271	0.00000000	74.78469000	35.89444000
125.79999270	0.00000000	75.89813000	36.26968000
125.99999269	0.00000000	77.01156000	36.31274000
126.19999268	0.00000000	77.47908000	36.26968000
126.39999267	0.00000000	77.89738000	35.89444000
126.59999265	0.00000000	78.59251000	35.15625000
126.79999264	0.00000000	78.59251000	34.78100000
126.99999263	0.00000000	77.85432000	34.73794000
127.19999262	0.00000000	77.06077000	34.69488000
127.39999261	0.00000000	75.89813000	34.36269000
127.59999260	0.00000000	74.78469000	33.99360000
127.79999258	0.00000000	74.36023000	34.36269000
127.99999257	0.00000000	74.36023000	34.69488000
128.19999256	0.00000000	74.73548000	34.78100000
128.39999255	0.00000000	75.52288000	35.15625000
128.59999254	0.00000000	76.27337000	35.85138000
128.79999252	0.00000000	77.10384000	35.89444000
128.99999251	0.00000000	77.85432000	35.53149000
129.19999250	0.00000000	78.59251000	35.51919000
129.39999249	0.00000000	78.59251000	35.11319000
129.59999248	0.00000000	77.81126000	34.78100000
129.79999246	0.00000000	76.68553000	34.73794000
129.99999245	0.00000000	75.15379000	34.73794000
130.19999244	0.00000000	74.40945000	34.73794000
130.39999243	0.00000000	74.36023000	34.73794000
130.59999242	0.00000000	74.73548000	34.78100000
130.79999241	0.00000000	75.52288000	35.15625000
130.99999239	0.00000000	76.27337000	35.89444000
131.19999238	0.00000000	77.10384000	36.26968000
131.39999237	0.00000000	77.81126000	36.26968000
131.59999236	0.00000000	78.22342000	35.89444000
131.79999235	0.00000000	77.85432000	35.15625000
131.99999233	0.00000000	77.47908000	34.78100000
132.19999232	0.00000000	77.01156000	34.73794000
132.39999231	0.00000000	75.94118000	34.73794000
132.59999230	0.00000000	75.20300000	34.73794000
132.79999229	0.00000000	75.52288000	34.78100000
132.99999227	0.00000000	75.85506000	35.15625000
133.19999226	0.00000000	75.94118000	35.93750000
133.39999225	0.00000000	76.31644000	36.64493000
133.59999224	0.00000000	77.06077000	37.05708000
133.79999223	0.00000000	77.38681000	36.68799000
133.99999222	0.00000000	77.06077000	36.31274000
134.19999220	0.00000000	76.31644000	35.89444000
134.39999219	0.00000000	75.99039000	35.11319000
134.59999218	0.00000000	76.31644000	34.36269000
134.79999217	0.00000000	77.06077000	33.57529000
134.99999216	0.00000000	77.43602000	33.20005000
135.19999214	0.00000000	77.47908000	33.20005000
135.39999213	0.00000000	77.47908000	33.57529000
135.59999212	0.00000000	77.43602000	34.36269000
135.79999211	0.00000000	77.06077000	35.11319000
135.99999210	0.00000000	76.31644000	35.89444000
136.19999208	0.00000000	75.89813000	36.31274000
136.39999207	0.00000000	75.47981000	36.68799000
136.59999206	0.00000000	74.78469000	37.05708000
136.79999205	0.00000000	74.78469000	36.64493000
136.99999204	0.00000000	75.52288000	35.93750000
137.19999203	0.00000000	76.27337000	35.11319000
137.39999201	0.00000000	77.06077000	34.36269000
137.59999200	0.00000000	77.43602000	33.57529000
137.79999199	0.00000000	77.47908000	33.20005000
137.99999198	0.00000000	77.43602000	33.15699000
138.19999197	0.00000000	77.06077000	33.15699000
138.39999195	0.00000000	76.31644000	33.20005000
138.59999194	0.00000000	75.89813000	33.57529000
138.79999193	0.00000000	75.47981000	34.36269000
138.99999192	0.00000000	74.73548000	35.11319000
139.19999191	0.00000000	74.40945000	35.89444000
139.39999189	0.00000000	74.73548000	36.26968000
139.59999188	0.00000000	75.47981000	36.26968000
139.79999187	0.00000000	75.89813000	35.89444000
139.99999186	0.00000000	76.31644000	35.15625000
140.19999185	0.00000000	77.06077000	34.73794000
140.39999184	0.00000000	77.43602000	34.31963000
140.59999182	0.00000000	77.43602000	33.57529000
140.79999181	0.00000000	77.06077000	33.20005000
140.99999180	0.00000000	76.31644000	33.15699000
141.19999179	0.00000000	75.94118000	33.15699000
141.39999178	0.00000000	75.89813000	33.20005000
141.59999176	0.00000000	75.89813000	33.62450000
141.79999175	0.00000000	75.89813000	34.73794000
141.99999174	0.00000000	75.94118000	35.85138000
142.19999173	0.00000000	76.31644000	36.31274000
142.39999172	0.00000000	77.06077000	36.68799000
142.59999170	0.00000000	77.38681000	37.00787000
142.79999169	0.00000000	77.06077000	36.26968000
142.99999168	0.00000000	76.31644000	35.15625000
143.19999167	0.00000000	75.94118000	34.36269000
143.39999166	0.00000000	75.89813000	33.57529000
143.59999165	0.00000000	75.89813000	33.20005000
143.79999163	0.00000000	75.89813000	33.20005000
143.99999162	0.00000000	75.94118000	33.57529000
144.19999161	0.00000000	76.31644000	34.36269000
144.39999160	0.00000000	77.06077000	35.11319000
144.59999159	0.00000000	77.43602000	35.89444000
144.79999157	0.00000000	77.47908000	36.26968000
144.99999156	0.00000000	77.47908000	36.31274000
145.19999155	0.00000000	77.47908000	36.31274000
145.39999154	0.00000000	77.43602000	36.26968000
145.59999153	0.00000000	77.06077000	35.89444000
145.79999151	0.00000000	76.31644000	35.15625000
145.99999150	0.00000000	75.94118000	34.78100000
146.19999149	0.00000000	75.89813000	34.73794000
146.39999148	0.00000000	75.94118000	34.73794000
146.59999147	0.00000000	76.31644000	34.73794000
146.79999146	0.00000000	77.06077000	34.78100000
146.99999144	0.00000000	77.43602000	35.15625000
147.19999143	0.00000000	77.47908000	35.89444000
147.39999142	0.00000000	77.47908000	36.26968000
147.59999141	0.00000000	77.43602000	36.31274000
147.79999140	0.00000000	77.06077000	36.31274000
147.99999138	0.00000000	76.31644000	36.31274000
148.19999137	0.00000000	75.94118000	36.31274000
148.39999136	0.00000000	75.89813000	36.26968000
148.59999135	0.00000000	75.89813000	35.89444000
148.79999134	0.00000000	75.94118000	35.15625000
148.99999132	0.00000000	76.31644000	34.78100000
149.19999131	0.00000000	77.06077000	34.73794000
149.39999130	0.00000000	77.43602000	34.73794000
149.59999129	0.00000000	77.47908000	34.78100000
149.79999128	0.00000000	77.47908000	35.15625000
149.99999127	0.00000000	77.47908000	35.89444000
150.19999125	0.00000000	77.47908000	36.26968000
150.39999124	0.00000000	77.47908000	36.31274000
150.59999123	0.00000000	77.43602000	36.31274000
150.79999122	0.00000000	77.06077000	36.31274000
150.99999121	0.00000000	76.31644000	36.26968000
151.19999119	0.00000000	75.94118000	35.89444000
151.39999118	0.00000000	75.89813000	35.15625000
151.59999117	0.00000000	75.89813000	34.78100000
151.79999116	0.00000000	75.89813000	34.73794000
151.99999115	0.00000000	75.94118000	34.73794000
152.19999113	0.00000000	76.31644000	34.73794000
152.39999112	0.00000000	77.06077000	34.73794000
152.59999111	0.00000000	77.43602000	34.73794000
152.79999110	0.00000000	77.47908000	34.73794000
152.99999109	0.00000000	77.47908000	34.73794000
153.19999108	0.00000000	77.43602000	34.73794000
153.39999106	0.00000000	77.06077000	34.73794000
153.59999105	0.00000000	76.31644000	34.73794000
153.79999104	0.00000000	75.94118000	34.73794000
153.99999103	0.00000000	75.89813000	34.73794000
154.19999102	0.00000000	75.89813000	34.73794000
154.39999100	0.00000000	75.89813000	34.73794000
154.59999099	0.00000000	75.89813000	34.73794000
154.79999098	0.00000000	75.89813000	34.73794000
154.99999097	0.00000000	75.94118000	34.73794000
155.19999096	0.00000000	76.31644000	34.73794000
155.39999094	0.00000000	77.06077000	34.73794000
155.59999093	0.00000000	77.43602000	34.73794000
155.79999092	0.00000000	77.47908000	34.73794000
155.99999091	0.00000000	77.47908000	34.73794000
156.19999090	0.00000000	77.43602000	34.78100000
156.39999089	0.00000000	77.06077000	35.15625000
156.59999087	0.00000000	76.31644000	35.89444000
156.79999086	0.00000000	75.94118000	36.26968000
156.99999085	0.00000000	75.89813000	36.31274000
157.19999084	0.00000000	75.89813000	36.31274000
157.39999083	0.00000000	75.89813000	36.31274000
157.59999081	0.00000000	75.94118000	36.26968000
157.79999080	0.00000000	76.31644000	35.89444000
157.99999079	0.00000000	77.06077000	35.15625000
158.19999078	0.00000000	77.43602000	34.78100000
158.39999077	0.00000000	77.47908000	34.73794000
158.59999075	0.00000000	77.47908000	34.73794000
158.79999074	0.00000000	77.47908000	34.73794000
158.99999073	0.00000000	77.47908000	34.78100000
159.19999072	0.00000000	77.43602000	35.15625000
159.39999071	0.00000000	77.06077000	35.89444000
159.59999070	0.00000000	76.31644000	36.26968000
159.79999068	0.00000000	75.94118000	36.31274000
159.99999067	0.00000000	75.89813000	36.31274000
160.19999066	0.00000000	75.89813000	36.31274000
160.39999065	0.00000000	75.89813000	36.26968000
160.59999064	0.00000000	75.94118000	35.89444000
160.79999062	0.00000000	76.27337000	35.15625000
160.99999061	0.00000000	76.64246000	34.78100000
161.19999060	0.00000000	76.31644000	34.69488000
161.39999059	0.00000000	76.36565000	34.36269000
161.59999058	0.00000000	77.06077000	33.99360000
161.79999056	0.00000000	77.43602000	34.40575000
161.99999055	0.00000000	77.47908000	35.11319000
162.19999054	0.00000000	77.47908000	35.89444000
162.39999053	0.00000000	77.47908000	36.26968000
162.59999052	0.00000000	77.43602000	36.31274000
162.79999051	0.00000000	77.06077000	36.31274000
162.99999049	0.00000000	76.31644000	36.26968000
163.19999048	0.00000000	75.94118000	35.89444000
163.39999047	0.00000000	75.89813000	35.15625000
163.59999046	0.00000000	75.89813000	34.78100000
163.79999045	0.00000000	75.89813000	34.73794000
163.99999043	0.00000000	75.94118000	34.73794000
164.19999042	0.00000000	76.31644000	34.73794000
164.39999041	0.00000000	77.06077000	34.73794000
164.59999040	0.00000000	77.43602000	34.73794000
164.79999039	0.00000000	77.47908000	34.73794000
164.99999037	0.00000000	77.47908000	34.73794000
165.19999036	0.00000000	77.47908000	34.73794000
165.39999035	0.00000000	77.47908000	34.73794000
165.59999034	0.00000000	77.47908000	34.78100000
165.79999033	0.00000000	77.43602000	35.15625000
165.99999032	0.00000000	77.06077000	35.85138000
166.19999030	0.00000000	76.31644000	35.85138000
166.39999029	0.00000000	75.94118000	35.15625000
166.59999028	0.00000000	75.89813000	34.78100000
166.79999027	0.00000000	75.89813000	34.73794000
166.99999026	0.00000000	75.94118000	34.78100000
167.19999024	0.00000000	76.31644000	35.11319000
167.39999023	0.00000000	77.06077000	35.47613000
167.59999022	0.00000000	77.43602000	35.11319000
167.79999021	0.00000000	77.47908000	34.78100000
167.99999020	0.00000000	77.47908000	34.73794000
168.19999018	0.00000000	77.47908000	34.73794000
168.39999017	0.00000000	77.47908000	34.73794000
168.59999016	0.00000000	77.47908000	34.73794000
168.79999015	0.00000000	77.43602000	34.73794000
168.99999014	0.00000000	77.06077000	34.73794000
169.19999013	0.00000000	76.31644000	34.73794000
169.39999011	0.00000000	75.94118000	34.73794000
169.59999010	0.00000000	75.94118000	34.73794000
169.79999009	0.00000000	76.27337000	34.73794000
169.99999008	0.00000000	76.68553000	34.73794000
170.19999007	0.00000000	76.64862000	34.73794000
170.39999005	0.00000000	76.72858000	34.73794000
170.59999004	0.00000000	76.64862000	34.73794000
170.79999003	0.00000000	76.72858000	34.73794000
170.99999002	0.00000000	76.69167000	34.73794000
171.19999001	0.00000000	77.10384000	34.73794000
171.39998999	0.00000000	77.43602000	34.73794000
171.59998998	0.00000000	77.47908000	34.73794000
171.79998997	0.00000000	77.43602000	34.73794000
171.99998996	0.00000000	77.06077000	34.73794000
172.19998995	0.00000000	76.36565000	34.73794000
172.39998994	0.00000000	76.36565000	34.73794000
172.59998992	0.00000000	77.06077000	34.73794000
172.79998991	0.00000000	77.38681000	34.73794000
172.99998990	0.00000000	77.06077000	34.73794000
173.19998989	0.00000000	76.36565000	34.73794000
173.39998988	0.00000000	76.36565000	34.73794000
173.59998986	0.00000000	77.06077000	34.73794000
173.79998985	0.00000000	77.43602000	34.73794000
173.99998984	0.00000000	77.47908000	34.73794000
174.19998983	0.00000000	77.47908000	34.73794000
174.39998982	0.00000000	77.47908000	34.78100000
174.59998980	0.00000000	77.43602000	35.11319000
174.79998979	0.00000000	77.10384000	35.47613000
174.99998978	0.00000000	76.69167000	35.11319000
175.19998977	0.00000000	76.72858000	34.78100000
175.39998976	0.00000000	76.69167000	34.73794000
175.59998975	0.00000000	77.10384000	34.73794000
175.79998973	0.00000000	77.43602000	34.73794000
175.99998972	0.00000000	77.47908000	34.73794000
176.19998971	0.00000000	77.47908000	34.73794000
176.39998970	0.00000000	77.47908000	34.78100000
176.59998969	0.00000000	77.47908000	35.11319000
176.79998967	0.00000000	77.47908000	35.51919000
176.99998966	0.00000000	77.47908000	35.53149000
177.19998965	0.00000000	77.47908000	35.89444000
177.39998964	0.00000000	77.47908000	35.89444000
177.59998963	0.00000000	77.47908000	35.57455000
177.79998961	0.00000000	77.47908000	35.93750000
177.99998960	0.00000000	77.47908000	36.22047000
178.19998959	0.00000000	77.47908000	35.93750000
178.39998958	0.00000000	77.47908000	35.57455000
178.59998957	0.00000000	77.47908000	35.93750000
178.79998956	0.00000000	77.47908000	36.26968000
178.99998954	0.00000000	77.47908000	36.31274000
179.19998953	0.00000000	77.47908000	36.31274000
179.39998952	0.00000000	77.47908000	36.26968000
179.59998951	0.00000000	77.47908000	35.89444000
179.79998950	0.00000000	77.47908000	35.15625000
179.99998948	0.00000000	77.47908000	34.78100000
180.19998947	0.00000000	77.47908000	34.73794000
180.39998946	0.00000000	77.47908000	34.73794000
180.59998945	0.00000000	77.47908000	34.73794000
180.79998944	0.00000000	77.47908000	34.78100000
180.99998942	0.00000000	77.47908000	35.15625000
181.19998941	0.00000000	77.47908000	35.89444000
181.39998940	0.00000000	77.43602000	36.26968000
181.59998939	0.00000000	77.10384000	36.31274000
181.79998938	0.00000000	76.73474000	36.31274000
181.99998937	0.00000000	77.10384000	36.31274000
182.19998935	0.00000000	77.43602000	36.26968000
182.39998934	0.00000000	77.47908000	35.89444000
182.59998933	0.00000000	77.47908000	35.15625000
182.79998932	0.00000000	77.47908000	34.78100000
182.99998931	0.00000000	77.47908000	34.73794000
183.19998929	0.00000000	77.43602000	34.73794000
183.39998928	0.00000000	77.10384000	34.73794000
183.59998927	0.00000000	76.73474000	34.73794000
183.79998926	0.00000000	77.06077000	34.73794000
183.99998925	0.00000000	77.06077000	34.73794000
184.19998923	0.00000000	76.73474000	34.78100000
184.39998922	0.00000000	77.06077000	35.15625000
184.59998921	0.00000000	77.06077000	35.85138000
184.79998920	0.00000000	76.73474000	35.85138000
184.99998919	0.00000000	77.10384000	35.15625000
185.19998918	0.00000000	77.43602000	34.78100000
185.39998916	0.00000000	77.47908000	34.73794000
185.59998915	0.00000000	77.47908000	34.69488000
185.79998914	0.00000000	77.47908000	34.31963000
185.99998913	0.00000000	77.47908000	33.62450000
186.19998912	0.00000000	77.47908000	33.57529000
186.39998910	0.00000000	77.47908000	33.94439000
186.59998909	0.00000000	77.47908000	33.95054000
186.79998908	0.00000000	77.43602000	34.36269000
186.99998907	0.00000000	77.06077000	34.73794000
187.19998906	0.00000000	76.31644000	35.11319000
187.39998904	0.00000000	75.94118000	35.47613000
187.59998903	0.00000000	75.89813000	35.11319000
187.79998902	0.00000000	75.89813000	34.78100000
187.99998901	0.00000000	75.94118000	34.73794000
188.19998900	0.00000000	76.31644000	34.73794000
188.39998899	0.00000000	77.06077000	34.73794000
188.59998897	0.00000000	77.43602000	34.73794000
188.79998896	0.00000000	77.47908000	34.73794000
188.99998895	0.00000000	77.47908000	34.73794000
189.19998894	0.00000000	77.47908000	34.73794000
189.39998893	0.00000000	77.47908000	34.73794000
189.59998891	0.00000000	77.47908000	34.73794000
189.79998890	0.00000000	77.47908000	34.73794000
189.99998889	0.00000000	77.43602000	34.73794000
190.19998888	0.00000000	77.10384000	34.78100000
190.39998887	0.00000000	76.73474000	35.15625000
190.59998885	0.00000000	77.10384000	35.89444000
190.79998884	0.00000000	77.43602000	36.26968000
190.99998883	0.00000000	77.47908000	36.31274000
191.19998882	0.00000000	77.47908000	36.26968000
191.39998881	0.00000000	77.47908000	35.93750000
191.59998880	0.00000000	77.47908000	35.57455000
191.79998878	0.00000000	77.47908000	35.93750000
191.99998877	0.00000000	77.47908000	36.22047000
192.19998876	0.00000000	77.47908000	35.93750000
192.39998875	0.00000000	77.47908000	35.53149000
192.59998874	0.00000000	77.47908000	35.51919000
192.79998872	0.00000000	77.47908000	35.15625000
192.99998871	0.00000000	77.47908000	35.19931000
193.19998870	0.00000000	77.47908000	35.89444000
193.39998869	0.00000000	77.47908000	36.26968000
193.59998868	0.00000000	77.47908000	36.31274000
193.79998866	0.00000000	77.47908000	36.31274000
193.99998865	0.00000000	77.47908000	36.31274000
194.19998864	0.00000000	77.47908000	36.31274000
194.39998863	0.00000000	77.47908000	36.31274000
194.59998862	0.00000000	77.47908000	36.31274000
194.79998861	0.00000000	77.47908000	36.26968000
194.99998859	0.00000000	77.47908000	35.93750000
195.19998858	0.00000000	77.47908000	35.53149000
195.39998857	0.00000000	77.47908000	35.51919000
195.59998856	0.00000000	77.47908000	35.11319000
195.79998855	0.00000000	77.47908000	34.78100000
195.99998853	0.00000000	77.47908000	34.73794000
