Time	Channel A	Channel B	Channel C
(us)	(V)	(mV)	(mV)

-4.49999956	0.00000000	-45.85384000	-23.68356000
-4.29999957	0.00000000	-45.81078000	-23.68356000
-4.09999958	0.00000000	-45.47859000	-23.68356000
-3.89999959	0.00000000	-45.10950000	-23.68356000
-3.69999960	0.00000000	-45.47859000	-23.68356000
-3.49999962	0.00000000	-45.81078000	-23.68356000
-3.29999963	0.00000000	-45.85384000	-23.68356000
-3.09999964	0.00000000	-45.85384000	-23.68356000
-2.89999965	0.00000000	-45.85384000	-23.68356000
-2.69999966	0.00000000	-45.85384000	-23.68356000
-2.49999968	0.00000000	-45.85384000	-23.68356000
-2.29999969	0.00000000	-45.85384000	-23.68356000
-2.09999970	0.00000000	-45.85384000	-23.68356000
-1.89999971	0.00000000	-45.85384000	-23.68356000
-1.69999972	0.00000000	-45.85384000	-23.68356000
-1.49999973	0.00000000	-45.81078000	-23.68356000
-1.29999975	0.00000000	-45.47859000	-23.68356000
-1.09999976	0.00000000	-45.06644000	-23.68356000
-0.89999977	0.00000000	-45.10334000	-23.68356000
-0.69999978	0.00000000	-45.06644000	-23.68356000
-0.49999979	0.00000000	-45.47859000	-23.68356000
-0.29999981	0.15871060	-45.81078000	-23.68356000
-0.09999982	0.63668800	-45.85384000	-23.68356000
0.10000017	0.95533960	-45.85384000	-23.68356000
0.30000016	0.95533960	-45.81078000	-23.68356000
0.50000015	0.95533960	-45.47859000	-23.68356000
0.70000013	0.47736220	-45.10950000	-23.68356000
0.90000012	-0.31803640	-45.47859000	-23.68356000
1.10000011	-1.27399100	-45.81078000	-23.68356000
1.30000010	-2.22994600	-45.85384000	-23.68356000
1.50000009	-2.70792300	-45.81078000	-23.64050000
1.70000008	-2.54859700	-45.43553000	-23.26525000
1.90000006	-1.59264300	-44.74040000	-22.52091000
2.10000005	0.15871060	-44.74040000	-22.19488000
2.30000004	2.22994600	-45.43553000	-22.52091000
2.50000003	4.14124000	-45.76156000	-23.26525000
2.70000002	5.25652100	-45.47859000	-23.64050000
2.90000000	5.09719500	-45.10950000	-23.68356000
3.09999999	3.34522600	-45.47859000	-23.68356000
3.29999998	0.47736220	-45.81078000	-23.68356000
3.49999997	-2.86724900	-45.85384000	-23.68356000
3.69999996	-5.89382400	-45.85384000	-23.68356000
3.89999994	-7.80511800	-45.81078000	-23.64050000
4.09999993	-7.64579200	-45.47859000	-23.26525000
4.29999992	-5.57517200	-45.10950000	-22.57013000
4.49999991	-1.91129400	-45.47859000	-22.57013000
4.69999990	2.38927200	-45.81078000	-23.21604000
4.89999989	6.53112700	-45.85384000	-23.26525000
5.09999987	9.07972400	-45.85384000	-22.93922000
5.29999986	9.23905000	-45.85384000	-23.35138000
5.49999985	7.16781500	-45.85384000	-24.05881000
5.69999984	3.34522600	-45.85384000	-24.84621000
5.89999983	-1.43331700	-45.85384000	-25.17224000
6.09999981	-5.89382400	-45.85384000	-24.84621000
6.29999980	-8.76107300	-45.85384000	-24.10187000
6.49999979	-9.39837600	-45.81078000	-23.68356000
6.69999978	-7.80511800	-45.47859000	-23.30832000
6.89999977	-4.30056600	-45.10950000	-22.93922000
7.09999975	0.15871060	-45.47859000	-23.30832000
7.29999974	4.30056600	-45.81078000	-23.68356000
7.49999973	6.84916400	-45.85384000	-24.05881000
7.69999972	7.80511800	-45.85384000	-24.47096000
7.89999971	6.69045300	-45.85384000	-24.47712000
8.09999970	3.98191400	-45.85384000	-24.84621000
8.29999968	0.63668800	-45.85384000	-24.79700000
8.49999967	-2.22994600	-45.85384000	-24.10187000
8.69999966	-4.45989200	-45.85384000	-23.72662000
8.89999965	-5.25652100	-45.85384000	-23.68356000
9.09999964	-4.61921700	-45.85384000	-23.68356000
9.29999962	-3.02657500	-45.85384000	-23.68356000
9.49999961	-1.11466500	-45.85384000	-23.72662000
9.69999960	0.79601380	-45.85384000	-24.10187000
9.89999959	2.07062000	-45.85384000	-24.84621000
10.09999958	2.54859700	-45.89690000	-25.22145000
10.29999956	2.22994600	-46.22908000	-25.26452000
10.49999955	1.59264300	-46.59818000	-25.26452000
10.69999954	0.79601380	-46.22908000	-25.22145000
10.89999953	-0.15871060	-45.89690000	-24.88927000
11.09999952	-0.63668800	-45.85384000	-24.52018000
11.29999951	-0.95533960	-45.85384000	-24.88927000
11.49999949	-0.95533960	-45.85384000	-25.22145000
11.69999948	-0.79601380	-45.85384000	-25.22145000
11.89999947	-0.47736220	-45.85384000	-24.88927000
12.09999946	-0.15871060	-45.85384000	-24.47712000
12.29999945	-0.15871060	-45.89690000	-24.47096000
12.49999943	-0.15871060	-46.22908000	-24.05881000
12.69999942	0.00000000	-46.59818000	-23.72662000
12.89999941	0.00000000	-46.22908000	-23.68356000
13.09999940	0.00000000	-45.89690000	-23.68356000
13.29999939	0.00000000	-45.85384000	-23.68356000
13.49999937	0.00000000	-45.85384000	-23.68356000
13.69999936	0.00000000	-45.85384000	-23.68356000
13.89999935	0.00000000	-45.85384000	-23.68356000
14.09999934	-0.15871060	-45.85384000	-23.68356000
14.29999933	-0.15871060	-45.85384000	-23.68356000
14.49999932	-0.15871060	-45.85384000	-23.68356000
14.69999930	-0.15871060	-45.85384000	-23.68356000
14.89999929	0.00000000	-45.85384000	-23.68356000
15.09999928	0.00000000	-45.89690000	-23.68356000
15.29999927	0.00000000	-46.22908000	-23.68356000
15.49999926	0.00000000	-46.59818000	-23.68356000
15.69999924	0.00000000	-46.22908000	-23.68356000
15.89999923	0.00000000	-45.89690000	-23.68356000
16.09999922	0.00000000	-45.85384000	-23.68356000
16.29999921	0.00000000	-45.85384000	-23.68356000
16.49999920	-0.15871060	-45.85384000	-23.68356000
16.69999919	0.00000000	-45.81078000	-23.68356000
16.89999917	-0.15871060	-45.43553000	-23.68356000
17.09999916	0.00000000	-44.69119000	-23.68356000
17.29999915	0.00000000	-44.31594000	-23.68356000
17.49999914	0.00000000	-44.27288000	-23.68356000
17.69999913	0.00000000	-44.31594000	-23.68356000
17.89999911	0.00000000	-44.69119000	-23.68356000
18.09999910	0.00000000	-45.52165000	-23.68356000
18.29999909	0.00000000	-46.69045000	-23.68356000
18.49999908	0.00000000	-48.59744000	-23.68356000
18.69999907	0.00000000	-50.08612000	-23.68356000
18.89999905	0.00000000	-50.55364000	-23.68356000
19.09999904	0.00000000	-50.50443000	-23.68356000
19.29999903	0.00000000	-49.66781000	-23.68356000
19.49999902	0.00000000	-47.29946000	-23.68356000
19.69999901	0.00000000	-43.85457000	-23.68356000
19.89999900	0.00000000	-39.94832000	-23.68356000
20.09999898	0.00000000	-36.50344000	-23.68356000
20.29999897	0.00000000	-34.26427000	-23.68356000
20.49999896	0.00000000	-34.68873000	-23.68356000
20.69999895	0.00000000	-38.21973000	-23.72662000
20.89999894	0.00000000	-44.03912000	-24.05881000
21.09999892	0.00000000	-51.80241000	-24.47096000
21.29999891	0.00000000	-59.48573000	-24.47712000
21.49999890	0.00000000	-65.25590000	-24.88927000
21.69999889	0.00000000	-67.48892000	-25.22145000
21.89999888	0.00000000	-64.74532000	-25.26452000
22.09999886	0.00000000	-57.34498000	-25.26452000
22.29999885	0.00000000	-46.45669000	-25.26452000
22.49999884	0.00000000	-33.71063000	-25.26452000
22.69999883	0.00000000	-22.21334000	-25.22145000
22.89999882	0.00000000	-15.32972000	-24.84621000
23.09999881	0.00000000	-15.37278000	-24.10187000
23.29999879	0.00000000	-22.77313000	-23.72662000
23.49999878	0.00000000	-36.36196000	-23.64050000
23.69999877	0.00000000	-53.75861000	-23.26525000
23.89999876	0.00000000	-71.11835000	-22.52091000
24.09999875	0.00000000	-84.19044000	-22.19488000
24.29999873	0.00000000	-89.49926000	-22.57013000
24.49999872	0.00000000	-84.79945000	-23.72662000
24.69999871	0.00000000	-70.47243000	-25.26452000
24.89999870	0.00000000	-49.62475000	-26.83932000
25.09999869	0.00000000	-26.87008000	-28.37721000
25.29999867	0.00000000	-7.97859100	-29.49065000
25.49999866	0.00000000	2.44217500	-29.49065000
25.69999865	0.00000000	2.02386800	-28.28494000
25.89999864	0.00000000	-9.60875900	-25.95964000
26.09999863	0.00000000	-30.07505000	-22.47785000
26.29999862	0.00000000	-54.78592000	-18.98991000
26.49999860	0.00000000	-77.95890000	-15.87721000
26.69999859	0.00000000	-94.19291000	-13.60113000
26.89999858	0.00000000	-99.96923000	-13.31816000
27.09999857	0.00000000	-93.77460000	-15.69267000
27.29999856	0.00000000	-76.79625000	-21.12451000
27.49999854	0.00000000	-53.24803000	-28.42027000
27.69999853	0.00000000	-28.54330000	-35.75910000
27.89999852	0.00000000	-8.44611200	-41.52312000
28.09999851	0.00000000	2.39911400	-44.17446000
28.29999850	0.00000000	2.06692900	-42.55044000
28.49999848	0.00000000	-9.09817800	-36.36811000
28.69999847	0.00000000	-27.98966000	-26.61786000
28.89999846	0.00000000	-50.04306000	-15.03445000
29.09999845	0.00000000	-70.51550000	-3.52485200
29.29999844	0.00000000	-84.84251000	4.09694900
29.49999843	0.00000000	-89.96062000	5.67790300
29.69999841	0.00000000	-85.77140000	0.98425190
29.89999840	0.00000000	-73.81274000	-9.51033400
30.09999839	0.00000000	-56.83440000	-24.15108000
30.29999838	0.00000000	-39.05635000	-39.57308000
30.49999837	0.00000000	-24.26181000	-51.98080000
30.69999835	0.00000000	-14.91142000	-59.27657000
30.89999834	0.00000000	-12.21087000	-59.59645000
31.09999833	0.00000000	-16.82456000	-51.84547000
31.29999832	0.00000000	-27.61442000	-37.94907000
31.49999831	0.00000000	-41.52928000	-20.57087000
31.69999829	0.00000000	-55.85630000	-3.56791300
31.89999828	0.00000000	-67.44586000	9.16584600
32.09999827	0.00000000	-73.67741000	15.33587000
32.29999826	0.00000000	-73.72662000	13.01673000
32.49999825	0.00000000	-67.99950000	2.98351400
32.69999824	0.00000000	-58.36614000	-12.48770000
32.89999822	0.00000000	-47.52707000	-30.60408000
33.09999821	0.00000000	-37.43233000	-46.86885000
33.29999820	0.00000000	-30.07505000	-58.11392000
33.49999819	0.00000000	-26.95620000	-62.70915000
33.69999818	0.00000000	-28.49409000	-58.85826000
33.89999816	0.00000000	-34.22121000	-47.74852000
34.09999815	0.00000000	-42.31668000	-32.60334000
34.29999814	0.00000000	-50.41830000	-15.96949000
34.49999813	0.00000000	-57.01894000	-0.96579720
34.69999812	0.00000000	-60.46383000	8.28001900
34.89999810	0.00000000	-60.13164000	9.94709500
35.09999809	0.00000000	-56.32381000	4.51525500
35.29999808	0.00000000	-50.55364000	-6.68061000
35.49999807	0.00000000	-44.40821000	-21.68430000
35.69999806	0.00000000	-39.38853000	-36.32505000
35.89999805	0.00000000	-37.05708000	-47.19488000
36.09999803	0.00000000	-37.43233000	-52.58366000
36.29999802	0.00000000	-40.50196000	-51.05191000
36.49999801	0.00000000	-45.47859000	-43.01181000
36.69999800	0.00000000	-50.46136000	-31.11466000
36.89999799	0.00000000	-54.36761000	-18.43012000
37.09999797	0.00000000	-56.23154000	-8.43996000
37.29999796	0.00000000	-55.48105000	-3.74630900
37.49999795	0.00000000	-52.04232000	-4.85974400
37.69999794	0.00000000	-47.47785000	-10.99901000
37.89999793	0.00000000	-43.15945000	-20.61393000
38.09999791	0.00000000	-39.70842000	-30.93627000
38.29999790	0.00000000	-37.80758000	-39.01944000
38.49999789	0.00000000	-38.54576000	-42.41511000
38.69999788	0.00000000	-41.20325000	-40.13287000
38.89999787	0.00000000	-44.74040000	-32.51107000
39.09999786	0.00000000	-49.01575000	-22.61319000
39.29999784	0.00000000	-53.24803000	-13.77953000
39.49999783	0.00000000	-56.32381000	-8.39074700
39.69999782	0.00000000	-57.48031000	-8.01550200
39.89999781	0.00000000	-56.36687000	-12.62303000
40.09999780	0.00000000	-53.66634000	-21.08145000
40.29999778	0.00000000	-50.12918000	-31.02239000
40.49999777	0.00000000	-45.85384000	-39.43774000
40.69999776	0.00000000	-41.66461000	-43.66388000
40.89999775	0.00000000	-38.92101000	-42.55044000
41.09999774	0.00000000	-38.08440000	-36.78642000
41.29999772	0.00000000	-38.45964000	-27.90969000
41.49999771	0.00000000	-40.08366000	-17.96260000
41.69999770	0.00000000	-43.20251000	-9.88558000
41.89999769	0.00000000	-47.43479000	-6.02239100
42.09999768	0.00000000	-51.62401000	-6.77288300
42.29999767	0.00000000	-54.36761000	-12.16166000
42.49999765	0.00000000	-55.20423000	-20.57087000
42.69999764	0.00000000	-54.82898000	-29.40452000
42.89999763	0.00000000	-53.29109000	-36.36811000
43.09999762	0.00000000	-50.97194000	-39.85605000
43.29999761	0.00000000	-48.64050000	-39.53002000
43.49999759	0.00000000	-46.27214000	-35.71604000
43.69999758	0.00000000	-44.36515000	-29.95201000
43.89999757	0.00000000	-43.20251000	-23.77584000
44.09999756	0.00000000	-43.15945000	-18.33784000
44.29999755	0.00000000	-43.85457000	-14.84990000
44.49999753	0.00000000	-44.27288000	-13.69340000
44.69999752	0.00000000	-44.64813000	-15.22515000
44.89999751	0.00000000	-45.06028000	-19.03912000
45.09999750	0.00000000	-45.06644000	-23.59129000
45.29999749	0.00000000	-45.57086000	-27.49138000
45.49999748	0.00000000	-46.69045000	-29.82283000
45.69999746	0.00000000	-48.68356000	-30.64714000
45.89999745	0.00000000	-51.01501000	-29.90895000
46.09999744	0.00000000	-53.71555000	-28.37721000
46.29999743	0.00000000	-55.99163000	-26.37795000
46.49999742	0.00000000	-56.69291000	-23.68356000
46.69999740	0.00000000	-55.52411000	-21.03838000
46.89999739	0.00000000	-51.95005000	-19.45743000
47.09999738	0.00000000	-46.54896000	-19.08218000
47.29999737	0.00000000	-40.04060000	-19.82652000
47.49999736	0.00000000	-34.63951000	-21.77658000
47.69999734	0.00000000	-31.93282000	-24.05881000
47.89999733	0.00000000	-31.98819000	-26.42101000
48.09999732	0.00000000	-35.93750000	-28.32800000
48.29999731	0.00000000	-43.20251000	-29.49065000
48.49999730	0.00000000	-51.71013000	-29.44759000
48.69999729	0.00000000	-59.43651000	-27.90969000
48.89999727	0.00000000	-64.83144000	-25.21530000
49.09999726	0.00000000	-66.32628000	-22.15182000
49.29999725	0.00000000	-63.25048000	-19.40822000
49.49999724	0.00000000	-56.27460000	-17.50123000
49.69999723	0.00000000	-47.01648000	-16.75689000
49.89999721	0.00000000	-37.38312000	-17.96260000
50.09999720	0.00000000	-30.12426000	-21.03838000
50.29999719	0.00000000	-27.38066000	-25.26452000
50.49999718	0.00000000	-29.69980000	-29.49065000
50.69999717	0.00000000	-36.26968000	-32.56028000
50.89999715	0.00000000	-45.85384000	-33.71678000
51.09999714	0.00000000	-55.43799000	-32.56028000
51.29999713	0.00000000	-62.04478000	-29.49065000
51.49999712	0.00000000	-64.78838000	-25.26452000
51.69999711	0.00000000	-63.20743000	-20.98917000
51.89999710	0.00000000	-57.43725000	-17.54429000
52.09999708	0.00000000	-49.01575000	-15.60039000
52.29999707	0.00000000	-40.59424000	-15.96334000
52.49999706	0.00000000	-34.81791000	-17.91953000
52.69999705	0.00000000	-33.19390000	-21.40748000
52.89999704	0.00000000	-35.47613000	-25.95964000
53.09999702	0.00000000	-40.55118000	-29.44759000
53.29999701	0.00000000	-47.81004000	-31.44069000
53.49999700	0.00000000	-55.06274000	-32.18504000
53.69999699	0.00000000	-59.30118000	-31.02239000
53.89999698	0.00000000	-60.13164000	-28.37721000
54.09999696	0.00000000	-57.43725000	-25.30758000
54.29999695	0.00000000	-52.08538000	-22.61319000
54.49999694	0.00000000	-45.94611000	-21.08145000
54.69999693	0.00000000	-40.55118000	-21.08145000
54.89999692	0.00000000	-37.47539000	-22.57013000
55.09999691	0.00000000	-37.43233000	-24.79700000
55.29999689	0.00000000	-40.12672000	-26.32874000
55.49999688	0.00000000	-44.78346000	-26.79626000
55.69999687	0.00000000	-50.50443000	-26.74705000
55.89999686	0.00000000	-55.48105000	-25.95964000
56.09999685	0.00000000	-57.81250000	-24.05881000
56.29999683	0.00000000	-57.48031000	-22.19488000
56.49999682	0.00000000	-54.74286000	-21.08145000
56.69999681	0.00000000	-50.17839000	-21.49975000
56.89999680	0.00000000	-45.20177000	-23.77584000
57.09999679	0.00000000	-41.70767000	-26.83932000
57.29999677	0.00000000	-40.12672000	-29.95201000
57.49999676	0.00000000	-40.50196000	-32.56028000
57.69999675	0.00000000	-42.82726000	-33.25541000
57.89999674	0.00000000	-46.22908000	-30.97933000
58.09999673	0.00000000	-49.71087000	-26.74705000
58.29999672	0.00000000	-52.04232000	-21.72736000
58.49999670	0.00000000	-53.24803000	-16.71383000
58.69999669	0.00000000	-53.24803000	-13.31816000
58.89999668	0.00000000	-52.08538000	-12.57382000
59.09999667	0.00000000	-50.17839000	-15.27436000
59.29999666	0.00000000	-47.85310000	-20.66314000
59.49999664	0.00000000	-45.94611000	-27.21457000
59.69999663	0.00000000	-44.78346000	-33.76599000
59.89999662	0.00000000	-44.78346000	-38.27509000
60.09999661	0.00000000	-45.85384000	-39.10556000
60.29999660	0.00000000	-47.01648000	-36.04207000
60.49999658	0.00000000	-47.81004000	-30.64714000
60.69999657	0.00000000	-48.59744000	-23.63435000
60.89999656	0.00000000	-48.97269000	-16.33858000
61.09999655	0.00000000	-48.97269000	-10.62377000
61.29999654	0.00000000	-48.59744000	-8.30462600
61.49999653	0.00000000	-47.85310000	-10.24852000
61.69999651	0.00000000	-47.47785000	-15.60039000
61.89999650	0.00000000	-47.47785000	-23.30832000
62.09999649	0.00000000	-47.90231000	-31.02239000
62.29999648	0.00000000	-49.01575000	-37.20472000
62.49999647	0.00000000	-50.12918000	-40.64345000
62.69999645	0.00000000	-50.55364000	-39.85605000
62.89999644	0.00000000	-50.55364000	-35.29773000
63.09999643	0.00000000	-50.12918000	-28.32800000
63.29999642	0.00000000	-48.97269000	-20.66314000
63.49999641	0.00000000	-47.43479000	-14.06865000
63.69999639	0.00000000	-45.89690000	-10.20546000
63.89999638	0.00000000	-44.78346000	-9.37500000
64.09999637	0.00000000	-44.78346000	-11.73720000
64.29999636	0.00000000	-45.89690000	-16.71383000
64.49999635	0.00000000	-47.43479000	-23.30832000
64.69999634	0.00000000	-48.97269000	-29.82283000
64.89999632	0.00000000	-50.12918000	-34.87943000
65.09999631	0.00000000	-50.55364000	-37.20472000
65.29999630	0.00000000	-50.55364000	-36.87869000
65.49999629	0.00000000	-50.12918000	-34.14124000
65.69999628	0.00000000	-48.97269000	-29.58292000
65.89999626	0.00000000	-47.47785000	-24.56939000
66.09999625	0.00000000	-46.36442000	-20.66314000
66.29999624	0.00000000	-46.32135000	-17.83341000
66.49999623	0.00000000	-47.10260000	-15.96334000
66.69999622	0.00000000	-48.22834000	-15.55733000
66.89999620	0.00000000	-49.80315000	-17.03986000
67.09999619	0.00000000	-50.87967000	-18.98991000
67.29999618	0.00000000	-51.29183000	-21.40748000
67.49999617	0.00000000	-50.46136000	-24.88927000
67.69999616	0.00000000	-48.59744000	-28.32800000
67.89999615	0.00000000	-46.22908000	-31.11466000
68.09999613	0.00000000	-43.98991000	-33.06471000
68.29999612	0.00000000	-42.45817000	-34.22736000
68.49999611	0.00000000	-42.87032000	-34.18430000
68.69999610	0.00000000	-44.78346000	-32.60334000
68.89999609	0.00000000	-47.90231000	-29.49065000
69.09999607	0.00000000	-51.75935000	-25.22145000
69.29999606	0.00000000	-55.20423000	-20.57087000
69.49999605	0.00000000	-57.52953000	-16.33858000
69.69999604	0.00000000	-57.85556000	-13.69340000
69.89999603	0.00000000	-55.94857000	-13.69340000
70.09999601	0.00000000	-52.04232000	-16.33858000
70.29999600	0.00000000	-47.05954000	-20.61393000
70.49999599	0.00000000	-42.03986000	-25.63976000
70.69999598	0.00000000	-38.54576000	-30.69636000
70.89999597	0.00000000	-37.01402000	-34.51033000
71.09999596	0.00000000	-37.85064000	-36.45423000
71.29999594	0.00000000	-41.70767000	-35.67298000
71.49999593	0.00000000	-47.43479000	-32.64640000
71.69999592	0.00000000	-53.29109000	-28.37721000
71.89999591	0.00000000	-58.32308000	-23.77584000
72.09999590	0.00000000	-61.76181000	-19.87574000
72.29999588	0.00000000	-62.08784000	-17.54429000
72.49999587	0.00000000	-59.06127000	-16.75689000
72.69999586	0.00000000	-53.66634000	-17.91953000
72.89999585	0.00000000	-47.52707000	-20.57087000
73.09999584	0.00000000	-42.08292000	-23.68356000
73.29999582	0.00000000	-38.59498000	-26.75320000
73.49999581	0.00000000	-37.38927000	-29.02928000
73.69999580	0.00000000	-38.54576000	-29.44759000
73.89999579	0.00000000	-41.66461000	-28.37721000
74.09999578	0.00000000	-46.27214000	-26.83932000
74.29999577	0.00000000	-51.29183000	-25.30758000
74.49999575	0.00000000	-55.16117000	-24.19414000
74.69999574	0.00000000	-57.48031000	-24.19414000
74.89999573	0.00000000	-57.48031000	-25.30758000
75.09999572	0.00000000	-55.20423000	-26.79626000
75.29999571	0.00000000	-51.80241000	-27.90969000
75.49999569	0.00000000	-48.27140000	-27.90969000
75.69999568	0.00000000	-45.57086000	-26.70398000
75.89999567	0.00000000	-43.62082000	-24.37869000
76.09999566	0.00000000	-43.24557000	-20.98917000
76.29999565	0.00000000	-44.31594000	-18.33784000
76.49999563	0.00000000	-45.85384000	-17.50123000
76.69999562	0.00000000	-47.43479000	-17.91953000
76.89999561	0.00000000	-48.92347000	-19.91880000
77.09999560	0.00000000	-49.71087000	-23.77584000
77.29999559	0.00000000	-49.39099000	-28.37721000
77.49999558	0.00000000	-49.05881000	-32.60334000
77.69999556	0.00000000	-49.01575000	-35.24852000
77.89999555	0.00000000	-49.01575000	-35.24852000
78.09999554	0.00000000	-49.10802000	-32.60334000
78.29999553	0.00000000	-49.80930000	-28.32800000
78.49999552	0.00000000	-50.91658000	-23.30832000
78.69999550	0.00000000	-50.92888000	-18.29478000
78.89999549	0.00000000	-50.59670000	-14.84990000
79.09999548	0.00000000	-50.08612000	-13.65034000
79.29999547	0.00000000	-48.59744000	-14.84990000
79.49999546	0.00000000	-46.64739000	-18.25172000
79.69999544	0.00000000	-45.10334000	-22.89001000
79.89999543	0.00000000	-43.62082000	-27.17150000
80.09999542	0.00000000	-43.66388000	-31.11466000
80.29999541	0.00000000	-45.52165000	-34.09203000
80.49999540	0.00000000	-47.85310000	-34.87943000
80.69999539	0.00000000	-50.59670000	-33.02165000
80.89999537	0.00000000	-53.24803000	-30.00123000
81.09999536	0.00000000	-54.74286000	-26.79626000
81.29999535	0.00000000	-54.41068000	-23.30832000
81.49999534	0.00000000	-52.50984000	-19.87574000
81.69999533	0.00000000	-50.17839000	-17.91953000
81.89999531	0.00000000	-47.43479000	-17.45817000
82.09999530	0.00000000	-44.82652000	-17.87647000
82.29999529	0.00000000	-43.62082000	-19.40822000
82.49999528	0.00000000	-43.98991000	-21.72736000
82.69999527	0.00000000	-45.10950000	-24.10187000
82.89999525	0.00000000	-47.10260000	-26.83932000
83.09999524	0.00000000	-49.34793000	-29.53371000
83.29999523	0.00000000	-51.29183000	-31.48991000
83.49999522	0.00000000	-52.08538000	-32.64640000
83.69999521	0.00000000	-52.13459000	-32.60334000
83.89999520	0.00000000	-51.71013000	-31.06545000
84.09999518	0.00000000	-50.59670000	-28.37721000
84.29999517	0.00000000	-49.43405000	-25.26452000
84.49999516	0.00000000	-48.68356000	-22.10261000
84.69999515	0.00000000	-48.22834000	-19.03297000
84.89999514	0.00000000	-48.26525000	-16.75689000
85.09999512	0.00000000	-48.22834000	-16.43085000
85.29999511	0.00000000	-48.59744000	-18.33784000
85.49999510	0.00000000	-48.59744000	-22.19488000
85.69999509	0.00000000	-48.22834000	-26.79626000
85.89999508	0.00000000	-48.26525000	-31.06545000
86.09999506	0.00000000	-48.22834000	-34.13509000
86.29999505	0.00000000	-48.64050000	-35.29773000
86.49999504	0.00000000	-49.01575000	-34.18430000
86.69999503	0.00000000	-49.48326000	-31.44069000
86.89999502	0.00000000	-50.59670000	-27.53445000
87.09999501	0.00000000	-51.71013000	-22.57013000
87.29999499	0.00000000	-52.08538000	-18.38090000
87.49999498	0.00000000	-51.71013000	-16.43085000
87.69999497	0.00000000	-50.55364000	-16.75689000
87.89999496	0.00000000	-49.05881000	-19.12524000
88.09999495	0.00000000	-47.85310000	-22.93922000
88.29999493	0.00000000	-47.10260000	-27.58366000
88.49999492	0.00000000	-46.69045000	-31.44069000
88.69999491	0.00000000	-47.10260000	-34.13509000
88.89999490	0.00000000	-47.85310000	-34.83022000
89.09999489	0.00000000	-49.05881000	-32.56028000
89.29999487	0.00000000	-50.55364000	-28.37721000
89.49999486	0.00000000	-51.71013000	-23.72662000
89.69999485	0.00000000	-52.08538000	-19.50049000
89.89999484	0.00000000	-51.75935000	-16.80610000
90.09999483	0.00000000	-50.97194000	-16.43085000
90.29999482	0.00000000	-50.17839000	-18.33784000
90.49999480	0.00000000	-49.01575000	-22.19488000
90.69999479	0.00000000	-47.90231000	-26.79626000
90.89999478	0.00000000	-47.47785000	-31.02239000
91.09999477	0.00000000	-47.47785000	-33.71678000
91.29999476	0.00000000	-47.85310000	-34.09203000
91.49999474	0.00000000	-48.59744000	-32.14198000
91.69999473	0.00000000	-48.97269000	-27.90969000
91.89999472	0.00000000	-49.01575000	-22.57013000
92.09999471	0.00000000	-49.01575000	-17.96260000
92.29999470	0.00000000	-49.01575000	-15.27436000
92.49999468	0.00000000	-49.01575000	-15.27436000
92.69999467	0.00000000	-49.05881000	-17.96260000
92.89999466	0.00000000	-49.48326000	-22.57013000
93.09999465	0.00000000	-50.59670000	-27.86663000
93.29999464	0.00000000	-51.71013000	-31.71752000
93.49999463	0.00000000	-52.13459000	-32.97859000
93.69999461	0.00000000	-52.13459000	-32.60334000
93.89999460	0.00000000	-51.66707000	-30.60408000
94.09999459	0.00000000	-50.12918000	-26.79626000
94.29999458	0.00000000	-47.85310000	-22.61319000
94.49999457	0.00000000	-45.89690000	-19.54355000
94.69999455	0.00000000	-44.36515000	-18.38706000
94.89999454	0.00000000	-43.62082000	-19.50049000
95.09999453	0.00000000	-44.36515000	-22.15182000
95.29999452	0.00000000	-45.94611000	-25.30758000
95.49999451	0.00000000	-48.32062000	-28.75246000
95.69999449	0.00000000	-51.75935000	-31.76673000
95.89999448	0.00000000	-54.78592000	-32.51107000
96.09999447	0.00000000	-56.36687000	-31.06545000
96.29999446	0.00000000	-56.36687000	-28.37721000
96.49999445	0.00000000	-54.82898000	-25.30758000
96.69999444	0.00000000	-52.08538000	-22.57013000
96.89999442	0.00000000	-48.59744000	-20.66314000
97.09999441	0.00000000	-44.74040000	-19.91880000
97.29999440	0.00000000	-41.70767000	-21.03838000
97.49999439	0.00000000	-40.50196000	-23.26525000
97.69999438	0.00000000	-41.28937000	-25.21530000
97.89999436	0.00000000	-43.62082000	-26.79626000
98.09999435	0.00000000	-47.47785000	-27.95275000
98.29999434	0.00000000	-51.71013000	-28.37721000
98.49999433	0.00000000	-55.20423000	-28.32800000
98.69999432	0.00000000	-57.52953000	-27.58366000
98.89999430	0.00000000	-57.94783000	-26.05807000
99.09999429	0.00000000	-56.78519000	-24.93233000
99.29999428	0.00000000	-54.45374000	-24.10187000
99.49999427	0.00000000	-50.97194000	-23.72662000
99.69999426	0.00000000	-47.47785000	-23.68356000
99.89999425	0.00000000	-44.36515000	-23.68356000
100.09999423	0.00000000	-42.08292000	-23.68356000
100.29999422	0.00000000	-41.70767000	-23.64050000
100.49999421	0.00000000	-43.20251000	-23.30832000
100.69999420	0.00000000	-45.89690000	-22.98843000
100.89999419	0.00000000	-49.01575000	-23.77584000
101.09999417	0.00000000	-52.13459000	-25.26452000
101.29999416	0.00000000	-54.82898000	-26.83932000
101.49999415	0.00000000	-56.36687000	-28.42027000
101.69999414	0.00000000	-56.40993000	-29.90895000
101.89999413	0.00000000	-55.24729000	-30.64714000
102.09999411	0.00000000	-53.34030000	-29.86589000
102.29999410	0.00000000	-51.01501000	-27.95891000
102.49999409	0.00000000	-49.01575000	-25.26452000
102.69999408	0.00000000	-47.05954000	-22.57013000
102.89999407	0.00000000	-45.20177000	-20.61393000
103.09999406	0.00000000	-44.82652000	-19.50049000
103.29999404	0.00000000	-45.89690000	-19.91880000
103.49999403	0.00000000	-47.43479000	-22.19488000
103.69999402	0.00000000	-49.05881000	-25.26452000
103.89999401	0.00000000	-50.97194000	-28.37721000
104.09999400	0.00000000	-52.87278000	-31.06545000
104.29999398	0.00000000	-53.66634000	-32.56028000
104.49999397	0.00000000	-53.71555000	-32.18504000
104.69999396	0.00000000	-53.29109000	-29.90895000
104.89999395	0.00000000	-52.13459000	-26.88853000
105.09999394	0.00000000	-50.59670000	-24.14493000
105.29999392	0.00000000	-49.05881000	-22.19488000
105.49999391	0.00000000	-47.90231000	-21.03838000
105.69999390	0.00000000	-47.52707000	-21.03838000
105.89999389	0.00000000	-47.90231000	-22.19488000
106.09999388	0.00000000	-49.05881000	-24.10187000
106.29999387	0.00000000	-50.55364000	-26.42101000
106.49999385	0.00000000	-51.71013000	-28.32800000
106.69999384	0.00000000	-52.13459000	-29.49065000
106.89999383	0.00000000	-52.13459000	-29.49065000
107.09999382	0.00000000	-51.71013000	-28.32800000
107.29999381	0.00000000	-50.59670000	-26.42101000
107.49999379	0.00000000	-49.43405000	-24.14493000
107.69999378	0.00000000	-48.68356000	-22.61319000
107.89999377	0.00000000	-48.27140000	-22.19488000
108.09999376	0.00000000	-48.68356000	-22.57013000
108.29999375	0.00000000	-49.43405000	-23.77584000
108.49999374	0.00000000	-50.59670000	-25.63976000
108.69999372	0.00000000	-51.71013000	-27.54060000
108.89999371	0.00000000	-52.13459000	-28.32800000
109.09999370	0.00000000	-52.13459000	-28.32800000
109.29999369	0.00000000	-51.71013000	-27.54060000
109.49999368	0.00000000	-50.59670000	-25.63976000
109.69999366	0.00000000	-49.43405000	-23.77584000
109.89999365	0.00000000	-48.64050000	-22.57013000
110.09999364	0.00000000	-47.85310000	-22.14567000
110.29999363	0.00000000	-47.52707000	-22.14567000
110.49999362	0.00000000	-47.90231000	-22.57013000
110.69999360	0.00000000	-49.01575000	-23.72662000
110.89999359	0.00000000	-50.22145000	-25.26452000
111.09999358	0.00000000	-51.34719000	-26.79626000
111.29999357	0.00000000	-52.49754000	-27.90969000
111.49999356	0.00000000	-52.50984000	-27.95275000
111.69999355	0.00000000	-52.17765000	-27.21457000
111.89999353	0.00000000	-51.71013000	-26.46407000
112.09999352	0.00000000	-50.59670000	-25.68282000
112.29999351	0.00000000	-49.48326000	-25.26452000
112.49999350	0.00000000	-49.05881000	-24.84621000
112.69999349	0.00000000	-49.01575000	-24.10187000
112.89999347	0.00000000	-49.05881000	-23.72662000
113.09999346	0.00000000	-49.43405000	-23.72662000
113.29999345	0.00000000	-50.17839000	-24.10187000
113.49999344	0.00000000	-50.55364000	-24.84621000
113.69999343	0.00000000	-50.59670000	-25.26452000
113.89999341	0.00000000	-50.59670000	-25.68282000
114.09999340	0.00000000	-50.59670000	-26.42101000
114.29999339	0.00000000	-50.59670000	-26.79626000
114.49999338	0.00000000	-50.59670000	-26.88238000
114.69999337	0.00000000	-50.59670000	-27.25763000
114.89999336	0.00000000	-50.59670000	-27.95275000
115.09999334	0.00000000	-50.59670000	-27.95275000
115.29999333	0.00000000	-50.59670000	-27.25763000
115.49999332	0.00000000	-50.59670000	-26.83932000
115.69999331	0.00000000	-50.59670000	-26.42101000
115.89999330	0.00000000	-50.59670000	-25.68282000
116.09999328	0.00000000	-50.59670000	-25.26452000
116.29999327	0.00000000	-50.63976000	-24.84621000
116.49999326	0.00000000	-51.01501000	-24.15108000
116.69999325	0.00000000	-51.75935000	-24.15108000
116.89999324	0.00000000	-52.08538000	-24.88927000
117.09999322	0.00000000	-51.75935000	-25.63976000
117.29999321	0.00000000	-51.01501000	-26.46407000
117.49999320	0.00000000	-50.59670000	-27.21457000
117.69999319	0.00000000	-50.17839000	-28.00197000
117.89999318	0.00000000	-49.43405000	-28.37721000
118.09999317	0.00000000	-49.05881000	-28.37721000
118.29999315	0.00000000	-49.05881000	-28.00197000
118.49999314	0.00000000	-49.43405000	-27.21457000
118.69999313	0.00000000	-50.22145000	-26.46407000
118.89999312	0.00000000	-51.01501000	-25.63976000
119.09999311	0.00000000	-52.17765000	-24.88927000
119.29999309	0.00000000	-53.29109000	-24.15108000
119.49999308	0.00000000	-53.66634000	-24.15108000
119.69999307	0.00000000	-53.29109000	-24.84621000
119.89999306	0.00000000	-52.17765000	-25.22145000
120.09999305	0.00000000	-51.01501000	-25.30758000
120.29999303	0.00000000	-50.17839000	-25.68282000
120.49999302	0.00000000	-49.01575000	-26.42101000
120.69999301	0.00000000	-47.90231000	-26.79626000
120.89999300	0.00000000	-47.52707000	-26.83932000
121.09999299	0.00000000	-47.90231000	-26.83932000
121.29999298	0.00000000	-49.05881000	-26.83932000
121.49999296	0.00000000	-50.55364000	-26.83932000
121.69999295	0.00000000	-51.75935000	-26.79626000
121.89999294	0.00000000	-52.55290000	-26.42101000
122.09999293	0.00000000	-53.34030000	-25.68282000
122.29999292	0.00000000	-53.66634000	-25.30758000
122.49999290	0.00000000	-53.29109000	-25.22145000
122.69999289	0.00000000	-52.17765000	-24.88927000
122.89999288	0.00000000	-51.01501000	-24.52018000
123.09999287	0.00000000	-50.17839000	-24.84621000
123.29999286	0.00000000	-49.05881000	-24.84621000
123.49999284	0.00000000	-48.32062000	-24.52018000
123.69999283	0.00000000	-48.64050000	-24.93233000
123.89999282	0.00000000	-49.01575000	-25.63976000
124.09999281	0.00000000	-49.43405000	-26.42101000
124.29999280	0.00000000	-50.22145000	-26.79626000
124.49999279	0.00000000	-50.97194000	-26.83932000
124.69999277	0.00000000	-51.75935000	-26.79626000
124.89999276	0.00000000	-52.13459000	-26.42101000
125.09999275	0.00000000	-52.17765000	-25.68282000
125.29999274	0.00000000	-52.17765000	-25.26452000
125.49999273	0.00000000	-52.17765000	-24.84621000
125.69999271	0.00000000	-52.08538000	-24.10187000
125.89999270	0.00000000	-51.34104000	-23.77584000
126.09999269	0.00000000	-49.85236000	-24.10187000
126.29999268	0.00000000	-49.05881000	-24.84621000
126.49999267	0.00000000	-48.64050000	-25.22145000
126.69999265	0.00000000	-48.27140000	-25.30758000
126.89999264	0.00000000	-48.68356000	-25.68282000
127.09999263	0.00000000	-49.43405000	-26.42101000
127.29999262	0.00000000	-50.59670000	-26.74705000
127.49999261	0.00000000	-51.75935000	-26.46407000
127.69999260	0.00000000	-52.55290000	-26.10113000
127.89999258	0.00000000	-53.29109000	-26.46407000
128.09999257	0.00000000	-53.29109000	-26.74705000
128.29999256	0.00000000	-52.55290000	-26.42101000
128.49999255	0.00000000	-51.75935000	-25.68282000
128.69999254	0.00000000	-50.59670000	-25.30758000
128.89999252	0.00000000	-49.48326000	-25.26452000
129.09999251	0.00000000	-49.05881000	-25.30758000
129.29999250	0.00000000	-49.05881000	-25.68282000
129.49999249	0.00000000	-49.48326000	-26.42101000
129.69999248	0.00000000	-50.59670000	-26.79626000
129.89999246	0.00000000	-51.75935000	-26.83932000
130.09999245	0.00000000	-52.55290000	-26.83932000
130.29999244	0.00000000	-53.29109000	-26.83932000
130.49999243	0.00000000	-53.29109000	-26.79626000
130.69999242	0.00000000	-52.55290000	-26.42101000
130.89999241	0.00000000	-51.80241000	-25.68282000
131.09999239	0.00000000	-51.01501000	-25.30758000
131.29999238	0.00000000	-50.59670000	-25.30758000
131.49999237	0.00000000	-50.17839000	-25.68282000
131.69999236	0.00000000	-49.48326000	-26.42101000
131.89999235	0.00000000	-49.48326000	-26.83932000
132.09999233	0.00000000	-50.22145000	-27.25763000
132.29999232	0.00000000	-50.97194000	-27.95275000
132.49999231	0.00000000	-51.75935000	-27.95275000
132.69999230	0.00000000	-52.13459000	-27.25763000
132.89999229	0.00000000	-52.17765000	-26.83932000
133.09999227	0.00000000	-52.13459000	-26.42101000
133.29999226	0.00000000	-51.75935000	-25.68282000
133.49999225	0.00000000	-51.06422000	-25.30758000
133.69999224	0.00000000	-51.06422000	-25.26452000
133.89999223	0.00000000	-51.75935000	-25.26452000
134.09999222	0.00000000	-52.13459000	-25.30758000
134.29999220	0.00000000	-52.17765000	-25.68282000
134.49999219	0.00000000	-52.17765000	-26.46407000
134.69999218	0.00000000	-52.13459000	-27.21457000
134.89999217	0.00000000	-51.75935000	-28.00197000
135.09999216	0.00000000	-51.01501000	-28.32800000
135.29999214	0.00000000	-50.63976000	-28.00197000
135.49999213	0.00000000	-50.59670000	-27.25763000
135.69999212	0.00000000	-50.63976000	-26.83932000
135.89999211	0.00000000	-51.01501000	-26.42101000
136.09999210	0.00000000	-51.75935000	-25.68282000
136.29999208	0.00000000	-52.17765000	-25.30758000
136.49999207	0.00000000	-52.55290000	-25.26452000
136.69999206	0.00000000	-52.92200000	-25.26452000
136.89999205	0.00000000	-52.55290000	-25.30758000
137.09999204	0.00000000	-52.17765000	-25.63976000
137.29999203	0.00000000	-51.75935000	-26.04577000
137.49999201	0.00000000	-50.97194000	-26.05807000
137.69999200	0.00000000	-50.26451000	-26.46407000
137.89999199	0.00000000	-49.85236000	-26.79626000
138.09999198	0.00000000	-50.22145000	-26.83932000
138.29999197	0.00000000	-50.59670000	-26.83932000
138.49999195	0.00000000	-51.01501000	-26.83932000
138.69999194	0.00000000	-51.75935000	-26.79626000
138.89999193	0.00000000	-52.13459000	-26.42101000
139.09999192	0.00000000	-52.17765000	-25.68282000
139.29999191	0.00000000	-52.17765000	-25.26452000
139.49999189	0.00000000	-52.13459000	-24.84621000
139.69999188	0.00000000	-51.75935000	-24.15108000
139.89999187	0.00000000	-51.01501000	-24.15108000
140.09999186	0.00000000	-50.63976000	-24.84621000
140.29999185	0.00000000	-50.59670000	-25.26452000
140.49999184	0.00000000	-50.59670000	-25.68282000
140.69999182	0.00000000	-50.63976000	-26.46407000
140.89999181	0.00000000	-51.01501000	-27.21457000
141.09999180	0.00000000	-51.75935000	-27.95275000
141.29999179	0.00000000	-52.13459000	-27.95275000
141.49999178	0.00000000	-52.17765000	-27.21457000
141.69999176	0.00000000	-52.13459000	-26.42101000
141.89999175	0.00000000	-51.75935000	-25.26452000
142.09999174	0.00000000	-51.01501000	-24.15108000
142.29999173	0.00000000	-50.63976000	-23.77584000
142.49999172	0.00000000	-50.59670000	-24.10187000
142.69999170	0.00000000	-50.59670000	-24.84621000
142.89999169	0.00000000	-50.63976000	-25.26452000
143.09999168	0.00000000	-51.01501000	-25.72589000
143.29999167	0.00000000	-51.75935000	-26.83932000
143.49999166	0.00000000	-52.17765000	-27.95275000
143.69999165	0.00000000	-52.55290000	-28.32800000
143.89999163	0.00000000	-52.92200000	-28.00197000
144.09999162	0.00000000	-52.50984000	-27.21457000
144.29999161	0.00000000	-51.80241000	-26.46407000
144.49999160	0.00000000	-51.01501000	-25.68282000
144.69999159	0.00000000	-50.63976000	-25.30758000
144.89999157	0.00000000	-50.59670000	-25.26452000
145.09999156	0.00000000	-50.63976000	-25.26452000
145.29999155	0.00000000	-51.01501000	-25.30758000
145.49999154	0.00000000	-51.75935000	-25.68282000
145.69999153	0.00000000	-52.13459000	-26.42101000
145.89999151	0.00000000	-52.17765000	-26.83932000
146.09999150	0.00000000	-52.17765000	-27.25763000
146.29999149	0.00000000	-52.17765000	-28.00197000
146.49999148	0.00000000	-52.17765000	-28.32800000
146.69999147	0.00000000	-52.13459000	-28.00197000
146.89999146	0.00000000	-51.75935000	-27.25763000
147.09999144	0.00000000	-51.01501000	-26.88238000
147.29999143	0.00000000	-50.68897000	-26.79626000
147.49999142	0.00000000	-51.01501000	-26.42101000
147.69999141	0.00000000	-51.75935000	-25.68282000
147.89999140	0.00000000	-52.13459000	-25.30758000
148.09999138	0.00000000	-52.17765000	-25.30758000
148.29999137	0.00000000	-52.22071000	-25.68282000
148.49999136	0.00000000	-52.55290000	-26.42101000
148.69999135	0.00000000	-52.92200000	-26.79626000
148.89999134	0.00000000	-52.55290000	-26.83932000
149.09999132	0.00000000	-52.22071000	-26.83932000
149.29999131	0.00000000	-52.17765000	-26.83932000
149.49999130	0.00000000	-52.13459000	-26.83932000
149.69999129	0.00000000	-51.80241000	-26.83932000
149.89999128	0.00000000	-51.43332000	-26.83932000
150.09999127	0.00000000	-51.75935000	-26.79626000
150.29999125	0.00000000	-51.75935000	-26.46407000
150.49999124	0.00000000	-51.43332000	-26.05807000
150.69999123	0.00000000	-51.80241000	-26.04577000
150.89999122	0.00000000	-52.13459000	-25.68282000
151.09999121	0.00000000	-52.17765000	-25.68282000
151.29999119	0.00000000	-52.17765000	-26.04577000
151.49999118	0.00000000	-52.17765000	-26.05807000
151.69999117	0.00000000	-52.17765000	-26.46407000
151.89999116	0.00000000	-52.17765000	-26.79626000
152.09999115	0.00000000	-52.13459000	-26.83932000
152.29999113	0.00000000	-51.75935000	-26.83932000
152.49999112	0.00000000	-51.01501000	-26.83932000
152.69999111	0.00000000	-50.68897000	-26.79626000
152.89999110	0.00000000	-50.97194000	-26.42101000
153.09999109	0.00000000	-51.38410000	-25.68282000
153.29999108	0.00000000	-51.39025000	-25.30758000
153.49999106	0.00000000	-51.80241000	-25.26452000
153.69999105	0.00000000	-52.13459000	-25.26452000
153.89999104	0.00000000	-52.17765000	-25.26452000
154.09999103	0.00000000	-52.22071000	-25.26452000
154.29999102	0.00000000	-52.55290000	-25.26452000
154.49999100	0.00000000	-52.92200000	-25.30758000
154.69999099	0.00000000	-52.55290000	-25.68282000
154.89999098	0.00000000	-52.22071000	-26.42101000
155.09999097	0.00000000	-52.17765000	-26.79626000
155.29999096	0.00000000	-52.13459000	-26.83932000
155.49999094	0.00000000	-51.75935000	-26.83932000
155.69999093	0.00000000	-51.01501000	-26.83932000
155.89999092	0.00000000	-50.68897000	-26.83932000
156.09999091	0.00000000	-51.01501000	-26.83932000
156.29999090	0.00000000	-51.75935000	-26.79626000
156.49999089	0.00000000	-52.13459000	-26.42101000
156.69999087	0.00000000	-52.22071000	-25.68282000
156.89999086	0.00000000	-52.59596000	-25.30758000
157.09999085	0.00000000	-53.34030000	-25.26452000
157.29999084	0.00000000	-53.66634000	-25.26452000
157.49999083	0.00000000	-53.34030000	-25.30758000
157.69999081	0.00000000	-52.59596000	-25.68282000
157.89999080	0.00000000	-52.22071000	-26.42101000
158.09999079	0.00000000	-52.17765000	-26.79626000
158.29999078	0.00000000	-52.13459000	-26.83932000
158.49999077	0.00000000	-51.80241000	-26.83932000
158.69999075	0.00000000	-51.43332000	-26.83932000
158.89999074	0.00000000	-51.80241000	-26.79626000
159.09999073	0.00000000	-52.13459000	-26.42101000
159.29999072	0.00000000	-52.17765000	-25.68282000
159.49999071	0.00000000	-52.17765000	-25.30758000
159.69999070	0.00000000	-52.17765000	-25.26452000
159.89999068	0.00000000	-52.17765000	-25.22145000
160.09999067	0.00000000	-52.22071000	-24.88927000
160.29999066	0.00000000	-52.55290000	-24.52018000
160.49999065	0.00000000	-52.92200000	-24.93233000
160.69999064	0.00000000	-52.55290000	-25.63976000
160.89999062	0.00000000	-52.22071000	-26.42101000
161.09999061	0.00000000	-52.17765000	-26.79626000
161.29999060	0.00000000	-52.17765000	-26.83932000
161.49999059	0.00000000	-52.17765000	-26.83932000
161.69999058	0.00000000	-52.17765000	-26.83932000
161.89999056	0.00000000	-52.17765000	-26.83932000
162.09999055	0.00000000	-52.17765000	-26.83932000
162.29999054	0.00000000	-52.17765000	-26.83932000
162.49999053	0.00000000	-52.17765000	-26.83932000
162.69999052	0.00000000	-52.17765000	-26.83932000
162.89999051	0.00000000	-52.22071000	-26.83932000
163.09999049	0.00000000	-52.59596000	-26.83932000
163.29999048	0.00000000	-53.34030000	-26.83932000
163.49999047	0.00000000	-53.71555000	-26.83932000
163.69999046	0.00000000	-53.75861000	-26.83932000
163.89999045	0.00000000	-53.75861000	-26.83932000
164.09999043	0.00000000	-53.71555000	-26.88238000
164.29999042	0.00000000	-53.34030000	-27.25763000
164.49999041	0.00000000	-52.59596000	-28.00197000
164.69999040	0.00000000	-52.22071000	-28.37721000
164.89999039	0.00000000	-52.17765000	-28.37721000
165.09999037	0.00000000	-52.17765000	-28.00197000
165.29999036	0.00000000	-52.17765000	-27.25763000
165.49999035	0.00000000	-52.17765000	-26.88238000
165.69999034	0.00000000	-52.22071000	-26.83932000
165.89999033	0.00000000	-52.59596000	-26.83932000
166.09999032	0.00000000	-53.34030000	-26.83932000
166.29999030	0.00000000	-53.71555000	-26.83932000
166.49999029	0.00000000	-53.75861000	-26.83932000
166.69999028	0.00000000	-53.75861000	-26.83932000
166.89999027	0.00000000	-53.75861000	-26.83932000
167.09999026	0.00000000	-53.71555000	-26.83932000
167.29999024	0.00000000	-53.34030000	-26.83932000
167.49999023	0.00000000	-52.59596000	-26.83932000
167.69999022	0.00000000	-52.22071000	-26.83932000
167.89999021	0.00000000	-52.17765000	-26.83932000
168.09999020	0.00000000	-52.17765000	-26.83932000
168.29999018	0.00000000	-52.17765000	-26.83932000
168.49999017	0.00000000	-52.17765000	-26.83932000
168.69999016	0.00000000	-52.17765000	-26.83932000
168.89999015	0.00000000	-52.17765000	-26.83932000
169.09999014	0.00000000	-52.22071000	-26.79626000
169.29999013	0.00000000	-52.55290000	-26.46407000
169.49999011	0.00000000	-52.92200000	-26.10113000
169.69999010	0.00000000	-52.55290000	-26.42101000
169.89999009	0.00000000	-52.22071000	-26.37795000
170.09999008	0.00000000	-52.17765000	-25.72589000
170.29999007	0.00000000	-52.17765000	-25.72589000
170.49999005	0.00000000	-52.17765000	-26.42101000
170.69999004	0.00000000	-52.17765000	-26.79626000
170.89999003	0.00000000	-52.17765000	-26.83932000
171.09999002	0.00000000	-52.17765000	-26.83932000
171.29999001	0.00000000	-52.17765000	-26.83932000
171.49998999	0.00000000	-52.17765000	-26.83932000
171.69998998	0.00000000	-52.17765000	-26.83932000
171.89998997	0.00000000	-52.17765000	-26.83932000
172.09998996	0.00000000	-52.17765000	-26.83932000
172.29998995	0.00000000	-52.17765000	-26.83932000
172.49998994	0.00000000	-52.17765000	-26.83932000
172.69998992	0.00000000	-52.17765000	-26.83932000
172.89998991	0.00000000	-52.17765000	-26.83932000
173.09998990	0.00000000	-52.17765000	-26.83932000
173.29998989	0.00000000	-52.17765000	-26.83932000
173.49998988	0.00000000	-52.17765000	-26.83932000
173.69998986	0.00000000	-52.17765000	-26.83932000
173.89998985	0.00000000	-52.17765000	-26.83932000
174.09998984	0.00000000	-52.17765000	-26.83932000
174.29998983	0.00000000	-52.17765000	-26.83932000
174.49998982	0.00000000	-52.17765000	-26.83932000
174.69998980	0.00000000	-52.22071000	-26.83932000
174.89998979	0.00000000	-52.59596000	-26.83932000
175.09998978	0.00000000	-53.34030000	-26.83932000
175.29998977	0.00000000	-53.71555000	-26.83932000
175.49998976	0.00000000	-53.71555000	-26.83932000
175.69998975	0.00000000	-53.38336000	-26.83932000
175.89998973	0.00000000	-53.01427000	-26.83932000
176.09998972	0.00000000	-53.34030000	-26.83932000
176.29998971	0.00000000	-53.34030000	-26.83932000
176.49998970	0.00000000	-53.01427000	-26.83932000
176.69998969	0.00000000	-53.38336000	-26.83932000
176.89998967	0.00000000	-53.71555000	-26.83932000
177.09998966	0.00000000	-53.75861000	-26.88238000
177.29998965	0.00000000	-53.75861000	-27.25763000
177.49998964	0.00000000	-53.75861000	-28.00197000
177.69998963	0.00000000	-53.75861000	-28.32800000
177.89998961	0.00000000	-53.75861000	-28.00197000
178.09998960	0.00000000	-53.75861000	-27.25763000
178.29998959	0.00000000	-53.75861000	-26.93159000
178.49998958	0.00000000	-53.75861000	-27.21457000
178.69998957	0.00000000	-53.75861000	-27.62672000
178.89998956	0.00000000	-53.75861000	-27.58981000
179.09998954	0.00000000	-53.75861000	-27.62672000
179.29998953	0.00000000	-53.71555000	-27.25763000
179.49998952	0.00000000	-53.38336000	-27.30684000
179.69998951	0.00000000	-53.01427000	-28.00197000
179.89998950	0.00000000	-53.38336000	-28.37721000
180.09998948	0.00000000	-53.71555000	-28.42027000
180.29998947	0.00000000	-53.75861000	-28.42027000
180.49998946	0.00000000	-53.75861000	-28.37721000
180.69998945	0.00000000	-53.75861000	-28.00197000
180.89998944	0.00000000	-53.75861000	-27.25763000
181.09998942	0.00000000	-53.75861000	-26.88238000
181.29998941	0.00000000	-53.75861000	-26.83932000
181.49998940	0.00000000	-53.75861000	-26.83932000
181.69998939	0.00000000	-53.75861000	-26.83932000
181.89998938	0.00000000	-53.75861000	-26.83932000
182.09998937	0.00000000	-53.75861000	-26.83932000
182.29998935	0.00000000	-53.71555000	-26.83932000
182.49998934	0.00000000	-53.38336000	-26.83932000
182.69998933	0.00000000	-52.97121000	-26.83932000
182.89998932	0.00000000	-52.96506000	-26.83932000
183.09998931	0.00000000	-52.59596000	-26.83932000
183.29998929	0.00000000	-52.59596000	-26.83932000
183.49998928	0.00000000	-52.96506000	-26.83932000
183.69998927	0.00000000	-52.97121000	-26.83932000
183.89998926	0.00000000	-53.38336000	-26.79626000
184.09998925	0.00000000	-53.71555000	-26.46407000
184.29998923	0.00000000	-53.75861000	-26.05807000
184.49998922	0.00000000	-53.75861000	-26.04577000
184.69998921	0.00000000	-53.75861000	-25.63976000
184.89998920	0.00000000	-53.71555000	-25.30758000
185.09998919	0.00000000	-53.34030000	-25.30758000
185.29998918	0.00000000	-52.64517000	-25.68282000
185.49998916	0.00000000	-52.59596000	-26.42101000
185.69998915	0.00000000	-52.92200000	-26.79626000
185.89998914	0.00000000	-52.59596000	-26.83932000
186.09998913	0.00000000	-52.64517000	-26.83932000
186.29998912	0.00000000	-53.34030000	-26.83932000
186.49998910	0.00000000	-53.66634000	-26.83932000
186.69998909	0.00000000	-53.38336000	-26.83932000
186.89998908	0.00000000	-53.01427000	-26.83932000
187.09998907	0.00000000	-53.38336000	-26.79626000
187.29998906	0.00000000	-53.71555000	-26.42101000
187.49998904	0.00000000	-53.75861000	-25.68282000
187.69998903	0.00000000	-53.75861000	-25.35679000
187.89998902	0.00000000	-53.71555000	-25.68282000
188.09998901	0.00000000	-53.38336000	-26.42101000
188.29998900	0.00000000	-53.01427000	-26.79626000
188.49998899	0.00000000	-53.38336000	-26.83932000
188.69998897	0.00000000	-53.66634000	-26.88238000
188.89998896	0.00000000	-53.38336000	-27.25763000
189.09998895	0.00000000	-52.97121000	-27.95275000
189.29998894	0.00000000	-53.00812000	-28.00197000
189.49998893	0.00000000	-52.97121000	-27.63287000
189.69998891	0.00000000	-53.38336000	-27.62672000
189.89998890	0.00000000	-53.71555000	-27.21457000
190.09998889	0.00000000	-53.75861000	-26.88238000
190.29998888	0.00000000	-53.75861000	-26.83932000
190.49998887	0.00000000	-53.75861000	-26.83932000
190.69998885	0.00000000	-53.75861000	-26.83932000
190.89998884	0.00000000	-53.75861000	-26.83932000
191.09998883	0.00000000	-53.75861000	-26.83932000
191.29998882	0.00000000	-53.75861000	-26.83932000
191.49998881	0.00000000	-53.75861000	-26.83932000
191.69998880	0.00000000	-53.75861000	-26.88238000
191.89998878	0.00000000	-53.75861000	-27.21457000
192.09998877	0.00000000	-53.75861000	-27.62672000
192.29998876	0.00000000	-53.75861000	-27.63287000
192.49998875	0.00000000	-53.75861000	-28.04503000
192.69998874	0.00000000	-53.80167000	-28.32800000
192.89998872	0.00000000	-54.17691000	-28.04503000
193.09998871	0.00000000	-54.87204000	-27.63287000
193.29998870	0.00000000	-54.87204000	-27.62672000
193.49998869	0.00000000	-54.22613000	-27.21457000
193.69998868	0.00000000	-54.17691000	-26.88238000
193.89998866	0.00000000	-54.50295000	-26.83932000
194.09998865	0.00000000	-54.13385000	-26.83932000
194.29998864	0.00000000	-53.80167000	-26.83932000
194.49998863	0.00000000	-53.75861000	-26.83932000
194.69998862	0.00000000	-53.75861000	-26.83932000
194.89998861	0.00000000	-53.75861000	-26.83932000
195.09998859	0.00000000	-53.80167000	-26.83932000
195.29998858	0.00000000	-54.13385000	-26.83932000
195.49998857	0.00000000	-54.50295000	-26.88238000
195.69998856	0.00000000	-54.17691000	-27.25763000
195.89998855	0.00000000	-54.22613000	-28.00197000
196.09998853	0.00000000	-54.87204000	-28.32800000
