Time	Channel A	Channel B	Channel C
(us)	(V)	(mV)	(mV)

-4.49999956	0.00000000	-15.34203000	-9.47342500
-4.29999957	0.00000000	-15.34203000	-9.47342500
-4.09999958	0.00000000	-14.69611000	-9.47342500
-3.89999959	0.00000000	-14.69611000	-9.47342500
-3.69999960	0.00000000	-15.34203000	-9.47342500
-3.49999962	0.00000000	-15.39124000	-9.47342500
-3.29999963	0.00000000	-15.06521000	-9.47342500
-3.09999964	0.00000000	-15.43430000	-9.47342500
-2.89999965	0.00000000	-15.76649000	-9.47342500
-2.69999966	0.00000000	-15.76649000	-9.47342500
-2.49999968	0.00000000	-15.43430000	-9.47342500
-2.29999969	0.00000000	-15.02214000	-9.47342500
-2.09999970	0.00000000	-15.05905000	-9.47342500
-1.89999971	0.00000000	-15.02214000	-9.47342500
-1.69999972	0.00000000	-15.39124000	-9.47342500
-1.49999973	0.00000000	-15.34203000	-9.47342500
-1.29999975	0.00000000	-14.69611000	-9.47342500
-1.09999976	0.00000000	-14.69611000	-9.47342500
-0.89999977	0.00000000	-15.34203000	-9.47342500
-0.69999978	0.00000000	-15.34203000	-9.47342500
-0.49999979	0.00000000	-14.64690000	-9.47342500
-0.29999981	0.31803640	-14.32087000	-9.47342500
-0.09999982	0.63668800	-14.64690000	-9.47342500
0.10000017	0.95533960	-15.39124000	-9.47342500
0.30000016	1.11466500	-15.76649000	-9.47342500
0.50000015	0.79601380	-15.76649000	-9.47342500
0.70000013	0.31803640	-15.43430000	-9.47342500
0.90000012	-0.47736220	-15.02214000	-9.47342500
1.10000011	-1.43331700	-15.01599000	-9.47342500
1.30000010	-2.22994600	-14.60384000	-9.43036400
1.50000009	-2.70792300	-14.32087000	-9.09817800
1.70000008	-2.54859700	-14.60384000	-8.72908400
1.90000006	-1.43331700	-14.97293000	-9.05511800
2.10000005	0.31803640	-14.60384000	-9.05511800
2.30000004	2.38927200	-14.32087000	-8.72908400
2.50000003	4.30056600	-14.64690000	-9.09817800
2.70000002	5.25652100	-15.39124000	-9.47342500
2.90000000	4.93786900	-15.76649000	-9.89173200
3.09999999	3.18590100	-15.76649000	-10.62992000
3.29999998	0.31803640	-15.43430000	-10.95595000
3.49999997	-3.02657500	-15.02214000	-10.62992000
3.69999996	-6.05315000	-15.01599000	-9.89173200
3.89999994	-7.80511800	-14.60384000	-9.47342500
4.09999993	-7.64579200	-14.27165000	-9.05511800
4.29999992	-5.41584600	-14.27165000	-8.31077700
4.49999991	-1.75196900	-14.64690000	-7.98474400
4.69999990	2.70792300	-15.34203000	-8.31077700
4.89999989	6.69045300	-15.39124000	-9.05511800
5.09999987	9.07972400	-15.06521000	-9.43036400
5.29999986	9.23905000	-15.43430000	-9.51648500
5.49999985	7.00848900	-15.71727000	-9.84867000
5.69999984	3.02657500	-15.43430000	-10.21161000
5.89999983	-1.75196900	-15.06521000	-9.84867000
6.09999981	-6.21247500	-15.39124000	-9.51648500
6.29999980	-8.92039900	-15.34203000	-9.47342500
6.49999979	-9.39837600	-14.64690000	-9.47342500
6.69999978	-7.64579200	-14.27165000	-9.43036400
6.89999977	-3.98191400	-14.22859000	-9.09817800
7.09999975	0.47736220	-14.27165000	-8.72908400
7.29999974	4.45989200	-14.64690000	-9.09817800
7.49999973	7.00848900	-15.39124000	-9.43036400
7.69999972	7.80511800	-15.76649000	-9.47342500
7.89999971	6.53112700	-15.80955000	-9.47342500
8.09999970	3.82258900	-15.80955000	-9.47342500
8.29999968	0.47736220	-15.76649000	-9.43036400
8.49999967	-2.54859700	-15.39124000	-9.09817800
8.69999966	-4.45989200	-14.69611000	-8.72908400
8.89999965	-5.25652100	-14.64690000	-9.09817800
9.09999964	-4.45989200	-15.01599000	-9.43036400
9.29999962	-2.86724900	-15.02214000	-9.47342500
9.49999961	-0.95533960	-15.43430000	-9.47342500
9.69999960	0.79601380	-15.76649000	-9.47342500
9.89999959	2.07062000	-15.76649000	-9.47342500
10.09999958	2.54859700	-15.39124000	-9.47342500
10.29999956	2.22994600	-14.69611000	-9.47342500
10.49999955	1.59264300	-14.69611000	-9.47342500
10.69999954	0.63668800	-15.34203000	-9.47342500
10.89999953	-0.15871060	-15.39124000	-9.47342500
11.09999952	-0.63668800	-15.06521000	-9.47342500
11.29999951	-0.95533960	-15.43430000	-9.47342500
11.49999949	-0.95533960	-15.71727000	-9.47342500
11.69999948	-0.79601380	-15.43430000	-9.47342500
11.89999947	-0.47736220	-15.06521000	-9.47342500
12.09999946	-0.15871060	-15.39124000	-9.47342500
12.29999945	-0.15871060	-15.34203000	-9.47342500
12.49999943	-0.15871060	-14.69611000	-9.47342500
12.69999942	0.00000000	-14.64690000	-9.47342500
12.89999941	0.00000000	-15.01599000	-9.47342500
13.09999940	0.15871060	-15.02214000	-9.47342500
13.29999939	0.00000000	-15.43430000	-9.47342500
13.49999937	0.00000000	-15.71727000	-9.47342500
13.69999936	0.00000000	-15.43430000	-9.47342500
13.89999935	0.00000000	-15.06521000	-9.47342500
14.09999934	-0.15871060	-15.39124000	-9.47342500
14.29999933	-0.15871060	-15.34203000	-9.47342500
14.49999932	-0.15871060	-14.64690000	-9.47342500
14.69999930	-0.15871060	-14.32087000	-9.47342500
14.89999929	0.00000000	-14.64690000	-9.47342500
15.09999928	0.00000000	-15.34203000	-9.47342500
15.29999927	0.00000000	-15.39124000	-9.47342500
15.49999926	0.00000000	-15.02214000	-9.47342500
15.69999924	0.00000000	-15.05905000	-9.47342500
15.89999923	0.00000000	-15.02214000	-9.47342500
16.09999922	0.00000000	-15.43430000	-9.47342500
16.29999921	0.00000000	-15.76649000	-9.47342500
16.49999920	-0.15871060	-15.76649000	-9.47342500
16.69999919	-0.15871060	-15.39124000	-9.47342500
16.89999917	0.00000000	-14.64690000	-9.47342500
17.09999916	0.00000000	-14.22859000	-9.47342500
17.29999915	0.00000000	-13.81028000	-9.47342500
17.49999914	0.00000000	-13.06594000	-9.47342500
17.69999913	0.00000000	-12.73991000	-9.47342500
17.89999911	0.00000000	-13.11516000	-9.47342500
18.09999910	0.00000000	-14.27165000	-9.47342500
18.29999909	0.00000000	-15.80955000	-9.47342500
18.49999908	0.00000000	-17.39050000	-9.47342500
18.69999907	0.00000000	-18.92839000	-9.47342500
18.89999905	0.00000000	-20.04183000	-9.47342500
19.09999904	-0.15871060	-19.99877000	-9.47342500
19.29999903	0.00000000	-18.46087000	-9.47342500
19.49999902	0.00000000	-15.76649000	-9.47342500
19.69999901	0.00000000	-12.60458000	-9.47342500
19.89999900	0.00000000	-9.11048200	-9.47342500
20.09999898	0.00000000	-5.67175200	-9.47342500
20.29999897	0.00000000	-3.80782500	-9.47342500
20.49999896	0.00000000	-4.22613100	-9.47342500
20.69999895	0.00000000	-7.38804100	-9.47342500
20.89999894	0.00000000	-13.24434000	-9.47342500
21.09999892	0.00000000	-20.92766000	-9.47342500
21.29999891	0.00000000	-28.64788000	-9.47342500
21.49999890	0.00000000	-34.00591000	-9.47342500
21.69999889	0.00000000	-35.86368000	-9.47342500
21.89999888	0.00000000	-32.70177000	-9.47342500
22.09999886	0.00000000	-24.56324000	-9.47342500
22.29999885	0.00000000	-13.34276000	-9.47342500
22.49999884	0.00000000	-0.92888770	-9.47342500
22.69999883	0.00000000	9.82406400	-9.47342500
22.89999882	0.00000000	16.28937000	-9.47342500
23.09999881	0.00000000	15.82185000	-9.43036400
23.29999879	-0.15871060	7.68946800	-9.05511800
23.49999878	0.00000000	-6.27460600	-8.26771600
23.69999877	0.00000000	-23.71432000	-7.56028500
23.89999876	0.00000000	-41.02485000	-7.14812900
24.09999875	0.00000000	-53.72785000	-7.56028500
24.29999873	0.00000000	-58.29232000	-8.31077700
24.49999872	0.00000000	-53.13115000	-9.51648500
24.69999871	0.00000000	-38.09670000	-11.04823000
24.89999870	0.00000000	-16.51698000	-12.62918000
25.09999869	0.00000000	5.49950700	-14.16092000
25.29999867	0.00000000	23.73277000	-15.27436000
25.49999866	0.00000000	34.06742000	-15.23130000
25.69999865	0.00000000	33.59990000	-13.69956000
25.89999864	0.00000000	21.59203000	-10.96211000
26.09999863	0.00000000	0.38139760	-7.47416300
26.29999862	0.00000000	-24.69857000	-3.57406500
26.49999860	0.00000000	-47.87155000	-0.13533460
26.69999859	0.00000000	-63.68724000	2.14074800
26.89999858	0.00000000	-68.34399000	2.04847400
27.09999857	0.00000000	-60.99286000	-1.06422200
27.29999856	0.00000000	-43.25787000	-6.86515700
27.49999854	0.00000000	-19.30364000	-14.21014000
27.69999853	0.00000000	4.98892600	-21.54897000
27.89999852	0.00000000	24.38484000	-27.26378000
28.09999851	0.00000000	34.39346000	-29.53986000
28.29999850	0.00000000	33.31693000	-27.22072000
28.49999848	0.00000000	21.36442000	-20.99532000
28.69999847	0.00000000	2.09768700	-11.61417000
28.89999846	0.00000000	-19.99877000	-0.04306102
29.09999845	0.00000000	-40.42815000	11.06053000
29.29999844	0.00000000	-54.37992000	18.35630000
29.49999843	0.00000000	-58.71063000	19.88804000
29.69999841	0.00000000	-53.77091000	15.15133000
29.89999840	0.00000000	-41.02485000	4.32455700
30.09999839	0.00000000	-23.67126000	-10.72219000
30.29999838	0.00000000	-5.85014700	-26.15034000
30.49999837	0.00000000	8.89517700	-38.88410000
30.69999835	0.00000000	17.82726000	-45.76156000
30.89999834	0.00000000	19.40822000	-44.64198000
31.09999833	0.00000000	13.68110000	-36.14050000
31.29999832	0.00000000	2.47293300	-22.15797000
31.49999831	0.00000000	-11.44193000	-4.77977300
31.69999829	0.00000000	-25.39370000	12.17397000
31.89999828	0.00000000	-36.23893000	24.53248000
32.09999827	0.00000000	-42.05216000	29.97047000
32.29999826	0.00000000	-41.72613000	27.23302000
32.49999825	0.00000000	-35.58686000	16.81841000
32.69999824	0.00000000	-25.94734000	0.97810030
32.89999822	0.00000000	-14.69611000	-16.81225000
33.09999821	0.00000000	-4.31840500	-33.02780000
33.29999820	0.00000000	2.70669300	-44.22367000
33.49999819	0.00000000	5.03198800	-47.76082000
33.69999818	0.00000000	2.79281500	-43.52854000
33.89999816	0.00000000	-3.38951800	-32.65871000
34.09999815	0.00000000	-11.44193000	-16.86147000
34.29999814	0.00000000	-19.58046000	0.09227362
34.49999813	0.00000000	-25.76895000	14.03789000
34.69999812	0.00000000	-28.88164000	22.58243000
34.89999810	0.00000000	-28.50640000	24.11417000
35.09999809	0.00000000	-24.64936000	18.35630000
35.29999808	0.00000000	-18.55315000	6.78518600
35.49999807	0.00000000	-11.99557000	-7.84940900
35.69999806	0.00000000	-7.01279500	-22.11491000
35.89999805	0.00000000	-4.69365100	-32.56643000
36.09999803	0.00000000	-5.80708600	-37.21087000
36.29999802	0.00000000	-9.57800100	-35.30389000
36.49999801	0.00000000	-14.22859000	-27.22072000
36.69999800	0.00000000	-18.87918000	-15.36663000
36.89999799	0.00000000	-22.69316000	-3.01427100
37.09999797	0.00000000	-24.23105000	6.60679100
37.29999796	0.00000000	-23.11762000	11.62032000
37.49999795	0.00000000	-20.04183000	10.45768000
37.69999794	0.00000000	-15.76649000	3.62942900
37.89999793	0.00000000	-11.15896000	-6.31151500
38.09999791	0.00000000	-7.29576700	-16.30167000
38.29999790	0.00000000	-5.43184000	-23.64665000
38.49999789	0.00000000	-6.13927100	-26.62401000
38.69999788	0.00000000	-9.20275500	-23.96653000
38.89999787	0.00000000	-13.06594000	-15.98179000
39.09999786	0.00000000	-17.34744000	-6.44685000
39.29999784	0.00000000	-21.20448000	2.04847400
39.49999783	0.00000000	-23.53592000	7.34498000
39.69999782	0.00000000	-24.36639000	7.34498000
39.89999781	0.00000000	-23.53592000	2.00541300
40.09999780	0.00000000	-21.20448000	-6.82209600
40.29999778	0.00000000	-17.34744000	-16.76919000
40.49999777	0.00000000	-13.11516000	-24.80315000
40.69999776	0.00000000	-9.57800100	-28.29109000
40.89999775	0.00000000	-6.87746000	-26.80241000
41.09999774	0.00000000	-5.71481200	-20.99532000
41.29999772	0.00000000	-6.45915300	-12.16781000
41.49999771	0.00000000	-8.41535400	-2.55290300
41.69999770	0.00000000	-11.53420000	5.11811000
41.89999769	0.00000000	-15.39124000	8.96899500
42.09999768	0.00000000	-18.87918000	7.81250000
42.29999767	0.00000000	-21.62278000	2.09768700
42.49999765	0.00000000	-23.11762000	-6.31151500
42.69999764	0.00000000	-22.78543000	-14.81299000
42.89999763	0.00000000	-20.88459000	-21.37057000
43.09999762	0.00000000	-18.55315000	-24.89542000
43.29999761	0.00000000	-15.80955000	-24.48326000
43.49999759	0.00000000	-13.15822000	-20.71235000
43.69999758	0.00000000	-11.57726000	-14.53617000
43.89999757	0.00000000	-11.15896000	-8.02780400
44.09999756	0.00000000	-11.48499000	-2.59596400
44.29999755	0.00000000	-12.22933000	0.51673230
44.49999753	0.00000000	-12.64764000	0.93503930
44.69999752	0.00000000	-13.02288000	-0.97194880
44.89999751	0.00000000	-13.39198000	-4.77977300
45.09999750	0.00000000	-13.06594000	-9.00590400
45.29999749	0.00000000	-13.15822000	-12.53691000
45.49999748	0.00000000	-14.32087000	-15.23130000
45.69999746	0.00000000	-16.27707000	-16.39395000
45.89999745	0.00000000	-19.01451000	-15.64960000
46.09999744	0.00000000	-22.04109000	-13.74262000
46.29999743	0.00000000	-24.32333000	-11.04823000
46.49999742	0.00000000	-24.69857000	-8.35383800
46.69999740	0.00000000	-23.11762000	-6.40378900
46.89999739	0.00000000	-19.58046000	-5.19808000
47.09999738	0.00000000	-14.13632000	-4.82898600
47.29999737	0.00000000	-7.99704600	-5.24729300
47.49999736	0.00000000	-2.60211600	-6.82209600
47.69999734	0.00000000	0.42445860	-9.47342500
47.89999733	0.00000000	0.00615157	-12.16781000
48.09999732	0.00000000	-4.26919300	-14.11786000
48.29999731	0.00000000	-11.57726000	-15.23130000
48.49999730	0.00000000	-20.08489000	-14.85605000
48.69999729	0.00000000	-27.81742000	-12.91215000
48.89999727	0.00000000	-33.21235000	-10.21161000
49.09999726	0.00000000	-34.65797000	-6.72982200
49.29999725	0.00000000	-31.20694000	-3.70939900
49.49999724	0.00000000	-23.53592000	-2.12844500
49.69999723	0.00000000	-14.27165000	-2.12844500
49.89999721	0.00000000	-5.33956700	-3.70939900
50.09999720	0.00000000	1.54404500	-6.77903500
50.29999719	0.00000000	4.19537400	-10.62992000
50.49999718	0.00000000	1.54404500	-14.11786000
50.69999717	0.00000000	-5.38877900	-16.81225000
50.89999715	0.00000000	-14.60384000	-17.92569000
51.09999714	0.00000000	-23.85581000	-16.76919000
51.29999713	0.00000000	-30.37647000	-13.74262000
51.49999712	0.00000000	-32.74483000	-9.84867000
51.69999711	0.00000000	-30.41954000	-5.98548200
51.89999710	0.00000000	-24.32333000	-2.50369100
52.09999708	0.00000000	-16.18479000	-0.59670270
52.29999707	0.00000000	-8.13238100	-0.59670270
52.49999706	0.00000000	-1.99311000	-2.54675200
52.69999705	0.00000000	-0.07997046	-6.35457700
52.89999704	0.00000000	-2.68823800	-10.58686000
53.09999702	0.00000000	-8.45841400	-14.07480000
53.29999701	0.00000000	-15.76649000	-16.39395000
53.49999700	0.00000000	-22.65010000	-16.76919000
53.69999699	0.00000000	-26.92544000	-15.27436000
53.89999698	0.00000000	-27.72515000	-12.58612000
54.09999696	0.00000000	-25.39370000	-9.51648500
54.29999695	0.00000000	-19.99877000	-6.82209600
54.49999694	0.00000000	-13.15822000	-5.29035400
54.69999693	0.00000000	-7.38804100	-5.29035400
54.89999692	0.00000000	-4.26919300	-6.77903500
55.09999691	0.00000000	-4.26919300	-9.05511800
55.29999689	0.00000000	-7.34498000	-10.96211000
55.49999688	0.00000000	-12.69070000	-12.07554000
55.69999687	0.00000000	-18.41781000	-11.70029000
55.89999686	0.00000000	-22.69316000	-9.84867000
56.09999685	0.00000000	-24.64936000	-7.93553100
56.29999683	0.00000000	-24.27411000	-6.40378900
56.49999682	0.00000000	-21.53666000	-5.66560000
56.69999681	0.00000000	-16.97219000	-6.48991100
56.89999680	0.00000000	-11.99557000	-8.77214500
57.09999679	0.00000000	-8.50147600	-12.21087000
57.29999677	0.00000000	-6.92052100	-15.23130000
57.49999676	0.00000000	-7.29576700	-16.81225000
57.69999675	0.00000000	-9.62106200	-16.81225000
57.89999674	0.00000000	-13.06594000	-15.18824000
58.09999673	0.00000000	-16.92298000	-11.65723000
58.29999672	0.00000000	-19.95571000	-6.31151500
58.49999670	0.00000000	-21.16142000	-1.01501000
58.69999669	0.00000000	-20.46014000	2.04847400
58.89999668	0.00000000	-18.92839000	2.09153500
59.09999667	0.00000000	-16.97219000	-0.64591530
59.29999666	0.00000000	-14.69611000	-5.66560000
59.49999664	0.00000000	-13.11516000	-12.21087000
59.69999663	0.00000000	-12.31545000	-18.35015000
59.89999662	0.00000000	-11.95251000	-22.57628000
60.09999661	0.00000000	-12.73991000	-23.68971000
60.29999660	0.00000000	-14.22859000	-20.99532000
60.49999658	0.00000000	-15.71727000	-15.23130000
60.69999657	0.00000000	-16.50467000	-7.89247000
60.89999656	0.00000000	-16.18479000	-0.59670270
61.09999655	0.00000000	-15.80955000	4.74286400
61.29999654	0.00000000	-15.39124000	6.32381900
61.49999653	0.00000000	-14.64690000	4.00467500
61.69999651	0.00000000	-14.27165000	-1.39025600
61.89999650	0.00000000	-14.27165000	-9.09817800
62.09999649	0.00000000	-14.69611000	-16.76919000
62.29999648	0.00000000	-15.80955000	-22.61934000
62.49999647	0.00000000	-16.92298000	-25.68897000
62.69999645	0.00000000	-17.34744000	-25.27067000
62.89999644	0.00000000	-17.34744000	-20.99532000
63.09999643	0.00000000	-16.92298000	-13.74262000
63.29999642	0.00000000	-15.76649000	-5.66560000
63.49999641	0.00000000	-14.27165000	0.88582670
63.69999639	0.00000000	-13.11516000	4.78592500
63.89999638	0.00000000	-12.69070000	5.20423200
64.09999637	0.00000000	-12.69070000	2.51599400
64.29999636	0.00000000	-13.11516000	-2.50369100
64.49999635	0.00000000	-14.27165000	-9.05511800
64.69999634	0.00000000	-15.80955000	-15.23130000
64.89999632	0.00000000	-17.29823000	-19.88189000
65.09999631	0.00000000	-18.08563000	-22.24409000
65.29999630	0.00000000	-17.72268000	-21.88115000
65.49999629	0.00000000	-16.97219000	-19.54970000
65.69999628	0.00000000	-15.76649000	-15.28051000
65.89999626	0.00000000	-14.27165000	-9.93479300
66.09999625	0.00000000	-13.15822000	-5.29035400
66.29999624	0.00000000	-13.15822000	-2.12844500
66.49999623	0.00000000	-14.27165000	-0.51058070
66.69999622	0.00000000	-15.80955000	-0.13533460
66.89999620	0.00000000	-17.34744000	-0.92888770
67.09999619	0.00000000	-18.46087000	-3.24803100
67.29999618	0.00000000	-18.46087000	-6.31151500
67.49999617	0.00000000	-17.29823000	-9.47342500
67.69999616	0.00000000	-15.39124000	-12.58612000
67.89999615	0.00000000	-13.06594000	-15.32357000
68.09999613	0.00000000	-11.15896000	-17.27362000
68.29999612	0.00000000	-9.99630800	-18.43627000
68.49999611	0.00000000	-10.03937000	-18.39321000
68.69999610	0.00000000	-11.62032000	-16.81225000
68.89999609	0.00000000	-14.69611000	-13.69956000
69.09999607	0.00000000	-18.55315000	-9.43036400
69.29999606	0.00000000	-21.99803000	-4.82898600
69.49999605	0.00000000	-24.32333000	-0.97194880
69.69999604	0.00000000	-24.64936000	0.97810030
69.89999603	0.00000000	-22.69316000	0.97810030
70.09999601	0.00000000	-18.46087000	-1.02116100
70.29999600	0.00000000	-13.06594000	-5.19808000
70.49999599	0.00000000	-8.04010800	-10.25467000
70.69999598	0.00000000	-4.18307100	-14.91142000
70.89999597	0.00000000	-2.68823800	-19.18061000
71.09999596	0.00000000	-4.22613100	-21.37057000
71.29999594	0.00000000	-8.45841400	-20.66314000
71.49999593	0.00000000	-14.22859000	-17.23056000
71.69999592	0.00000000	-20.08489000	-12.62918000
71.89999591	0.00000000	-25.06767000	-7.93553100
72.09999590	0.00000000	-28.18036000	-3.70939900
72.29999588	0.00000000	-28.14345000	-1.01501000
72.49999587	0.00000000	-25.47982000	-0.59670270
72.69999586	0.00000000	-20.41708000	-2.12844500
72.89999585	0.00000000	-14.27165000	-5.15501900
73.09999584	0.00000000	-8.50147600	-8.63681000
73.29999582	0.00000000	-4.64443900	-11.33735000
73.49999581	0.00000000	-3.80782500	-13.28125000
73.69999580	0.00000000	-5.29650500	-13.65650000
73.89999579	0.00000000	-8.45841400	-12.58612000
74.09999578	0.00000000	-13.06594000	-11.09744000
74.29999577	0.00000000	-18.08563000	-9.93479300
74.49999575	0.00000000	-21.95497000	-9.51648500
74.69999574	0.00000000	-24.27411000	-9.51648500
74.89999573	0.00000000	-24.27411000	-9.93479300
75.09999572	0.00000000	-22.04109000	-11.04823000
75.29999571	0.00000000	-18.92839000	-12.11860000
75.49999569	0.00000000	-15.43430000	-12.07554000
75.69999568	0.00000000	-11.99557000	-10.58686000
75.89999567	0.00000000	-10.08243000	-8.26771600
76.09999566	0.00000000	-9.99630800	-5.93626900
76.29999565	0.00000000	-11.10974000	-3.61712600
76.49999563	0.00000000	-12.64764000	-2.17150600
76.69999562	0.00000000	-14.22859000	-2.59596400
76.89999561	0.00000000	-15.76649000	-5.29035400
77.09999560	0.00000000	-16.87992000	-9.47342500
77.29999559	0.00000000	-16.92298000	-13.74262000
77.49999558	0.00000000	-16.22785000	-17.23056000
77.69999556	0.00000000	-15.85261000	-19.55585000
77.89999555	0.00000000	-15.80955000	-19.83883000
78.09999554	0.00000000	-15.85261000	-17.50738000
78.29999553	0.00000000	-16.27707000	-12.53691000
78.49999552	0.00000000	-17.34744000	-6.82209600
78.69999550	0.00000000	-18.08563000	-2.12844500
78.89999549	0.00000000	-17.67347000	0.97810030
79.09999548	0.00000000	-16.55389000	2.13459600
79.29999547	0.00000000	-14.60384000	0.93503930
79.49999546	0.00000000	-12.64764000	-2.50369100
79.69999544	0.00000000	-10.78371000	-7.51722400
79.89999543	0.00000000	-9.62721400	-12.49385000
80.09999542	0.00000000	-10.40846000	-16.43701000
80.29999541	0.00000000	-11.90330000	-18.71924000
80.49999540	0.00000000	-14.32087000	-19.13140000
80.69999539	0.00000000	-17.34744000	-17.23056000
80.89999537	0.00000000	-19.99877000	-14.21014000
81.09999536	0.00000000	-21.16142000	-11.04823000
81.29999535	0.00000000	-20.41708000	-7.89247000
81.49999534	0.00000000	-18.50394000	-4.82283400
81.69999533	0.00000000	-15.80955000	-2.50369100
81.89999531	0.00000000	-13.11516000	-1.71013800
82.09999530	0.00000000	-11.15896000	-2.08538400
82.29999529	0.00000000	-9.99630800	-3.66633800
82.49999528	0.00000000	-10.03937000	-6.31151500
82.69999527	0.00000000	-11.53420000	-9.05511800
82.89999525	0.00000000	-13.85334000	-11.42347000
83.09999524	0.00000000	-16.14173000	-13.79183000
83.29999523	0.00000000	-18.08563000	-15.69882000
83.49999522	0.00000000	-18.83612000	-16.85531000
83.69999521	0.00000000	-18.50394000	-16.81225000
83.89999520	0.00000000	-17.39050000	-15.27436000
84.09999518	0.00000000	-16.22785000	-12.53691000
84.29999517	0.00000000	-15.43430000	-9.05511800
84.49999516	0.00000000	-14.64690000	-5.19808000
84.69999515	0.00000000	-14.27165000	-2.12844500
84.89999514	0.00000000	-14.22859000	-0.59670270
85.09999512	0.00000000	-14.27165000	-0.97194880
85.29999511	0.00000000	-14.60384000	-3.29109200
85.49999510	0.00000000	-14.97293000	-6.77903500
85.69999509	0.00000000	-14.60384000	-11.04823000
85.89999508	0.00000000	-14.27165000	-15.27436000
86.09999506	0.00000000	-14.22859000	-18.35015000
86.29999505	0.00000000	-14.27165000	-19.50664000
86.49999504	0.00000000	-14.69611000	-18.35015000
86.69999503	0.00000000	-15.80955000	-15.27436000
86.89999502	0.00000000	-16.97219000	-11.00517000
87.09999501	0.00000000	-17.72268000	-6.40378900
87.29999499	0.00000000	-18.13484000	-2.54675200
87.49999498	0.00000000	-17.72268000	-0.59670270
87.69999497	0.00000000	-16.97219000	-0.63976370
87.89999496	0.00000000	-15.76649000	-2.97121000
88.09999495	0.00000000	-14.27165000	-7.56028500
88.29999493	0.00000000	-13.15822000	-12.53691000
88.49999492	0.00000000	-13.06594000	-16.76919000
88.69999491	0.00000000	-13.43504000	-19.08834000
88.89999490	0.00000000	-13.53346000	-18.71924000
89.09999489	0.00000000	-14.69611000	-16.39395000
89.29999487	0.00000000	-16.50467000	-12.11860000
89.49999486	0.00000000	-17.29823000	-6.82209600
89.69999485	0.00000000	-17.39050000	-2.59596400
89.89999484	0.00000000	-17.34744000	-0.63976370
90.09999483	0.00000000	-16.97219000	-0.97194880
90.29999482	0.00000000	-16.18479000	-3.33415300
90.49999480	0.00000000	-15.43430000	-7.19734200
90.69999479	0.00000000	-14.64690000	-12.21087000
90.89999478	0.00000000	-14.27165000	-16.72613000
91.09999477	0.00000000	-14.22859000	-19.08834000
91.29999476	0.00000000	-14.22859000	-18.71924000
91.49999474	0.00000000	-14.27165000	-16.39395000
91.69999473	0.00000000	-14.60384000	-12.11860000
91.89999472	0.00000000	-14.97293000	-6.82209600
92.09999471	0.00000000	-14.60384000	-2.59596400
92.29999470	0.00000000	-14.27165000	-0.63976370
92.49999468	0.00000000	-14.27165000	-1.01501000
92.69999467	0.00000000	-14.64690000	-3.75246000
92.89999466	0.00000000	-15.43430000	-8.31077700
93.09999465	0.00000000	-16.22785000	-13.28125000
93.29999464	0.00000000	-17.39050000	-16.76919000
93.49999463	0.00000000	-18.46087000	-18.35015000
93.69999461	0.00000000	-18.50394000	-17.92569000
93.89999460	0.00000000	-17.72268000	-15.18824000
94.09999459	0.00000000	-16.50467000	-10.62992000
94.29999458	0.00000000	-14.18553000	-5.70866100
94.49999457	0.00000000	-11.57726000	-2.59596400
94.69999455	0.00000000	-9.99630800	-1.80241100
94.89999454	0.00000000	-9.62106200	-2.92199800
95.09999453	0.00000000	-10.37155000	-6.02854300
95.29999452	0.00000000	-12.36466000	-9.84867000
95.49999451	0.00000000	-15.02214000	-13.69956000
95.69999449	0.00000000	-18.17790000	-16.35089000
95.89999448	0.00000000	-20.83538000	-16.76919000
96.09999447	0.00000000	-22.78543000	-15.27436000
96.29999446	0.00000000	-23.11762000	-12.58612000
96.49999445	0.00000000	-21.57972000	-9.47342500
96.69999444	0.00000000	-18.50394000	-6.40378900
96.89999442	0.00000000	-14.64690000	-4.12770700
97.09999441	0.00000000	-11.15896000	-3.75246000
97.29999440	0.00000000	-8.41535400	-5.24729300
97.49999439	0.00000000	-6.92052100	-7.89247000
97.69999438	0.00000000	-7.34498000	-10.53765000
97.89999436	0.00000000	-9.99630800	-12.11860000
98.09999435	0.00000000	-13.85334000	-12.58612000
98.29999434	0.00000000	-17.72268000	-12.58612000
98.49999433	0.00000000	-21.24754000	-12.16166000
98.69999432	0.00000000	-23.53592000	-11.04823000
98.89999430	0.00000000	-24.32333000	-9.89173200
99.09999429	0.00000000	-23.11762000	-9.09817800
99.29999428	0.00000000	-20.08489000	-8.31077700
99.49999427	0.00000000	-16.22785000	-7.93553100
99.69999426	0.00000000	-12.73991000	-7.89247000
99.89999425	0.00000000	-9.99630800	-7.89247000
100.09999423	0.00000000	-8.45841400	-7.89247000
100.29999422	0.00000000	-8.41535400	-7.84940900
100.49999421	0.00000000	-9.57800100	-7.51722400
100.69999420	0.00000000	-11.53420000	-7.19734200
100.89999419	0.00000000	-14.27165000	-7.98474400
101.09999417	0.00000000	-17.29823000	-9.47342500
101.29999416	0.00000000	-19.66658000	-11.04823000
101.49999415	0.00000000	-20.83538000	-12.58612000
101.69999414	0.00000000	-21.24754000	-13.74262000
101.89999413	0.00000000	-20.46014000	-14.07480000
102.09999411	0.00000000	-18.92839000	-13.32431000
102.29999410	0.00000000	-16.97219000	-11.33735000
102.49999409	0.00000000	-14.64690000	-8.67987200
102.69999408	0.00000000	-12.73991000	-5.61638700
102.89999407	0.00000000	-11.53420000	-3.70939900
103.09999406	0.00000000	-11.15896000	-3.29109200
103.29999404	0.00000000	-11.53420000	-4.08464600
103.49999403	0.00000000	-12.73991000	-6.40378900
103.69999402	0.00000000	-14.64690000	-9.47342500
103.89999401	0.00000000	-16.92298000	-12.58612000
104.09999400	0.00000000	-18.50394000	-15.23130000
104.29999398	0.00000000	-19.30364000	-16.39395000
104.49999397	0.00000000	-19.66658000	-15.64960000
104.69999396	0.00000000	-18.87918000	-13.74262000
104.89999395	0.00000000	-17.39050000	-11.00517000
105.09999394	0.00000000	-15.80955000	-7.93553100
105.29999392	0.00000000	-14.27165000	-5.29035400
105.49999391	0.00000000	-13.11516000	-4.08464600
105.69999390	0.00000000	-12.78297000	-4.45374000
105.89999389	0.00000000	-13.48425000	-5.61638700
106.09999388	0.00000000	-15.01599000	-7.93553100
106.29999387	0.00000000	-16.14173000	-10.58686000
106.49999385	0.00000000	-16.97219000	-12.53691000
106.69999384	0.00000000	-17.34744000	-13.69956000
106.89999383	0.00000000	-17.34744000	-13.69956000
107.09999382	0.00000000	-16.92298000	-12.53691000
107.29999381	0.00000000	-15.80955000	-10.62992000
107.49999379	0.00000000	-14.64690000	-8.35383800
107.69999378	0.00000000	-13.89641000	-6.82209600
107.89999377	0.00000000	-13.48425000	-6.40378900
108.09999376	0.00000000	-13.89641000	-6.77903500
108.29999375	0.00000000	-14.64690000	-7.93553100
108.49999374	0.00000000	-15.80955000	-9.47342500
108.69999372	0.00000000	-16.92298000	-11.00517000
108.89999371	0.00000000	-17.34744000	-12.16166000
109.09999370	0.00000000	-17.34744000	-12.49385000
109.29999369	0.00000000	-16.92298000	-11.74951000
109.49999368	0.00000000	-15.80955000	-9.84867000
109.69999366	0.00000000	-14.64690000	-7.98474400
109.89999365	0.00000000	-13.85334000	-6.77903500
110.09999364	0.00000000	-13.06594000	-6.35457700
110.29999363	0.00000000	-12.73991000	-6.35457700
110.49999362	0.00000000	-13.11516000	-6.77903500
110.69999360	0.00000000	-14.27165000	-7.93553100
110.89999359	0.00000000	-15.76649000	-9.47342500
111.09999358	0.00000000	-16.92298000	-11.00517000
111.29999357	0.00000000	-17.34744000	-12.16166000
111.49999356	0.00000000	-17.34744000	-12.53691000
111.69999355	0.00000000	-16.97219000	-12.16166000
111.89999353	0.00000000	-16.22785000	-11.04823000
112.09999352	0.00000000	-15.80955000	-9.89173200
112.29999351	0.00000000	-15.39124000	-9.09817800
112.49999350	0.00000000	-14.64690000	-8.31077700
112.69999349	0.00000000	-14.27165000	-7.93553100
112.89999347	0.00000000	-14.22859000	-7.89247000
113.09999346	0.00000000	-14.27165000	-7.93553100
113.29999345	0.00000000	-14.64690000	-8.31077700
113.49999344	0.00000000	-15.39124000	-9.05511800
113.69999343	0.00000000	-15.76649000	-9.43036400
113.89999341	0.00000000	-15.80955000	-9.51648500
114.09999340	0.00000000	-15.80955000	-9.89173200
114.29999339	0.00000000	-15.80955000	-10.62992000
114.49999338	0.00000000	-15.80955000	-11.00517000
114.69999337	0.00000000	-15.80955000	-11.04823000
114.89999336	0.00000000	-15.80955000	-11.04823000
115.09999334	0.00000000	-15.80955000	-11.04823000
115.29999333	0.00000000	-15.76649000	-11.00517000
115.49999332	0.00000000	-15.39124000	-10.62992000
115.69999331	0.00000000	-14.69611000	-9.84867000
115.89999330	0.00000000	-14.69611000	-9.09817800
116.09999328	0.00000000	-15.39124000	-8.31077700
116.29999327	0.00000000	-15.76649000	-7.93553100
116.49999326	0.00000000	-15.80955000	-7.89247000
116.69999325	0.00000000	-15.80955000	-7.89247000
116.89999324	0.00000000	-15.80955000	-7.93553100
117.09999322	0.00000000	-15.80955000	-8.31077700
117.29999321	0.00000000	-15.76649000	-9.09817800
117.49999320	0.00000000	-15.39124000	-9.89173200
117.69999319	0.00000000	-14.64690000	-11.04823000
117.89999318	0.00000000	-14.27165000	-12.11860000
118.09999317	0.00000000	-14.22859000	-12.16166000
118.29999315	0.00000000	-14.22859000	-11.46653000
118.49999314	0.00000000	-14.27165000	-11.04823000
118.69999313	0.00000000	-14.69611000	-10.58686000
118.89999312	0.00000000	-15.80955000	-9.47342500
119.09999311	0.00000000	-16.97219000	-8.35998900
119.29999309	0.00000000	-17.72268000	-7.93553100
119.49999308	0.00000000	-18.08563000	-7.89247000
119.69999307	0.00000000	-17.34744000	-7.93553100
119.89999306	0.00000000	-16.22785000	-8.31077700
120.09999305	0.00000000	-15.39124000	-9.09817800
120.29999303	0.00000000	-14.22859000	-9.79945900
120.49999302	0.00000000	-13.11516000	-10.25467000
120.69999301	0.00000000	-12.69070000	-10.26698000
120.89999300	0.00000000	-12.69070000	-10.67298000
121.09999299	0.00000000	-13.11516000	-11.00517000
121.29999298	0.00000000	-14.27165000	-11.04823000
121.49999296	0.00000000	-15.76649000	-11.00517000
121.69999295	0.00000000	-16.92298000	-10.62992000
121.89999294	0.00000000	-17.39050000	-9.89173200
122.09999293	0.00000000	-17.76575000	-9.47342500
122.29999292	0.00000000	-18.13484000	-9.05511800
122.49999290	0.00000000	-17.72268000	-8.31077700
122.69999289	0.00000000	-16.97219000	-7.93553100
122.89999288	0.00000000	-15.80955000	-7.89247000
123.09999287	0.00000000	-14.64690000	-7.93553100
123.29999286	0.00000000	-13.85334000	-8.31077700
123.49999284	0.00000000	-13.11516000	-9.05511800
123.69999283	0.00000000	-13.11516000	-9.47342500
123.89999282	0.00000000	-13.81028000	-9.89173200
124.09999281	0.00000000	-14.22859000	-10.62992000
124.29999280	0.00000000	-14.69611000	-11.00517000
124.49999279	0.00000000	-15.80955000	-11.00517000
124.69999277	0.00000000	-16.92298000	-10.62992000
124.89999276	0.00000000	-17.34744000	-9.89173200
125.09999275	0.00000000	-17.39050000	-9.51648500
125.29999274	0.00000000	-17.39050000	-9.47342500
125.49999273	0.00000000	-17.34744000	-9.43036400
125.69999271	0.00000000	-16.92298000	-9.05511800
125.89999270	0.00000000	-15.80955000	-8.35998900
126.09999269	0.00000000	-14.64690000	-8.35998900
126.29999268	0.00000000	-13.85334000	-9.05511800
126.49999267	0.00000000	-13.11516000	-9.43036400
126.69999265	0.00000000	-13.11516000	-9.47342500
126.89999264	0.00000000	-13.85334000	-9.51648500
127.09999263	0.00000000	-14.64690000	-9.89173200
127.29999262	0.00000000	-15.80955000	-10.58686000
127.49999261	0.00000000	-16.92298000	-10.62992000
127.69999260	0.00000000	-17.39050000	-10.26698000
127.89999258	0.00000000	-17.76575000	-10.25467000
128.09999257	0.00000000	-18.08563000	-9.84867000
128.29999256	0.00000000	-17.34744000	-9.51648500
128.49999255	0.00000000	-16.18479000	-9.43036400
128.69999254	0.00000000	-15.01599000	-9.09817800
128.89999252	0.00000000	-13.48425000	-8.72908400
129.09999251	0.00000000	-12.78297000	-9.09817800
129.29999250	0.00000000	-13.06594000	-9.43036400
129.49999249	0.00000000	-13.85334000	-9.51648500
129.69999248	0.00000000	-14.64690000	-9.89173200
129.89999246	0.00000000	-15.80955000	-10.58686000
130.09999245	0.00000000	-16.92298000	-10.58686000
130.29999244	0.00000000	-17.34744000	-9.89173200
130.49999243	0.00000000	-17.34744000	-9.51648500
130.69999242	0.00000000	-16.97219000	-9.47342500
130.89999241	0.00000000	-16.18479000	-9.47342500
131.09999239	0.00000000	-15.43430000	-9.47342500
131.29999238	0.00000000	-14.64690000	-9.47342500
131.49999237	0.00000000	-14.27165000	-9.51648500
131.69999236	0.00000000	-14.27165000	-9.89173200
131.89999235	0.00000000	-14.64690000	-10.62992000
132.09999233	0.00000000	-15.39124000	-11.00517000
132.29999232	0.00000000	-15.76649000	-11.04823000
132.49999231	0.00000000	-15.80955000	-11.00517000
132.69999230	0.00000000	-15.80955000	-10.62992000
132.89999229	0.00000000	-15.80955000	-9.89173200
133.09999227	0.00000000	-15.80955000	-9.47342500
133.29999226	0.00000000	-15.80955000	-9.05511800
133.49999225	0.00000000	-15.80955000	-8.31077700
133.69999224	0.00000000	-15.80955000	-7.93553100
133.89999223	0.00000000	-15.80955000	-7.93553100
134.09999222	0.00000000	-15.80955000	-8.31077700
134.29999220	0.00000000	-15.80955000	-9.09817800
134.49999219	0.00000000	-15.80955000	-9.84867000
134.69999218	0.00000000	-15.80955000	-10.62992000
134.89999217	0.00000000	-15.76649000	-11.00517000
135.09999216	0.00000000	-15.39124000	-11.04823000
135.29999214	0.00000000	-14.64690000	-11.00517000
135.49999213	0.00000000	-14.32087000	-10.62992000
135.69999212	0.00000000	-14.64690000	-9.84867000
135.89999211	0.00000000	-15.39124000	-9.09817800
136.09999210	0.00000000	-15.80955000	-8.31077700
136.29999208	0.00000000	-16.22785000	-7.93553100
136.49999207	0.00000000	-16.97219000	-7.93553100
136.69999206	0.00000000	-17.29823000	-8.31077700
136.89999205	0.00000000	-16.97219000	-9.05511800
137.09999204	0.00000000	-16.18479000	-9.43036400
137.29999203	0.00000000	-15.43430000	-9.51648500
137.49999201	0.00000000	-14.60384000	-9.89173200
137.69999200	0.00000000	-13.89641000	-10.62992000
137.89999199	0.00000000	-13.48425000	-11.00517000
138.09999198	0.00000000	-13.89641000	-11.04823000
138.29999197	0.00000000	-14.60384000	-11.00517000
138.49999195	0.00000000	-15.43430000	-10.62992000
138.69999194	0.00000000	-16.18479000	-9.89173200
138.89999193	0.00000000	-16.97219000	-9.47342500
139.09999192	0.00000000	-17.29823000	-9.05511800
139.29999191	0.00000000	-16.97219000	-8.31077700
139.49999189	0.00000000	-16.22785000	-7.93553100
139.69999188	0.00000000	-15.80955000	-7.93553100
139.89999187	0.00000000	-15.39124000	-8.31077700
140.09999186	0.00000000	-14.69611000	-9.05511800
140.29999185	0.00000000	-14.64690000	-9.47342500
140.49999184	0.00000000	-15.01599000	-9.89173200
140.69999182	0.00000000	-15.02214000	-10.62992000
140.89999181	0.00000000	-15.43430000	-11.00517000
141.09999180	0.00000000	-15.76649000	-11.04823000
141.29999179	0.00000000	-15.80955000	-11.00517000
141.49999178	0.00000000	-15.80955000	-10.62992000
141.69999176	0.00000000	-15.80955000	-9.84867000
141.89999175	0.00000000	-15.80955000	-9.09817800
142.09999174	0.00000000	-15.76649000	-8.31077700
142.29999173	0.00000000	-15.39124000	-7.93553100
142.49999172	0.00000000	-14.64690000	-7.89247000
142.69999170	0.00000000	-14.32087000	-7.93553100
142.89999169	0.00000000	-14.64690000	-8.35998900
143.09999168	0.00000000	-15.39124000	-9.47342500
143.29999167	0.00000000	-15.76649000	-10.58686000
143.49999166	0.00000000	-15.85261000	-11.00517000
143.69999165	0.00000000	-16.18479000	-11.04823000
143.89999163	0.00000000	-16.55389000	-11.04823000
144.09999162	0.00000000	-16.18479000	-11.00517000
144.29999161	0.00000000	-15.80955000	-10.62992000
144.49999160	0.00000000	-15.39124000	-9.84867000
144.69999159	0.00000000	-14.69611000	-9.09817800
144.89999157	0.00000000	-14.69611000	-8.31077700
145.09999156	0.00000000	-15.39124000	-7.98474400
145.29999155	0.00000000	-15.76649000	-8.31077700
145.49999154	0.00000000	-15.80955000	-9.05511800
145.69999153	0.00000000	-15.80955000	-9.47342500
145.89999151	0.00000000	-15.80955000	-9.89173200
146.09999150	0.00000000	-15.80955000	-10.62992000
146.29999149	0.00000000	-15.80955000	-11.00517000
146.49999148	0.00000000	-15.80955000	-11.04823000
146.69999147	0.00000000	-15.80955000	-11.04823000
146.89999146	0.00000000	-15.80955000	-11.00517000
147.09999144	0.00000000	-15.80955000	-10.62992000
147.29999143	0.00000000	-15.80955000	-9.89173200
147.49999142	0.00000000	-15.80955000	-9.51648500
147.69999141	0.00000000	-15.80955000	-9.47342500
147.89999140	0.00000000	-15.80955000	-9.47342500
148.09999138	0.00000000	-15.80955000	-9.47342500
148.29999137	0.00000000	-15.80955000	-9.47342500
148.49999136	0.00000000	-15.80955000	-9.51648500
148.69999135	0.00000000	-15.80955000	-9.89173200
148.89999134	0.00000000	-15.80955000	-10.62992000
149.09999132	0.00000000	-15.76649000	-11.00517000
149.29999131	0.00000000	-15.39124000	-11.04823000
149.49999130	0.00000000	-14.69611000	-11.00517000
149.69999129	0.00000000	-14.69611000	-10.62992000
149.89999128	0.00000000	-15.39124000	-9.89173200
150.09999127	0.00000000	-15.76649000	-9.51648500
150.29999125	0.00000000	-15.80955000	-9.47342500
150.49999124	0.00000000	-15.85261000	-9.47342500
150.69999123	0.00000000	-16.18479000	-9.47342500
150.89999122	0.00000000	-16.55389000	-9.47342500
151.09999121	0.00000000	-16.18479000	-9.47342500
151.29999119	0.00000000	-15.85261000	-9.47342500
151.49999118	0.00000000	-15.80955000	-9.47342500
151.69999117	0.00000000	-15.80955000	-9.47342500
151.89999116	0.00000000	-15.80955000	-9.51648500
152.09999115	0.00000000	-15.80955000	-9.89173200
152.29999113	0.00000000	-15.80955000	-10.62992000
152.49999112	0.00000000	-15.80955000	-11.00517000
152.69999111	0.00000000	-15.76649000	-11.04823000
152.89999110	0.00000000	-15.43430000	-11.00517000
153.09999109	0.00000000	-15.06521000	-10.62992000
153.29999108	0.00000000	-15.43430000	-9.89173200
153.49999106	0.00000000	-15.80955000	-9.51648500
153.69999105	0.00000000	-16.22785000	-9.47342500
153.89999104	0.00000000	-16.97219000	-9.47342500
154.09999103	0.00000000	-17.34744000	-9.47342500
154.29999102	0.00000000	-17.39050000	-9.47342500
154.49999100	0.00000000	-17.39050000	-9.51648500
154.69999099	0.00000000	-17.34744000	-9.89173200
154.89999098	0.00000000	-16.97219000	-10.62992000
155.09999097	0.00000000	-16.22785000	-11.00517000
155.29999096	0.00000000	-15.85261000	-11.04823000
155.49999094	0.00000000	-15.76649000	-11.04823000
155.69999093	0.00000000	-15.39124000	-11.00517000
155.89999092	0.00000000	-14.69611000	-10.62992000
156.09999091	0.00000000	-14.69611000	-9.89173200
156.29999090	0.00000000	-15.39124000	-9.51648500
156.49999089	0.00000000	-15.76649000	-9.47342500
156.69999087	0.00000000	-15.85261000	-9.47342500
156.89999086	0.00000000	-16.22785000	-9.47342500
157.09999085	0.00000000	-16.97219000	-9.47342500
157.29999084	0.00000000	-17.29823000	-9.47342500
157.49999083	0.00000000	-16.97219000	-9.47342500
157.69999081	0.00000000	-16.27707000	-9.51648500
157.89999080	0.00000000	-16.22785000	-9.89173200
158.09999079	0.00000000	-16.50467000	-10.62992000
158.29999078	0.00000000	-15.80955000	-11.00517000
158.49999077	0.00000000	-15.11442000	-11.04823000
158.69999075	0.00000000	-15.43430000	-11.00517000
158.89999074	0.00000000	-15.76649000	-10.62992000
159.09999073	0.00000000	-15.80955000	-9.89173200
159.29999072	0.00000000	-15.80955000	-9.51648500
159.49999071	0.00000000	-15.80955000	-9.47342500
159.69999070	0.00000000	-15.85261000	-9.47342500
159.89999068	0.00000000	-16.22785000	-9.47342500
160.09999067	0.00000000	-16.92298000	-9.47342500
160.29999066	0.00000000	-16.97219000	-9.51648500
160.49999065	0.00000000	-16.64616000	-9.89173200
160.69999064	0.00000000	-17.01525000	-10.62992000
160.89999062	0.00000000	-17.29823000	-11.00517000
161.09999061	0.00000000	-16.97219000	-11.04823000
161.29999060	0.00000000	-16.22785000	-11.04823000
161.49999059	0.00000000	-15.85261000	-11.04823000
161.69999058	0.00000000	-15.80955000	-11.04823000
161.89999056	0.00000000	-15.80955000	-11.04823000
162.09999055	0.00000000	-15.80955000	-11.04823000
162.29999054	0.00000000	-15.80955000	-11.00517000
162.49999053	0.00000000	-15.80955000	-10.67298000
162.69999052	0.00000000	-15.85261000	-10.31004000
162.89999051	0.00000000	-16.22785000	-10.67298000
163.09999049	0.00000000	-16.97219000	-11.00517000
163.29999048	0.00000000	-17.34744000	-11.04823000
163.49999047	0.00000000	-17.39050000	-11.04823000
163.69999046	0.00000000	-17.39050000	-11.04823000
163.89999045	0.00000000	-17.39050000	-11.04823000
164.09999043	0.00000000	-17.39050000	-11.04823000
164.29999042	0.00000000	-17.34744000	-11.04823000
164.49999041	0.00000000	-16.97219000	-11.04823000
164.69999040	0.00000000	-16.22785000	-11.04823000
164.89999039	0.00000000	-15.85261000	-11.04823000
165.09999037	0.00000000	-15.80955000	-11.04823000
165.29999036	0.00000000	-15.80955000	-11.04823000
165.49999035	0.00000000	-15.80955000	-11.04823000
165.69999034	0.00000000	-15.85261000	-11.04823000
165.89999033	0.00000000	-16.22785000	-11.00517000
166.09999032	0.00000000	-16.97219000	-10.67298000
166.29999030	0.00000000	-17.34744000	-10.31004000
166.49999029	0.00000000	-17.39050000	-10.67298000
166.69999028	0.00000000	-17.39050000	-11.00517000
166.89999027	0.00000000	-17.39050000	-11.04823000
167.09999026	0.00000000	-17.34744000	-11.04823000
167.29999024	0.00000000	-16.97219000	-11.04823000
167.49999023	0.00000000	-16.22785000	-11.04823000
167.69999022	0.00000000	-15.85261000	-11.04823000
167.89999021	0.00000000	-15.80955000	-11.00517000
168.09999020	0.00000000	-15.80955000	-10.67298000
168.29999018	0.00000000	-15.80955000	-10.31004000
168.49999017	0.00000000	-15.85261000	-10.67298000
168.69999016	0.00000000	-16.18479000	-11.00517000
168.89999015	0.00000000	-16.59695000	-11.04823000
169.09999014	0.00000000	-16.60310000	-11.00517000
169.29999013	0.00000000	-16.97219000	-10.62992000
169.49999011	0.00000000	-16.97219000	-9.93479300
169.69999010	0.00000000	-16.64616000	-9.93479300
169.89999009	0.00000000	-17.01525000	-10.58686000
170.09999008	0.00000000	-17.34744000	-10.62992000
170.29999007	0.00000000	-17.39050000	-10.31004000
170.49999005	0.00000000	-17.34744000	-10.62992000
170.69999004	0.00000000	-16.97219000	-10.62992000
170.89999003	0.00000000	-16.22785000	-10.31004000
171.09999002	0.00000000	-15.85261000	-10.67298000
171.29999001	0.00000000	-15.80955000	-11.00517000
171.49998999	0.00000000	-15.80955000	-11.04823000
171.69998998	0.00000000	-15.85261000	-11.04823000
171.89998997	0.00000000	-16.22785000	-11.04823000
172.09998996	0.00000000	-16.97219000	-11.04823000
172.29998995	0.00000000	-17.34744000	-11.04823000
172.49998994	0.00000000	-17.39050000	-11.04823000
172.69998992	0.00000000	-17.39050000	-11.04823000
172.89998991	0.00000000	-17.39050000	-11.04823000
173.09998990	0.00000000	-17.39050000	-11.04823000
173.29998989	0.00000000	-17.34744000	-11.04823000
173.49998988	0.00000000	-17.01525000	-11.04823000
173.69998986	0.00000000	-16.64616000	-11.04823000
173.89998985	0.00000000	-17.01525000	-11.04823000
174.09998984	0.00000000	-17.34744000	-11.04823000
174.29998983	0.00000000	-17.39050000	-11.04823000
174.49998982	0.00000000	-17.39050000	-11.04823000
174.69998980	0.00000000	-17.39050000	-11.04823000
174.89998979	0.00000000	-17.39050000	-11.04823000
175.09998978	0.00000000	-17.39050000	-11.04823000
175.29998977	0.00000000	-17.39050000	-11.04823000
175.49998976	0.00000000	-17.34744000	-11.04823000
175.69998975	0.00000000	-17.01525000	-11.04823000
175.89998973	0.00000000	-16.60310000	-11.04823000
176.09998972	0.00000000	-16.64001000	-11.04823000
176.29998971	0.00000000	-16.60310000	-11.04823000
176.49998970	0.00000000	-17.01525000	-11.04823000
176.69998969	0.00000000	-17.34744000	-11.04823000
176.89998967	0.00000000	-17.39050000	-11.04823000
177.09998966	0.00000000	-17.39050000	-11.04823000
177.29998965	0.00000000	-17.39050000	-11.04823000
177.49998964	0.00000000	-17.39050000	-11.04823000
177.69998963	0.00000000	-17.39050000	-11.04823000
177.89998961	0.00000000	-17.39050000	-11.04823000
178.09998960	0.00000000	-17.39050000	-11.04823000
178.29998959	0.00000000	-17.39050000	-11.04823000
178.49998958	0.00000000	-17.39050000	-11.04823000
178.69998957	0.00000000	-17.39050000	-11.04823000
178.89998956	0.00000000	-17.39050000	-11.04823000
179.09998954	0.00000000	-17.39050000	-11.04823000
179.29998953	0.00000000	-17.39050000	-11.04823000
179.49998952	0.00000000	-17.39050000	-11.04823000
179.69998951	0.00000000	-17.39050000	-11.04823000
179.89998950	0.00000000	-17.39050000	-11.04823000
180.09998948	0.00000000	-17.39050000	-11.04823000
180.29998947	0.00000000	-17.39050000	-11.04823000
180.49998946	0.00000000	-17.39050000	-11.04823000
180.69998945	0.00000000	-17.39050000	-11.04823000
180.89998944	0.00000000	-17.39050000	-11.04823000
181.09998942	0.00000000	-17.39050000	-11.04823000
181.29998941	0.00000000	-17.39050000	-11.04823000
181.49998940	0.00000000	-17.39050000	-11.04823000
181.69998939	0.00000000	-17.39050000	-11.04823000
181.89998938	0.00000000	-17.39050000	-11.04823000
182.09998937	0.00000000	-17.39050000	-11.04823000
182.29998935	0.00000000	-17.39050000	-11.04823000
182.49998934	0.00000000	-17.39050000	-11.04823000
182.69998933	0.00000000	-17.39050000	-11.04823000
182.89998932	0.00000000	-17.39050000	-11.04823000
183.09998931	0.00000000	-17.39050000	-11.04823000
183.29998929	0.00000000	-17.39050000	-11.04823000
183.49998928	0.00000000	-17.39050000	-11.04823000
183.69998927	0.00000000	-17.39050000	-11.04823000
183.89998926	0.00000000	-17.39050000	-11.04823000
184.09998925	0.00000000	-17.39050000	-11.04823000
184.29998923	0.00000000	-17.39050000	-11.00517000
184.49998922	0.00000000	-17.39050000	-10.67298000
184.69998921	0.00000000	-17.39050000	-10.26698000
184.89998920	0.00000000	-17.39050000	-10.30389000
185.09998919	0.00000000	-17.39050000	-10.26698000
185.29998918	0.00000000	-17.39050000	-10.67298000
185.49998916	0.00000000	-17.39050000	-11.00517000
185.69998915	0.00000000	-17.39050000	-11.09129000
185.89998914	0.00000000	-17.39050000	-11.46653000
186.09998913	0.00000000	-17.39050000	-12.21087000
186.29998912	0.00000000	-17.39050000	-12.58612000
186.49998910	0.00000000	-17.39050000	-12.58612000
186.69998909	0.00000000	-17.39050000	-12.21087000
186.89998908	0.00000000	-17.39050000	-11.46653000
187.09998907	0.00000000	-17.39050000	-11.09129000
187.29998906	0.00000000	-17.39050000	-11.04823000
187.49998904	0.00000000	-17.39050000	-11.04823000
187.69998903	0.00000000	-17.39050000	-11.04823000
187.89998902	0.00000000	-17.39050000	-11.04823000
188.09998901	0.00000000	-17.39050000	-11.04823000
188.29998900	0.00000000	-17.39050000	-11.04823000
188.49998899	0.00000000	-17.39050000	-11.09129000
188.69998897	0.00000000	-17.39050000	-11.46653000
188.89998896	0.00000000	-17.39050000	-12.21087000
189.09998895	0.00000000	-17.39050000	-12.58612000
189.29998894	0.00000000	-17.39050000	-12.58612000
189.49998893	0.00000000	-17.39050000	-12.25394000
189.69998891	0.00000000	-17.39050000	-11.84178000
189.89998890	0.00000000	-17.39050000	-11.83563000
190.09998889	0.00000000	-17.43356000	-11.42347000
190.29998888	0.00000000	-17.76575000	-11.09129000
190.49998887	0.00000000	-18.17790000	-11.04823000
190.69998885	0.00000000	-18.14099000	-11.04823000
190.89998884	0.00000000	-18.17790000	-11.09129000
191.09998883	0.00000000	-17.76575000	-11.42347000
191.29998882	0.00000000	-17.43356000	-11.79257000
191.49998881	0.00000000	-17.39050000	-11.46653000
191.69998880	0.00000000	-17.39050000	-11.46653000
191.89998878	0.00000000	-17.39050000	-11.83563000
192.09998877	0.00000000	-17.39050000	-11.84178000
192.29998876	0.00000000	-17.39050000	-12.25394000
192.49998875	0.00000000	-17.43356000	-12.58612000
192.69998874	0.00000000	-17.80881000	-12.58612000
192.89998872	0.00000000	-18.55315000	-12.25394000
193.09998871	0.00000000	-18.92839000	-11.84178000
193.29998870	0.00000000	-18.97145000	-11.83563000
193.49998869	0.00000000	-18.92839000	-11.42347000
193.69998868	0.00000000	-18.59621000	-11.09129000
193.89998866	0.00000000	-18.22711000	-11.04823000
194.09998865	0.00000000	-18.55315000	-11.04823000
194.29998864	0.00000000	-18.50394000	-11.04823000
194.49998863	0.00000000	-17.85802000	-11.04823000
194.69998862	0.00000000	-17.80881000	-11.04823000
194.89998861	0.00000000	-18.13484000	-11.04823000
195.09998859	0.00000000	-17.80881000	-11.04823000
195.29998858	0.00000000	-17.80881000	-11.09129000
195.49998857	0.00000000	-18.17790000	-11.46653000
195.69998856	0.00000000	-18.18405000	-12.16166000
195.89998855	0.00000000	-18.59621000	-12.16166000
196.09998853	0.00000000	-18.92839000	-11.46653000
