Time	Channel A	Channel B	Channel C
(us)	(V)	(mV)	(mV)

-4.49999956	0.00000000	9.48572700	7.89247000
-4.29999957	0.00000000	9.48572700	7.89247000
-4.09999958	0.00000000	9.48572700	7.89247000
-3.89999959	0.00000000	9.48572700	7.89247000
-3.69999960	0.00000000	9.48572700	7.89247000
-3.49999962	0.00000000	9.48572700	7.89247000
-3.29999963	0.00000000	9.48572700	7.89247000
-3.09999964	0.00000000	9.48572700	7.89247000
-2.89999965	0.00000000	9.48572700	7.89247000
-2.69999966	0.00000000	9.48572700	7.89247000
-2.49999968	0.00000000	9.44266700	7.93553100
-2.29999969	0.00000000	9.15354300	8.26771600
-2.09999970	0.00000000	9.11663300	8.63681000
-1.89999971	0.00000000	9.85482200	8.26771600
-1.69999972	0.00000000	9.81791200	7.93553100
-1.49999973	0.00000000	9.52879000	7.89247000
-1.29999975	0.00000000	9.48572700	7.89247000
-1.09999976	0.00000000	9.48572700	7.89247000
-0.89999977	0.00000000	9.48572700	7.89247000
-0.69999978	0.00000000	9.48572700	7.89247000
-0.49999979	0.00000000	9.48572700	7.89247000
-0.29999981	0.31803640	9.48572700	7.89247000
-0.09999982	0.63668800	9.48572700	7.89247000
0.10000017	0.95533960	9.48572700	7.89247000
0.30000016	0.95533960	9.48572700	7.89247000
0.50000015	0.79601380	9.48572700	7.89247000
0.70000013	0.15871060	9.48572700	7.89247000
0.90000012	-0.63668800	9.48572700	7.89247000
1.10000011	-1.59264300	9.48572700	7.89247000
1.30000010	-2.38927200	9.48572700	7.89247000
1.50000009	-2.70792300	9.48572700	7.89247000
1.70000008	-2.38927200	9.48572700	7.89247000
1.90000006	-1.11466500	9.48572700	7.89247000
2.10000005	0.79601380	9.48572700	7.89247000
2.30000004	2.86724900	9.48572700	7.89247000
2.50000003	4.61921700	9.48572700	7.89247000
2.70000002	5.41584600	9.48572700	7.84940900
2.90000000	4.77854300	9.48572700	7.47416300
3.09999999	2.70792300	9.48572700	6.72982200
3.29999998	-0.47736220	9.48572700	6.40378900
3.49999997	-3.98191400	9.48572700	6.72982200
3.69999996	-6.69045300	9.48572700	7.47416300
3.89999994	-7.96444400	9.48572700	7.84940900
4.09999993	-7.32714100	9.48572700	7.89247000
4.29999992	-4.61921700	9.48572700	7.93553100
4.49999991	-0.47736220	9.48572700	8.26771600
4.69999990	3.82258900	9.48572700	8.63681000
4.89999989	7.48646600	9.48572700	8.26771600
5.09999987	9.39837600	9.48572700	7.93553100
5.29999986	8.92039900	9.48572700	7.84940900
5.49999985	6.21247500	9.48572700	7.47416300
5.69999984	1.91129400	9.48572700	6.77903500
5.89999983	-2.86724900	9.48572700	6.77903500
6.09999981	-7.00848900	9.48572700	7.47416300
6.29999980	-9.23905000	9.52879000	7.89247000
6.49999979	-9.07972400	9.90403500	8.31077700
6.69999978	-6.84916400	10.64838000	9.05511800
6.89999977	-2.86724900	10.97441000	9.38115100
7.09999975	1.43331700	10.64838000	9.05511800
7.29999974	5.25652100	9.90403500	8.26771600
7.49999973	7.48646600	9.52879000	7.51722400
7.69999972	7.64579200	9.48572700	6.72982200
7.89999971	6.05315000	9.48572700	6.35457700
8.09999970	3.02657500	9.48572700	6.31151500
8.29999968	-0.31803640	9.48572700	6.35457700
8.49999967	-3.18590100	9.48572700	6.72982200
8.69999966	-4.77854300	9.48572700	7.47416300
8.89999965	-5.09719500	9.48572700	7.84940900
9.09999964	-4.14124000	9.48572700	7.89247000
9.29999962	-2.38927200	9.48572700	7.89247000
9.49999961	-0.47736220	9.48572700	7.89247000
9.69999960	1.27399100	9.48572700	7.89247000
9.89999959	2.22994600	9.48572700	7.89247000
10.09999958	2.54859700	9.48572700	7.89247000
10.29999956	2.07062000	9.48572700	7.89247000
10.49999955	1.27399100	9.48572700	7.89247000
10.69999954	0.47736220	9.48572700	7.89247000
10.89999953	-0.31803640	9.48572700	7.89247000
11.09999952	-0.79601380	9.48572700	7.89247000
11.29999951	-0.95533960	9.48572700	7.89247000
11.49999949	-0.95533960	9.48572700	7.89247000
11.69999948	-0.63668800	9.48572700	7.89247000
11.89999947	-0.31803640	9.48572700	7.89247000
12.09999946	-0.15871060	9.48572700	7.89247000
12.29999945	-0.15871060	9.52879000	7.89247000
12.49999943	0.00000000	9.81791200	7.89247000
12.69999942	0.00000000	9.85482200	7.89247000
12.89999941	0.00000000	9.11663300	7.89247000
13.09999940	0.00000000	9.15354300	7.89247000
13.29999939	0.00000000	9.44266700	7.89247000
13.49999937	0.00000000	9.48572700	7.89247000
13.69999936	0.00000000	9.52879000	7.89247000
13.89999935	0.00000000	9.86097400	7.89247000
14.09999934	-0.15871060	10.27313000	7.89247000
14.29999933	-0.15871060	10.23622000	7.89247000
14.49999932	-0.15871060	10.27313000	7.89247000
14.69999930	0.00000000	9.86097400	7.89247000
14.89999929	0.00000000	9.52879000	7.89247000
15.09999928	0.00000000	9.52879000	7.89247000
15.29999927	0.00000000	9.86097400	7.89247000
15.49999926	0.00000000	10.23007000	7.89247000
15.69999924	0.00000000	9.86097400	7.89247000
15.89999923	0.00000000	9.52879000	7.89247000
16.09999922	0.00000000	9.48572700	7.89247000
16.29999921	-0.15871060	9.48572700	7.89247000
16.49999920	-0.15871060	9.52879000	7.89247000
16.69999919	-0.15871060	9.90403500	7.89247000
16.89999917	0.00000000	10.64838000	7.89247000
17.09999916	0.00000000	11.02362000	7.89247000
17.29999915	0.00000000	11.06668000	7.89247000
17.49999914	0.00000000	11.06668000	7.89247000
17.69999913	0.00000000	11.06668000	7.89247000
17.89999911	0.00000000	11.02362000	7.89247000
18.09999910	0.00000000	10.59916000	7.89247000
18.29999909	0.00000000	9.44266700	7.89247000
18.49999908	0.00000000	7.90477300	7.89247000
18.69999907	0.00000000	6.36687900	7.89247000
18.89999905	0.00000000	5.25344500	7.89247000
19.09999904	0.00000000	5.29650500	7.89247000
19.29999903	0.00000000	6.83439900	7.89247000
19.49999902	0.00000000	9.57800100	7.89247000
19.69999901	0.00000000	13.06594000	7.89247000
19.89999900	0.00000000	16.92298000	7.89247000
20.09999898	0.00000000	19.99877000	7.89247000
20.29999897	0.00000000	21.48745000	7.89247000
20.49999896	0.00000000	20.65084000	7.89247000
20.69999895	0.00000000	16.74459000	7.89247000
20.89999894	0.00000000	10.55610000	7.89247000
21.09999892	0.00000000	3.16190900	7.89247000
21.29999891	0.00000000	-4.14616100	7.89247000
21.49999890	0.00000000	-9.49187900	7.89247000
21.69999889	0.00000000	-10.93750000	7.89247000
21.89999888	0.00000000	-7.40034400	7.84940900
22.09999886	0.00000000	1.10728300	7.51722400
22.29999885	0.00000000	12.73991000	7.14812900
22.49999884	0.00000000	25.11688000	7.51722400
22.69999883	0.00000000	35.86368000	7.84940900
22.89999882	0.00000000	41.59080000	7.89247000
23.09999881	0.00000000	40.38509000	7.93553100
23.29999879	0.00000000	32.14813000	8.31077700
23.49999878	0.00000000	17.44587000	9.05511800
23.69999877	0.00000000	-0.69512790	9.43036400
23.89999876	0.00000000	-17.63656000	9.47342500
24.09999875	0.00000000	-29.54601000	9.43036400
24.29999873	0.00000000	-32.57259000	9.00590400
24.49999872	0.00000000	-25.59670000	7.84940900
24.69999871	0.00000000	-10.10089000	6.31151500
24.89999870	0.00000000	11.15896000	4.77977300
25.09999869	0.00000000	33.12008000	3.57406500
25.29999867	0.00000000	50.52288000	2.82357300
25.49999866	0.00000000	59.36269000	2.50369100
25.69999865	0.00000000	57.40649000	3.70939900
25.89999864	0.00000000	44.56816000	6.40378900
26.09999863	0.00000000	23.35138000	9.89173200
26.29999862	0.00000000	-1.72244100	13.79183000
26.49999860	0.00000000	-24.10802000	17.23056000
26.69999859	0.00000000	-38.81028000	19.50664000
26.89999858	0.00000000	-42.66732000	19.37131000
27.09999857	0.00000000	-34.52879000	15.93258000
27.29999856	0.00000000	-16.42470000	9.71333600
27.49999854	0.00000000	7.52952700	2.36220500
27.69999853	0.00000000	31.44685000	-5.33956700
27.89999852	0.00000000	50.05536000	-11.06053000
28.09999851	0.00000000	59.36269000	-13.01058000
28.29999850	0.00000000	57.82480000	-11.01132000
28.49999848	0.00000000	45.86614000	-4.69365100
28.69999847	0.00000000	26.23647000	5.70866100
28.89999846	0.00000000	4.18307100	18.01796000
29.09999845	0.00000000	-15.59424000	28.80167000
29.29999844	0.00000000	-29.49680000	35.77140000
29.49999843	0.00000000	-34.19660000	37.21087000
29.69999841	0.00000000	-29.21998000	32.14813000
29.89999840	0.00000000	-16.51083000	20.90305000
30.09999839	0.00000000	1.24877000	5.85014700
30.29999838	0.00000000	19.40207000	-9.94709500
30.49999837	0.00000000	34.23966000	-22.67470000
30.69999835	0.00000000	43.54699000	-29.22613000
30.89999834	0.00000000	45.86614000	-28.38951000
31.09999833	0.00000000	40.47121000	-19.46973000
31.29999832	0.00000000	28.93085000	-4.04773600
31.49999831	0.00000000	14.27165000	14.07480000
31.69999829	0.00000000	-0.09842519	31.12082000
31.89999828	0.00000000	-11.31275000	43.48548000
32.09999827	0.00000000	-17.58735000	48.87426000
32.29999826	0.00000000	-17.59350000	45.71235000
32.49999825	0.00000000	-12.19242000	34.19045000
32.69999824	0.00000000	-2.14074800	17.23056000
32.89999822	0.00000000	10.13779000	-0.97810030
33.09999821	0.00000000	21.02608000	-17.23671000
33.29999820	0.00000000	28.79552000	-28.38951000
33.49999819	0.00000000	32.23425000	-31.50221000
33.69999818	0.00000000	29.95817000	-26.16265000
33.89999816	0.00000000	23.11762000	-14.21629000
34.09999815	0.00000000	14.22859000	1.66707700
34.29999814	0.00000000	5.29650500	18.30093000
34.49999813	0.00000000	-2.00541300	32.60949000
34.69999812	0.00000000	-5.86860200	41.44316000
34.89999810	0.00000000	-5.12426100	42.59965000
35.09999809	0.00000000	-0.55979330	35.72219000
35.29999808	0.00000000	6.36687900	23.03765000
35.49999807	0.00000000	13.63189000	7.98474400
35.69999806	0.00000000	19.06988000	-6.32381900
35.89999805	0.00000000	21.40133000	-16.73228000
36.09999803	0.00000000	20.65084000	-21.00148000
36.29999802	0.00000000	16.83686000	-18.31324000
36.49999801	0.00000000	11.48499000	-9.52263600
36.69999800	0.00000000	6.41609200	2.78051200
36.89999799	0.00000000	2.17765700	15.09596000
37.09999797	0.00000000	-0.04921259	24.76009000
37.29999796	0.00000000	1.06422200	29.36146000
37.49999795	0.00000000	4.83513700	27.82972000
37.69999794	0.00000000	9.48572700	20.57702000
37.89999793	0.00000000	14.13632000	9.94094400
38.09999791	0.00000000	17.99951000	-0.04921259
38.29999790	0.00000000	19.90650000	-6.64985200
38.49999789	0.00000000	19.53125000	-8.92593500
38.69999788	0.00000000	16.83686000	-5.85629900
38.89999787	0.00000000	12.60458000	1.75319900
39.09999786	0.00000000	7.99704600	10.96211000
39.29999784	0.00000000	4.13385800	19.41437000
39.49999783	0.00000000	2.13459600	24.71703000
39.69999782	0.00000000	1.71628900	24.71703000
39.89999781	0.00000000	2.50984200	19.32825000
40.09999780	0.00000000	4.83513700	10.16855000
40.29999778	0.00000000	7.94783400	-0.18454720
40.49999777	0.00000000	11.44193000	-8.18774500
40.69999776	0.00000000	14.92372000	-11.70645000
40.89999775	0.00000000	17.25517000	-9.76254800
41.09999774	0.00000000	18.46087000	-3.25418300
41.29999772	0.00000000	18.41781000	6.40378900
41.49999771	0.00000000	16.87992000	16.71998000
41.69999770	0.00000000	14.13632000	24.76009000
41.89999769	0.00000000	10.69144000	27.87278000
42.09999768	0.00000000	7.20964500	25.64591000
42.29999767	0.00000000	4.87819900	19.46358000
42.49999765	0.00000000	3.62942900	10.58686000
42.69999764	0.00000000	3.25418300	1.01501000
42.89999763	0.00000000	3.67249000	-6.23154500
43.09999762	0.00000000	5.25344500	-9.06126900
43.29999761	0.00000000	7.90477300	-7.57874000
43.49999759	0.00000000	10.59916000	-3.34645700
43.69999758	0.00000000	12.55536000	3.24803100
43.89999757	0.00000000	13.76107000	10.49459000
44.09999756	0.00000000	14.18553000	16.30167000
44.29999755	0.00000000	14.22859000	19.42052000
44.49999753	0.00000000	14.22859000	19.46358000
44.69999752	0.00000000	14.22859000	16.81225000
44.89999751	0.00000000	14.18553000	12.58612000
45.09999750	0.00000000	13.76107000	7.93553100
45.29999749	0.00000000	12.55536000	3.70939900
45.49999748	0.00000000	10.64838000	1.01501000
45.69999746	0.00000000	8.23695900	0.55364170
45.89999745	0.00000000	5.53026500	1.66707700
46.09999744	0.00000000	2.46678100	3.61712600
46.29999743	0.00000000	0.59670270	6.31151500
46.49999742	0.00000000	0.55364170	9.00590400
46.69999740	0.00000000	2.17765700	10.96211000
46.89999739	0.00000000	5.71481200	12.16166000
47.09999738	0.00000000	11.15896000	12.53691000
47.29999737	0.00000000	17.29823000	12.11860000
47.49999736	0.00000000	22.69316000	10.53765000
47.69999734	0.00000000	25.71973000	7.89247000
47.89999733	0.00000000	25.30143000	5.19808000
48.09999732	0.00000000	21.06914000	3.24803100
48.29999731	0.00000000	14.09326000	2.08538400
48.49999730	0.00000000	5.94857300	2.12844500
48.69999729	0.00000000	-2.09768700	3.66633800
48.89999727	0.00000000	-7.44955700	6.36072800
49.09999726	0.00000000	-8.28617100	9.47342500
49.29999725	0.00000000	-5.16732200	12.53691000
49.49999724	0.00000000	1.43946800	14.81299000
49.69999723	0.00000000	10.69144000	15.18824000
49.89999721	0.00000000	19.90650000	13.69956000
50.09999720	0.00000000	26.83932000	10.96211000
50.29999719	0.00000000	29.53371000	7.47416300
50.49999718	0.00000000	27.25763000	3.62327700
50.69999717	0.00000000	21.06914000	0.59670270
50.89999715	0.00000000	12.22933000	-0.60285430
51.09999714	0.00000000	3.02042300	0.17839570
51.29999713	0.00000000	-3.54330700	2.50369100
51.49999712	0.00000000	-6.28690900	6.35457700
51.69999711	0.00000000	-4.74901600	10.58686000
51.89999710	0.00000000	0.64591530	14.07480000
52.09999708	0.00000000	8.32308000	16.35089000
52.29999707	0.00000000	16.36934000	16.30167000
52.49999706	0.00000000	22.13952000	13.69956000
52.69999705	0.00000000	24.09572000	9.84867000
52.89999704	0.00000000	22.18258000	5.98548200
53.09999702	0.00000000	16.83686000	2.50369100
53.29999701	0.00000000	9.95324800	0.63976370
53.49999700	0.00000000	3.75861200	0.97194880
53.69999699	0.00000000	-0.47367120	3.24803100
53.89999698	0.00000000	-1.63016700	6.26845500
54.09999696	0.00000000	0.68897630	9.00590400
54.29999695	0.00000000	5.67175200	10.91289000
54.49999694	0.00000000	12.18012000	11.70029000
54.69999693	0.00000000	17.90723000	10.91289000
54.89999692	0.00000000	21.02608000	9.05511800
55.09999691	0.00000000	21.02608000	6.77903500
55.29999689	0.00000000	17.95029000	5.24729300
55.49999688	0.00000000	12.60458000	4.87204700
55.69999687	0.00000000	6.87746000	5.66560000
55.89999686	0.00000000	2.60211600	7.93553100
56.09999685	0.00000000	0.64591530	10.58686000
56.29999683	0.00000000	1.02116100	12.49385000
56.49999682	0.00000000	3.75861200	13.23819000
56.69999681	0.00000000	8.32308000	12.03248000
56.89999680	0.00000000	13.29970000	8.96284400
57.09999679	0.00000000	16.79380000	4.73671200
57.29999677	0.00000000	18.37475000	0.55364170
57.49999676	0.00000000	17.99951000	-2.09153500
57.69999675	0.00000000	15.67421000	-2.09153500
57.89999674	0.00000000	12.22933000	0.64591530
58.09999673	0.00000000	8.41535400	5.61638700
58.29999672	0.00000000	5.71481200	11.79257000
58.49999670	0.00000000	4.87819900	17.14444000
58.69999669	0.00000000	5.21038300	20.62008000
58.89999668	0.00000000	6.41609200	20.95226000
59.09999667	0.00000000	8.32308000	17.88263000
59.29999666	0.00000000	10.59916000	12.11860000
59.49999664	0.00000000	12.13706000	5.15501900
59.69999663	0.00000000	12.60458000	-1.35334600
59.89999662	0.00000000	12.60458000	-5.94857300
60.09999661	0.00000000	12.18012000	-6.74212600
60.29999660	0.00000000	11.06668000	-4.04773600
60.49999658	0.00000000	9.95324800	1.39025600
60.69999657	0.00000000	9.52879000	9.09817800
60.89999656	0.00000000	9.52879000	16.72613000
61.09999655	0.00000000	9.95324800	22.15797000
61.29999654	0.00000000	11.06668000	24.06496000
61.49999653	0.00000000	12.18012000	22.10876000
61.69999651	0.00000000	12.55536000	16.35089000
61.89999650	0.00000000	12.18012000	8.26771600
62.09999649	0.00000000	11.02362000	0.22145670
62.29999648	0.00000000	9.48572700	-5.99163300
62.49999647	0.00000000	7.94783400	-8.69217500
62.69999645	0.00000000	6.79133800	-7.94783400
62.89999644	0.00000000	6.41609200	-3.62942900
63.09999643	0.00000000	6.83439900	3.62327700
63.29999642	0.00000000	8.41535400	11.70029000
63.49999641	0.00000000	11.06668000	18.25787000
63.69999639	0.00000000	13.71801000	22.15797000
63.89999638	0.00000000	15.25591000	22.57628000
64.09999637	0.00000000	15.29897000	19.88189000
64.29999636	0.00000000	14.13632000	14.85605000
64.49999635	0.00000000	12.22933000	8.31077700
64.69999634	0.00000000	9.86097400	2.12844500
64.89999632	0.00000000	7.57258800	-2.51599400
65.09999631	0.00000000	5.67175200	-4.82898600
65.29999630	0.00000000	5.29650500	-4.13385800
65.49999629	0.00000000	6.41609200	-1.44562000
65.69999628	0.00000000	8.32308000	2.46063000
65.89999626	0.00000000	10.64838000	7.47416300
66.09999625	0.00000000	12.55536000	12.07554000
66.29999624	0.00000000	13.71801000	15.23130000
66.49999623	0.00000000	13.67495000	16.85531000
66.69999622	0.00000000	12.18012000	17.23056000
66.89999620	0.00000000	9.90403500	16.48622000
67.09999619	0.00000000	7.99704600	14.53617000
67.29999618	0.00000000	6.83439900	12.16781000
67.49999617	0.00000000	6.87746000	9.00590400
67.69999616	0.00000000	8.41535400	5.15501900
67.89999615	0.00000000	11.06668000	1.66707700
68.09999613	0.00000000	13.76107000	-1.02116100
68.29999612	0.00000000	15.67421000	-2.18380900
68.49999611	0.00000000	16.41855000	-1.43946800
68.69999610	0.00000000	15.21284000	0.51058070
68.89999609	0.00000000	12.13706000	3.66633800
69.09999607	0.00000000	7.90477300	7.93553100
69.29999606	0.00000000	3.71555100	12.53691000
69.49999605	0.00000000	1.02116100	16.39395000
69.69999604	0.00000000	0.59670270	18.35015000
69.89999603	0.00000000	2.17765700	18.35015000
70.09999601	0.00000000	5.71481200	16.35089000
70.29999600	0.00000000	11.10974000	12.11860000
70.49999599	0.00000000	16.83686000	6.72982200
70.69999598	0.00000000	21.06914000	1.71013800
70.89999597	0.00000000	22.65010000	-2.14074800
71.09999596	0.00000000	21.48745000	-3.67249000
71.29999594	0.00000000	17.99951000	-2.55905500
71.49999593	0.00000000	12.55536000	0.51058070
71.69999592	0.00000000	6.36687900	4.77977300
71.89999591	0.00000000	0.59670270	9.38115100
72.09999590	0.00000000	-3.21112200	13.23819000
72.29999588	0.00000000	-3.63558100	15.18824000
72.49999587	0.00000000	-0.93503930	15.23130000
72.69999586	0.00000000	4.09079700	13.69956000
72.89999585	0.00000000	10.64838000	11.00517000
73.09999584	0.00000000	16.79380000	7.98474400
73.29999582	0.00000000	21.06914000	5.61638700
73.49999581	0.00000000	22.65010000	4.49680100
73.69999580	0.00000000	21.48745000	4.45989200
73.89999579	0.00000000	18.04257000	5.98548200
74.09999578	0.00000000	13.02288000	7.80019600
74.29999577	0.00000000	7.99704600	8.96284400
74.49999575	0.00000000	3.71555100	8.96284400
74.69999574	0.00000000	1.02116100	7.84940900
74.89999573	0.00000000	0.64591530	6.31151500
75.09999572	0.00000000	2.50984200	4.77977300
75.29999571	0.00000000	5.99163300	3.66633800
75.49999569	0.00000000	9.81791200	3.70939900
75.69999568	0.00000000	13.29970000	5.29035400
75.89999567	0.00000000	15.25591000	8.35998900
76.09999566	0.00000000	15.71727000	12.16166000
76.29999565	0.00000000	15.29897000	15.23130000
76.49999563	0.00000000	13.76107000	16.76919000
76.69999562	0.00000000	11.53420000	16.35089000
76.89999561	0.00000000	9.99630800	13.61343000
77.09999560	0.00000000	9.52879000	9.00590400
77.29999559	0.00000000	9.48572700	3.62327700
77.49999558	0.00000000	9.48572700	-1.02116100
77.69999556	0.00000000	9.48572700	-4.09079700
77.89999555	0.00000000	9.48572700	-4.78592500
78.09999554	0.00000000	9.44266700	-2.09153500
78.29999553	0.00000000	9.06742000	3.24803100
78.49999552	0.00000000	8.32308000	9.42421200
78.69999550	0.00000000	7.99704600	15.23130000
78.89999549	0.00000000	8.41535400	19.46358000
79.09999548	0.00000000	9.90403500	20.99532000
79.29999547	0.00000000	11.85408000	19.50664000
79.49999546	0.00000000	13.39813000	15.64960000
79.69999544	0.00000000	14.97293000	10.62992000
79.89999543	0.00000000	15.67421000	5.19808000
80.09999542	0.00000000	15.29897000	0.55364170
80.29999541	0.00000000	13.71801000	-2.51599400
80.49999540	0.00000000	11.02362000	-3.29724400
80.69999539	0.00000000	7.94783400	-1.39640700
80.89999537	0.00000000	5.29650500	1.99311000
81.09999536	0.00000000	4.13385800	5.93626900
81.29999535	0.00000000	4.87819900	9.79945900
81.49999534	0.00000000	6.79133800	13.32431000
81.69999533	0.00000000	9.48572700	15.64960000
81.89999531	0.00000000	12.18012000	16.81225000
82.09999530	0.00000000	14.13632000	16.43701000
82.29999529	0.00000000	15.29897000	14.53617000
82.49999528	0.00000000	15.29897000	12.21087000
82.69999527	0.00000000	14.13632000	9.38115100
82.89999525	0.00000000	12.22933000	5.93626900
83.09999524	0.00000000	9.90403500	2.46063000
83.29999523	0.00000000	7.99704600	0.13533460
83.49999522	0.00000000	6.83439900	-1.06422200
83.69999521	0.00000000	6.83439900	-1.02116100
83.89999520	0.00000000	7.90477300	0.55364170
84.09999518	0.00000000	9.06742000	3.66633800
84.29999517	0.00000000	9.86097400	7.89247000
84.49999516	0.00000000	10.64838000	12.16166000
84.69999515	0.00000000	11.02362000	15.64960000
84.89999514	0.00000000	11.06668000	17.92569000
85.09999512	0.00000000	11.06668000	17.92569000
85.29999511	0.00000000	11.06668000	15.64960000
85.49999510	0.00000000	11.06668000	12.16166000
85.69999509	0.00000000	11.10974000	7.84940900
85.89999508	0.00000000	11.44193000	3.24803100
86.09999506	0.00000000	11.81102000	-0.60285430
86.29999505	0.00000000	11.39887000	-2.50984200
86.49999504	0.00000000	10.69144000	-2.14074800
86.69999503	0.00000000	9.86097400	0.59670270
86.89999502	0.00000000	9.06742000	5.19808000
87.09999501	0.00000000	7.90477300	10.53765000
87.29999499	0.00000000	6.83439900	14.81299000
87.49999498	0.00000000	6.83439900	17.13829000
87.69999497	0.00000000	7.90477300	17.50738000
87.89999496	0.00000000	9.11048200	15.18824000
88.09999495	0.00000000	10.32234000	11.04823000
88.29999493	0.00000000	12.22933000	6.72982200
88.49999492	0.00000000	13.67495000	2.87278500
88.69999491	0.00000000	13.76107000	-0.18454720
88.89999490	0.00000000	12.97982000	-0.93503930
89.09999489	0.00000000	11.81102000	0.55364170
89.29999487	0.00000000	9.90403500	3.70939900
89.49999486	0.00000000	8.37229300	8.26771600
89.69999485	0.00000000	7.57258800	12.86294000
89.89999484	0.00000000	7.20964500	15.56348000
90.09999483	0.00000000	7.94783400	16.34473000
90.29999482	0.00000000	9.06742000	14.76993000
90.49999480	0.00000000	9.90403500	10.95595000
90.69999479	0.00000000	11.06668000	6.40378900
90.89999478	0.00000000	12.18012000	2.50369100
91.09999477	0.00000000	12.55536000	0.22145670
91.29999476	0.00000000	12.22933000	-0.18454720
91.49999474	0.00000000	11.48499000	1.80241100
91.69999473	0.00000000	11.10974000	5.57332700
91.89999472	0.00000000	11.06668000	10.21161000
92.09999471	0.00000000	11.06668000	14.03174000
92.29999470	0.00000000	11.06668000	16.35089000
92.49999468	0.00000000	11.02362000	16.30167000
92.69999467	0.00000000	10.64838000	13.65650000
92.89999466	0.00000000	9.86097400	9.43036400
93.09999465	0.00000000	9.11048200	4.82898600
93.29999464	0.00000000	8.32308000	1.02116100
93.49999463	0.00000000	7.94783400	-0.55979330
93.69999461	0.00000000	7.94783400	0.22145670
93.89999460	0.00000000	8.37229300	2.92199800
94.09999459	0.00000000	9.57800100	7.51722400
94.29999458	0.00000000	11.48499000	12.07554000
94.49999457	0.00000000	13.76107000	15.18824000
94.69999455	0.00000000	15.29897000	16.30167000
94.89999454	0.00000000	15.67421000	14.76993000
95.09999453	0.00000000	14.92372000	11.00517000
95.29999452	0.00000000	12.97982000	6.77903500
95.49999451	0.00000000	10.64838000	3.29109200
95.69999449	0.00000000	7.90477300	0.97194880
95.89999448	0.00000000	5.25344500	0.59670270
96.09999447	0.00000000	3.71555100	2.12844500
96.29999446	0.00000000	3.67249000	5.19808000
96.49999445	0.00000000	4.87819900	9.00590400
96.69999444	0.00000000	7.20964500	12.07554000
96.89999442	0.00000000	10.69144000	13.65650000
97.09999441	0.00000000	14.13632000	13.65650000
97.29999440	0.00000000	16.87992000	12.11860000
97.49999439	0.00000000	18.41781000	9.47342500
97.69999438	0.00000000	18.37475000	6.77903500
97.89999436	0.00000000	16.46161000	4.82283400
98.09999435	0.00000000	12.97982000	3.66633800
98.29999434	0.00000000	9.11048200	3.66633800
98.49999433	0.00000000	5.25344500	4.77977300
98.69999432	0.00000000	2.55290300	6.31151500
98.89999430	0.00000000	1.75935000	7.84940900
99.09999429	0.00000000	2.55290300	9.00590400
99.29999428	0.00000000	5.25344500	9.38115100
99.49999427	0.00000000	9.06742000	9.05511800
99.69999426	0.00000000	12.55536000	8.31077700
99.89999425	0.00000000	15.34203000	7.98474400
100.09999423	0.00000000	17.25517000	8.31077700
100.29999422	0.00000000	17.99951000	9.05511800
100.49999421	0.00000000	16.87992000	9.43036400
100.69999420	0.00000000	14.56078000	9.47342500
100.89999419	0.00000000	11.85408000	9.43036400
101.09999417	0.00000000	8.74138700	9.00590400
101.29999416	0.00000000	6.45915300	7.80019600
101.49999415	0.00000000	5.21038300	5.93626900
101.69999414	0.00000000	4.83513700	4.03543200
101.89999413	0.00000000	5.25344500	3.29109200
102.09999411	0.00000000	6.79133800	3.66633800
102.29999410	0.00000000	9.11048200	5.24729300
102.49999409	0.00000000	11.44193000	7.89247000
102.69999408	0.00000000	13.76107000	10.58686000
102.89999407	0.00000000	15.29897000	12.53691000
103.09999406	0.00000000	15.67421000	13.74262000
103.29999404	0.00000000	14.97293000	14.03174000
103.49999403	0.00000000	13.39813000	12.86294000
103.69999402	0.00000000	11.85408000	9.79945900
103.89999401	0.00000000	9.86097400	6.40378900
104.09999400	0.00000000	7.99704600	3.66633800
104.29999398	0.00000000	6.79133800	2.12844500
104.49999397	0.00000000	6.41609200	2.12844500
104.69999396	0.00000000	6.79133800	3.66633800
104.89999395	0.00000000	7.94783400	6.36072800
105.09999394	0.00000000	9.48572700	9.42421200
105.29999392	0.00000000	11.02362000	12.11860000
105.49999391	0.00000000	12.18012000	13.65650000
105.69999390	0.00000000	12.55536000	13.65650000
105.89999389	0.00000000	12.22933000	12.11860000
106.09999388	0.00000000	11.44193000	9.47342500
106.29999387	0.00000000	10.64838000	6.77903500
106.49999385	0.00000000	9.48572700	4.82283400
106.69999384	0.00000000	8.41535400	3.66633800
106.89999383	0.00000000	8.41535400	3.66633800
107.09999382	0.00000000	9.48572700	4.82283400
107.29999381	0.00000000	10.64838000	6.72982200
107.49999379	0.00000000	11.44193000	9.00590400
107.69999378	0.00000000	12.18012000	10.53765000
107.89999377	0.00000000	12.18012000	10.95595000
108.09999376	0.00000000	11.44193000	10.58686000
108.29999375	0.00000000	10.64838000	9.42421200
108.49999374	0.00000000	9.48572700	7.89247000
108.69999372	0.00000000	8.37229300	6.36072800
108.89999371	0.00000000	7.94783400	5.24729300
109.09999370	0.00000000	7.99704600	5.24729300
109.29999369	0.00000000	8.74138700	6.36072800
109.49999368	0.00000000	10.27313000	7.89247000
109.69999366	0.00000000	11.44193000	9.42421200
109.89999365	0.00000000	12.64764000	10.58686000
110.09999364	0.00000000	13.71801000	10.95595000
110.29999363	0.00000000	13.71801000	10.58686000
110.49999362	0.00000000	12.60458000	9.42421200
110.69999360	0.00000000	11.06668000	7.93553100
110.89999359	0.00000000	9.48572700	6.72982200
111.09999358	0.00000000	7.99704600	5.93626900
111.29999357	0.00000000	7.20964500	5.19808000
111.49999356	0.00000000	7.57258800	5.19808000
111.69999355	0.00000000	8.32308000	5.93626900
111.89999353	0.00000000	9.48572700	6.68676100
112.09999352	0.00000000	10.64838000	7.51722400
112.29999351	0.00000000	11.44193000	8.26771600
112.49999350	0.00000000	12.22933000	9.05511800
112.69999349	0.00000000	12.55536000	9.43036400
112.89999347	0.00000000	12.22933000	9.43036400
113.09999346	0.00000000	11.44193000	9.05511800
113.29999345	0.00000000	10.69144000	8.31077700
113.49999344	0.00000000	9.90403500	7.93553100
113.69999343	0.00000000	9.52879000	7.89247000
113.89999341	0.00000000	9.48572700	7.89247000
114.09999340	0.00000000	9.48572700	7.89247000
114.29999339	0.00000000	9.52879000	7.84940900
114.49999338	0.00000000	9.90403500	7.47416300
114.69999337	0.00000000	10.64838000	6.72982200
114.89999336	0.00000000	11.02362000	6.35457700
115.09999334	0.00000000	11.06668000	6.31151500
115.29999333	0.00000000	11.06668000	6.35457700
115.49999332	0.00000000	11.06668000	6.72982200
115.69999331	0.00000000	11.06668000	7.51722400
115.89999330	0.00000000	11.02362000	8.26771600
116.09999328	0.00000000	10.64838000	9.05511800
116.29999327	0.00000000	9.90403500	9.47342500
116.49999326	0.00000000	9.52879000	9.84867000
116.69999325	0.00000000	9.48572700	10.21161000
116.89999324	0.00000000	9.52879000	9.79945900
117.09999322	0.00000000	9.90403500	9.05511800
117.29999321	0.00000000	10.69144000	7.89247000
117.49999320	0.00000000	11.44193000	6.77903500
117.69999319	0.00000000	12.22933000	6.35457700
117.89999318	0.00000000	12.60458000	6.31151500
118.09999317	0.00000000	12.64764000	6.31151500
118.29999315	0.00000000	12.60458000	6.35457700
118.49999314	0.00000000	12.18012000	6.77903500
118.69999313	0.00000000	11.02362000	7.84940900
118.89999312	0.00000000	9.52879000	8.63681000
119.09999311	0.00000000	8.37229300	8.68602300
119.29999309	0.00000000	7.94783400	9.09817800
119.49999308	0.00000000	7.94783400	9.43036400
119.69999307	0.00000000	8.37229300	9.47342500
119.89999306	0.00000000	9.52879000	9.43036400
120.09999305	0.00000000	11.02362000	9.05511800
120.29999303	0.00000000	12.22933000	8.31077700
120.49999302	0.00000000	13.02288000	7.89247000
120.69999301	0.00000000	13.76107000	7.47416300
120.89999300	0.00000000	13.71801000	6.72982200
121.09999299	0.00000000	12.60458000	6.35457700
121.29999298	0.00000000	11.06668000	6.31151500
121.49999296	0.00000000	9.52879000	6.31151500
121.69999295	0.00000000	8.37229300	6.35457700
121.89999294	0.00000000	7.94783400	6.72982200
122.09999293	0.00000000	7.90477300	7.47416300
122.29999292	0.00000000	7.94783400	7.89247000
122.49999290	0.00000000	8.37229300	8.31077700
122.69999289	0.00000000	9.48572700	9.05511800
122.89999288	0.00000000	10.64838000	9.43036400
123.09999287	0.00000000	11.44193000	9.47342500
123.29999286	0.00000000	12.22933000	9.43036400
123.49999284	0.00000000	12.60458000	9.05511800
123.69999283	0.00000000	12.60458000	8.26771600
123.89999282	0.00000000	12.22933000	7.51722400
124.09999281	0.00000000	11.44193000	6.72982200
124.29999280	0.00000000	10.69144000	6.35457700
124.49999279	0.00000000	9.90403500	6.31151500
124.69999277	0.00000000	9.52879000	6.35457700
124.89999276	0.00000000	9.48572700	6.72982200
125.09999275	0.00000000	9.48572700	7.47416300
125.29999274	0.00000000	9.48572700	7.89247000
125.49999273	0.00000000	9.48572700	8.31077700
125.69999271	0.00000000	9.52879000	9.05511800
125.89999270	0.00000000	9.90403500	9.38115100
126.09999269	0.00000000	10.69144000	9.09817800
126.29999268	0.00000000	11.44193000	8.68602300
126.49999267	0.00000000	12.18012000	8.67987200
126.69999265	0.00000000	12.18012000	8.26771600
126.89999264	0.00000000	11.48499000	7.93553100
127.09999263	0.00000000	11.06668000	7.89247000
127.29999262	0.00000000	10.64838000	7.89247000
127.49999261	0.00000000	9.86097400	7.89247000
127.69999260	0.00000000	9.15354300	7.89247000
127.89999258	0.00000000	8.74138700	7.89247000
128.09999257	0.00000000	9.15354300	7.93553100
128.29999256	0.00000000	9.86097400	8.31077700
128.49999255	0.00000000	10.69144000	9.00590400
128.69999254	0.00000000	11.44193000	9.00590400
128.89999252	0.00000000	12.22933000	8.31077700
129.09999251	0.00000000	12.60458000	7.93553100
129.29999250	0.00000000	12.60458000	7.89247000
129.49999249	0.00000000	12.18012000	7.89247000
129.69999248	0.00000000	11.06668000	7.89247000
129.89999246	0.00000000	9.90403500	7.89247000
130.09999245	0.00000000	9.11048200	7.89247000
130.29999244	0.00000000	8.32308000	7.89247000
130.49999243	0.00000000	7.99704600	7.89247000
130.69999242	0.00000000	8.37229300	7.89247000
130.89999241	0.00000000	9.52879000	7.89247000
131.09999239	0.00000000	11.02362000	7.89247000
131.29999238	0.00000000	12.18012000	7.89247000
131.49999237	0.00000000	12.60458000	7.84940900
131.69999236	0.00000000	12.60458000	7.47416300
131.89999235	0.00000000	12.18012000	6.72982200
132.09999233	0.00000000	11.06668000	6.35457700
132.29999232	0.00000000	9.90403500	6.31151500
132.49999231	0.00000000	9.15354300	6.35457700
132.69999230	0.00000000	8.74138700	6.72982200
132.89999229	0.00000000	9.11048200	7.51722400
133.09999227	0.00000000	9.48572700	8.26771600
133.29999226	0.00000000	9.90403500	9.05511800
133.49999225	0.00000000	10.64838000	9.43036400
133.69999224	0.00000000	11.02362000	9.47342500
133.89999223	0.00000000	11.06668000	9.43036400
134.09999222	0.00000000	11.02362000	9.05511800
134.29999220	0.00000000	10.69144000	8.26771600
134.49999219	0.00000000	10.27928000	7.51722400
134.69999218	0.00000000	10.31619000	6.72982200
134.89999217	0.00000000	10.27928000	6.35457700
135.09999216	0.00000000	10.69144000	6.31151500
135.29999214	0.00000000	11.02362000	6.35457700
135.49999213	0.00000000	11.06668000	6.72982200
135.69999212	0.00000000	11.06668000	7.51722400
135.89999211	0.00000000	11.06668000	8.26771600
136.09999210	0.00000000	11.02362000	9.05511800
136.29999208	0.00000000	10.59916000	9.43036400
136.49999207	0.00000000	9.52879000	9.47342500
136.69999206	0.00000000	8.79060000	9.43036400
136.89999205	0.00000000	9.11048200	9.05511800
137.09999204	0.00000000	9.48572700	8.26771600
137.29999203	0.00000000	9.90403500	7.51722400
137.49999201	0.00000000	10.69144000	6.72982200
137.69999200	0.00000000	11.44193000	6.35457700
137.89999199	0.00000000	12.22933000	6.31151500
138.09999198	0.00000000	12.55536000	6.31151500
138.29999197	0.00000000	12.22933000	6.31151500
138.49999195	0.00000000	11.44193000	6.35457700
138.69999194	0.00000000	10.69144000	6.72982200
138.89999193	0.00000000	9.90403500	7.47416300
139.09999192	0.00000000	9.52879000	7.89247000
139.29999191	0.00000000	9.48572700	8.31077700
139.49999189	0.00000000	9.48572700	9.05511800
139.69999188	0.00000000	9.52879000	9.43036400
139.89999187	0.00000000	9.90403500	9.47342500
140.09999186	0.00000000	10.64838000	9.43036400
140.29999185	0.00000000	11.02362000	9.05511800
140.49999184	0.00000000	11.06668000	8.26771600
140.69999182	0.00000000	11.06668000	7.51722400
140.89999181	0.00000000	11.06668000	6.68676100
141.09999180	0.00000000	11.02362000	5.98548200
141.29999179	0.00000000	10.64838000	5.61638700
141.49999178	0.00000000	9.90403500	6.36072800
141.69999176	0.00000000	9.57800100	7.47416300
141.89999175	0.00000000	9.90403500	8.26771600
142.09999174	0.00000000	10.64838000	9.09817800
142.29999173	0.00000000	11.02362000	9.79945900
142.49999172	0.00000000	11.06668000	10.21161000
142.69999170	0.00000000	11.06668000	9.79945900
142.89999169	0.00000000	11.02362000	9.05511800
143.09999168	0.00000000	10.64838000	7.89247000
143.29999167	0.00000000	9.90403500	6.77903500
143.49999166	0.00000000	9.52879000	6.35457700
143.69999165	0.00000000	9.48572700	6.31151500
143.89999163	0.00000000	9.52879000	6.31151500
144.09999162	0.00000000	9.90403500	6.35457700
144.29999161	0.00000000	10.64838000	6.77903500
144.49999160	0.00000000	11.02362000	7.89247000
144.69999159	0.00000000	11.06668000	9.00590400
144.89999157	0.00000000	11.06668000	9.43036400
145.09999156	0.00000000	11.06668000	9.47342500
145.29999155	0.00000000	11.02362000	9.43036400
145.49999154	0.00000000	10.64838000	9.05511800
145.69999153	0.00000000	9.90403500	8.26771600
145.89999151	0.00000000	9.52879000	7.51722400
146.09999150	0.00000000	9.52879000	6.77903500
146.29999149	0.00000000	9.90403500	6.77903500
146.49999148	0.00000000	10.64838000	7.47416300
146.69999147	0.00000000	11.02362000	7.84940900
146.89999146	0.00000000	11.06668000	7.89247000
147.09999144	0.00000000	11.06668000	7.89247000
147.29999143	0.00000000	11.06668000	7.89247000
147.49999142	0.00000000	11.06668000	7.89247000
147.69999141	0.00000000	11.06668000	7.93553100
147.89999140	0.00000000	11.02362000	8.26771600
148.09999138	0.00000000	10.64838000	8.63681000
148.29999137	0.00000000	9.90403500	8.31077700
148.49999136	0.00000000	9.57800100	8.31077700
148.69999135	0.00000000	9.86097400	8.63681000
148.89999134	0.00000000	10.27313000	8.26771600
149.09999132	0.00000000	10.27928000	7.93553100
149.29999131	0.00000000	10.69144000	7.89247000
149.49999130	0.00000000	11.02362000	7.84940900
149.69999129	0.00000000	11.06668000	7.51722400
149.89999128	0.00000000	11.06668000	7.14812900
150.09999127	0.00000000	11.06668000	7.51722400
150.29999125	0.00000000	11.06668000	7.89247000
150.49999124	0.00000000	11.06668000	8.31077700
150.69999123	0.00000000	11.02362000	9.00590400
150.89999122	0.00000000	10.64838000	9.00590400
151.09999121	0.00000000	9.90403500	8.31077700
151.29999119	0.00000000	9.52879000	7.93553100
151.49999118	0.00000000	9.52879000	7.89247000
151.69999117	0.00000000	9.90403500	7.89247000
151.89999116	0.00000000	10.64838000	7.84940900
152.09999115	0.00000000	11.06668000	7.51722400
152.29999113	0.00000000	11.44193000	7.14812900
152.49999112	0.00000000	11.81102000	7.51722400
152.69999111	0.00000000	11.44193000	7.84940900
152.89999110	0.00000000	11.10974000	7.89247000
153.09999109	0.00000000	11.06668000	7.89247000
153.29999108	0.00000000	11.06668000	7.89247000
153.49999106	0.00000000	11.02362000	7.89247000
153.69999105	0.00000000	10.64838000	7.89247000
153.89999104	0.00000000	9.90403500	7.89247000
154.09999103	0.00000000	9.52879000	7.89247000
154.29999102	0.00000000	9.48572700	7.89247000
154.49999100	0.00000000	9.48572700	7.89247000
154.69999099	0.00000000	9.52879000	7.89247000
154.89999098	0.00000000	9.90403500	7.89247000
155.09999097	0.00000000	10.64838000	7.89247000
155.29999096	0.00000000	11.02362000	7.84940900
155.49999094	0.00000000	11.06668000	7.51722400
155.69999093	0.00000000	11.06668000	7.14812900
155.89999092	0.00000000	11.06668000	7.51722400
156.09999091	0.00000000	11.06668000	7.84940900
156.29999090	0.00000000	11.06668000	7.89247000
156.49999089	0.00000000	11.02362000	7.93553100
156.69999087	0.00000000	10.64838000	8.26771600
156.89999086	0.00000000	9.90403500	8.67987200
157.09999085	0.00000000	9.52879000	8.68602300
157.29999084	0.00000000	9.48572700	9.05511800
157.49999083	0.00000000	9.52879000	9.00590400
157.69999081	0.00000000	9.90403500	8.31077700
157.89999080	0.00000000	10.64838000	7.93553100
158.09999079	0.00000000	11.02362000	7.89247000
158.29999078	0.00000000	11.06668000	7.89247000
158.49999077	0.00000000	11.06668000	7.89247000
158.69999075	0.00000000	11.06668000	7.84940900
158.89999074	0.00000000	11.06668000	7.51722400
159.09999073	0.00000000	11.06668000	7.14812900
159.29999072	0.00000000	11.06668000	7.51722400
159.49999071	0.00000000	11.06668000	7.89247000
159.69999070	0.00000000	11.06668000	8.31077700
159.89999068	0.00000000	11.02362000	9.05511800
160.09999067	0.00000000	10.64838000	9.43036400
160.29999066	0.00000000	9.90403500	9.43036400
160.49999065	0.00000000	9.52879000	9.05511800
160.69999064	0.00000000	9.52879000	8.31077700
160.89999062	0.00000000	9.90403500	7.93553100
161.09999061	0.00000000	10.64838000	7.84940900
161.29999060	0.00000000	11.02362000	7.51722400
161.49999059	0.00000000	11.06668000	7.14812900
161.69999058	0.00000000	11.06668000	7.51722400
161.89999056	0.00000000	11.06668000	7.84940900
162.09999055	0.00000000	11.06668000	7.89247000
162.29999054	0.00000000	11.06668000	7.89247000
162.49999053	0.00000000	11.06668000	7.89247000
162.69999052	0.00000000	11.06668000	7.89247000
162.89999051	0.00000000	11.02362000	7.89247000
163.09999049	0.00000000	10.64838000	7.89247000
163.29999048	0.00000000	9.90403500	7.89247000
163.49999047	0.00000000	9.52879000	7.84940900
163.69999046	0.00000000	9.52879000	7.51722400
163.89999045	0.00000000	9.90403500	7.14812900
164.09999043	0.00000000	10.64838000	7.51722400
164.29999042	0.00000000	11.02362000	7.84940900
164.49999041	0.00000000	11.06668000	7.89247000
164.69999040	0.00000000	11.06668000	7.89247000
164.89999039	0.00000000	11.06668000	7.89247000
165.09999037	0.00000000	11.06668000	7.89247000
165.29999036	0.00000000	11.06668000	7.89247000
165.49999035	0.00000000	11.06668000	7.89247000
165.69999034	0.00000000	11.06668000	7.89247000
165.89999033	0.00000000	11.02362000	7.89247000
166.09999032	0.00000000	10.64838000	7.89247000
166.29999030	0.00000000	9.90403500	7.89247000
166.49999029	0.00000000	9.52879000	7.89247000
166.69999028	0.00000000	9.52879000	7.89247000
166.89999027	0.00000000	9.86097400	7.89247000
167.09999026	0.00000000	10.27313000	7.89247000
167.29999024	0.00000000	10.27928000	7.89247000
167.49999023	0.00000000	10.69144000	7.89247000
167.69999022	0.00000000	11.02362000	7.89247000
167.89999021	0.00000000	11.06668000	7.89247000
168.09999020	0.00000000	11.06668000	7.89247000
168.29999018	0.00000000	11.06668000	7.89247000
168.49999017	0.00000000	11.06668000	7.89247000
168.69999016	0.00000000	11.06668000	7.89247000
168.89999015	0.00000000	11.06668000	7.89247000
169.09999014	0.00000000	11.06668000	7.89247000
169.29999013	0.00000000	11.06668000	7.89247000
169.49999011	0.00000000	11.02362000	7.89247000
169.69999010	0.00000000	10.69144000	7.89247000
169.89999009	0.00000000	10.32234000	7.89247000
170.09999008	0.00000000	10.69144000	7.89247000
170.29999007	0.00000000	11.02362000	7.89247000
170.49999005	0.00000000	11.06668000	7.89247000
170.69999004	0.00000000	11.06668000	7.89247000
170.89999003	0.00000000	11.06668000	7.89247000
171.09999002	0.00000000	11.06668000	7.89247000
171.29999001	0.00000000	11.06668000	7.89247000
171.49998999	0.00000000	11.06668000	7.89247000
171.69998998	0.00000000	11.06668000	7.89247000
171.89998997	0.00000000	11.06668000	7.89247000
172.09998996	0.00000000	11.06668000	7.89247000
172.29998995	0.00000000	11.02362000	7.89247000
172.49998994	0.00000000	10.64838000	7.89247000
172.69998992	0.00000000	9.95324800	7.89247000
172.89998991	0.00000000	9.95324800	7.89247000
173.09998990	0.00000000	10.64838000	7.89247000
173.29998989	0.00000000	11.02362000	7.89247000
173.49998988	0.00000000	11.06668000	7.89247000
173.69998986	0.00000000	11.06668000	7.89247000
173.89998985	0.00000000	11.06668000	7.89247000
174.09998984	0.00000000	11.06668000	7.89247000
174.29998983	0.00000000	11.06668000	7.89247000
174.49998982	0.00000000	11.06668000	7.84940900
174.69998980	0.00000000	11.06668000	7.51722400
174.89998979	0.00000000	11.02362000	7.10506800
175.09998978	0.00000000	10.64838000	7.14197800
175.29998977	0.00000000	9.95324800	7.10506800
175.49998976	0.00000000	9.90403500	7.51722400
175.69998975	0.00000000	10.27313000	7.84940900
175.89998973	0.00000000	10.27928000	7.89247000
176.09998972	0.00000000	10.69144000	7.89247000
176.29998971	0.00000000	11.02362000	7.89247000
176.49998970	0.00000000	11.06668000	7.89247000
176.69998969	0.00000000	11.06668000	7.89247000
176.89998967	0.00000000	11.06668000	7.89247000
177.09998966	0.00000000	11.06668000	7.89247000
177.29998965	0.00000000	11.06668000	7.89247000
177.49998964	0.00000000	11.06668000	7.89247000
177.69998963	0.00000000	11.06668000	7.89247000
177.89998961	0.00000000	11.06668000	7.89247000
178.09998960	0.00000000	11.06668000	7.89247000
178.29998959	0.00000000	11.06668000	7.89247000
178.49998958	0.00000000	11.06668000	7.89247000
178.69998957	0.00000000	11.02362000	7.89247000
178.89998956	0.00000000	10.69144000	7.84940900
179.09998954	0.00000000	10.32234000	7.51722400
179.29998953	0.00000000	10.69144000	7.14812900
179.49998952	0.00000000	11.02362000	7.51722400
179.69998951	0.00000000	11.06668000	7.84940900
179.89998950	0.00000000	11.06668000	7.84940900
180.09998948	0.00000000	11.06668000	7.51722400
180.29998947	0.00000000	11.02362000	7.14812900
180.49998946	0.00000000	10.69144000	7.51722400
180.69998945	0.00000000	10.32234000	7.84940900
180.89998944	0.00000000	10.69144000	7.89247000
181.09998942	0.00000000	11.02362000	7.89247000
181.29998941	0.00000000	11.06668000	7.89247000
181.49998940	0.00000000	11.06668000	7.93553100
181.69998939	0.00000000	11.06668000	8.26771600
181.89998938	0.00000000	11.06668000	8.63681000
182.09998937	0.00000000	11.06668000	8.26771600
182.29998935	0.00000000	11.06668000	7.93553100
182.49998934	0.00000000	11.06668000	7.89247000
182.69998933	0.00000000	11.06668000	7.89247000
182.89998932	0.00000000	11.06668000	7.89247000
183.09998931	0.00000000	11.06668000	7.89247000
183.29998929	0.00000000	11.06668000	7.89247000
183.49998928	0.00000000	11.06668000	7.89247000
183.69998927	0.00000000	11.06668000	7.89247000
183.89998926	0.00000000	11.02362000	7.89247000
184.09998925	0.00000000	10.69144000	7.89247000
184.29998923	0.00000000	10.27928000	7.89247000
184.49998922	0.00000000	10.27313000	7.93553100
184.69998921	0.00000000	9.90403500	8.31077700
184.89998920	0.00000000	9.95324800	9.00590400
185.09998919	0.00000000	10.64838000	9.00590400
185.29998918	0.00000000	11.02362000	8.31077700
185.49998916	0.00000000	11.06668000	7.93553100
185.69998915	0.00000000	11.06668000	7.89247000
185.89998914	0.00000000	11.06668000	7.89247000
186.09998913	0.00000000	11.06668000	7.84940900
186.29998912	0.00000000	11.06668000	7.47416300
186.49998910	0.00000000	11.06668000	6.77903500
186.69998909	0.00000000	11.06668000	6.77903500
186.89998908	0.00000000	11.06668000	7.47416300
187.09998907	0.00000000	11.06668000	7.84940900
187.29998906	0.00000000	11.06668000	7.89247000
187.49998904	0.00000000	11.06668000	7.93553100
187.69998903	0.00000000	11.06668000	8.31077700
187.89998902	0.00000000	11.06668000	9.05511800
188.09998901	0.00000000	11.06668000	9.38115100
188.29998900	0.00000000	11.06668000	9.05511800
188.49998899	0.00000000	11.06668000	8.31077700
188.69998897	0.00000000	11.06668000	7.89247000
188.89998896	0.00000000	11.06668000	7.51722400
189.09998895	0.00000000	11.06668000	7.10506800
189.29998894	0.00000000	11.06668000	7.14197800
189.49998893	0.00000000	11.06668000	7.10506800
189.69998891	0.00000000	11.06668000	7.51722400
189.89998890	0.00000000	11.06668000	7.84940900
190.09998889	0.00000000	11.02362000	7.89247000
190.29998888	0.00000000	10.64838000	7.89247000
190.49998887	0.00000000	9.95324800	7.89247000
190.69998885	0.00000000	9.95324800	7.89247000
190.89998884	0.00000000	10.64838000	7.89247000
191.09998883	0.00000000	11.02362000	7.89247000
191.29998882	0.00000000	11.06668000	7.89247000
191.49998881	0.00000000	11.06668000	7.89247000
191.69998880	0.00000000	11.06668000	7.89247000
191.89998878	0.00000000	11.06668000	7.89247000
192.09998877	0.00000000	11.06668000	7.89247000
192.29998876	0.00000000	11.06668000	7.89247000
192.49998875	0.00000000	11.06668000	7.89247000
192.69998874	0.00000000	11.06668000	7.89247000
192.89998872	0.00000000	11.06668000	7.89247000
193.09998871	0.00000000	11.06668000	7.89247000
193.29998870	0.00000000	11.06668000	7.89247000
193.49998869	0.00000000	11.06668000	7.89247000
193.69998868	0.00000000	11.06668000	7.89247000
193.89998866	0.00000000	11.06668000	7.93553100
194.09998865	0.00000000	11.06668000	8.26771600
194.29998864	0.00000000	11.06668000	8.67987200
194.49998863	0.00000000	11.10974000	8.64296200
194.69998862	0.00000000	11.44193000	8.67987200
194.89998861	0.00000000	11.81102000	8.26771600
195.09998859	0.00000000	11.44193000	7.93553100
195.29998858	0.00000000	11.10974000	7.89247000
195.49998857	0.00000000	11.06668000	7.89247000
195.69998856	0.00000000	11.06668000	7.89247000
195.89998855	0.00000000	11.06668000	7.89247000
196.09998853	0.00000000	11.06668000	7.89247000
