Time	Channel A	Channel B	Channel C
(us)	(V)	(mV)	(mV)

-4.49999956	0.00000000	6.41609200	8.26771600
-4.29999957	0.00000000	6.69906400	7.98474400
-4.09999958	0.00000000	7.11122000	8.26771600
-3.89999959	0.00000000	7.11737200	8.67987200
-3.69999960	0.00000000	7.48646600	8.64296200
-3.49999962	0.00000000	7.48646600	8.72293300
-3.29999963	0.00000000	7.11737200	8.68602300
-3.09999964	0.00000000	7.11122000	9.05511800
-2.89999965	0.00000000	6.69906400	9.00590400
-2.69999966	0.00000000	6.36687900	8.31077700
-2.49999968	0.00000000	6.32381900	7.93553100
-2.29999969	0.00000000	6.32381900	7.89247000
-2.09999970	0.00000000	6.32381900	7.93553100
-1.89999971	0.00000000	6.36687900	8.26771600
-1.69999972	0.00000000	6.69906400	8.63681000
-1.49999973	0.00000000	7.06815900	8.31077700
-1.29999975	0.00000000	6.74212600	8.31077700
-1.09999976	0.00000000	6.74212600	8.63681000
-0.89999977	0.00000000	7.06815900	8.31077700
-0.69999978	0.00000000	6.69906400	8.31077700
-0.49999979	0.00000000	6.36687900	8.63681000
-0.29999981	0.31803640	6.36687900	8.31077700
-0.09999982	0.63668800	6.74212600	8.31077700
0.10000017	0.95533960	7.43725300	8.63681000
0.30000016	1.11466500	7.43725300	8.26771600
0.50000015	0.79601380	6.79133800	7.93553100
0.70000013	0.15871060	6.74212600	7.89247000
0.90000012	-0.63668800	7.11122000	7.93553100
1.10000011	-1.59264300	7.07431000	8.31077700
1.30000010	-2.38927200	7.11122000	9.05511800
1.50000009	-2.70792300	6.74212600	9.43036400
1.70000008	-2.38927200	6.74212600	9.47342500
1.90000006	-1.11466500	7.06815900	9.47342500
2.10000005	0.95533960	6.69906400	9.47342500
2.30000004	3.02657500	6.36687900	9.43036400
2.50000003	4.61921700	6.32381900	9.05511800
2.70000002	5.41584600	6.32381900	8.31077700
2.90000000	4.61921700	6.32381900	7.93553100
3.09999999	2.54859700	6.32381900	7.89247000
3.29999998	-0.63668800	6.32381900	7.89247000
3.49999997	-3.98191400	6.36687900	7.89247000
3.69999996	-6.69045300	6.69906400	7.93553100
3.89999994	-7.96444400	7.11122000	8.31077700
4.09999993	-7.16781500	7.11737200	9.05511800
4.29999992	-4.45989200	7.52952700	9.43036400
4.49999991	-0.47736220	7.86171200	9.47342500
4.69999990	3.98191400	7.86171200	9.47342500
4.89999989	7.64579200	7.52952700	9.43036400
5.09999987	9.39837600	7.11737200	9.05511800
5.29999986	8.92039900	7.11122000	8.31077700
5.49999985	6.05315000	6.74212600	7.93553100
5.69999984	1.75196900	6.79133800	7.93553100
5.89999983	-3.02657500	7.48646600	8.31077700
6.09999981	-7.00848900	7.86171200	9.05511800
6.29999980	-9.23905000	7.90477300	9.43036400
6.49999979	-9.07972400	7.90477300	9.47342500
6.69999978	-6.69045300	7.90477300	9.47342500
6.89999977	-2.70792300	7.90477300	9.47342500
7.09999975	1.75196900	7.86171200	9.43036400
7.29999974	5.25652100	7.48646600	9.05511800
7.49999973	7.48646600	6.79133800	8.31077700
7.69999972	7.64579200	6.74212600	7.93553100
7.89999971	5.89382400	7.06815900	7.89247000
8.09999970	3.02657500	6.74212600	7.89247000
8.29999968	-0.31803640	6.74212600	7.89247000
8.49999967	-3.18590100	7.06815900	7.89247000
8.69999966	-4.77854300	6.74212600	7.93553100
8.89999965	-5.09719500	6.74212600	8.31077700
9.09999964	-4.14124000	7.06815900	9.00590400
9.29999962	-2.38927200	6.74212600	9.05511800
9.49999961	-0.31803640	6.74212600	8.68602300
9.69999960	1.27399100	7.06815900	8.67987200
9.89999959	2.22994600	6.74212600	8.31077700
10.09999958	2.54859700	6.79133800	8.31077700
10.29999956	2.07062000	7.43725300	8.63681000
10.49999955	1.27399100	7.48646600	8.26771600
10.69999954	0.47736220	7.16043300	7.93553100
10.89999953	-0.31803640	7.52952700	7.93553100
11.09999952	-0.79601380	7.86171200	8.26771600
11.29999951	-0.95533960	7.86171200	8.63681000
11.49999949	-0.95533960	7.52952700	8.26771600
11.69999948	-0.63668800	7.16043300	7.98474400
11.89999947	-0.31803640	7.52952700	8.26771600
12.09999946	-0.15871060	7.81250000	8.67987200
12.29999945	-0.15871060	7.48646600	8.64296200
12.49999943	0.00000000	6.74212600	8.67987200
12.69999942	0.00000000	6.41609200	8.26771600
12.89999941	0.00000000	6.74212600	7.93553100
13.09999940	0.15871060	7.48646600	7.89247000
13.29999939	0.00000000	7.81250000	7.93553100
13.49999937	0.00000000	7.52952700	8.26771600
13.69999936	0.00000000	7.11737200	8.63681000
13.89999935	0.00000000	7.15428100	8.31077700
14.09999934	0.00000000	7.11737200	8.35998900
14.29999933	-0.15871060	7.52952700	9.00590400
14.49999932	0.00000000	7.81250000	9.00590400
14.69999930	0.00000000	7.48646600	8.31077700
14.89999929	0.00000000	6.74212600	7.93553100
15.09999928	0.00000000	6.36687900	7.89247000
15.29999927	0.00000000	6.32381900	7.93553100
15.49999926	0.00000000	6.32381900	8.26771600
15.69999924	0.15871060	6.32381900	8.63681000
15.89999923	0.00000000	6.32381900	8.31077700
16.09999922	0.00000000	6.36687900	8.35998900
16.29999921	0.00000000	6.74212600	9.00590400
16.49999920	0.00000000	7.48646600	9.00590400
16.69999919	-0.15871060	7.86171200	8.31077700
16.89999917	0.00000000	7.94783400	7.93553100
17.09999916	0.00000000	8.32308000	7.89247000
17.29999915	0.00000000	9.06742000	7.89247000
17.49999914	0.00000000	9.39345400	7.89247000
17.69999913	0.00000000	9.06742000	7.89247000
17.89999911	0.00000000	8.28001900	7.89247000
18.09999910	0.00000000	7.48646600	7.93553100
18.29999909	0.00000000	6.28075700	8.26771600
18.49999908	0.00000000	4.74286400	8.67987200
18.69999907	0.00000000	3.20497000	8.64296200
18.89999905	0.00000000	2.09153500	8.72293300
19.09999904	0.00000000	2.13459600	8.64296200
19.29999903	0.00000000	3.67249000	8.67987200
19.49999902	0.00000000	6.41609200	8.26771600
19.69999901	0.00000000	9.90403500	7.93553100
19.89999900	0.00000000	13.76107000	7.89247000
20.09999898	0.00000000	16.83686000	7.89247000
20.29999897	0.00000000	18.32554000	7.89247000
20.49999896	0.00000000	17.48893000	7.89247000
20.69999895	0.00000000	13.58268000	7.93553100
20.89999894	0.00000000	7.39419200	8.26771600
21.09999892	0.00000000	0.00000000	8.67987200
21.29999891	0.00000000	-7.30807100	8.64296200
21.49999890	0.00000000	-12.61073000	8.67987200
21.69999889	0.00000000	-13.68110000	8.26771600
21.89999888	0.00000000	-9.40575800	7.93553100
22.09999886	0.00000000	-0.47367120	7.89247000
22.29999885	0.00000000	11.53420000	7.89247000
22.49999884	0.00000000	24.28026000	7.93553100
22.69999883	0.00000000	34.61491000	8.31077700
22.89999882	0.00000000	39.59153000	9.05511800
23.09999881	0.00000000	37.22318000	9.43036400
23.29999879	0.00000000	27.86663000	9.47342500
23.49999878	0.00000000	12.74606000	9.51648500
23.69999877	0.00000000	-5.39493100	9.89173200
23.89999876	0.00000000	-21.96112000	10.58686000
24.09999875	0.00000000	-33.12623000	10.58686000
24.29999873	0.00000000	-35.73449000	9.84867000
24.49999872	0.00000000	-28.34030000	9.05511800
24.69999871	0.00000000	-12.10015000	7.84940900
24.89999870	0.00000000	9.52879000	6.31151500
25.09999869	0.00000000	31.53912000	4.77977300
25.29999867	0.00000000	48.89272000	3.66633800
25.49999866	0.00000000	57.31422000	3.66633800
25.69999865	0.00000000	54.20152000	4.87204700
25.89999864	0.00000000	39.91757000	7.24040300
26.09999863	0.00000000	17.90723000	11.09129000
26.29999862	0.00000000	-6.84055100	15.27436000
26.49999860	0.00000000	-28.80167000	18.39321000
26.69999859	0.00000000	-42.71038000	19.93110000
26.89999858	0.00000000	-45.04183000	19.46358000
27.09999857	0.00000000	-35.78371000	16.30167000
27.29999856	0.00000000	-16.84301000	10.49459000
27.49999854	0.00000000	7.43725300	3.15575800
27.69999853	0.00000000	30.98548000	-4.18307100
27.89999852	0.00000000	48.43135000	-9.89788300
28.09999851	0.00000000	56.20078000	-12.12475000
28.29999850	0.00000000	53.17421000	-9.38730200
28.49999848	0.00000000	40.38509000	-2.04847400
28.69999847	0.00000000	20.74311000	8.40305000
28.89999846	0.00000000	-1.26107300	20.01722000
29.09999845	0.00000000	-19.82652000	30.42569000
29.29999844	0.00000000	-31.54527000	37.30315000
29.49999843	0.00000000	-34.66412000	38.37352000
29.69999841	0.00000000	-28.89395000	32.56643000
29.89999840	0.00000000	-15.81570000	20.99532000
30.09999839	0.00000000	1.20570900	6.26845500
30.29999838	0.00000000	18.23942000	-8.83366100
30.49999837	0.00000000	32.19119000	-21.46899000
30.69999835	0.00000000	39.96678000	-28.01427000
30.89999834	0.00000000	40.42815000	-26.44562000
31.09999833	0.00000000	34.28272000	-17.56274000
31.29999832	0.00000000	23.07455000	-2.46678100
31.49999831	0.00000000	9.52879000	15.23130000
31.69999829	0.00000000	-3.63558100	31.53912000
31.89999828	0.00000000	-13.72416000	43.52854000
32.09999827	0.00000000	-18.79921000	48.87426000
32.29999826	0.00000000	-18.42397000	45.71235000
32.49999825	0.00000000	-12.65379000	34.19045000
32.69999824	0.00000000	-3.02657500	17.23056000
32.89999822	0.00000000	7.81250000	-0.93503930
33.09999821	0.00000000	17.86417000	-16.81841000
33.29999820	0.00000000	24.84006000	-27.27608000
33.49999819	0.00000000	27.21457000	-30.38878000
33.69999818	0.00000000	25.30143000	-25.69513000
33.89999816	0.00000000	19.48819000	-13.74877000
34.09999815	0.00000000	11.06668000	2.82972400
34.29999814	0.00000000	2.60211600	19.78961000
34.49999813	0.00000000	-3.63558100	33.77214000
34.69999812	0.00000000	-6.74827700	41.90453000
34.89999810	0.00000000	-6.37303100	43.06717000
35.09999809	0.00000000	-2.56520700	36.84178000
35.29999808	0.00000000	3.20497000	24.15723000
35.49999807	0.00000000	9.39345400	8.44611200
35.69999806	0.00000000	14.78838000	-5.85629900
35.89999805	0.00000000	17.81496000	-15.56963000
36.09999803	0.00000000	17.48893000	-19.46973000
36.29999802	0.00000000	14.05020000	-16.77534000
36.49999801	0.00000000	9.06742000	-8.32308000
36.69999800	0.00000000	3.67249000	3.62327700
36.89999799	0.00000000	-0.51673230	16.30167000
37.09999797	0.00000000	-2.09768700	26.24877000
37.29999796	0.00000000	-0.98425190	30.52411000
37.49999795	0.00000000	2.09153500	28.29109000
37.69999794	0.00000000	6.36687900	21.03838000
37.89999793	0.00000000	10.97441000	11.04823000
38.09999791	0.00000000	14.83760000	1.06422200
38.29999790	0.00000000	16.74459000	-6.18848400
38.49999789	0.00000000	16.41855000	-8.50147600
38.69999788	0.00000000	14.09326000	-5.06889700
38.89999787	0.00000000	10.59916000	2.55290300
39.09999786	0.00000000	6.32381900	12.11860000
39.29999784	0.00000000	2.13459600	20.52780000
39.49999783	0.00000000	-0.60900590	25.13533000
39.69999782	0.00000000	-1.44562000	24.76009000
39.89999781	0.00000000	-1.07037400	19.37131000
40.09999780	0.00000000	0.59670270	10.58686000
40.29999778	0.00000000	4.04773600	0.97194880
40.49999777	0.00000000	8.64911400	-6.69291300
40.69999776	0.00000000	12.51230000	-10.50074000
40.89999775	0.00000000	15.29897000	-8.96899500
41.09999774	0.00000000	16.79380000	-2.46678100
41.29999772	0.00000000	16.41855000	6.77903500
41.49999771	0.00000000	14.13632000	16.76919000
41.69999770	0.00000000	11.02362000	24.76009000
41.89999769	0.00000000	7.48646600	27.87278000
42.09999768	0.00000000	3.62942900	25.64591000
42.29999767	0.00000000	0.55364170	19.50664000
42.49999765	0.00000000	-0.98425190	11.04823000
42.69999764	0.00000000	-0.65206690	2.54675200
42.89999763	0.00000000	1.24877000	-4.00467500
43.09999762	0.00000000	3.58021600	-7.48031400
43.29999761	0.00000000	6.32381900	-6.69291300
43.49999759	0.00000000	8.97514600	-2.18380900
43.69999758	0.00000000	10.59916000	4.36146600
43.89999757	0.00000000	11.44193000	10.86983000
44.09999756	0.00000000	12.18012000	15.97564000
44.29999755	0.00000000	12.18012000	18.67618000
44.49999753	0.00000000	11.44193000	19.08834000
44.69999752	0.00000000	10.73450000	16.81225000
44.89999751	0.00000000	10.27928000	13.00443000
45.09999750	0.00000000	10.27313000	9.14124000
45.29999749	0.00000000	9.76870100	5.61638700
45.49999748	0.00000000	8.59990100	3.33415300
45.69999746	0.00000000	6.23154500	2.50369100
45.89999745	0.00000000	3.16190900	3.29109200
46.09999744	0.00000000	0.09227362	5.15501900
46.29999743	0.00000000	-2.18996000	7.47416300
46.49999742	0.00000000	-2.56520700	9.42421200
46.69999740	0.00000000	-0.93503930	11.04823000
46.89999739	0.00000000	2.97736200	12.53691000
47.09999738	0.00000000	9.15354300	13.28125000
47.29999737	0.00000000	15.67421000	12.49385000
47.49999736	0.00000000	21.06914000	10.62992000
47.69999734	0.00000000	23.72047000	8.31077700
47.89999733	0.00000000	22.55782000	6.36072800
48.09999732	0.00000000	17.90723000	4.77977300
48.29999731	0.00000000	10.55610000	3.66633800
48.49999730	0.00000000	2.04847400	3.70939900
48.69999729	0.00000000	-5.67790300	5.24729300
48.89999727	0.00000000	-11.02977000	7.93553100
49.09999726	0.00000000	-12.14321000	11.00517000
49.29999725	0.00000000	-8.28617100	13.69956000
49.49999724	0.00000000	-0.60900590	15.23130000
49.69999723	0.00000000	9.06742000	15.27436000
49.89999721	0.00000000	18.28248000	14.07480000
50.09999720	0.00000000	24.88312000	11.70029000
50.29999719	0.00000000	27.16535000	7.84940900
50.49999718	0.00000000	24.88312000	3.66633800
50.69999717	0.00000000	18.28248000	0.59670270
50.89999715	0.00000000	9.06742000	-0.55979330
51.09999714	0.00000000	-0.51673230	0.59670270
51.29999713	0.00000000	-7.44955700	3.66633800
51.49999712	0.00000000	-9.82406400	7.93553100
51.69999711	0.00000000	-7.91092400	12.53691000
51.89999710	0.00000000	-2.14074800	16.39395000
52.09999708	0.00000000	5.90551100	18.30093000
52.29999707	0.00000000	13.63189000	17.97490000
52.49999706	0.00000000	19.39591000	15.64960000
52.69999705	0.00000000	21.67815000	12.16166000
52.89999704	0.00000000	19.39591000	7.89247000
53.09999702	0.00000000	13.71801000	3.70939900
53.29999701	0.00000000	6.79133800	1.01501000
53.49999700	0.00000000	0.59670270	0.59670270
53.69999699	0.00000000	-3.63558100	2.12844500
53.89999698	0.00000000	-4.74901600	5.19808000
54.09999696	0.00000000	-2.09768700	8.96284400
54.29999695	0.00000000	3.25418300	11.65723000
54.49999694	0.00000000	9.39345400	12.49385000
54.69999693	0.00000000	14.78838000	12.16166000
54.89999692	0.00000000	17.86417000	11.00517000
55.09999691	0.00000000	17.86417000	9.47342500
55.29999689	0.00000000	14.83760000	7.93553100
55.49999688	0.00000000	9.90403500	6.82209600
55.69999687	0.00000000	5.25344500	6.86515700
55.89999686	0.00000000	1.71628900	8.35383800
56.09999685	0.00000000	-0.55979330	10.62992000
56.29999683	0.00000000	-0.51673230	12.49385000
56.49999682	0.00000000	2.13459600	13.23819000
56.69999681	0.00000000	6.32381900	12.07554000
56.89999680	0.00000000	10.55610000	9.42421200
57.09999679	0.00000000	13.63189000	6.31151500
57.29999677	0.00000000	14.83760000	3.24803100
57.49999676	0.00000000	14.09326000	0.97194880
57.69999675	0.00000000	12.18012000	0.63976370
57.89999674	0.00000000	9.44266700	2.59596400
58.09999673	0.00000000	6.41609200	6.86515700
58.29999672	0.00000000	4.09079700	12.58612000
58.49999670	0.00000000	3.29724400	17.92569000
58.69999669	0.00000000	3.62942900	20.99532000
58.89999668	0.00000000	4.78592500	20.99532000
59.09999667	0.00000000	6.32381900	17.88263000
59.29999666	0.00000000	7.86171200	12.11860000
59.49999664	0.00000000	9.01820900	5.20423200
59.69999663	0.00000000	9.44266700	-0.97810030
59.89999662	0.00000000	9.39345400	-5.16117100
60.09999661	0.00000000	8.64911400	-5.94857300
60.29999660	0.00000000	7.16043300	-2.84202700
60.49999658	0.00000000	6.41609200	2.92199800
60.69999657	0.00000000	6.36687900	10.67298000
60.89999656	0.00000000	6.74212600	18.30093000
61.09999655	0.00000000	7.52952700	23.68971000
61.29999654	0.00000000	8.28001900	25.22145000
61.49999653	0.00000000	9.06742000	22.52707000
61.69999651	0.00000000	9.39345400	16.39395000
61.89999650	0.00000000	9.01820900	8.31077700
62.09999649	0.00000000	7.86171200	0.59670270
62.29999648	0.00000000	6.32381900	-5.20423200
62.49999647	0.00000000	4.78592500	-7.89862200
62.69999645	0.00000000	3.62942900	-6.74212600
62.89999644	0.00000000	3.29724400	-2.09153500
63.09999643	0.00000000	4.04773600	5.20423200
63.29999642	0.00000000	5.99163300	13.28125000
63.49999641	0.00000000	8.28001900	19.83883000
63.69999639	0.00000000	10.59916000	23.73892000
63.89999638	0.00000000	12.09400000	24.10802000
64.09999637	0.00000000	12.13706000	21.03838000
64.29999636	0.00000000	11.02362000	15.27436000
64.49999635	0.00000000	9.44266700	8.35383800
64.69999634	0.00000000	7.48646600	2.17765700
64.89999632	0.00000000	5.21038300	-2.14074800
65.09999631	0.00000000	3.67249000	-4.09079700
65.29999630	0.00000000	3.25418300	-3.71555100
65.49999629	0.00000000	3.62942900	-0.97810030
65.69999628	0.00000000	4.83513700	3.57406500
65.89999626	0.00000000	6.74212600	8.63681000
66.09999625	0.00000000	9.01820900	12.91215000
66.29999624	0.00000000	10.51304000	16.43701000
66.49999623	0.00000000	10.55610000	18.35015000
66.69999622	0.00000000	9.44266700	18.39321000
66.89999620	0.00000000	7.90477300	16.85531000
67.09999619	0.00000000	6.36687900	14.16092000
67.29999618	0.00000000	5.21038300	11.04823000
67.49999617	0.00000000	4.83513700	7.89247000
67.69999616	0.00000000	5.29650500	4.77977300
67.89999615	0.00000000	7.20964500	2.04232300
68.09999613	0.00000000	10.18086000	0.13533460
68.29999612	0.00000000	12.09400000	-0.65206690
68.49999611	0.00000000	12.55536000	0.13533460
68.69999610	0.00000000	12.09400000	2.08538400
68.89999609	0.00000000	10.09473000	5.24729300
69.09999607	0.00000000	6.28075700	9.47342500
69.29999606	0.00000000	2.13459600	13.74262000
69.49999605	0.00000000	-0.55979330	17.23056000
69.69999604	0.00000000	-0.98425190	19.50664000
69.89999603	0.00000000	0.55364170	19.50664000
70.09999601	0.00000000	3.67249000	17.18750000
70.29999600	0.00000000	7.94783400	13.32431000
70.49999599	0.00000000	12.55536000	8.26771600
70.69999598	0.00000000	16.41855000	3.29109200
70.89999597	0.00000000	18.32554000	-0.60285430
71.09999596	0.00000000	17.90723000	-2.46678100
71.29999594	0.00000000	14.83760000	-1.76550200
71.49999593	0.00000000	9.81791200	1.33489200
71.69999592	0.00000000	4.41067900	5.53026500
71.89999591	0.00000000	-0.65206690	10.21161000
72.09999590	0.00000000	-4.05388800	14.03174000
72.29999588	0.00000000	-4.84128900	16.39395000
72.49999587	0.00000000	-2.51599400	16.76919000
72.69999586	0.00000000	2.04847400	15.27436000
72.89999585	0.00000000	7.48646600	12.58612000
73.09999584	0.00000000	12.51230000	9.51648500
73.29999582	0.00000000	16.41855000	6.82209600
73.49999581	0.00000000	18.32554000	5.29035400
73.69999580	0.00000000	17.95029000	5.24729300
73.89999579	0.00000000	15.25591000	6.36072800
74.09999578	0.00000000	11.02362000	7.84940900
74.29999577	0.00000000	6.41609200	9.00590400
74.49999575	0.00000000	2.50984200	9.38115100
74.69999574	0.00000000	0.17839570	9.00590400
74.89999573	0.00000000	-0.60900590	7.89247000
75.09999572	0.00000000	0.55364170	6.72982200
75.29999571	0.00000000	3.20497000	5.98548200
75.49999569	0.00000000	6.28075700	5.66560000
75.69999568	0.00000000	9.01820900	6.86515700
75.89999567	0.00000000	10.93135000	9.51648500
76.09999566	0.00000000	11.76181000	12.58612000
76.29999565	0.00000000	11.34966000	15.27436000
76.49999563	0.00000000	10.27313000	16.76919000
76.69999562	0.00000000	8.74138700	16.35089000
76.89999561	0.00000000	7.99704600	13.65650000
77.09999560	0.00000000	7.86171200	9.43036400
77.29999559	0.00000000	7.52952700	4.77977300
77.49999558	0.00000000	7.16043300	0.51058070
77.69999556	0.00000000	7.48646600	-2.51599400
77.89999555	0.00000000	7.43725300	-3.25418300
78.09999554	0.00000000	6.69906400	-0.93503930
78.29999553	0.00000000	5.94857300	3.66633800
78.49999552	0.00000000	5.16117100	9.47342500
78.69999550	0.00000000	4.83513700	15.23130000
78.89999549	0.00000000	5.21038300	19.46358000
79.09999548	0.00000000	6.41609200	21.04454000
79.29999547	0.00000000	8.32308000	19.92495000
79.49999546	0.00000000	10.64838000	16.81225000
79.69999544	0.00000000	12.51230000	12.16166000
79.89999543	0.00000000	13.29970000	6.72982200
80.09999542	0.00000000	12.51230000	1.75319900
80.29999541	0.00000000	10.59916000	-1.72244100
80.49999540	0.00000000	7.90477300	-2.50984200
80.69999539	0.00000000	5.21038300	-1.02116100
80.89999537	0.00000000	3.25418300	2.04232300
81.09999536	0.00000000	2.09153500	5.93626900
81.29999535	0.00000000	2.13459600	9.84867000
81.49999534	0.00000000	3.62942900	13.74262000
81.69999533	0.00000000	5.94857300	16.81225000
81.89999531	0.00000000	8.28001900	18.39321000
82.09999530	0.00000000	10.59916000	18.39321000
82.29999529	0.00000000	12.13706000	16.81225000
82.49999528	0.00000000	12.51230000	13.74262000
82.69999527	0.00000000	11.76181000	9.89173200
82.89999525	0.00000000	9.86097400	6.40378900
83.09999524	0.00000000	7.94783400	3.61712600
83.29999523	0.00000000	6.36687900	1.66707700
83.49999522	0.00000000	5.21038300	0.51058070
83.69999521	0.00000000	4.83513700	0.55364170
83.89999520	0.00000000	5.16117100	2.12844500
84.09999518	0.00000000	5.94857300	5.19808000
84.29999517	0.00000000	6.69906400	9.09817800
84.49999516	0.00000000	7.48646600	12.96137000
84.69999515	0.00000000	7.86171200	16.43701000
84.89999514	0.00000000	7.90477300	18.35015000
85.09999512	0.00000000	7.94783400	18.39321000
85.29999511	0.00000000	8.32308000	16.76919000
85.49999510	0.00000000	9.06742000	13.28125000
85.69999509	0.00000000	9.44266700	8.31077700
85.89999508	0.00000000	9.48572700	3.70939900
86.09999506	0.00000000	9.44266700	0.55364170
86.29999505	0.00000000	9.06742000	-0.97810030
86.49999504	0.00000000	8.23695900	-0.60285430
86.69999503	0.00000000	7.11122000	1.75935000
86.89999502	0.00000000	5.57947800	5.61638700
87.09999501	0.00000000	4.78592500	10.62992000
87.29999499	0.00000000	4.36761800	15.18824000
87.49999498	0.00000000	4.09079700	17.92569000
87.69999497	0.00000000	5.25344500	18.35015000
87.89999496	0.00000000	7.48646600	16.76919000
88.09999495	0.00000000	9.39345400	13.28125000
88.29999493	0.00000000	10.59916000	8.31077700
88.49999492	0.00000000	11.02362000	3.70939900
88.69999491	0.00000000	10.97441000	0.59670270
88.89999490	0.00000000	10.23007000	-0.55979330
89.09999489	0.00000000	8.65526600	0.64591530
89.29999487	0.00000000	7.15428100	4.08464600
89.49999486	0.00000000	5.57947800	9.09817800
89.69999485	0.00000000	4.83513700	14.03174000
89.89999484	0.00000000	4.78592500	17.50738000
90.09999483	0.00000000	5.21038300	18.25787000
90.29999482	0.00000000	6.36687900	16.43701000
90.49999480	0.00000000	7.86171200	12.91215000
90.69999479	0.00000000	9.01820900	8.67987200
90.89999478	0.00000000	9.44266700	4.04158400
91.09999477	0.00000000	9.48572700	0.64591530
91.29999476	0.00000000	9.44266700	-0.51673230
91.49999474	0.00000000	9.06742000	1.06422200
91.69999473	0.00000000	8.32308000	5.24729300
91.89999472	0.00000000	7.94783400	10.58686000
92.09999471	0.00000000	7.90477300	15.18824000
92.29999470	0.00000000	7.90477300	17.88263000
92.49999468	0.00000000	7.90477300	17.88263000
92.69999467	0.00000000	7.86171200	15.23130000
92.89999466	0.00000000	7.48646600	11.00517000
93.09999465	0.00000000	6.69906400	6.40378900
93.29999464	0.00000000	5.94857300	2.54675200
93.49999463	0.00000000	5.21038300	0.59670270
93.69999461	0.00000000	5.21038300	0.59670270
93.89999460	0.00000000	5.99163300	2.59596400
94.09999459	0.00000000	7.16043300	6.77903500
94.29999458	0.00000000	9.11048200	11.70029000
94.49999457	0.00000000	11.02362000	15.14518000
94.69999455	0.00000000	12.55536000	16.34473000
94.89999454	0.00000000	13.29970000	15.23130000
95.09999453	0.00000000	12.51230000	12.53691000
95.29999452	0.00000000	10.59916000	9.05511800
95.49999451	0.00000000	7.86171200	5.24729300
95.69999449	0.00000000	4.78592500	2.54675200
95.89999448	0.00000000	2.09153500	1.75319900
96.09999447	0.00000000	0.55364170	2.54675200
96.29999446	0.00000000	0.55364170	5.24729300
96.49999445	0.00000000	2.13459600	9.00590400
96.69999444	0.00000000	5.21038300	12.07554000
96.89999442	0.00000000	9.06742000	13.69956000
97.09999441	0.00000000	12.55536000	14.07480000
97.29999440	0.00000000	15.25591000	13.28125000
97.49999439	0.00000000	16.41855000	11.00517000
97.69999438	0.00000000	15.63115000	8.35383800
97.89999436	0.00000000	13.34276000	6.40378900
98.09999435	0.00000000	9.81791200	5.24729300
98.29999434	0.00000000	5.94857300	5.24729300
98.49999433	0.00000000	2.09153500	6.36072800
98.69999432	0.00000000	-0.55979330	7.84940900
98.89999430	0.00000000	-0.98425190	9.05511800
99.09999429	0.00000000	0.51058070	9.79945900
99.29999428	0.00000000	3.25418300	10.21161000
99.49999427	0.00000000	6.74212600	9.89173200
99.69999426	0.00000000	10.59916000	9.89173200
99.89999425	0.00000000	13.67495000	10.21161000
100.09999423	0.00000000	15.29897000	9.89173200
100.29999422	0.00000000	15.67421000	9.93479300
100.49999421	0.00000000	14.88066000	10.62992000
100.69999420	0.00000000	12.55536000	10.95595000
100.89999419	0.00000000	9.48572700	10.58686000
101.09999417	0.00000000	6.36687900	9.42421200
101.29999416	0.00000000	3.67249000	7.89247000
101.49999415	0.00000000	2.09153500	6.36072800
101.69999414	0.00000000	1.71628900	5.19808000
101.89999413	0.00000000	2.46678100	4.82898600
102.09999411	0.00000000	4.41067900	5.24729300
102.29999410	0.00000000	6.69906400	6.77903500
102.49999409	0.00000000	9.06742000	9.09817800
102.69999408	0.00000000	10.97441000	11.42347000
102.89999407	0.00000000	12.18012000	13.69956000
103.09999406	0.00000000	12.51230000	14.81299000
103.29999404	0.00000000	11.76181000	14.07480000
103.49999403	0.00000000	9.86097400	12.16781000
103.69999402	0.00000000	7.94783400	9.47342500
103.89999401	0.00000000	6.32381900	6.72982200
104.09999400	0.00000000	4.78592500	4.44758800
104.29999398	0.00000000	3.67249000	2.92199800
104.49999397	0.00000000	3.67249000	3.29109200
104.69999396	0.00000000	4.78592500	4.77977300
104.89999395	0.00000000	6.32381900	6.77903500
105.09999394	0.00000000	7.90477300	9.47342500
105.29999392	0.00000000	9.44266700	12.11860000
105.49999391	0.00000000	10.55610000	13.65650000
105.69999390	0.00000000	10.55610000	13.65650000
105.89999389	0.00000000	9.48572700	12.16781000
106.09999388	0.00000000	8.32308000	9.89173200
106.29999387	0.00000000	7.52952700	7.93553100
106.49999385	0.00000000	6.74212600	6.36072800
106.69999384	0.00000000	6.36687900	5.24729300
106.89999383	0.00000000	6.36687900	5.24729300
107.09999382	0.00000000	6.79133800	6.36072800
107.29999381	0.00000000	7.90477300	7.93553100
107.49999379	0.00000000	9.01820900	9.84867000
107.69999378	0.00000000	9.44266700	11.70029000
107.89999377	0.00000000	9.44266700	12.07554000
108.09999376	0.00000000	9.01820900	11.00517000
108.29999375	0.00000000	7.86171200	9.47342500
108.49999374	0.00000000	6.36687900	7.89247000
108.69999372	0.00000000	5.25344500	6.40378900
108.89999371	0.00000000	5.21038300	5.61638700
109.09999370	0.00000000	5.94857300	5.98548200
109.29999369	0.00000000	6.74212600	6.72982200
109.49999368	0.00000000	7.90477300	7.98474400
109.69999366	0.00000000	9.06742000	9.84867000
109.89999365	0.00000000	9.81791200	11.74951000
110.09999364	0.00000000	10.23007000	12.49385000
110.29999363	0.00000000	9.81791200	12.16166000
110.49999362	0.00000000	9.11048200	11.00517000
110.69999360	0.00000000	8.28001900	9.47342500
110.89999359	0.00000000	7.52952700	7.89247000
111.09999358	0.00000000	6.74212600	6.36072800
111.29999357	0.00000000	6.36687900	5.24729300
111.49999356	0.00000000	6.36687900	5.24729300
111.69999355	0.00000000	6.74212600	6.31151500
111.89999353	0.00000000	7.48646600	7.47416300
112.09999352	0.00000000	7.90477300	8.31077700
112.29999351	0.00000000	8.32308000	9.47342500
112.49999350	0.00000000	9.06742000	10.58686000
112.69999349	0.00000000	9.39345400	11.00517000
112.89999347	0.00000000	9.06742000	11.00517000
113.09999346	0.00000000	8.32308000	10.62992000
113.29999345	0.00000000	7.94783400	9.89173200
113.49999344	0.00000000	7.90477300	9.47342500
113.69999343	0.00000000	7.90477300	9.05511800
113.89999341	0.00000000	7.90477300	8.31077700
114.09999340	0.00000000	7.90477300	7.93553100
114.29999339	0.00000000	7.90477300	7.89247000
114.49999338	0.00000000	7.90477300	7.89247000
114.69999337	0.00000000	7.90477300	7.89247000
114.89999336	0.00000000	7.90477300	7.89247000
115.09999334	0.00000000	7.90477300	7.89247000
115.29999333	0.00000000	7.90477300	7.89247000
115.49999332	0.00000000	7.90477300	7.93553100
115.69999331	0.00000000	7.90477300	8.31077700
115.89999330	0.00000000	7.90477300	9.09817800
116.09999328	0.00000000	7.90477300	9.84867000
116.29999327	0.00000000	7.90477300	10.62992000
116.49999326	0.00000000	7.90477300	11.00517000
116.69999325	0.00000000	7.90477300	11.00517000
116.89999324	0.00000000	7.90477300	10.62992000
117.09999322	0.00000000	7.90477300	9.89173200
117.29999321	0.00000000	7.94783400	9.43036400
117.49999320	0.00000000	8.32308000	8.63681000
117.69999319	0.00000000	9.06742000	7.14812900
117.89999318	0.00000000	9.44266700	6.40378900
118.09999317	0.00000000	9.48572700	6.35457700
118.29999315	0.00000000	9.44266700	6.72982200
118.49999314	0.00000000	9.01820900	7.51722400
118.69999313	0.00000000	7.90477300	8.26771600
118.89999312	0.00000000	6.74212600	9.09817800
119.09999311	0.00000000	5.94857300	9.84867000
119.29999309	0.00000000	5.21038300	10.62992000
119.49999308	0.00000000	5.21038300	11.00517000
119.69999307	0.00000000	5.94857300	11.00517000
119.89999306	0.00000000	6.74212600	10.62992000
120.09999305	0.00000000	7.94783400	9.89173200
120.29999303	0.00000000	9.44266700	9.51648500
120.49999302	0.00000000	10.59916000	9.43036400
120.69999301	0.00000000	11.02362000	9.05511800
120.89999300	0.00000000	11.02362000	8.31077700
121.09999299	0.00000000	10.55610000	7.89247000
121.29999298	0.00000000	9.06742000	7.56028500
121.49999296	0.00000000	7.20964500	7.52337600
121.69999295	0.00000000	6.36687900	8.26156400
121.89999294	0.00000000	5.90551100	8.26771600
122.09999293	0.00000000	5.21038300	8.35998900
122.29999292	0.00000000	5.21038300	9.05511800
122.49999290	0.00000000	5.94857300	9.47342500
122.69999289	0.00000000	6.74212600	9.89173200
122.89999288	0.00000000	7.90477300	10.62992000
123.09999287	0.00000000	9.01820900	10.95595000
123.29999286	0.00000000	9.48572700	10.62992000
123.49999284	0.00000000	9.90403500	9.89173200
123.69999283	0.00000000	10.59916000	9.47342500
123.89999282	0.00000000	10.59916000	9.05511800
124.09999281	0.00000000	9.86097400	8.26771600
124.29999280	0.00000000	9.06742000	7.56028500
124.49999279	0.00000000	7.90477300	7.14812900
124.69999277	0.00000000	6.79133800	7.51722400
124.89999276	0.00000000	6.36687900	7.89247000
125.09999275	0.00000000	6.32381900	8.31077700
125.29999274	0.00000000	6.32381900	9.05511800
125.49999273	0.00000000	6.36687900	9.43036400
125.69999271	0.00000000	6.74212600	9.51648500
125.89999270	0.00000000	7.52952700	9.89173200
126.09999269	0.00000000	8.28001900	10.58686000
126.29999268	0.00000000	9.06742000	10.58686000
126.49999267	0.00000000	9.44266700	9.84867000
126.69999265	0.00000000	9.48572700	9.09817800
126.89999264	0.00000000	9.44266700	8.31077700
127.09999263	0.00000000	9.01820900	7.93553100
127.29999262	0.00000000	7.90477300	7.89247000
127.49999261	0.00000000	6.74212600	7.89247000
127.69999260	0.00000000	5.99163300	7.89247000
127.89999258	0.00000000	5.57947800	7.93553100
128.09999257	0.00000000	5.99163300	8.31077700
128.29999256	0.00000000	6.69906400	9.05511800
128.49999255	0.00000000	7.52952700	9.43036400
128.69999254	0.00000000	8.32308000	9.47342500
128.89999252	0.00000000	9.48572700	9.47342500
129.09999251	0.00000000	10.55610000	9.47342500
129.29999250	0.00000000	10.59916000	9.43036400
129.49999249	0.00000000	9.86097400	9.05511800
129.69999248	0.00000000	9.06742000	8.31077700
129.89999246	0.00000000	7.90477300	7.93553100
130.09999245	0.00000000	6.79133800	7.93553100
130.29999244	0.00000000	6.36687900	8.31077700
130.49999243	0.00000000	6.36687900	9.05511800
130.69999242	0.00000000	6.74212600	9.43036400
130.89999241	0.00000000	7.52952700	9.47342500
131.09999239	0.00000000	8.28001900	9.47342500
131.29999238	0.00000000	9.06742000	9.47342500
131.49999237	0.00000000	9.44266700	9.43036400
131.69999236	0.00000000	9.44266700	9.05511800
131.89999235	0.00000000	9.06742000	8.31077700
132.09999233	0.00000000	8.32308000	7.93553100
132.29999232	0.00000000	7.90477300	7.89247000
132.49999231	0.00000000	7.48646600	7.89247000
132.69999230	0.00000000	6.79133800	7.93553100
132.89999229	0.00000000	6.79133800	8.31077700
133.09999227	0.00000000	7.48646600	9.05511800
133.29999226	0.00000000	7.86171200	9.47342500
133.49999225	0.00000000	7.90477300	9.89173200
133.69999224	0.00000000	7.90477300	10.62992000
133.89999223	0.00000000	7.90477300	10.95595000
134.09999222	0.00000000	7.90477300	10.58686000
134.29999220	0.00000000	7.90477300	9.47342500
134.49999219	0.00000000	7.90477300	8.31077700
134.69999218	0.00000000	7.90477300	7.51722400
134.89999217	0.00000000	7.90477300	6.72982200
135.09999216	0.00000000	7.94783400	6.40378900
135.29999214	0.00000000	8.32308000	6.72982200
135.49999213	0.00000000	9.01820900	7.51722400
135.69999212	0.00000000	9.01820900	8.26771600
135.89999211	0.00000000	8.32308000	9.09817800
136.09999210	0.00000000	7.90477300	9.84867000
136.29999208	0.00000000	7.48646600	10.62992000
136.49999207	0.00000000	6.74212600	10.95595000
136.69999206	0.00000000	6.41609200	10.67298000
136.89999205	0.00000000	6.74212600	10.26698000
137.09999204	0.00000000	7.52952700	10.21161000
137.29999203	0.00000000	8.28001900	9.42421200
137.49999201	0.00000000	9.06742000	8.35998900
137.69999200	0.00000000	9.44266700	7.93553100
137.89999199	0.00000000	9.48572700	7.89247000
138.09999198	0.00000000	9.48572700	7.89247000
138.29999197	0.00000000	9.44266700	7.89247000
138.49999195	0.00000000	9.06742000	7.89247000
138.69999194	0.00000000	8.28001900	7.93553100
138.89999193	0.00000000	7.52952700	8.31077700
139.09999192	0.00000000	6.74212600	9.09817800
139.29999191	0.00000000	6.41609200	9.84867000
139.49999189	0.00000000	6.74212600	10.58686000
139.69999188	0.00000000	7.52952700	10.58686000
139.89999187	0.00000000	8.28001900	9.89173200
140.09999186	0.00000000	9.06742000	9.47342500
140.29999185	0.00000000	9.44266700	9.05511800
140.49999184	0.00000000	9.44266700	8.26771600
140.69999182	0.00000000	9.11048200	7.51722400
140.89999181	0.00000000	8.65526600	6.72982200
141.09999180	0.00000000	8.31692900	6.40378900
141.29999179	0.00000000	7.53567900	6.72982200
141.49999178	0.00000000	7.57258800	7.51722400
141.69999176	0.00000000	7.86171200	8.31077700
141.89999175	0.00000000	7.90477300	9.47342500
142.09999174	0.00000000	7.94783400	10.58686000
142.29999173	0.00000000	8.32308000	11.00517000
142.49999172	0.00000000	9.06742000	11.00517000
142.69999170	0.00000000	9.39345400	10.62992000
142.89999169	0.00000000	9.06742000	9.84867000
143.09999168	0.00000000	8.32308000	9.09817800
143.29999167	0.00000000	7.94783400	8.31077700
143.49999166	0.00000000	7.90477300	7.89247000
143.69999165	0.00000000	7.90477300	7.51722400
143.89999163	0.00000000	7.90477300	7.14812900
144.09999162	0.00000000	7.90477300	7.56028500
144.29999161	0.00000000	7.94783400	8.26771600
144.49999160	0.00000000	8.32308000	9.05511800
144.69999159	0.00000000	9.01820900	9.43036400
144.89999157	0.00000000	9.01820900	9.51648500
145.09999156	0.00000000	8.32308000	9.84867000
145.29999155	0.00000000	7.94783400	10.21161000
145.49999154	0.00000000	7.90477300	9.84867000
145.69999153	0.00000000	7.90477300	9.47342500
145.89999151	0.00000000	7.90477300	9.05511800
146.09999150	0.00000000	7.90477300	8.31077700
146.29999149	0.00000000	7.90477300	7.93553100
146.49999148	0.00000000	7.90477300	7.89247000
146.69999147	0.00000000	7.90477300	7.89247000
146.89999146	0.00000000	7.94783400	7.93553100
147.09999144	0.00000000	8.32308000	8.31077700
147.29999143	0.00000000	9.06742000	9.05511800
147.49999142	0.00000000	9.39345400	9.43036400
147.69999141	0.00000000	9.06742000	9.47342500
147.89999140	0.00000000	8.32308000	9.47342500
148.09999138	0.00000000	7.90477300	9.47342500
148.29999137	0.00000000	7.52952700	9.47342500
148.49999136	0.00000000	7.16043300	9.47342500
148.69999135	0.00000000	7.52952700	9.47342500
148.89999134	0.00000000	7.86171200	9.43036400
149.09999132	0.00000000	7.94783400	9.05511800
149.29999131	0.00000000	8.32308000	8.31077700
149.49999130	0.00000000	9.06742000	7.98474400
149.69999129	0.00000000	9.44266700	8.31077700
149.89999128	0.00000000	9.48572700	9.05511800
150.09999127	0.00000000	9.48572700	9.43036400
150.29999125	0.00000000	9.44266700	9.47342500
150.49999124	0.00000000	9.06742000	9.47342500
150.69999123	0.00000000	8.32308000	9.47342500
150.89999122	0.00000000	7.94783400	9.47342500
151.09999121	0.00000000	7.90477300	9.47342500
151.29999119	0.00000000	7.90477300	9.43036400
151.49999118	0.00000000	7.90477300	9.05511800
151.69999117	0.00000000	7.90477300	8.31077700
151.89999116	0.00000000	7.90477300	7.93553100
152.09999115	0.00000000	7.94783400	7.93553100
152.29999113	0.00000000	8.32308000	8.31077700
152.49999112	0.00000000	9.06742000	9.00590400
152.69999111	0.00000000	9.44266700	9.05511800
152.89999110	0.00000000	9.48572700	8.72908400
153.09999109	0.00000000	9.48572700	9.09817800
153.29999108	0.00000000	9.44266700	9.43036400
153.49999106	0.00000000	9.06742000	9.47342500
153.69999105	0.00000000	8.32308000	9.47342500
153.89999104	0.00000000	7.90477300	9.47342500
154.09999103	0.00000000	7.48646600	9.47342500
154.29999102	0.00000000	6.74212600	9.47342500
154.49999100	0.00000000	6.41609200	9.47342500
154.69999099	0.00000000	6.74212600	9.43036400
154.89999098	0.00000000	7.52952700	9.09817800
155.09999097	0.00000000	8.23695900	8.68602300
155.29999096	0.00000000	8.69217500	8.67987200
155.49999094	0.00000000	8.69832600	8.26771600
155.69999093	0.00000000	9.11048200	7.93553100
155.89999092	0.00000000	9.44266700	7.93553100
156.09999091	0.00000000	9.44266700	8.31077700
156.29999090	0.00000000	9.06742000	9.05511800
156.49999089	0.00000000	8.32308000	9.43036400
156.69999087	0.00000000	7.94783400	9.51648500
156.89999086	0.00000000	7.90477300	9.84867000
157.09999085	0.00000000	7.90477300	10.21161000
157.29999084	0.00000000	7.90477300	9.84867000
157.49999083	0.00000000	7.90477300	9.51648500
157.69999081	0.00000000	7.90477300	9.43036400
157.89999080	0.00000000	7.94783400	9.05511800
158.09999079	0.00000000	8.32308000	8.31077700
158.29999078	0.00000000	9.01820900	7.93553100
158.49999077	0.00000000	9.06742000	7.89247000
158.69999075	0.00000000	8.74138700	7.89247000
158.89999074	0.00000000	9.11048200	7.89247000
159.09999073	0.00000000	9.44266700	7.93553100
159.29999072	0.00000000	9.48572700	8.35998900
159.49999071	0.00000000	9.44266700	9.42421200
159.69999070	0.00000000	9.06742000	10.16855000
159.89999068	0.00000000	8.32308000	9.84867000
160.09999067	0.00000000	7.94783400	9.51648500
160.29999066	0.00000000	7.90477300	9.47342500
160.49999065	0.00000000	7.90477300	9.47342500
160.69999064	0.00000000	7.90477300	9.43036400
160.89999062	0.00000000	7.90477300	9.05511800
161.09999061	0.00000000	7.90477300	8.31077700
161.29999060	0.00000000	7.94783400	7.93553100
161.49999059	0.00000000	8.32308000	7.93553100
161.69999058	0.00000000	9.06742000	8.31077700
161.89999056	0.00000000	9.44266700	9.05511800
162.09999055	0.00000000	9.48572700	9.43036400
162.29999054	0.00000000	9.48572700	9.47342500
162.49999053	0.00000000	9.44266700	9.47342500
162.69999052	0.00000000	9.06742000	9.47342500
162.89999051	0.00000000	8.32308000	9.47342500
163.09999049	0.00000000	7.94783400	9.47342500
163.29999048	0.00000000	7.90477300	9.47342500
163.49999047	0.00000000	7.90477300	9.47342500
163.69999046	0.00000000	7.90477300	9.43036400
163.89999045	0.00000000	7.90477300	9.09817800
164.09999043	0.00000000	7.90477300	8.68602300
164.29999042	0.00000000	7.90477300	8.67987200
164.49999041	0.00000000	7.94783400	8.26771600
164.69999040	0.00000000	8.32308000	7.93553100
164.89999039	0.00000000	9.06742000	7.93553100
165.09999037	0.00000000	9.44266700	8.31077700
165.29999036	0.00000000	9.48572700	9.05511800
165.49999035	0.00000000	9.44266700	9.43036400
165.69999034	0.00000000	9.06742000	9.47342500
165.89999033	0.00000000	8.32308000	9.47342500
166.09999032	0.00000000	7.94783400	9.47342500
166.29999030	0.00000000	7.90477300	9.47342500
166.49999029	0.00000000	7.90477300	9.47342500
166.69999028	0.00000000	7.90477300	9.43036400
166.89999027	0.00000000	7.94783400	9.09817800
167.09999026	0.00000000	8.28001900	8.68602300
167.29999024	0.00000000	8.64911400	8.72293300
167.49999023	0.00000000	8.32308000	8.64296200
167.69999022	0.00000000	8.37229300	8.67987200
167.89999021	0.00000000	9.06742000	8.31077700
168.09999020	0.00000000	9.44266700	8.35998900
168.29999018	0.00000000	9.44266700	9.05511800
168.49999017	0.00000000	9.11048200	9.43036400
168.69999016	0.00000000	8.69832600	9.47342500
168.89999015	0.00000000	8.69217500	9.47342500
169.09999014	0.00000000	8.28001900	9.47342500
169.29999013	0.00000000	7.94783400	9.47342500
169.49999011	0.00000000	7.90477300	9.43036400
169.69999010	0.00000000	7.90477300	9.09817800
169.89999009	0.00000000	7.90477300	8.72908400
170.09999008	0.00000000	7.90477300	9.09817800
170.29999007	0.00000000	7.90477300	9.43036400
170.49999005	0.00000000	7.94783400	9.47342500
170.69999004	0.00000000	8.28001900	9.47342500
170.89999003	0.00000000	8.69217500	9.47342500
171.09999002	0.00000000	8.69832600	9.43036400
171.29999001	0.00000000	9.11048200	9.05511800
171.49998999	0.00000000	9.39345400	8.35998900
171.69998998	0.00000000	9.06742000	8.31077700
171.89998997	0.00000000	8.32308000	8.67987200
172.09998996	0.00000000	7.94783400	8.64296200
172.29998995	0.00000000	7.90477300	8.72293300
172.49998994	0.00000000	7.90477300	8.68602300
172.69998992	0.00000000	7.90477300	9.09817800
172.89998991	0.00000000	7.90477300	9.43036400
173.09998990	0.00000000	7.90477300	9.43036400
173.29998989	0.00000000	7.90477300	9.09817800
173.49998988	0.00000000	7.90477300	8.72908400
173.69998986	0.00000000	7.94783400	9.09817800
173.89998985	0.00000000	8.28001900	9.43036400
174.09998984	0.00000000	8.64911400	9.43036400
174.29998983	0.00000000	8.28001900	9.09817800
174.49998982	0.00000000	7.94783400	8.72908400
174.69998980	0.00000000	7.90477300	9.05511800
174.89998979	0.00000000	7.90477300	9.05511800
175.09998978	0.00000000	7.90477300	8.72908400
175.29998977	0.00000000	7.90477300	9.09817800
175.49998976	0.00000000	7.90477300	9.43036400
175.69998975	0.00000000	7.90477300	9.47342500
175.89998973	0.00000000	7.90477300	9.47342500
176.09998972	0.00000000	7.90477300	9.47342500
176.29998971	0.00000000	7.94783400	9.47342500
176.49998970	0.00000000	8.32308000	9.47342500
176.69998969	0.00000000	9.01820900	9.47342500
176.89998967	0.00000000	9.01820900	9.47342500
177.09998966	0.00000000	8.37229300	9.47342500
177.29998965	0.00000000	8.32308000	9.47342500
177.49998964	0.00000000	8.64911400	9.43036400
177.69998963	0.00000000	8.28001900	9.05511800
177.89998961	0.00000000	7.94783400	8.35998900
178.09998960	0.00000000	7.90477300	8.35998900
178.29998959	0.00000000	7.90477300	9.05511800
178.49998958	0.00000000	7.90477300	9.43036400
178.69998957	0.00000000	7.90477300	9.47342500
178.89998956	0.00000000	7.94783400	9.47342500
179.09998954	0.00000000	8.32308000	9.47342500
179.29998953	0.00000000	9.06742000	9.47342500
179.49998952	0.00000000	9.44266700	9.43036400
179.69998951	0.00000000	9.48572700	9.09817800
179.89998950	0.00000000	9.44266700	8.68602300
180.09998948	0.00000000	9.11048200	8.67987200
180.29998947	0.00000000	8.69832600	8.31077700
180.49998946	0.00000000	8.69217500	8.35998900
180.69998945	0.00000000	8.28001900	9.05511800
180.89998944	0.00000000	7.94783400	9.43036400
181.09998942	0.00000000	7.90477300	9.47342500
181.29998941	0.00000000	7.90477300	9.47342500
181.49998940	0.00000000	7.94783400	9.47342500
181.69998939	0.00000000	8.32308000	9.47342500
181.89998938	0.00000000	9.01820900	9.47342500
182.09998937	0.00000000	9.01820900	9.47342500
182.29998935	0.00000000	8.37229300	9.47342500
182.49998934	0.00000000	8.37229300	9.47342500
182.69998933	0.00000000	9.06742000	9.47342500
182.89998932	0.00000000	9.44266700	9.47342500
183.09998931	0.00000000	9.48572700	9.43036400
183.29998929	0.00000000	9.44266700	9.09817800
183.49998928	0.00000000	9.11048200	8.68602300
183.69998927	0.00000000	8.69832600	8.72293300
183.89998926	0.00000000	8.69217500	8.68602300
184.09998925	0.00000000	8.28001900	9.09817800
184.29998923	0.00000000	7.94783400	9.43036400
184.49998922	0.00000000	7.90477300	9.47342500
184.69998921	0.00000000	7.90477300	9.47342500
184.89998920	0.00000000	7.90477300	9.47342500
185.09998919	0.00000000	7.90477300	9.47342500
185.29998918	0.00000000	7.94783400	9.47342500
185.49998916	0.00000000	8.32308000	9.47342500
185.69998915	0.00000000	9.06742000	9.43036400
185.89998914	0.00000000	9.44266700	9.05511800
186.09998913	0.00000000	9.48572700	8.31077700
186.29998912	0.00000000	9.48572700	7.93553100
186.49998910	0.00000000	9.44266700	7.89247000
186.69998909	0.00000000	9.06742000	7.93553100
186.89998908	0.00000000	8.32308000	8.31077700
187.09998907	0.00000000	7.94783400	9.05511800
187.29998906	0.00000000	7.90477300	9.43036400
187.49998904	0.00000000	7.90477300	9.47342500
187.69998903	0.00000000	7.90477300	9.47342500
187.89998902	0.00000000	7.90477300	9.47342500
188.09998901	0.00000000	7.94783400	9.47342500
188.29998900	0.00000000	8.32308000	9.47342500
188.49998899	0.00000000	9.06742000	9.47342500
188.69998897	0.00000000	9.39345400	9.43036400
188.89998896	0.00000000	9.11048200	9.05511800
189.09998895	0.00000000	8.74138700	8.31077700
189.29998894	0.00000000	9.11048200	7.98474400
189.49998893	0.00000000	9.39345400	8.26771600
189.69998891	0.00000000	9.06742000	8.67987200
189.89998890	0.00000000	8.32308000	8.68602300
190.09998889	0.00000000	7.94783400	9.09817800
190.29998888	0.00000000	7.90477300	9.43036400
190.49998887	0.00000000	7.90477300	9.47342500
190.69998885	0.00000000	7.90477300	9.47342500
190.89998884	0.00000000	7.90477300	9.47342500
191.09998883	0.00000000	7.94783400	9.47342500
191.29998882	0.00000000	8.32308000	9.47342500
191.49998881	0.00000000	9.01820900	9.43036400
191.69998880	0.00000000	9.06742000	9.09817800
191.89998878	0.00000000	8.74138700	8.68602300
192.09998877	0.00000000	9.11048200	8.72293300
192.29998876	0.00000000	9.44266700	8.68602300
192.49998875	0.00000000	9.48572700	9.09817800
192.69998874	0.00000000	9.44266700	9.43036400
192.89998872	0.00000000	9.06742000	9.47342500
193.09998871	0.00000000	8.32308000	9.47342500
193.29998870	0.00000000	7.94783400	9.47342500
193.49998869	0.00000000	7.90477300	9.47342500
193.69998868	0.00000000	7.90477300	9.47342500
193.89998866	0.00000000	7.90477300	9.47342500
194.09998865	0.00000000	7.94783400	9.47342500
194.29998864	0.00000000	8.32308000	9.47342500
194.49998863	0.00000000	9.06742000	9.47342500
194.69998862	0.00000000	9.39345400	9.47342500
194.89998861	0.00000000	9.11048200	9.47342500
195.09998859	0.00000000	8.69832600	9.47342500
195.29998858	0.00000000	8.69217500	9.47342500
195.49998857	0.00000000	8.28001900	9.47342500
195.69998856	0.00000000	7.94783400	9.43036400
195.89998855	0.00000000	7.90477300	9.09817800
196.09998853	0.00000000	7.90477300	8.72908400
