Time	Channel A	Channel B	Channel C
(us)	(V)	(mV)	(mV)

-4.53333289	0.00000000	26.08268000	17.27362000
-4.33333290	0.00000000	26.08883000	16.99065000
-4.13333291	0.00000000	26.45792000	16.62155000
-3.93333293	0.00000000	26.45792000	16.99065000
-3.73333294	0.00000000	26.13189000	17.32283000
-3.53333295	0.00000000	26.50098000	17.36589000
-3.33333296	0.00000000	26.83317000	17.36589000
-3.13333297	0.00000000	26.87623000	17.36589000
-2.93333299	0.00000000	26.87623000	17.36589000
-2.73333300	0.00000000	26.87623000	17.36589000
-2.53333301	0.00000000	26.87623000	17.36589000
-2.33333302	0.00000000	26.87623000	17.36589000
-2.13333303	0.00000000	26.87623000	17.36589000
-1.93333304	0.00000000	26.87623000	17.36589000
-1.73333306	0.00000000	26.87623000	17.36589000
-1.53333307	0.00000000	26.87623000	17.36589000
-1.33333308	0.00000000	26.87623000	17.36589000
-1.13333309	0.00000000	26.87623000	17.36589000
-0.93333310	0.00000000	26.87623000	17.36589000
-0.73333312	0.00000000	26.87623000	17.36589000
-0.53333313	0.00000000	26.87623000	17.36589000
-0.33333314	0.15871060	26.87623000	17.36589000
-0.13333315	0.47736220	26.87623000	17.36589000
0.06666684	0.95533960	26.83317000	17.32283000
0.26666682	0.95533960	26.50098000	16.94759000
0.46666681	0.95533960	26.13189000	16.20325000
0.66666680	0.47736220	26.50098000	15.82800000
0.86666679	-0.15871060	26.83317000	15.78494000
1.06666678	-1.11466500	26.83317000	15.78494000
1.26666677	-2.07062000	26.50098000	15.82800000
1.46666675	-2.70792300	26.13189000	16.20325000
1.66666674	-2.70792300	26.50098000	16.94759000
1.86666673	-1.75196900	26.83317000	17.32283000
2.06666672	0.00000000	26.87623000	17.32283000
2.26666671	2.07062000	26.87623000	16.94759000
2.46666669	3.98191400	26.87623000	16.20325000
2.66666668	5.25652100	26.83317000	15.82800000
2.86666667	5.25652100	26.45792000	15.78494000
3.06666666	3.66326300	25.71358000	15.78494000
3.26666665	0.95533960	25.33834000	15.78494000
3.46666663	-2.38927200	25.33834000	15.78494000
3.66666662	-5.57517200	25.71358000	15.78494000
3.86666661	-7.64579200	26.45792000	15.82800000
4.06666660	-7.80511800	26.83317000	16.20325000
4.26666659	-5.89382400	26.87623000	16.94759000
4.46666658	-2.38927200	26.87623000	17.32283000
4.66666656	1.91129400	26.87623000	17.32283000
4.86666655	6.21247500	26.87623000	16.94759000
5.06666654	8.76107300	26.87623000	16.20325000
5.26666653	9.39837600	26.83317000	15.82800000
5.46666652	7.64579200	26.50098000	15.78494000
5.66666650	3.82258900	26.13189000	15.78494000
5.86666649	-0.95533960	26.50098000	15.78494000
6.06666648	-5.41584600	26.83317000	15.82800000
6.26666647	-8.60174700	26.87623000	16.20325000
6.46666646	-9.55770200	26.87623000	16.94759000
6.66666644	-8.12377000	26.87623000	17.32283000
6.86666643	-4.61921700	26.87623000	17.36589000
7.06666642	-0.31803640	26.87623000	17.36589000
7.26666641	3.82258900	26.87623000	17.36589000
7.46666640	6.69045300	26.87623000	17.36589000
7.66666639	7.80511800	26.87623000	17.36589000
7.86666637	6.84916400	26.87623000	17.32283000
8.06666636	4.45989200	26.87623000	16.94759000
8.26666635	1.11466500	26.87623000	16.25246000
8.46666634	-1.91129400	26.87623000	16.25246000
8.66666633	-4.30056600	26.87623000	16.94759000
8.86666631	-5.09719500	26.87623000	17.32283000
9.06666630	-4.77854300	26.87623000	17.36589000
9.26666629	-3.18590100	26.87623000	17.36589000
9.46666628	-1.27399100	26.87623000	17.36589000
9.66666627	0.63668800	26.87623000	17.36589000
9.86666625	1.91129400	26.87623000	17.36589000
10.06666624	2.54859700	26.87623000	17.36589000
10.26666623	2.38927200	26.87623000	17.36589000
10.46666622	1.75196900	26.87623000	17.36589000
10.66666621	0.79601380	26.87623000	17.36589000
10.86666620	0.00000000	26.87623000	17.36589000
11.06666618	-0.63668800	26.87623000	17.36589000
11.26666617	-0.95533960	26.87623000	17.36589000
11.46666616	-0.95533960	26.87623000	17.36589000
11.66666615	-0.79601380	26.87623000	17.36589000
11.86666614	-0.47736220	26.87623000	17.36589000
12.06666612	-0.15871060	26.87623000	17.36589000
12.26666611	-0.15871060	26.87623000	17.36589000
12.46666610	0.00000000	26.87623000	17.36589000
12.66666609	0.00000000	26.87623000	17.36589000
12.86666608	0.00000000	26.87623000	17.36589000
13.06666606	0.00000000	26.87623000	17.36589000
13.26666605	0.15871060	26.87623000	17.36589000
13.46666604	0.00000000	26.87623000	17.32283000
13.66666603	0.00000000	26.87623000	16.99065000
13.86666602	0.00000000	26.87623000	16.62155000
14.06666601	0.00000000	26.87623000	16.99065000
14.26666599	-0.15871060	26.87623000	17.32283000
14.46666598	-0.15871060	26.87623000	17.36589000
14.66666597	0.00000000	26.87623000	17.32283000
14.86666596	0.00000000	26.87623000	16.99065000
15.06666595	0.00000000	26.87623000	16.62155000
15.26666593	0.00000000	26.87623000	16.99065000
15.46666592	0.00000000	26.87623000	17.32283000
15.66666591	0.00000000	26.87623000	17.32283000
15.86666590	0.00000000	26.87623000	16.94759000
16.06666589	0.00000000	26.87623000	16.20325000
16.26666587	0.00000000	26.87623000	15.82800000
16.46666586	0.00000000	26.87623000	15.82800000
16.66666585	0.00000000	26.91929000	16.16018000
16.86666584	0.00000000	27.29453000	16.57234000
17.06666583	0.00000000	28.03888000	16.53543000
17.26666582	0.00000000	28.41412000	16.57234000
17.46666580	0.00000000	28.45718000	16.16018000
17.66666579	0.00000000	28.45718000	15.82800000
17.86666578	0.00000000	28.41412000	15.78494000
18.06666577	0.00000000	27.98966000	15.82800000
18.26666576	0.00000000	26.83317000	16.16018000
18.46666574	0.00000000	25.29527000	16.57234000
18.66666573	0.00000000	23.75738000	16.57849000
18.86666572	0.00000000	22.60088000	16.94759000
19.06666571	0.00000000	22.26870000	16.94759000
19.26666570	0.00000000	23.06225000	16.62155000
19.46666568	0.00000000	25.43061000	16.94759000
19.66666567	0.00000000	28.87549000	16.94759000
19.86666566	0.00000000	32.78174000	16.62155000
20.06666565	0.00000000	36.23277000	16.99065000
20.26666564	0.00000000	38.50886000	17.27362000
20.46666563	0.00000000	38.46580000	16.99065000
20.66666561	0.00000000	35.72219000	16.62155000
20.86666560	0.00000000	30.64714000	16.99065000
21.06666559	0.00000000	23.62205000	17.32283000
21.26666558	0.00000000	15.94488000	17.36589000
21.46666557	0.00000000	9.43651600	17.36589000
21.66666555	0.00000000	6.40378900	17.36589000
21.86666554	0.00000000	8.03395600	17.32283000
22.06666553	0.00000000	14.64075000	16.99065000
22.26666552	0.00000000	25.52288000	16.62155000
22.46666551	0.00000000	38.23203000	16.99065000
22.66666549	0.00000000	50.18454000	17.32283000
22.86666548	0.00000000	57.81865000	17.36589000
23.06666547	0.00000000	58.98130000	17.36589000
23.26666546	0.00000000	53.07578000	17.40895000
23.46666545	0.00000000	40.64960000	17.78420000
23.66666544	0.00000000	23.62820000	18.52854000
23.86666542	0.00000000	5.89936000	18.90379000
24.06666541	0.00000000	-8.29232200	18.94685000
24.26666540	0.00000000	-14.84990000	18.90379000
24.46666539	0.00000000	-11.69414000	18.47933000
24.66666538	0.00000000	0.36294290	17.32283000
24.86666536	0.00000000	20.12795000	15.78494000
25.06666535	0.00000000	43.15945000	14.21014000
25.26666534	0.00000000	63.26279000	12.72146000
25.46666533	0.00000000	75.59670000	11.97711000
25.66666532	0.00000000	77.49754000	12.76452000
25.86666530	0.00000000	67.82726000	14.72072000
26.06666529	0.00000000	48.88656000	17.87647000
26.26666528	0.00000000	24.92003000	22.05955000
26.46666527	0.00000000	0.96579720	25.91043000
26.66666526	0.00000000	-17.13829000	28.24188000
26.86666525	0.00000000	-25.22761000	28.98007000
27.06666523	0.00000000	-20.99532000	27.31299000
27.26666522	0.00000000	-5.59793300	22.61934000
27.46666521	0.00000000	16.78765000	15.32357000
27.66666520	0.00000000	41.16019000	7.24040300
27.86666519	0.00000000	62.05708000	0.68897630
28.06666517	0.00000000	75.17839000	-3.16806100
28.26666516	0.00000000	77.49754000	-3.03272600
28.46666515	0.00000000	68.33784000	2.03617100
28.66666514	0.00000000	50.97810000	11.65108000
28.86666513	0.00000000	29.71210000	23.21604000
29.06666511	0.00000000	8.82750900	34.09203000
29.26666510	0.00000000	-6.62524600	42.59350000
29.46666509	0.00000000	-13.73647000	46.73351000
29.66666508	0.00000000	-11.82948000	44.69119000
29.86666507	0.00000000	-2.19611200	35.76525000
30.06666506	0.00000000	13.29355000	21.54897000
30.26666504	0.00000000	31.02239000	5.70866100
30.46666503	0.00000000	46.93036000	-8.18774500
30.66666502	0.00000000	57.81865000	-17.47047000
30.86666501	0.00000000	62.10014000	-19.70964000
31.06666500	0.00000000	59.02436000	-14.26550000
31.26666498	0.00000000	49.44020000	-1.49483300
31.46666497	0.00000000	36.31890000	15.83415000
31.66666496	0.00000000	22.73622000	33.58144000
31.86666495	0.00000000	11.10359000	47.93922000
32.06666494	0.00000000	3.75246000	56.02854000
32.26666492	0.00000000	2.12844500	56.44070000
32.46666491	0.00000000	5.94242000	48.64050000
32.66666490	0.00000000	13.66880000	34.36884000
32.86666489	0.00000000	23.76353000	16.20940000
33.06666488	0.00000000	34.18430000	-1.53789400
33.26666487	0.00000000	42.74114000	-15.10827000
33.46666485	0.00000000	47.72391000	-22.02879000
33.66666484	0.00000000	48.13607000	-20.49705000
33.86666483	0.00000000	43.54084000	-10.92520000
34.06666482	0.00000000	35.90059000	3.75861200
34.26666481	0.00000000	27.38681000	20.43553000
34.46666479	0.00000000	20.03568000	36.27584000
34.66666478	0.00000000	15.33587000	47.84694000
34.86666477	0.00000000	13.80413000	52.44832000
35.06666476	0.00000000	15.76033000	49.05265000
35.26666475	0.00000000	21.10605000	38.65034000
35.46666473	0.00000000	27.99582000	24.37869000
35.66666472	0.00000000	34.14124000	8.95669300
35.86666471	0.00000000	38.04749000	-3.77091500
36.06666470	0.00000000	38.84104000	-10.74065000
36.26666469	0.00000000	36.92790000	-11.15280000
36.46666468	0.00000000	32.68946000	-4.60752900
36.66666466	0.00000000	27.34375000	6.87130900
36.86666465	0.00000000	22.68701000	19.92495000
37.06666464	0.00000000	19.61737000	31.12082000
37.26666463	0.00000000	18.87303000	37.67839000
37.46666462	0.00000000	21.14911000	38.50886000
37.66666460	0.00000000	25.33834000	33.53838000
37.86666459	0.00000000	29.99508000	24.75394000
38.06666458	0.00000000	34.27657000	14.72072000
38.26666457	0.00000000	37.35236000	5.93626900
38.46666456	0.00000000	38.50886000	0.96579720
38.66666454	0.00000000	37.35236000	1.70398600
38.86666453	0.00000000	34.27657000	7.41879900
39.06666452	0.00000000	30.03814000	16.25246000
39.26666451	0.00000000	25.76279000	25.77510000
39.46666450	0.00000000	22.26870000	32.65256000
39.66666449	0.00000000	19.94340000	34.60876000
39.86666447	0.00000000	19.56816000	31.53912000
40.06666446	0.00000000	21.06299000	24.24335000
40.26666445	0.00000000	23.80659000	14.67766000
40.46666444	0.00000000	27.34375000	5.84399600
40.66666443	0.00000000	31.57603000	0.08612204
40.86666441	0.00000000	35.43922000	-1.03346500
41.06666440	0.00000000	37.77067000	3.19266700
41.26666439	0.00000000	38.55807000	11.60187000
41.46666438	0.00000000	37.39542000	21.59203000
41.66666437	0.00000000	34.69488000	30.42569000
41.86666435	0.00000000	31.20078000	35.81446000
42.06666434	0.00000000	27.29453000	36.23277000
42.26666433	0.00000000	23.84965000	32.04970000
42.46666432	0.00000000	21.48130000	24.71087000
42.66666431	0.00000000	20.73080000	15.87721000
42.86666430	0.00000000	21.43824000	7.79404500
43.06666428	0.00000000	23.38214000	2.81742100
43.26666427	0.00000000	25.71358000	1.94389800
43.46666426	0.00000000	28.45718000	5.00738200
43.66666425	0.00000000	31.10851000	10.35310000
43.86666424	0.00000000	32.68946000	16.94759000
44.06666422	0.00000000	33.15699000	23.03765000
44.26666421	0.00000000	33.15699000	26.98080000
44.46666420	0.00000000	32.78174000	28.14960000
44.66666419	0.00000000	32.03740000	27.07308000
44.86666418	0.00000000	31.66215000	23.96653000
45.06666416	0.00000000	31.57603000	20.15256000
45.26666415	0.00000000	31.15157000	16.25246000
45.46666414	0.00000000	29.94586000	13.18282000
45.66666413	0.00000000	27.98966000	11.60187000
45.86666412	0.00000000	25.25221000	11.55881000
46.06666411	0.00000000	22.17643000	12.72146000
46.26666409	0.00000000	19.48204000	14.62844000
46.46666408	0.00000000	18.03642000	16.99065000
46.66666407	0.00000000	18.82997000	19.27288000
46.86666406	0.00000000	22.36097000	21.22293000
47.06666405	0.00000000	27.76206000	21.96727000
47.26666403	0.00000000	34.36884000	21.64124000
47.46666402	0.00000000	40.46506000	20.43553000
47.66666401	0.00000000	44.37131000	18.52854000
47.86666400	0.00000000	45.07259000	16.20325000
48.06666399	0.00000000	42.37204000	14.25320000
48.26666397	0.00000000	36.14050000	12.72146000
48.46666396	0.00000000	28.03888000	12.02018000
48.66666395	0.00000000	19.52510000	13.13976000
48.86666394	0.00000000	12.64149000	15.40969000
49.06666393	0.00000000	9.56569900	17.78420000
49.26666392	0.00000000	11.10359000	20.52780000
49.46666390	0.00000000	16.91683000	23.12992000
49.66666389	0.00000000	25.80585000	24.29257000
49.86666388	0.00000000	35.81446000	23.50517000
50.06666387	0.00000000	44.23597000	21.22293000
50.26666386	0.00000000	48.51131000	17.74114000
50.46666384	0.00000000	47.77313000	14.25320000
50.66666383	0.00000000	42.79035000	11.14050000
50.86666382	0.00000000	34.65182000	8.90747900
51.06666381	0.00000000	25.43061000	8.90747900
51.26666380	0.00000000	17.34129000	11.22662000
51.46666379	0.00000000	12.72761000	15.04675000
51.66666377	0.00000000	12.68455000	19.69119000
51.86666376	0.00000000	16.91683000	23.50517000
52.06666375	0.00000000	24.22490000	25.91043000
52.26666374	0.00000000	32.64640000	26.61786000
52.46666373	0.00000000	39.57923000	25.44906000
52.66666371	0.00000000	43.07332000	22.01033000
52.86666370	0.00000000	42.74114000	17.83341000
53.06666369	0.00000000	38.88410000	14.29626000
53.26666368	0.00000000	32.73868000	11.55881000
53.46666367	0.00000000	25.80585000	10.07013000
53.66666365	0.00000000	20.07874000	10.44537000
53.86666364	0.00000000	17.38435000	12.76452000
54.06666363	0.00000000	18.49778000	16.16018000
54.26666362	0.00000000	22.68701000	19.64198000
54.46666361	0.00000000	28.45718000	21.92421000
54.66666360	0.00000000	34.23351000	22.71161000
54.86666358	0.00000000	38.46580000	21.59203000
55.06666357	0.00000000	40.00369000	19.36516000
55.26666356	0.00000000	38.50886000	17.45817000
55.46666355	0.00000000	34.65182000	16.29552000
55.66666354	0.00000000	29.66289000	16.29552000
55.86666352	0.00000000	24.68627000	17.40895000
56.06666351	0.00000000	21.61663000	18.94685000
56.26666350	0.00000000	21.14911000	20.47859000
56.46666349	0.00000000	22.68701000	21.59203000
56.66666348	0.00000000	25.84892000	21.54897000
56.86666346	0.00000000	30.41338000	20.01722000
57.06666345	0.00000000	34.97170000	17.32283000
57.26666344	0.00000000	37.30315000	14.25320000
57.46666343	0.00000000	37.39542000	11.60187000
57.66666342	0.00000000	35.85752000	10.48843000
57.86666341	0.00000000	33.15699000	11.69414000
58.06666339	0.00000000	30.08120000	15.13902000
58.26666338	0.00000000	27.38681000	20.15256000
58.46666337	0.00000000	25.84892000	25.12918000
58.66666336	0.00000000	25.80585000	28.98007000
58.86666335	0.00000000	26.91929000	30.46875000
59.06666333	0.00000000	28.45718000	28.89395000
59.26666332	0.00000000	30.03814000	24.29257000
59.46666331	0.00000000	31.57603000	17.74114000
59.66666330	0.00000000	32.68946000	11.18356000
59.86666329	0.00000000	32.68946000	5.79478300
60.06666327	0.00000000	31.57603000	3.19266700
60.26666326	0.00000000	30.08120000	4.68134800
60.46666325	0.00000000	28.92470000	9.69488100
60.66666324	0.00000000	28.50024000	16.62770000
60.86666323	0.00000000	28.50024000	24.33563000
61.06666322	0.00000000	28.92470000	30.46875000
61.26666320	0.00000000	30.08120000	33.53838000
61.46666319	0.00000000	31.52682000	32.74483000
61.66666318	0.00000000	32.31422000	27.78051000
61.86666317	0.00000000	31.95128000	20.47859000
62.06666316	0.00000000	31.20078000	12.72146000
62.26666314	0.00000000	29.99508000	5.80093500
62.46666313	0.00000000	28.45718000	1.56865100
62.66666312	0.00000000	26.96850000	1.15034400
62.86666311	0.00000000	26.18110000	4.26304100
63.06666310	0.00000000	26.54404000	10.44537000
63.26666308	0.00000000	27.34375000	18.47933000
63.46666307	0.00000000	28.92470000	25.82431000
63.66666306	0.00000000	31.20078000	30.88705000
63.86666305	0.00000000	33.11393000	33.16314000
64.06666304	0.00000000	34.27657000	31.63140000
64.26666303	0.00000000	34.27657000	26.66092000
64.46666301	0.00000000	33.11393000	20.15256000
64.66666300	0.00000000	31.20078000	13.51501000
64.86666299	0.00000000	28.87549000	8.12007800
65.06666298	0.00000000	26.96850000	4.63828700
65.26666297	0.00000000	25.76279000	4.21998000
65.46666295	0.00000000	25.43061000	6.48991100
65.66666294	0.00000000	26.22416000	10.35310000
65.86666293	0.00000000	28.50024000	15.41585000
66.06666292	0.00000000	31.10851000	20.39247000
66.26666291	0.00000000	32.68946000	24.33563000
66.46666289	0.00000000	33.10777000	26.66092000
66.66666288	0.00000000	32.68946000	27.49138000
66.86666287	0.00000000	31.15157000	26.70398000
67.06666286	0.00000000	28.92470000	24.79700000
67.26666285	0.00000000	27.42987000	22.05955000
67.46666284	0.00000000	27.38681000	18.98991000
67.66666282	0.00000000	28.50024000	16.20325000
67.86666281	0.00000000	30.08120000	13.83489000
68.06666280	0.00000000	32.03740000	11.51575000
68.26666279	0.00000000	34.31963000	9.98400600
68.46666278	0.00000000	35.81446000	9.60875900
68.66666276	0.00000000	35.77140000	10.44537000
68.86666275	0.00000000	33.85827000	13.18282000
69.06666274	0.00000000	30.41338000	17.40895000
69.26666273	0.00000000	26.91929000	22.05955000
69.46666272	0.00000000	23.84965000	26.28568000
69.66666270	0.00000000	21.94882000	29.02928000
69.86666269	0.00000000	22.36097000	29.77362000
70.06666268	0.00000000	24.68627000	28.61097000
70.26666267	0.00000000	28.96776000	25.12918000
70.46666266	0.00000000	34.31963000	20.47859000
70.66666265	0.00000000	38.93332000	15.45891000
70.86666263	0.00000000	41.67076000	10.82062000
71.06666262	0.00000000	42.04601000	8.16313900
71.26666261	0.00000000	40.08981000	7.70792300
71.46666260	0.00000000	35.81446000	9.65182000
71.66666259	0.00000000	30.03814000	13.09670000
71.86666257	0.00000000	24.26796000	17.40895000
72.06666256	0.00000000	20.03568000	21.96727000
72.26666255	0.00000000	18.45472000	25.44906000
72.46666254	0.00000000	19.61737000	26.61786000
72.66666253	0.00000000	23.10531000	25.91043000
72.86666251	0.00000000	28.45718000	23.59129000
73.06666250	0.00000000	33.90133000	20.52780000
73.26666249	0.00000000	38.18897000	17.45817000
73.46666248	0.00000000	41.29552000	15.13902000
73.66666247	0.00000000	42.00295000	14.34547000
73.86666246	0.00000000	40.13902000	14.67150000
74.06666244	0.00000000	36.27584000	15.83415000
74.26666243	0.00000000	31.66830000	17.32283000
74.46666242	0.00000000	27.38681000	18.43627000
74.66666241	0.00000000	24.26796000	18.43627000
74.86666240	0.00000000	22.73007000	17.32283000
75.06666238	0.00000000	23.10531000	15.83415000
75.26666237	0.00000000	25.38755000	14.67150000
75.46666236	0.00000000	28.45718000	14.34547000
75.66666235	0.00000000	31.57603000	15.13902000
75.86666234	0.00000000	34.23351000	17.45817000
76.06666232	0.00000000	35.43922000	20.52780000
76.26666231	0.00000000	35.11934000	23.59129000
76.46666230	0.00000000	34.36884000	25.86737000
76.66666229	0.00000000	33.15699000	26.24262000
76.86666228	0.00000000	31.66215000	24.66166000
77.06666227	0.00000000	30.50566000	21.17372000
77.26666225	0.00000000	30.08120000	16.20325000
77.46666224	0.00000000	30.03814000	11.55881000
77.66666223	0.00000000	30.03814000	8.07086500
77.86666222	0.00000000	30.03814000	6.21924200
78.06666221	0.00000000	29.99508000	7.37573800
78.26666219	0.00000000	29.61983000	11.18356000
78.46666218	0.00000000	28.83243000	16.20325000
78.66666217	0.00000000	28.12500000	21.68430000
78.86666216	0.00000000	27.76206000	26.66092000
79.06666215	0.00000000	28.59252000	30.09350000
79.26666213	0.00000000	30.45644000	30.46875000
79.46666212	0.00000000	32.78174000	27.86663000
79.66666211	0.00000000	34.69488000	23.59129000
79.86666210	0.00000000	35.90059000	18.52854000
80.06666209	0.00000000	36.23277000	13.13976000
80.26666208	0.00000000	35.43922000	8.90747900
80.46666206	0.00000000	33.11393000	6.95743000
80.66666205	0.00000000	30.08120000	7.28346400
80.86666204	0.00000000	27.34375000	9.60875900
81.06666203	0.00000000	25.43061000	13.09670000
81.26666202	0.00000000	24.68627000	17.36589000
81.46666200	0.00000000	25.80585000	21.59203000
81.66666199	0.00000000	28.08194000	24.75394000
81.86666198	0.00000000	30.45644000	26.70398000
82.06666197	0.00000000	33.15699000	27.49138000
82.26666196	0.00000000	35.43922000	26.70398000
82.46666194	0.00000000	36.23277000	24.75394000
82.66666193	0.00000000	35.85752000	21.64124000
82.86666192	0.00000000	34.31963000	17.78420000
83.06666191	0.00000000	32.03740000	14.29626000
83.26666190	0.00000000	30.13041000	11.55881000
83.46666189	0.00000000	28.92470000	10.02707000
83.66666187	0.00000000	28.50024000	9.98400600
83.86666186	0.00000000	28.50024000	11.18356000
84.06666185	0.00000000	28.87549000	13.51501000
84.26666184	0.00000000	29.66289000	17.03986000
84.46666183	0.00000000	30.41338000	20.90305000
84.66666181	0.00000000	31.20078000	24.79700000
84.86666180	0.00000000	31.57603000	27.82357000
85.06666179	0.00000000	31.61909000	28.98007000
85.26666178	0.00000000	31.66215000	27.82357000
85.46666177	0.00000000	32.03740000	24.75394000
85.66666175	0.00000000	32.82480000	20.47859000
85.86666174	0.00000000	33.53223000	15.83415000
86.06666173	0.00000000	33.94439000	11.60187000
86.26666172	0.00000000	33.53223000	8.90747900
86.46666171	0.00000000	32.78174000	8.48917200
86.66666170	0.00000000	31.57603000	10.07013000
86.86666168	0.00000000	30.08120000	13.55807000
87.06666167	0.00000000	28.87549000	18.57160000
87.26666166	0.00000000	28.12500000	23.54823000
87.46666165	0.00000000	27.76206000	27.40526000
87.66666164	0.00000000	28.54946000	28.93701000
87.86666162	0.00000000	30.08120000	27.82357000
88.06666161	0.00000000	31.99434000	24.71087000
88.26666160	0.00000000	33.94439000	20.10950000
88.46666159	0.00000000	35.02707000	15.08981000
88.66666158	0.00000000	35.15010000	11.27584000
88.86666156	0.00000000	34.32578000	9.28272600
89.06666155	0.00000000	33.56914000	9.74409400
89.26666154	0.00000000	31.95128000	12.39542000
89.46666153	0.00000000	30.13041000	17.03371000
89.66666152	0.00000000	28.92470000	21.96727000
89.86666151	0.00000000	28.54946000	25.86737000
90.06666149	0.00000000	28.92470000	27.77436000
90.26666148	0.00000000	30.08120000	27.40526000
90.46666147	0.00000000	31.57603000	24.66781000
90.66666146	0.00000000	32.73252000	20.10950000
90.86666145	0.00000000	33.15699000	15.08981000
91.06666143	0.00000000	33.20005000	11.27584000
91.26666142	0.00000000	33.20005000	9.33193800
91.46666141	0.00000000	33.15699000	10.11319000
91.66666140	0.00000000	32.78174000	13.18282000
91.86666139	0.00000000	32.03740000	17.78420000
92.06666137	0.00000000	31.66215000	22.75467000
92.26666136	0.00000000	31.61909000	26.19955000
92.46666135	0.00000000	31.61909000	27.39911000
92.66666134	0.00000000	31.61909000	26.24262000
92.86666133	0.00000000	31.57603000	23.12992000
93.06666132	0.00000000	31.15157000	18.52854000
93.26666130	0.00000000	30.03814000	13.55807000
93.46666129	0.00000000	28.92470000	10.16240000
93.66666128	0.00000000	28.54946000	9.33193800
93.86666127	0.00000000	28.92470000	11.22662000
94.06666126	0.00000000	30.13041000	14.67150000
94.26666124	0.00000000	32.03740000	18.94685000
94.46666123	0.00000000	34.36884000	23.12992000
94.66666122	0.00000000	36.23277000	25.82431000
94.86666121	0.00000000	37.06324000	26.19955000
95.06666120	0.00000000	36.65108000	24.29257000
95.26666118	0.00000000	35.52534000	20.47859000
95.46666117	0.00000000	33.48917000	16.29552000
95.66666116	0.00000000	30.82554000	13.18282000
95.86666115	0.00000000	27.71284000	11.60187000
96.06666114	0.00000000	25.47367000	11.64493000
96.26666113	0.00000000	24.64321000	13.55807000
96.46666111	0.00000000	25.47367000	16.99065000
96.66666110	0.00000000	27.76206000	20.39247000
96.86666109	0.00000000	31.24384000	22.75467000
97.06666108	0.00000000	34.73794000	23.54823000
97.26666107	0.00000000	37.85679000	23.21604000
97.46666105	0.00000000	40.13902000	22.01649000
97.66666104	0.00000000	40.51427000	20.10950000
97.86666103	0.00000000	38.97638000	17.78420000
98.06666102	0.00000000	35.90059000	15.92027000
98.26666101	0.00000000	32.03740000	15.13902000
98.46666099	0.00000000	28.50024000	15.83415000
98.66666098	0.00000000	25.43061000	16.94759000
98.86666097	0.00000000	23.52977000	17.74114000
99.06666096	0.00000000	23.89271000	18.57160000
99.26666095	0.00000000	25.80585000	19.27903000
99.46666094	0.00000000	28.92470000	19.73425000
99.66666092	0.00000000	32.78174000	19.74040000
99.86666091	0.00000000	36.27584000	20.15256000
100.06666090	0.00000000	38.97638000	20.48474000
100.26666089	0.00000000	40.13902000	20.57087000
100.46666088	0.00000000	39.39468000	20.94611000
100.66666086	0.00000000	37.48154000	21.64124000
100.86666085	0.00000000	34.73794000	21.59203000
101.06666084	0.00000000	31.66830000	20.47859000
101.26666083	0.00000000	28.92470000	18.94685000
101.46666082	0.00000000	26.96850000	17.36589000
101.66666080	0.00000000	25.84892000	15.83415000
101.86666079	0.00000000	26.22416000	14.72072000
102.06666078	0.00000000	28.12500000	14.72072000
102.26666077	0.00000000	30.41338000	15.87721000
102.46666076	0.00000000	32.78174000	17.83341000
102.66666075	0.00000000	34.73794000	20.52780000
102.86666073	0.00000000	36.27584000	23.17298000
103.06666072	0.00000000	37.06324000	24.75394000
103.26666071	0.00000000	36.70029000	25.12918000
103.46666070	0.00000000	35.90059000	24.33563000
103.66666069	0.00000000	34.31963000	22.01649000
103.86666067	0.00000000	32.03740000	18.94685000
104.06666066	0.00000000	30.13041000	15.87721000
104.26666065	0.00000000	28.92470000	13.60113000
104.46666064	0.00000000	28.54946000	13.18282000
104.66666063	0.00000000	28.92470000	14.29626000
104.86666061	0.00000000	30.08120000	16.25246000
105.06666060	0.00000000	31.61909000	18.94685000
105.26666059	0.00000000	33.15699000	21.64124000
105.46666058	0.00000000	34.31963000	23.54823000
105.66666057	0.00000000	34.74409000	24.33563000
105.86666056	0.00000000	34.74409000	23.54823000
106.06666054	0.00000000	34.31963000	21.64124000
106.26666053	0.00000000	33.20005000	18.98991000
106.46666052	0.00000000	32.03740000	16.67077000
106.66666051	0.00000000	31.28691000	15.50197000
106.86666050	0.00000000	30.87475000	15.08981000
107.06666048	0.00000000	31.28691000	15.87721000
107.26666047	0.00000000	31.99434000	17.36589000
107.46666046	0.00000000	32.82480000	18.94685000
107.66666045	0.00000000	33.57529000	20.47859000
107.86666044	0.00000000	34.31963000	21.59203000
108.06666042	0.00000000	34.27657000	21.59203000
108.26666041	0.00000000	33.20005000	20.47859000
108.46666040	0.00000000	32.03740000	18.94685000
108.66666039	0.00000000	31.24384000	17.40895000
108.86666038	0.00000000	30.45644000	16.25246000
109.06666037	0.00000000	30.13041000	15.87721000
109.26666035	0.00000000	30.50566000	16.25246000
109.46666034	0.00000000	31.66215000	17.40895000
109.66666033	0.00000000	33.15699000	18.94685000
109.86666032	0.00000000	34.31963000	20.47859000
110.06666031	0.00000000	34.74409000	21.64124000
110.26666029	0.00000000	34.74409000	22.01033000
110.46666028	0.00000000	34.36884000	21.64124000
110.66666027	0.00000000	33.57529000	20.43553000
110.86666026	0.00000000	32.82480000	18.57160000
111.06666025	0.00000000	31.99434000	16.67077000
111.26666023	0.00000000	31.28691000	15.87721000
111.46666022	0.00000000	30.87475000	15.82800000
111.66666021	0.00000000	31.24384000	16.25246000
111.86666020	0.00000000	31.61909000	17.36589000
112.06666019	0.00000000	32.03740000	18.52854000
112.26666018	0.00000000	32.82480000	19.32210000
112.46666016	0.00000000	33.53223000	20.10950000
112.66666015	0.00000000	33.94439000	20.48474000
112.86666014	0.00000000	33.57529000	20.48474000
113.06666013	0.00000000	33.24311000	20.10950000
113.26666012	0.00000000	33.15699000	19.36516000
113.46666010	0.00000000	32.78174000	18.94685000
113.66666009	0.00000000	32.08661000	18.52854000
113.86666008	0.00000000	32.03740000	17.83341000
114.06666007	0.00000000	32.40649000	17.78420000
114.26666006	0.00000000	32.41265000	18.11024000
114.46666004	0.00000000	32.82480000	17.74114000
114.66666003	0.00000000	33.15699000	17.40895000
114.86666002	0.00000000	33.20005000	17.36589000
115.06666001	0.00000000	33.20005000	17.36589000
115.26666000	0.00000000	33.20005000	17.40895000
115.46665999	0.00000000	33.20005000	17.78420000
115.66665997	0.00000000	33.20005000	18.57160000
115.86665996	0.00000000	33.20005000	19.32210000
116.06665995	0.00000000	33.20005000	20.10950000
116.26665994	0.00000000	33.20005000	20.52780000
116.46665993	0.00000000	33.20005000	20.94611000
116.66665991	0.00000000	33.20005000	21.68430000
116.86665990	0.00000000	33.20005000	22.01033000
117.06665989	0.00000000	33.20005000	21.64124000
117.26665988	0.00000000	33.20005000	20.52780000
117.46665987	0.00000000	33.24311000	19.36516000
117.66665985	0.00000000	33.66756000	18.57160000
117.86665984	0.00000000	34.73794000	17.78420000
118.06665983	0.00000000	35.48228000	17.45817000
118.26665982	0.00000000	35.16240000	17.78420000
118.46665981	0.00000000	34.78716000	18.57160000
118.66665980	0.00000000	34.31963000	19.32210000
118.86665978	0.00000000	33.20005000	20.10950000
119.06665977	0.00000000	32.03740000	20.52780000
119.26665976	0.00000000	31.28691000	20.94611000
119.46665975	0.00000000	30.87475000	21.68430000
119.66665974	0.00000000	31.28691000	22.01033000
119.86665972	0.00000000	32.03740000	21.68430000
120.06665971	0.00000000	33.24926000	20.94611000
120.26665970	0.00000000	34.73794000	20.52780000
120.46665969	0.00000000	35.90059000	20.10950000
120.66665968	0.00000000	36.32505000	19.36516000
120.86665966	0.00000000	36.36811000	18.94685000
121.06665965	0.00000000	36.32505000	18.57160000
121.26665964	0.00000000	35.90059000	18.15945000
121.46665963	0.00000000	34.73794000	18.19636000
121.66665962	0.00000000	33.24926000	18.15945000
121.86665961	0.00000000	32.03740000	18.57160000
122.06665959	0.00000000	31.24384000	18.90379000
122.26665958	0.00000000	30.50566000	18.98991000
122.46665957	0.00000000	30.54872000	19.36516000
122.66665956	0.00000000	31.61909000	20.10950000
122.86665955	0.00000000	32.78174000	20.43553000
123.06665953	0.00000000	33.61835000	20.15256000
123.26665952	0.00000000	34.78716000	19.74040000
123.46665951	0.00000000	35.85752000	19.73425000
123.66665950	0.00000000	35.90059000	19.27903000
123.86665949	0.00000000	35.20546000	18.57160000
124.06665947	0.00000000	34.78716000	17.78420000
124.26665946	0.00000000	34.31963000	17.40895000
124.46665945	0.00000000	33.20005000	17.36589000
124.66665944	0.00000000	32.08661000	17.36589000
124.86665943	0.00000000	31.66215000	17.40895000
125.06665942	0.00000000	31.61909000	17.78420000
125.26665940	0.00000000	31.61909000	18.52854000
125.46665939	0.00000000	31.66215000	18.94685000
125.66665938	0.00000000	32.03740000	19.36516000
125.86665937	0.00000000	32.82480000	20.10950000
126.06665936	0.00000000	33.57529000	20.48474000
126.26665934	0.00000000	34.41191000	20.52780000
126.46665933	0.00000000	35.16240000	20.48474000
126.66665932	0.00000000	35.90059000	20.10950000
126.86665931	0.00000000	35.90059000	19.36516000
127.06665930	0.00000000	35.16240000	18.94685000
127.26665928	0.00000000	34.36884000	18.52854000
127.46665927	0.00000000	33.20005000	17.83341000
127.66665926	0.00000000	32.08661000	17.83341000
127.86665925	0.00000000	31.66215000	18.52854000
128.06665924	0.00000000	31.61909000	18.94685000
128.26665923	0.00000000	31.66215000	19.36516000
128.46665921	0.00000000	32.08661000	20.10950000
128.66665920	0.00000000	33.24926000	20.48474000
128.86665919	0.00000000	34.73794000	20.52780000
129.06665918	0.00000000	35.90059000	20.48474000
129.26665917	0.00000000	36.27584000	20.10950000
129.46665915	0.00000000	35.90059000	19.36516000
129.66665914	0.00000000	34.78716000	18.98991000
129.86665913	0.00000000	33.66756000	18.94685000
130.06665912	0.00000000	33.20005000	18.94685000
130.26665911	0.00000000	32.78174000	18.94685000
130.46665909	0.00000000	32.08661000	18.98991000
130.66665908	0.00000000	32.08661000	19.36516000
130.86665907	0.00000000	32.82480000	20.10950000
131.06665906	0.00000000	33.57529000	20.48474000
131.26665905	0.00000000	34.41191000	20.52780000
131.46665904	0.00000000	35.11934000	20.48474000
131.66665902	0.00000000	35.53149000	20.10950000
131.86665901	0.00000000	35.16240000	19.36516000
132.06665900	0.00000000	34.83022000	18.98991000
132.26665899	0.00000000	34.74409000	18.90379000
132.46665898	0.00000000	34.36884000	18.57160000
132.66665896	0.00000000	33.61835000	18.20251000
132.86665895	0.00000000	33.24311000	18.61466000
133.06665894	0.00000000	33.24311000	19.32210000
133.26665893	0.00000000	33.61835000	20.15256000
133.46665892	0.00000000	34.36884000	20.90305000
133.66665890	0.00000000	34.74409000	21.68430000
133.86665889	0.00000000	34.78716000	22.01033000
134.06665888	0.00000000	34.78716000	21.68430000
134.26665887	0.00000000	34.78716000	20.90305000
134.46665886	0.00000000	34.78716000	20.10950000
134.66665885	0.00000000	34.78716000	18.94685000
134.86665883	0.00000000	34.78716000	17.83341000
135.06665882	0.00000000	34.78716000	17.40895000
135.26665881	0.00000000	34.78716000	17.40895000
135.46665880	0.00000000	34.78716000	17.78420000
135.66665879	0.00000000	34.78716000	18.57160000
135.86665877	0.00000000	34.78716000	19.32210000
136.06665876	0.00000000	34.74409000	20.10950000
136.26665875	0.00000000	34.36884000	20.52780000
136.46665874	0.00000000	33.61835000	20.90305000
136.66665873	0.00000000	33.24311000	21.26599000
136.86665871	0.00000000	33.20005000	20.85384000
137.06665870	0.00000000	33.24311000	20.15256000
137.26665869	0.00000000	33.61835000	19.36516000
137.46665868	0.00000000	34.41191000	18.98991000
137.66665867	0.00000000	35.16240000	18.90379000
137.86665866	0.00000000	35.94980000	18.52854000
138.06665864	0.00000000	36.27584000	17.78420000
138.26665863	0.00000000	35.94980000	17.40895000
138.46665862	0.00000000	35.16240000	17.40895000
138.66665861	0.00000000	34.41191000	17.78420000
138.86665860	0.00000000	33.61835000	18.57160000
139.06665858	0.00000000	33.24311000	19.32210000
139.26665857	0.00000000	33.20005000	20.15256000
139.46665856	0.00000000	33.24311000	20.85384000
139.66665855	0.00000000	33.61835000	21.26599000
139.86665854	0.00000000	34.36884000	20.90305000
140.06665852	0.00000000	34.78716000	20.52780000
140.26665851	0.00000000	35.16240000	20.10950000
140.46665850	0.00000000	35.53149000	19.32210000
140.66665849	0.00000000	35.16240000	18.57160000
140.86665848	0.00000000	34.83022000	17.78420000
141.06665847	0.00000000	34.74409000	17.40895000
141.26665845	0.00000000	34.36884000	17.40895000
141.46665844	0.00000000	33.61835000	17.78420000
141.66665843	0.00000000	33.24311000	18.57160000
141.86665842	0.00000000	33.24311000	19.32210000
142.06665841	0.00000000	33.61835000	20.15256000
142.26665839	0.00000000	34.36884000	20.90305000
142.46665838	0.00000000	34.74409000	21.64124000
142.66665837	0.00000000	34.78716000	21.64124000
142.86665836	0.00000000	34.78716000	20.90305000
143.06665835	0.00000000	34.78716000	20.10950000
143.26665834	0.00000000	34.78716000	18.98991000
143.46665832	0.00000000	34.78716000	18.20251000
143.66665831	0.00000000	34.74409000	18.15330000
143.86665830	0.00000000	34.41191000	17.78420000
144.06665829	0.00000000	34.04282000	17.83341000
144.26665828	0.00000000	34.41191000	18.57160000
144.46665826	0.00000000	34.74409000	19.32210000
144.66665825	0.00000000	34.83022000	20.15256000
144.86665824	0.00000000	35.20546000	20.90305000
145.06665823	0.00000000	35.90059000	21.64124000
145.26665822	0.00000000	35.90059000	21.64124000
145.46665820	0.00000000	35.20546000	20.94611000
145.66665819	0.00000000	34.83022000	20.52780000
145.86665818	0.00000000	34.78716000	20.10950000
146.06665817	0.00000000	34.78716000	19.36516000
146.26665816	0.00000000	34.78716000	18.98991000
146.46665815	0.00000000	34.78716000	18.94685000
146.66665813	0.00000000	34.83022000	18.94685000
146.86665812	0.00000000	35.20546000	18.98991000
147.06665811	0.00000000	35.94980000	19.36516000
147.26665810	0.00000000	36.32505000	20.10950000
147.46665809	0.00000000	36.36811000	20.52780000
147.66665807	0.00000000	36.32505000	20.90305000
147.86665806	0.00000000	35.94980000	21.30905000
148.06665805	0.00000000	35.20546000	21.27214000
148.26665804	0.00000000	34.83022000	21.30905000
148.46665803	0.00000000	34.78716000	20.90305000
148.66665801	0.00000000	34.78716000	20.52780000
148.86665800	0.00000000	34.78716000	20.10950000
149.06665799	0.00000000	34.78716000	19.41437000
149.26665798	0.00000000	34.78716000	19.36516000
149.46665797	0.00000000	34.83022000	19.69119000
149.66665796	0.00000000	35.20546000	19.36516000
149.86665794	0.00000000	35.94980000	19.41437000
150.06665793	0.00000000	36.32505000	20.10950000
150.26665792	0.00000000	36.36811000	20.48474000
150.46665791	0.00000000	36.32505000	20.52780000
150.66665790	0.00000000	35.94980000	20.52780000
150.86665788	0.00000000	35.20546000	20.52780000
151.06665787	0.00000000	34.83022000	20.52780000
151.26665786	0.00000000	34.78716000	20.52780000
151.46665785	0.00000000	34.78716000	20.48474000
151.66665784	0.00000000	34.78716000	20.15256000
151.86665782	0.00000000	34.78716000	19.74040000
152.06665781	0.00000000	34.78716000	19.73425000
152.26665780	0.00000000	34.83022000	19.32210000
152.46665779	0.00000000	35.20546000	19.03912000
152.66665778	0.00000000	35.94980000	19.36516000
152.86665777	0.00000000	36.32505000	20.10950000
153.06665775	0.00000000	36.36811000	20.48474000
153.26665774	0.00000000	36.36811000	20.52780000
153.46665773	0.00000000	36.32505000	20.52780000
153.66665772	0.00000000	35.94980000	20.52780000
153.86665771	0.00000000	35.20546000	20.52780000
154.06665769	0.00000000	34.83022000	20.52780000
154.26665768	0.00000000	34.78716000	20.52780000
154.46665767	0.00000000	34.78716000	20.52780000
154.66665766	0.00000000	34.78716000	20.52780000
154.86665765	0.00000000	34.78716000	20.48474000
155.06665763	0.00000000	34.83022000	20.10950000
155.26665762	0.00000000	35.20546000	19.36516000
155.46665761	0.00000000	35.94980000	18.98991000
155.66665760	0.00000000	36.32505000	18.94685000
155.86665759	0.00000000	36.36811000	18.94685000
156.06665758	0.00000000	36.32505000	18.94685000
156.26665756	0.00000000	35.94980000	18.98991000
156.46665755	0.00000000	35.20546000	19.36516000
156.66665754	0.00000000	34.83022000	20.10950000
156.86665753	0.00000000	34.78716000	20.48474000
157.06665752	0.00000000	34.78716000	20.52780000
157.26665750	0.00000000	34.78716000	20.52780000
157.46665749	0.00000000	34.78716000	20.52780000
157.66665748	0.00000000	34.78716000	20.48474000
157.86665747	0.00000000	34.78716000	20.10950000
158.06665746	0.00000000	34.83022000	19.36516000
158.26665744	0.00000000	35.20546000	18.98991000
158.46665743	0.00000000	35.94980000	18.94685000
158.66665742	0.00000000	36.32505000	18.94685000
158.86665741	0.00000000	36.36811000	18.94685000
159.06665740	0.00000000	36.36811000	18.98991000
159.26665739	0.00000000	36.32505000	19.36516000
159.46665737	0.00000000	35.94980000	20.10950000
159.66665736	0.00000000	35.20546000	20.48474000
159.86665735	0.00000000	34.83022000	20.52780000
160.06665734	0.00000000	34.78716000	20.52780000
160.26665733	0.00000000	34.78716000	20.52780000
160.46665731	0.00000000	34.78716000	20.52780000
160.66665730	0.00000000	34.78716000	20.48474000
160.86665729	0.00000000	34.78716000	20.10950000
161.06665728	0.00000000	34.83022000	19.36516000
161.26665727	0.00000000	35.20546000	18.98991000
161.46665725	0.00000000	35.94980000	18.98991000
161.66665724	0.00000000	36.32505000	19.36516000
161.86665723	0.00000000	36.36811000	20.10950000
162.06665722	0.00000000	36.36811000	20.48474000
162.26665721	0.00000000	36.36811000	20.52780000
162.46665720	0.00000000	36.36811000	20.57087000
162.66665718	0.00000000	36.36811000	20.90305000
162.86665717	0.00000000	36.32505000	21.26599000
163.06665716	0.00000000	35.94980000	20.90305000
163.26665715	0.00000000	35.20546000	20.57087000
163.46665714	0.00000000	34.83022000	20.52780000
163.66665712	0.00000000	34.83022000	20.52780000
163.86665711	0.00000000	35.16240000	20.48474000
164.06665710	0.00000000	35.57455000	20.15256000
164.26665709	0.00000000	35.58071000	19.78346000
164.46665708	0.00000000	35.99286000	20.15256000
164.66665706	0.00000000	36.32505000	20.48474000
164.86665705	0.00000000	36.36811000	20.52780000
165.06665704	0.00000000	36.36811000	20.52780000
165.26665703	0.00000000	36.36811000	20.52780000
165.46665702	0.00000000	36.36811000	20.52780000
165.66665701	0.00000000	36.36811000	20.52780000
165.86665699	0.00000000	36.36811000	20.52780000
166.06665698	0.00000000	36.36811000	20.52780000
166.26665697	0.00000000	36.32505000	20.52780000
166.46665696	0.00000000	35.99286000	20.52780000
166.66665695	0.00000000	35.62377000	20.52780000
166.86665693	0.00000000	35.99286000	20.52780000
167.06665692	0.00000000	36.32505000	20.52780000
167.26665691	0.00000000	36.36811000	20.52780000
167.46665690	0.00000000	36.36811000	20.52780000
167.66665689	0.00000000	36.36811000	20.52780000
167.86665687	0.00000000	36.36811000	20.52780000
168.06665686	0.00000000	36.36811000	20.52780000
168.26665685	0.00000000	36.36811000	20.52780000
168.46665684	0.00000000	36.36811000	20.52780000
168.66665683	0.00000000	36.36811000	20.52780000
168.86665682	0.00000000	36.36811000	20.52780000
169.06665680	0.00000000	36.36811000	20.52780000
169.26665679	0.00000000	36.36811000	20.52780000
169.46665678	0.00000000	36.36811000	20.52780000
169.66665677	0.00000000	36.36811000	20.52780000
169.86665676	0.00000000	36.36811000	20.52780000
170.06665674	0.00000000	36.36811000	20.52780000
170.26665673	0.00000000	36.36811000	20.52780000
170.46665672	0.00000000	36.36811000	20.48474000
170.66665671	0.00000000	36.36811000	20.15256000
170.86665670	0.00000000	36.36811000	19.78346000
171.06665668	0.00000000	36.36811000	20.10950000
171.26665667	0.00000000	36.36811000	20.10950000
171.46665666	0.00000000	36.36811000	19.74040000
171.66665665	0.00000000	36.36811000	19.77731000
171.86665664	0.00000000	36.36811000	19.69734000
172.06665663	0.00000000	36.36811000	19.73425000
172.26665661	0.00000000	36.36811000	19.32210000
172.46665660	0.00000000	36.36811000	19.03912000
172.66665659	0.00000000	36.36811000	19.36516000
172.86665658	0.00000000	36.36811000	20.06029000
173.06665657	0.00000000	36.36811000	20.10950000
173.26665655	0.00000000	36.36811000	19.78346000
173.46665654	0.00000000	36.36811000	20.15256000
173.66665653	0.00000000	36.36811000	20.48474000
173.86665652	0.00000000	36.36811000	20.52780000
174.06665651	0.00000000	36.36811000	20.52780000
174.26665649	0.00000000	36.36811000	20.52780000
174.46665648	0.00000000	36.36811000	20.52780000
174.66665647	0.00000000	36.36811000	20.52780000
174.86665646	0.00000000	36.36811000	20.52780000
175.06665645	0.00000000	36.36811000	20.52780000
175.26665644	0.00000000	36.36811000	20.52780000
175.46665642	0.00000000	36.36811000	20.52780000
175.66665641	0.00000000	36.36811000	20.52780000
175.86665640	0.00000000	36.36811000	20.52780000
176.06665639	0.00000000	36.36811000	20.52780000
176.26665638	0.00000000	36.36811000	20.52780000
176.46665636	0.00000000	36.36811000	20.52780000
176.66665635	0.00000000	36.36811000	20.52780000
176.86665634	0.00000000	36.36811000	20.52780000
177.06665633	0.00000000	36.36811000	20.52780000
177.26665632	0.00000000	36.36811000	20.52780000
177.46665630	0.00000000	36.36811000	20.52780000
177.66665629	0.00000000	36.36811000	20.52780000
177.86665628	0.00000000	36.36811000	20.52780000
178.06665627	0.00000000	36.36811000	20.52780000
178.26665626	0.00000000	36.36811000	20.52780000
178.46665625	0.00000000	36.36811000	20.52780000
178.66665623	0.00000000	36.36811000	20.57087000
178.86665622	0.00000000	36.41117000	20.94611000
179.06665621	0.00000000	36.74335000	21.64124000
179.26665620	0.00000000	37.11245000	21.64124000
179.46665619	0.00000000	36.78642000	20.94611000
179.66665617	0.00000000	36.78642000	20.57087000
179.86665616	0.00000000	37.11245000	20.52780000
180.06665615	0.00000000	36.78642000	20.52780000
180.26665614	0.00000000	36.78642000	20.52780000
180.46665613	0.00000000	37.11245000	20.52780000
180.66665611	0.00000000	36.74335000	20.52780000
180.86665610	0.00000000	36.46038000	20.57087000
181.06665609	0.00000000	36.74335000	20.90305000
181.26665608	0.00000000	37.11245000	21.26599000
181.46665607	0.00000000	36.78642000	20.94611000
181.66665606	0.00000000	36.83563000	20.94611000
181.86665604	0.00000000	37.48154000	21.26599000
182.06665603	0.00000000	37.53075000	20.90305000
182.26665602	0.00000000	37.20472000	20.57087000
182.46665601	0.00000000	37.57381000	20.52780000
182.66665600	0.00000000	37.90600000	20.52780000
182.86665598	0.00000000	37.94907000	20.52780000
183.06665597	0.00000000	37.94907000	20.52780000
183.26665596	0.00000000	37.90600000	20.52780000
183.46665595	0.00000000	37.53075000	20.52780000
183.66665594	0.00000000	36.78642000	20.52780000
183.86665592	0.00000000	36.41117000	20.52780000
184.06665591	0.00000000	36.36811000	20.52780000
184.26665590	0.00000000	36.36811000	20.52780000
184.46665589	0.00000000	36.36811000	20.52780000
184.66665588	0.00000000	36.36811000	20.52780000
184.86665587	0.00000000	36.36811000	20.52780000
185.06665585	0.00000000	36.41117000	20.52780000
185.26665584	0.00000000	36.74335000	20.52780000
185.46665583	0.00000000	37.15551000	20.52780000
185.66665582	0.00000000	37.16166000	20.52780000
185.86665581	0.00000000	37.57381000	20.48474000
186.06665579	0.00000000	37.90600000	20.10950000
186.26665578	0.00000000	37.94907000	19.36516000
186.46665577	0.00000000	37.94907000	18.98991000
186.66665576	0.00000000	37.90600000	18.94685000
186.86665575	0.00000000	37.53075000	18.98991000
187.06665573	0.00000000	36.78642000	19.36516000
187.26665572	0.00000000	36.41117000	20.10950000
187.46665571	0.00000000	36.36811000	20.52780000
187.66665570	0.00000000	36.36811000	20.90305000
187.86665569	0.00000000	36.41117000	21.26599000
188.06665568	0.00000000	36.78642000	20.90305000
188.26665566	0.00000000	37.53075000	20.57087000
188.46665565	0.00000000	37.90600000	20.52780000
188.66665564	0.00000000	37.94907000	20.52780000
188.86665563	0.00000000	37.94907000	20.52780000
189.06665562	0.00000000	37.94907000	20.48474000
189.26665560	0.00000000	37.94907000	20.10950000
189.46665559	0.00000000	37.90600000	19.41437000
189.66665558	0.00000000	37.57381000	19.41437000
189.86665557	0.00000000	37.16166000	20.10950000
190.06665556	0.00000000	37.15551000	20.48474000
190.26665554	0.00000000	36.74335000	20.52780000
190.46665553	0.00000000	36.41117000	20.52780000
190.66665552	0.00000000	36.36811000	20.52780000
190.86665551	0.00000000	36.41117000	20.52780000
191.06665550	0.00000000	36.78642000	20.52780000
191.26665549	0.00000000	37.53075000	20.52780000
191.46665547	0.00000000	37.90600000	20.52780000
191.66665546	0.00000000	37.94907000	20.52780000
191.86665545	0.00000000	37.94907000	20.52780000
192.06665544	0.00000000	37.94907000	20.52780000
192.26665543	0.00000000	37.94907000	20.52780000
192.46665541	0.00000000	37.94907000	20.52780000
192.66665540	0.00000000	37.94907000	20.52780000
192.86665539	0.00000000	37.94907000	20.52780000
193.06665538	0.00000000	37.94907000	20.52780000
193.26665537	0.00000000	37.90600000	20.52780000
193.46665535	0.00000000	37.53075000	20.52780000
193.66665534	0.00000000	36.83563000	20.52780000
193.86665533	0.00000000	36.83563000	20.57087000
194.06665532	0.00000000	37.53075000	20.90305000
194.26665531	0.00000000	37.90600000	21.30905000
194.46665530	0.00000000	37.94907000	21.32136000
194.66665528	0.00000000	37.94907000	21.68430000
194.86665527	0.00000000	37.94907000	21.64124000
195.06665526	0.00000000	37.94907000	20.94611000
195.26665525	0.00000000	37.94907000	20.57087000
195.46665524	0.00000000	37.94907000	20.52780000
195.66665522	0.00000000	37.94907000	20.57087000
195.86665521	0.00000000	37.94907000	20.90305000
196.06665520	0.00000000	37.94907000	21.26599000
