Time	Channel A	Channel B	Channel C
(us)	(V)	(mV)	(mV)

-4.49999956	0.00000000	-1.62401600	5.93626900
-4.29999957	0.00000000	-1.62401600	6.26845500
-4.09999958	0.00000000	-1.99926200	6.31151500
-3.89999959	0.00000000	-2.74360200	6.31151500
-3.69999960	0.00000000	-3.11884800	6.26845500
-3.49999962	0.00000000	-3.16190900	5.93626900
-3.29999963	0.00000000	-3.16190900	5.57332700
-3.09999964	0.00000000	-3.11884800	5.89320800
-2.89999965	0.00000000	-2.74360200	5.89320800
-2.69999966	0.00000000	-2.04847400	5.53026500
-2.49999968	0.00000000	-1.99926200	5.56717500
-2.29999969	0.00000000	-2.32529500	5.53026500
-2.09999970	0.00000000	-1.99926200	5.93626900
-1.89999971	0.00000000	-2.04847400	6.21924200
-1.69999972	0.00000000	-2.69439000	5.93626900
-1.49999973	0.00000000	-2.74360200	5.57332700
-1.29999975	0.00000000	-2.41756900	5.93626900
-1.09999976	0.00000000	-2.78666300	6.21924200
-0.89999977	0.00000000	-3.11884800	5.89320800
-0.69999978	0.00000000	-3.16190900	5.19808000
-0.49999979	0.00000000	-3.11884800	5.19808000
-0.29999981	0.31803640	-2.74360200	5.89320800
-0.09999982	0.63668800	-1.99926200	6.26845500
0.10000017	0.95533960	-1.62401600	6.31151500
0.30000016	0.95533960	-1.62401600	6.31151500
0.50000015	0.79601380	-1.95620100	6.26845500
0.70000013	0.31803640	-2.32529500	5.93626900
0.90000012	-0.47736220	-1.95620100	5.57332700
1.10000011	-1.59264300	-1.62401600	5.93626900
1.30000010	-2.38927200	-1.62401600	6.26845500
1.50000009	-2.70792300	-1.95620100	6.31151500
1.70000008	-2.38927200	-2.32529500	6.26845500
1.90000006	-1.27399100	-1.95620100	5.93626900
2.10000005	0.63668800	-1.62401600	5.57332700
2.30000004	2.70792300	-1.62401600	5.89320800
2.50000003	4.45989200	-1.95620100	5.85014700
2.70000002	5.41584600	-2.36835600	5.15501900
2.90000000	4.77854300	-2.37450800	4.77977300
3.09999999	2.86724900	-2.78666300	4.73671200
3.29999998	-0.15871060	-3.06963600	4.73671200
3.49999997	-3.66326300	-2.74360200	4.73671200
3.69999996	-6.53112700	-1.99926200	4.77977300
3.89999994	-7.96444400	-1.62401600	5.19808000
4.09999993	-7.48646600	-1.58095500	6.26845500
4.29999992	-4.93786900	-1.58095500	7.00664300
4.49999991	-0.79601380	-1.58095500	6.68676100
4.69999990	3.66326300	-1.58095500	6.31151500
4.89999989	7.32714100	-1.62401600	5.89320800
5.09999987	9.23905000	-1.99926200	5.15501900
5.29999986	9.07972400	-2.74360200	4.77977300
5.49999985	6.53112700	-3.11884800	4.73671200
5.69999984	2.22994600	-3.16190900	4.73671200
5.89999983	-2.54859700	-3.16190900	4.73671200
6.09999981	-6.69045300	-3.16190900	4.77977300
6.29999980	-9.07972400	-3.11884800	5.15501900
6.49999979	-9.23905000	-2.74360200	5.89320800
6.69999978	-7.00848900	-1.99926200	6.26845500
6.89999977	-3.18590100	-1.62401600	6.31151500
7.09999975	1.11466500	-1.62401600	6.31151500
7.29999974	4.93786900	-1.95620100	6.31151500
7.49999973	7.32714100	-2.36835600	6.26845500
7.69999972	7.64579200	-2.37450800	5.89320800
7.89999971	6.21247500	-2.78666300	5.15501900
8.09999970	3.34522600	-3.11884800	4.77977300
8.29999968	0.00000000	-3.11884800	4.77977300
8.49999967	-2.86724900	-2.74360200	5.11195900
8.69999966	-4.77854300	-1.99926200	5.47490100
8.89999965	-5.09719500	-1.62401600	5.15501900
9.09999964	-4.30056600	-1.58095500	5.19808000
9.29999962	-2.54859700	-1.62401600	5.89320800
9.49999961	-0.63668800	-1.95620100	6.26845500
9.69999960	1.11466500	-2.36835600	6.26845500
9.89999959	2.22994600	-2.33144700	5.89320800
10.09999958	2.54859700	-2.36835600	5.15501900
10.29999956	2.22994600	-1.95620100	4.82898600
10.49999955	1.43331700	-1.62401600	5.15501900
10.69999954	0.47736220	-1.58095500	5.85014700
10.89999953	-0.15871060	-1.58095500	5.89320800
11.09999952	-0.79601380	-1.62401600	5.57332700
11.29999951	-0.95533960	-1.95620100	5.89320800
11.49999949	-0.95533960	-2.36835600	5.89320800
11.69999948	-0.63668800	-2.33144700	5.57332700
11.89999947	-0.31803640	-2.36835600	5.93626900
12.09999946	-0.15871060	-1.99926200	6.26845500
12.29999945	-0.15871060	-1.99926200	6.31151500
12.49999943	0.00000000	-2.32529500	6.31151500
12.69999942	0.00000000	-1.99926200	6.31151500
12.89999941	0.00000000	-1.99926200	6.31151500
13.09999940	0.00000000	-2.32529500	6.31151500
13.29999939	0.15871060	-1.99926200	6.31151500
13.49999937	0.00000000	-1.99926200	6.26845500
13.69999936	0.00000000	-2.36835600	5.89320800
13.89999935	0.00000000	-2.33144700	5.19808000
14.09999934	-0.15871060	-2.36835600	5.19808000
14.29999933	-0.15871060	-1.95620100	5.89320800
14.49999932	-0.15871060	-1.62401600	6.26845500
14.69999930	0.00000000	-1.62401600	6.31151500
14.89999929	0.00000000	-1.99926200	6.31151500
15.09999928	0.00000000	-2.74360200	6.31151500
15.29999927	0.00000000	-3.11884800	6.31151500
15.49999926	0.00000000	-3.16190900	6.26845500
15.69999924	0.00000000	-3.16190900	5.93626900
15.89999923	0.00000000	-3.16190900	5.57332700
16.09999922	0.00000000	-3.16190900	5.93626900
16.29999921	0.00000000	-3.11884800	6.21924200
16.49999920	0.00000000	-2.74360200	5.93626900
16.69999919	0.00000000	-1.99926200	5.57332700
16.89999917	0.00000000	-1.58095500	5.93626900
17.09999916	0.00000000	-1.16264800	6.26845500
17.29999915	0.00000000	-0.41830710	6.31151500
17.49999914	0.00000000	-0.04306102	6.31151500
17.69999913	0.00000000	-0.04306102	6.31151500
17.89999911	0.00000000	-0.46751960	6.31151500
18.09999910	0.00000000	-1.62401600	6.31151500
18.29999909	0.00000000	-3.16190900	6.31151500
18.49999908	0.00000000	-4.74286400	6.31151500
18.69999907	0.00000000	-6.28075700	6.31151500
18.89999905	0.00000000	-7.39419200	6.26845500
19.09999904	0.00000000	-7.35113100	5.93626900
19.29999903	0.00000000	-5.81323800	5.53026500
19.49999902	0.00000000	-3.06963600	5.56717500
19.69999901	0.00000000	0.41830710	5.53026500
19.89999900	0.00000000	4.27534400	5.93626900
20.09999898	0.00000000	7.35113100	6.21924200
20.29999897	0.00000000	8.88902600	5.89320800
20.49999896	0.00000000	8.37844500	5.15501900
20.69999895	0.00000000	4.84128900	4.77977300
20.89999894	0.00000000	-1.71628900	4.77977300
21.09999892	0.00000000	-9.44266700	5.15501900
21.29999891	0.00000000	-16.79380000	5.85014700
21.49999890	0.00000000	-22.13952000	5.89320800
21.69999889	0.00000000	-23.58514000	5.57332700
21.89999888	0.00000000	-20.04798000	5.89320800
22.09999886	0.00000000	-11.54035000	5.85014700
22.29999885	0.00000000	0.09227362	5.15501900
22.49999884	0.00000000	12.46924000	4.77977300
22.69999883	0.00000000	23.25910000	4.73671200
22.89999882	0.00000000	29.31225000	4.77977300
23.09999881	0.00000000	28.46949000	5.15501900
23.29999879	0.00000000	19.91265000	5.93626900
23.49999878	0.00000000	5.21653500	6.68676100
23.69999877	0.00000000	-12.55536000	7.47416300
23.89999876	0.00000000	-29.53986000	7.84940900
24.09999875	0.00000000	-41.45546000	7.84940900
24.29999873	0.00000000	-45.22638000	7.42495000
24.49999872	0.00000000	-38.94562000	6.26845500
24.69999871	0.00000000	-23.12377000	4.73671200
24.89999870	0.00000000	-1.48868100	3.15575800
25.09999869	0.00000000	20.89075000	1.62401600
25.29999867	0.00000000	39.03174000	0.51058070
25.49999866	0.00000000	48.25295000	0.55364170
25.69999865	0.00000000	46.29675000	2.08538400
25.89999864	0.00000000	33.12623000	4.82283400
26.09999863	0.00000000	11.49729000	8.31077700
26.29999862	0.00000000	-13.58268000	12.21087000
26.49999860	0.00000000	-36.38041000	15.60654000
26.69999859	0.00000000	-51.41486000	17.50738000
26.89999858	0.00000000	-55.27190000	16.72613000
27.09999857	0.00000000	-46.80118000	13.56422000
27.29999856	0.00000000	-28.33415000	8.12622900
27.49999854	0.00000000	-4.74286400	0.75049200
27.69999853	0.00000000	18.89148000	-6.50836600
27.89999852	0.00000000	37.78297000	-12.30930000
28.09999851	0.00000000	47.45940000	-14.54232000
28.29999850	0.00000000	45.55241000	-12.59227000
28.49999848	0.00000000	33.26156000	-6.32381900
28.69999847	0.00000000	13.58883000	3.75246000
28.89999846	0.00000000	-8.42150500	15.69882000
29.09999845	0.00000000	-27.77436000	26.84547000
29.29999844	0.00000000	-40.61269000	34.14124000
29.49999843	0.00000000	-44.52510000	35.63607000
29.69999841	0.00000000	-39.54232000	30.61023000
29.89999840	0.00000000	-26.83932000	19.74655000
30.09999839	0.00000000	-9.86097400	5.43184000
30.29999838	0.00000000	7.21579700	-10.03322000
30.49999837	0.00000000	21.58587000	-23.09301000
30.69999835	0.00000000	30.43184000	-30.43184000
30.89999834	0.00000000	31.68061000	-30.34572000
31.09999833	0.00000000	25.59055000	-22.20718000
31.29999832	0.00000000	14.78838000	-7.20349400
31.49999831	0.00000000	1.58095500	10.54380000
31.69999829	0.00000000	-11.58341000	27.22072000
31.89999828	0.00000000	-22.00418000	39.95448000
32.09999827	0.00000000	-27.49138000	45.71235000
32.29999826	0.00000000	-27.16535000	43.02411000
32.49999825	0.00000000	-22.13952000	32.60949000
32.69999824	0.00000000	-13.25664000	16.72613000
32.89999822	0.00000000	-2.46678100	-1.39640700
33.09999821	0.00000000	7.21579700	-18.02411000
33.29999820	0.00000000	14.23474000	-29.22613000
33.49999819	0.00000000	17.31053000	-33.12623000
33.69999818	0.00000000	15.81570000	-28.85088000
33.89999816	0.00000000	10.42077000	-17.32899000
34.09999815	0.00000000	2.69439000	-1.48868100
34.29999814	0.00000000	-5.81323800	15.14518000
34.49999813	0.00000000	-13.07210000	29.45374000
34.69999812	0.00000000	-16.93528000	38.33046000
34.89999810	0.00000000	-16.23400000	39.90526000
35.09999809	0.00000000	-12.09400000	34.09818000
35.29999808	0.00000000	-6.28075700	22.20103000
35.49999807	0.00000000	-0.09227362	7.15428100
35.69999806	0.00000000	5.30265700	-7.11737200
35.89999805	0.00000000	8.37844500	-17.98105000
36.09999803	0.00000000	8.42150500	-22.95768000
36.29999802	0.00000000	5.72711600	-21.05069000
36.49999801	0.00000000	1.11343500	-12.64149000
36.69999800	0.00000000	-4.27534400	-0.37524600
36.89999799	0.00000000	-8.88902600	11.98942000
37.09999797	0.00000000	-11.58341000	22.02264000
37.29999796	0.00000000	-11.58341000	27.36835000
37.49999795	0.00000000	-8.88902600	26.24877000
37.69999794	0.00000000	-4.27534400	19.42052000
37.89999793	0.00000000	1.07037400	9.43036400
38.09999791	0.00000000	5.30265700	-0.93503930
38.29999790	0.00000000	7.30807100	-8.92593500
38.49999789	0.00000000	7.30807100	-11.62032000
38.69999788	0.00000000	5.35187000	-8.27386800
38.89999787	0.00000000	1.48868100	-1.02116100
39.09999786	0.00000000	-3.11884800	7.84940900
39.29999784	0.00000000	-7.35113100	16.30167000
39.49999783	0.00000000	-10.09473000	21.97957000
39.69999782	0.00000000	-10.93135000	22.71777000
39.89999781	0.00000000	-10.55610000	17.74729000
40.09999780	0.00000000	-8.93208600	8.96284400
40.29999778	0.00000000	-5.81323800	-1.02116100
40.49999777	0.00000000	-1.58095500	-9.43036400
40.69999776	0.00000000	2.65132900	-13.66265000
40.89999775	0.00000000	5.77017700	-12.50000000
41.09999774	0.00000000	7.35113100	-6.36687900
41.29999772	0.00000000	7.35113100	3.20497000
41.49999771	0.00000000	5.77017700	13.18898000
41.69999770	0.00000000	2.69439000	20.90305000
41.89999769	0.00000000	-1.16264800	24.76009000
42.09999768	0.00000000	-4.65059000	23.60359000
42.29999767	0.00000000	-7.43725300	17.88263000
42.49999765	0.00000000	-9.35039300	9.43036400
42.69999764	0.00000000	-10.09473000	0.59670270
42.89999763	0.00000000	-8.93208600	-6.36687900
43.09999762	0.00000000	-6.28075700	-9.84867000
43.29999761	0.00000000	-3.20497000	-9.47957600
43.49999759	0.00000000	-0.51058070	-5.29650500
43.69999758	0.00000000	1.07037400	1.15649600
43.89999757	0.00000000	1.53789400	7.33882900
44.09999756	0.00000000	1.58095500	12.07554000
44.29999755	0.00000000	1.58095500	15.14518000
44.49999753	0.00000000	1.58095500	15.92642000
44.69999752	0.00000000	1.58095500	14.03174000
44.89999751	0.00000000	1.53789400	10.62992000
45.09999750	0.00000000	1.16264800	6.72982200
45.29999749	0.00000000	0.33218500	3.24803100
45.49999748	0.00000000	-0.88582670	0.55364170
45.69999746	0.00000000	-3.25418300	-0.60285430
45.89999745	0.00000000	-6.32381900	0.13533460
46.09999744	0.00000000	-9.44266700	1.99311000
46.29999743	0.00000000	-12.05093000	4.36146600
46.49999742	0.00000000	-12.78912000	6.64370100
46.69999740	0.00000000	-10.83907000	8.63681000
46.89999739	0.00000000	-6.97588500	9.75639700
47.09999738	0.00000000	-1.48868100	10.16855000
47.29999737	0.00000000	4.69980300	9.38115100
47.49999736	0.00000000	10.46998000	7.84940900
47.69999734	0.00000000	14.23474000	5.89320800
47.89999733	0.00000000	14.19168000	3.57406500
48.09999732	0.00000000	9.95939900	1.66707700
48.29999731	0.00000000	2.60826800	0.51058070
48.49999730	0.00000000	-6.28075700	0.55364170
48.69999729	0.00000000	-14.74532000	2.08538400
48.89999727	0.00000000	-20.51550000	4.77977300
49.09999726	0.00000000	-22.00418000	7.84940900
49.29999725	0.00000000	-18.55930000	10.53765000
49.49999724	0.00000000	-10.83907000	12.07554000
49.69999723	0.00000000	-1.24877000	12.11860000
49.89999721	0.00000000	8.04626000	10.91289000
50.09999720	0.00000000	14.60999000	8.58759800
50.29999719	0.00000000	17.31053000	5.11195900
50.49999718	0.00000000	15.35433000	1.66707700
50.69999717	0.00000000	8.83981200	-1.07037400
50.89999715	0.00000000	0.00000000	-2.55905500
51.09999714	0.00000000	-8.88902600	-2.14074800
51.29999713	0.00000000	-15.81570000	0.55364170
51.49999712	0.00000000	-18.89148000	4.73671200
51.69999711	0.00000000	-17.39665000	9.00590400
51.89999710	0.00000000	-12.00172000	12.49385000
52.09999708	0.00000000	-4.32455700	14.76993000
52.29999707	0.00000000	3.77091500	14.76993000
52.49999706	0.00000000	9.91018600	12.49385000
52.69999705	0.00000000	12.61073000	9.00590400
52.89999704	0.00000000	11.07283000	4.77977300
53.09999702	0.00000000	5.72711600	0.97194880
53.29999701	0.00000000	-1.53789400	-0.97810030
53.49999700	0.00000000	-8.46456700	-1.06422200
53.69999699	0.00000000	-13.07210000	0.13533460
53.89999698	0.00000000	-14.27780000	2.46063000
54.09999696	0.00000000	-11.95866000	5.89320800
54.29999695	0.00000000	-7.01894700	8.91978400
54.49999694	0.00000000	-0.88582670	10.49459000
54.69999693	0.00000000	4.14616100	10.49459000
54.89999692	0.00000000	7.25885800	9.00590400
55.09999691	0.00000000	8.00319800	6.72982200
55.29999689	0.00000000	5.67790300	4.82283400
55.49999688	0.00000000	1.11343500	3.66633800
55.69999687	0.00000000	-4.23228400	3.70939900
55.89999686	0.00000000	-8.46456700	5.19808000
56.09999685	0.00000000	-10.42077000	7.43110200
56.29999683	0.00000000	-10.09473000	8.96284400
56.49999682	0.00000000	-7.76943800	9.38115100
56.69999681	0.00000000	-4.27534400	8.91978400
56.89999680	0.00000000	-0.04306102	6.96358300
57.09999679	0.00000000	3.77091500	3.53100400
57.29999677	0.00000000	5.67790300	0.13533460
57.49999676	0.00000000	5.35187000	-2.18380900
57.69999675	0.00000000	3.06963600	-2.50984200
57.89999674	0.00000000	0.00000000	-0.55979330
58.09999673	0.00000000	-3.11884800	3.66633800
58.29999672	0.00000000	-5.77017700	9.05511800
58.49999670	0.00000000	-6.93282500	14.03174000
58.69999669	0.00000000	-6.23154500	17.46432000
58.89999668	0.00000000	-4.69980300	17.79035000
59.09999667	0.00000000	-2.78666300	14.76993000
59.29999666	0.00000000	-0.83661410	9.38115100
59.49999664	0.00000000	0.33218500	3.15575800
59.69999663	0.00000000	1.07037400	-3.02042300
59.89999662	0.00000000	0.69512790	-7.94783400
60.09999661	0.00000000	-0.78740150	-9.43036400
60.29999660	0.00000000	-1.91314000	-6.78518600
60.49999658	0.00000000	-2.74360200	-0.97810030
60.69999657	0.00000000	-3.11884800	6.72982200
60.89999656	0.00000000	-3.11884800	14.76993000
61.09999655	0.00000000	-2.69439000	20.52780000
61.29999654	0.00000000	-1.53789400	22.48400000
61.49999653	0.00000000	-0.09227362	20.52780000
61.69999651	0.00000000	0.69512790	14.76993000
61.89999650	0.00000000	0.28297240	6.68676100
62.09999649	0.00000000	-0.79355310	-1.39640700
62.29999648	0.00000000	-2.36835600	-7.94783400
62.49999647	0.00000000	-3.53715500	-11.01132000
62.69999645	0.00000000	-4.69980300	-9.89788300
62.89999644	0.00000000	-5.43799200	-5.29650500
63.09999643	0.00000000	-5.02583600	1.66707700
63.29999642	0.00000000	-3.90625000	9.38115100
63.49999641	0.00000000	-1.95620100	16.30167000
63.69999639	0.00000000	-0.04306102	20.53395000
63.89999638	0.00000000	1.53789400	20.95226000
64.09999637	0.00000000	2.65132900	17.92569000
64.29999636	0.00000000	2.60826800	12.49385000
64.49999635	0.00000000	1.07037400	5.94242000
64.69999634	0.00000000	-1.58095500	-0.64591530
64.89999632	0.00000000	-4.23228400	-5.62253900
65.09999631	0.00000000	-5.81323800	-7.99089500
65.29999630	0.00000000	-6.23154500	-7.25270600
65.49999629	0.00000000	-5.81323800	-4.22613100
65.69999628	0.00000000	-4.27534400	0.04306102
65.89999626	0.00000000	-1.99926200	4.73671200
66.09999625	0.00000000	-0.09227362	9.38115100
66.29999624	0.00000000	1.07037400	13.23819000
66.49999623	0.00000000	1.07037400	15.18824000
66.69999622	0.00000000	-0.04306102	15.27436000
66.89999620	0.00000000	-1.58095500	14.11786000
67.09999619	0.00000000	-3.11884800	12.16781000
67.29999618	0.00000000	-4.27534400	9.38115100
67.49999617	0.00000000	-4.60752900	5.93626900
67.69999616	0.00000000	-3.81397600	2.41141700
67.89999615	0.00000000	-1.53789400	-0.28297240
68.09999613	0.00000000	1.11343500	-2.27608300
68.29999612	0.00000000	3.02657500	-3.02042300
68.49999611	0.00000000	3.77091500	-2.64517700
68.69999610	0.00000000	2.60826800	-1.02116100
68.89999609	0.00000000	-0.09227362	2.08538400
69.09999607	0.00000000	-3.53715500	6.31151500
69.29999606	0.00000000	-7.01894700	10.58686000
69.49999605	0.00000000	-9.35039300	14.07480000
69.69999604	0.00000000	-10.46998000	16.39395000
69.89999603	0.00000000	-9.62721400	16.71998000
70.09999601	0.00000000	-6.18848400	14.81299000
70.29999600	0.00000000	-1.58095500	10.91289000
70.49999599	0.00000000	3.06963600	5.89320800
70.69999598	0.00000000	6.93282500	0.51058070
70.89999597	0.00000000	8.83981200	-3.71555100
71.09999596	0.00000000	8.46456700	-5.67175200
71.29999594	0.00000000	5.72711600	-5.29650500
71.49999593	0.00000000	1.11343500	-2.60211600
71.69999592	0.00000000	-4.32455700	1.62401600
71.89999591	0.00000000	-9.30733200	6.26845500
72.09999590	0.00000000	-12.78912000	10.49459000
72.29999588	0.00000000	-13.53962000	13.18898000
72.49999587	0.00000000	-11.67569000	13.65650000
72.69999586	0.00000000	-7.76943800	12.49385000
72.89999585	0.00000000	-2.74360200	10.16855000
73.09999584	0.00000000	2.69439000	6.72982200
73.29999582	0.00000000	7.25885800	3.70939900
73.49999581	0.00000000	9.58415200	2.12844500
73.69999580	0.00000000	8.83981200	2.08538400
73.89999579	0.00000000	5.81323800	3.19881900
74.09999578	0.00000000	1.53789400	4.68750000
74.29999577	0.00000000	-3.06963600	5.85014700
74.49999575	0.00000000	-6.97588500	6.21924200
74.69999574	0.00000000	-9.30733200	5.85014700
74.89999573	0.00000000	-10.09473000	4.68750000
75.09999572	0.00000000	-8.93208600	3.19881900
75.29999571	0.00000000	-6.28075700	2.08538400
75.49999569	0.00000000	-3.20497000	2.12844500
75.69999568	0.00000000	-0.46751960	3.66633800
75.89999567	0.00000000	1.48868100	6.36072800
76.09999566	0.00000000	2.65132900	9.42421200
76.29999565	0.00000000	2.65132900	12.11860000
76.49999563	0.00000000	1.53789400	13.65650000
76.69999562	0.00000000	0.04306102	13.61343000
76.89999561	0.00000000	-1.11343500	11.65723000
77.09999560	0.00000000	-1.53789400	7.75713500
77.29999559	0.00000000	-1.58095500	2.78051200
77.49999558	0.00000000	-1.58095500	-2.18380900
77.69999556	0.00000000	-1.62401600	-5.24729300
77.89999555	0.00000000	-1.99926200	-5.67175200
78.09999554	0.00000000	-2.78666300	-3.71555100
78.29999553	0.00000000	-3.53715500	0.55364170
78.49999552	0.00000000	-4.32455700	6.31151500
78.69999550	0.00000000	-4.65059000	12.07554000
78.89999549	0.00000000	-4.27534400	16.35089000
79.09999548	0.00000000	-3.06963600	18.25787000
79.29999547	0.00000000	-1.16264800	17.50738000
79.49999546	0.00000000	1.16264800	14.03174000
79.69999544	0.00000000	3.02657500	9.05511800
79.89999543	0.00000000	3.81397600	3.66633800
80.09999542	0.00000000	3.06963600	-0.64591530
80.29999541	0.00000000	1.53789400	-3.39566900
80.49999540	0.00000000	-0.46751960	-4.92125900
80.69999539	0.00000000	-3.16190900	-4.13385800
80.89999537	0.00000000	-5.81323800	-1.48868100
81.09999536	0.00000000	-7.35113100	2.04232300
81.29999535	0.00000000	-7.39419200	6.31151500
81.49999534	0.00000000	-6.23154500	10.53765000
81.69999533	0.00000000	-4.27534400	13.65650000
81.89999531	0.00000000	-1.58095500	15.23130000
82.09999530	0.00000000	1.07037400	15.23130000
82.29999529	0.00000000	2.65132900	13.69956000
82.49999528	0.00000000	3.06963600	11.00517000
82.69999527	0.00000000	2.65132900	7.89247000
82.89999525	0.00000000	1.11343500	4.73671200
83.09999524	0.00000000	-1.16264800	1.62401600
83.29999523	0.00000000	-3.06963600	-1.07037400
83.49999522	0.00000000	-4.27534400	-2.60211600
83.69999521	0.00000000	-4.65059000	-2.60211600
83.89999520	0.00000000	-4.32455700	-1.07037400
84.09999518	0.00000000	-3.58021600	1.66707700
84.29999517	0.00000000	-3.16190900	5.19808000
84.49999516	0.00000000	-2.74360200	9.43036400
84.69999515	0.00000000	-1.99926200	13.28125000
84.89999514	0.00000000	-1.62401600	15.56348000
85.09999512	0.00000000	-1.53789400	15.97564000
85.29999511	0.00000000	-1.16264800	14.03174000
85.49999510	0.00000000	-0.46751960	10.53765000
85.69999509	0.00000000	-0.41830710	5.89320800
85.89999508	0.00000000	-0.74434050	0.92888770
86.09999506	0.00000000	-0.41830710	-2.60211600
86.29999505	0.00000000	-0.46751960	-4.55831700
86.49999504	0.00000000	-1.20570900	-4.87819900
86.69999503	0.00000000	-1.99926200	-2.51599400
86.89999502	0.00000000	-3.16190900	2.04232300
87.09999501	0.00000000	-4.32455700	7.42495000
87.29999499	0.00000000	-5.07504900	12.07554000
87.49999498	0.00000000	-5.39493100	15.18824000
87.69999497	0.00000000	-4.23228400	16.30167000
87.89999496	0.00000000	-1.99926200	14.72072000
88.09999495	0.00000000	-0.09227362	10.53765000
88.29999493	0.00000000	1.11343500	5.19808000
88.49999492	0.00000000	1.53789400	0.55364170
88.69999491	0.00000000	1.53789400	-2.55905500
88.89999490	0.00000000	1.07037400	-3.71555100
89.09999489	0.00000000	-0.46751960	-2.51599400
89.29999487	0.00000000	-2.69439000	0.92888770
89.49999486	0.00000000	-4.23228400	5.89320800
89.69999485	0.00000000	-4.69980300	10.53765000
89.89999484	0.00000000	-4.69980300	14.03174000
90.09999483	0.00000000	-4.27534400	15.88336000
90.29999482	0.00000000	-3.11884800	14.72072000
90.49999480	0.00000000	-1.62401600	10.91289000
90.69999479	0.00000000	-0.46751960	5.93626900
90.89999478	0.00000000	-0.04306102	0.92888770
91.09999477	0.00000000	0.00000000	-2.51599400
91.29999476	0.00000000	-0.04306102	-3.67249000
91.49999474	0.00000000	-0.41830710	-2.14074800
91.69999473	0.00000000	-1.16264800	1.71013800
91.89999472	0.00000000	-1.53789400	6.68676100
92.09999471	0.00000000	-1.58095500	11.65723000
92.29999470	0.00000000	-1.58095500	14.72072000
92.49999468	0.00000000	-1.58095500	15.14518000
92.69999467	0.00000000	-1.62401600	13.23819000
92.89999466	0.00000000	-1.99926200	9.38115100
93.09999465	0.00000000	-2.78666300	4.77977300
93.29999464	0.00000000	-3.53715500	0.55364170
93.49999463	0.00000000	-4.32455700	-2.09153500
93.69999461	0.00000000	-4.65059000	-2.14074800
93.89999460	0.00000000	-4.23228400	0.13533460
94.09999459	0.00000000	-2.69439000	3.62327700
94.29999458	0.00000000	-0.41830710	7.84940900
94.49999457	0.00000000	1.53789400	11.65723000
94.69999455	0.00000000	3.06963600	13.56422000
94.89999454	0.00000000	3.81397600	13.18898000
95.09999453	0.00000000	3.06963600	10.53765000
95.29999452	0.00000000	1.48868100	6.68676100
95.49999451	0.00000000	-0.88582670	2.87278500
95.69999449	0.00000000	-4.32455700	-0.18454720
95.89999448	0.00000000	-7.35113100	-0.97810030
96.09999447	0.00000000	-8.93208600	0.09227362
96.29999446	0.00000000	-8.93208600	2.08538400
96.49999445	0.00000000	-7.39419200	5.15501900
96.69999444	0.00000000	-4.65059000	8.58759800
96.89999442	0.00000000	-1.16264800	10.86983000
97.09999441	0.00000000	2.69439000	11.65723000
97.29999440	0.00000000	5.77017700	10.53765000
97.49999439	0.00000000	7.30807100	8.26771600
97.69999438	0.00000000	6.93282500	5.93626900
97.89999436	0.00000000	4.60752900	3.61712600
98.09999435	0.00000000	1.16264800	2.12844500
98.29999434	0.00000000	-2.74360200	2.08538400
98.49999433	0.00000000	-6.23154500	3.19881900
98.69999432	0.00000000	-8.93208600	4.68750000
98.89999430	0.00000000	-10.04552000	5.85014700
99.09999429	0.00000000	-8.93208600	6.26845500
99.29999428	0.00000000	-6.28075700	6.31151500
99.49999427	0.00000000	-3.11884800	6.31151500
99.69999426	0.00000000	0.37524600	6.31151500
99.89999425	0.00000000	3.81397600	6.35457700
100.09999423	0.00000000	5.72711600	6.72982200
100.29999422	0.00000000	5.81323800	7.47416300
100.49999421	0.00000000	4.65059000	7.84940900
100.69999420	0.00000000	2.69439000	7.84940900
100.89999419	0.00000000	-0.04306102	7.47416300
101.09999417	0.00000000	-3.11884800	6.64370100
101.29999416	0.00000000	-5.81323800	5.47490100
101.49999415	0.00000000	-7.39419200	3.57406500
101.69999414	0.00000000	-7.76943800	2.08538400
101.89999413	0.00000000	-7.01894700	1.66707700
102.09999411	0.00000000	-5.07504900	2.08538400
102.29999410	0.00000000	-2.78666300	3.61712600
102.49999409	0.00000000	-0.41830710	5.93626900
102.69999408	0.00000000	1.53789400	8.26771600
102.89999407	0.00000000	3.06963600	10.53765000
103.09999406	0.00000000	3.81397600	11.70029000
103.29999404	0.00000000	3.06963600	11.33120000
103.49999403	0.00000000	1.53789400	10.11934000
103.69999402	0.00000000	-0.41830710	7.42495000
103.89999401	0.00000000	-2.74360200	4.03543200
104.09999400	0.00000000	-4.65059000	1.66707700
104.29999398	0.00000000	-5.81323800	0.13533460
104.49999397	0.00000000	-5.81323800	-0.23375980
104.69999396	0.00000000	-4.69980300	1.33489200
104.89999395	0.00000000	-3.16190900	3.94931100
105.09999394	0.00000000	-1.58095500	7.05585600
105.29999392	0.00000000	-0.04306102	9.33809000
105.49999391	0.00000000	1.11343500	10.58686000
105.69999390	0.00000000	1.48868100	10.91289000
105.89999389	0.00000000	1.11343500	10.11934000
106.09999388	0.00000000	-0.04306102	7.84940900
106.29999387	0.00000000	-1.53789400	5.19808000
106.49999385	0.00000000	-2.69439000	3.24803100
106.69999384	0.00000000	-3.11884800	2.08538400
106.89999383	0.00000000	-3.11884800	2.08538400
107.09999382	0.00000000	-2.69439000	3.19881900
107.29999381	0.00000000	-1.58095500	4.73671200
107.49999379	0.00000000	-0.46751960	6.31151500
107.69999378	0.00000000	-0.04306102	7.80019600
107.89999377	0.00000000	-0.04306102	8.54453700
108.09999376	0.00000000	-0.46751960	7.80019600
108.29999375	0.00000000	-1.58095500	6.31151500
108.49999374	0.00000000	-2.74360200	4.73671200
108.69999372	0.00000000	-3.53715500	3.19881900
108.89999371	0.00000000	-4.27534400	2.08538400
109.09999370	0.00000000	-4.23228400	2.08538400
109.29999369	0.00000000	-3.11884800	3.19881900
109.49999368	0.00000000	-1.62401600	4.77977300
109.69999366	0.00000000	-0.41830710	6.68676100
109.89999365	0.00000000	0.37524600	8.58759800
110.09999364	0.00000000	1.11343500	9.38115100
110.29999363	0.00000000	1.07037400	9.38115100
110.49999362	0.00000000	0.00000000	8.58759800
110.69999360	0.00000000	-1.16264800	6.68676100
110.89999359	0.00000000	-1.95620100	4.77977300
111.09999358	0.00000000	-2.74360200	3.24803100
111.29999357	0.00000000	-3.11884800	2.46063000
111.49999356	0.00000000	-3.11884800	2.82357300
111.69999355	0.00000000	-2.74360200	3.53100400
111.89999353	0.00000000	-1.99926200	4.36146600
112.09999352	0.00000000	-1.58095500	5.15501900
112.29999351	0.00000000	-1.16264800	6.31151500
112.49999350	0.00000000	-0.41830710	7.42495000
112.69999349	0.00000000	-0.04306102	7.84940900
112.89999347	0.00000000	-0.04306102	7.84940900
113.09999346	0.00000000	-0.41830710	7.47416300
113.29999345	0.00000000	-1.16264800	6.72982200
113.49999344	0.00000000	-1.58095500	6.31151500
113.69999343	0.00000000	-1.95620100	5.89320800
113.89999341	0.00000000	-2.32529500	5.15501900
114.09999340	0.00000000	-1.95620100	4.77977300
114.29999339	0.00000000	-1.62401600	4.73671200
114.49999338	0.00000000	-1.58095500	4.73671200
114.69999337	0.00000000	-1.58095500	4.73671200
114.89999336	0.00000000	-1.58095500	4.73671200
115.09999334	0.00000000	-1.58095500	4.73671200
115.29999333	0.00000000	-1.58095500	4.73671200
115.49999332	0.00000000	-1.58095500	4.77977300
115.69999331	0.00000000	-1.58095500	5.15501900
115.89999330	0.00000000	-1.58095500	5.89320800
116.09999328	0.00000000	-1.58095500	6.31151500
116.29999327	0.00000000	-1.58095500	6.72982200
116.49999326	0.00000000	-1.62401600	7.47416300
116.69999325	0.00000000	-1.95620100	7.80019600
116.89999324	0.00000000	-2.32529500	7.47416300
117.09999322	0.00000000	-1.91314000	6.68676100
117.29999321	0.00000000	-1.20570900	5.93626900
117.49999320	0.00000000	-0.41830710	5.15501900
117.69999319	0.00000000	0.00000000	4.73671200
117.89999318	0.00000000	0.37524600	4.36146600
118.09999317	0.00000000	0.74434050	3.99237200
118.29999315	0.00000000	0.33218500	4.36146600
118.49999314	0.00000000	-0.37524600	4.73671200
118.69999313	0.00000000	-1.20570900	5.19808000
118.89999312	0.00000000	-1.99926200	6.31151500
119.09999311	0.00000000	-3.11884800	7.42495000
119.29999309	0.00000000	-3.90625000	7.84940900
119.49999308	0.00000000	-3.91240100	7.89247000
119.69999307	0.00000000	-3.90625000	7.84940900
119.89999306	0.00000000	-3.06963600	7.47416300
120.09999305	0.00000000	-1.58095500	6.72982200
120.29999303	0.00000000	-0.04306102	6.31151500
120.49999302	0.00000000	1.11343500	5.89320800
120.69999301	0.00000000	1.53789400	5.15501900
120.89999300	0.00000000	1.53789400	4.77977300
121.09999299	0.00000000	1.11343500	4.73671200
121.29999298	0.00000000	-0.04306102	4.73671200
121.49999296	0.00000000	-1.53789400	4.73671200
121.69999295	0.00000000	-2.74360200	4.73671200
121.89999294	0.00000000	-3.53715500	4.77977300
122.09999293	0.00000000	-4.27534400	5.15501900
122.29999292	0.00000000	-4.27534400	5.89320800
122.49999290	0.00000000	-3.53715500	6.31151500
122.69999289	0.00000000	-2.74360200	6.72982200
122.89999288	0.00000000	-1.58095500	7.47416300
123.09999287	0.00000000	-0.41830710	7.80019600
123.29999286	0.00000000	0.37524600	7.47416300
123.49999284	0.00000000	1.11343500	6.68676100
123.69999283	0.00000000	1.11343500	5.93626900
123.89999282	0.00000000	0.41830710	5.15501900
124.09999281	0.00000000	0.00000000	4.77977300
124.29999280	0.00000000	-0.41830710	4.73671200
124.49999279	0.00000000	-1.20570900	4.73671200
124.69999277	0.00000000	-1.95620100	4.77977300
124.89999276	0.00000000	-2.74360200	5.15501900
125.09999275	0.00000000	-3.11884800	5.89320800
125.29999274	0.00000000	-3.16190900	6.26845500
125.49999273	0.00000000	-3.11884800	6.35457700
125.69999271	0.00000000	-2.74360200	6.68676100
125.89999270	0.00000000	-1.95620100	7.09891700
126.09999269	0.00000000	-1.16264800	7.06200700
126.29999268	0.00000000	0.00000000	7.09891700
126.49999267	0.00000000	1.07037400	6.68676100
126.69999265	0.00000000	1.11343500	6.35457700
126.89999264	0.00000000	0.37524600	6.26845500
127.09999263	0.00000000	-0.41830710	5.89320800
127.29999262	0.00000000	-1.58095500	5.15501900
127.49999261	0.00000000	-2.74360200	4.77977300
127.69999260	0.00000000	-3.49409400	4.73671200
127.89999258	0.00000000	-3.90625000	4.77977300
128.09999257	0.00000000	-3.49409400	5.15501900
128.29999256	0.00000000	-2.78666300	5.89320800
128.49999255	0.00000000	-1.95620100	6.26845500
128.69999254	0.00000000	-1.16264800	6.31151500
128.89999252	0.00000000	0.00000000	6.31151500
129.09999251	0.00000000	1.07037400	6.31151500
129.29999250	0.00000000	1.11343500	6.26845500
129.49999249	0.00000000	0.37524600	5.89320800
129.69999248	0.00000000	-0.41830710	5.15501900
129.89999246	0.00000000	-1.58095500	4.77977300
130.09999245	0.00000000	-2.69439000	4.77977300
130.29999244	0.00000000	-3.11884800	5.15501900
130.49999243	0.00000000	-3.16190900	5.89320800
130.69999242	0.00000000	-3.11884800	6.26845500
130.89999241	0.00000000	-2.69439000	6.31151500
131.09999239	0.00000000	-1.58095500	6.31151500
131.29999238	0.00000000	-0.46751960	6.31151500
131.49999237	0.00000000	-0.04306102	6.26845500
131.69999236	0.00000000	0.00000000	5.89320800
131.89999235	0.00000000	-0.04306102	5.15501900
132.09999233	0.00000000	-0.41830710	4.77977300
132.29999232	0.00000000	-1.20570900	4.73671200
132.49999231	0.00000000	-1.95620100	4.73671200
132.69999230	0.00000000	-2.69439000	4.77977300
132.89999229	0.00000000	-2.69439000	5.15501900
133.09999227	0.00000000	-1.99926200	5.93626900
133.29999226	0.00000000	-1.62401600	6.68676100
133.49999225	0.00000000	-1.58095500	7.47416300
133.69999224	0.00000000	-1.58095500	7.84940900
133.89999223	0.00000000	-1.58095500	7.84940900
134.09999222	0.00000000	-1.58095500	7.42495000
134.29999220	0.00000000	-1.58095500	6.31151500
134.49999219	0.00000000	-1.58095500	5.19808000
134.69999218	0.00000000	-1.58095500	4.73671200
134.89999217	0.00000000	-1.58095500	4.31840500
135.09999216	0.00000000	-1.53789400	3.62327700
135.29999214	0.00000000	-1.16264800	3.62327700
135.49999213	0.00000000	-0.46751960	4.36146600
135.69999212	0.00000000	-0.46751960	5.11195900
135.89999211	0.00000000	-1.16264800	5.93626900
136.09999210	0.00000000	-1.58095500	6.68676100
136.29999208	0.00000000	-1.99926200	7.47416300
136.49999207	0.00000000	-2.74360200	7.84940900
136.69999206	0.00000000	-3.11884800	7.84940900
136.89999205	0.00000000	-3.11884800	7.47416300
137.09999204	0.00000000	-2.74360200	6.68676100
137.29999203	0.00000000	-1.95620100	5.93626900
137.49999201	0.00000000	-1.20570900	5.15501900
137.69999200	0.00000000	-0.41830710	4.77977300
137.89999199	0.00000000	-0.04306102	4.73671200
138.09999198	0.00000000	0.00000000	4.73671200
138.29999197	0.00000000	-0.04306102	4.73671200
138.49999195	0.00000000	-0.41830710	4.73671200
138.69999194	0.00000000	-1.20570900	4.77977300
138.89999193	0.00000000	-1.95620100	5.19808000
139.09999192	0.00000000	-2.74360200	6.31151500
139.29999191	0.00000000	-3.06963600	7.42495000
139.49999189	0.00000000	-2.74360200	7.84940900
139.69999188	0.00000000	-1.99926200	7.84940900
139.89999187	0.00000000	-1.58095500	7.47416300
140.09999186	0.00000000	-1.16264800	6.72982200
140.29999185	0.00000000	-0.41830710	6.31151500
140.49999184	0.00000000	-0.09227362	5.85014700
140.69999182	0.00000000	-0.41830710	4.73671200
140.89999181	0.00000000	-1.16264800	3.66633800
141.09999180	0.00000000	-1.58095500	3.62327700
141.29999179	0.00000000	-1.95620100	4.31840500
141.49999178	0.00000000	-2.32529500	4.73671200
141.69999176	0.00000000	-1.95620100	5.15501900
141.89999175	0.00000000	-1.62401600	5.93626900
142.09999174	0.00000000	-1.53789400	6.68676100
142.29999173	0.00000000	-1.16264800	7.47416300
142.49999172	0.00000000	-0.41830710	7.80019600
142.69999170	0.00000000	-0.09227362	7.47416300
142.89999169	0.00000000	-0.41830710	6.68676100
143.09999168	0.00000000	-1.16264800	5.93626900
143.29999167	0.00000000	-1.53789400	5.15501900
143.49999166	0.00000000	-1.58095500	4.77977300
143.69999165	0.00000000	-1.58095500	4.73671200
143.89999163	0.00000000	-1.58095500	4.73671200
144.09999162	0.00000000	-1.58095500	4.77977300
144.29999161	0.00000000	-1.53789400	5.15501900
144.49999160	0.00000000	-1.16264800	5.93626900
144.69999159	0.00000000	-0.41830710	6.68676100
144.89999157	0.00000000	-0.04306102	7.42495000
145.09999156	0.00000000	-0.04306102	7.42495000
145.29999155	0.00000000	-0.41830710	6.72982200
145.49999154	0.00000000	-1.16264800	6.31151500
145.69999153	0.00000000	-1.53789400	5.89320800
145.89999151	0.00000000	-1.58095500	5.15501900
146.09999150	0.00000000	-1.58095500	4.77977300
146.29999149	0.00000000	-1.58095500	4.73671200
146.49999148	0.00000000	-1.53789400	4.73671200
146.69999147	0.00000000	-1.16264800	4.73671200
146.89999146	0.00000000	-0.41830710	4.77977300
147.09999144	0.00000000	-0.04306102	5.15501900
147.29999143	0.00000000	0.00000000	5.89320800
147.49999142	0.00000000	-0.04306102	6.26845500
147.69999141	0.00000000	-0.41830710	6.31151500
147.89999140	0.00000000	-1.16264800	6.31151500
148.09999138	0.00000000	-1.53789400	6.31151500
148.29999137	0.00000000	-1.58095500	6.31151500
148.49999136	0.00000000	-1.58095500	6.26845500
148.69999135	0.00000000	-1.58095500	5.89320800
148.89999134	0.00000000	-1.58095500	5.15501900
149.09999132	0.00000000	-1.53789400	4.77977300
149.29999131	0.00000000	-1.16264800	4.73671200
149.49999130	0.00000000	-0.41830710	4.73671200
149.69999129	0.00000000	0.00000000	4.77977300
149.89999128	0.00000000	0.33218500	5.15501900
150.09999127	0.00000000	0.36909450	5.89320800
150.29999125	0.00000000	-0.36909450	6.26845500
150.49999124	0.00000000	-0.37524600	6.31151500
150.69999123	0.00000000	-0.46751960	6.31151500
150.89999122	0.00000000	-1.16264800	6.31151500
151.09999121	0.00000000	-1.58095500	6.31151500
151.29999119	0.00000000	-1.95620100	6.31151500
151.49999118	0.00000000	-2.32529500	6.31151500
151.69999117	0.00000000	-1.95620100	6.26845500
151.89999116	0.00000000	-1.62401600	5.89320800
152.09999115	0.00000000	-1.58095500	5.15501900
152.29999113	0.00000000	-1.58095500	4.77977300
152.49999112	0.00000000	-1.53789400	4.77977300
152.69999111	0.00000000	-1.16264800	5.15501900
152.89999110	0.00000000	-0.41830710	5.89320800
153.09999109	0.00000000	-0.04306102	6.26845500
153.29999108	0.00000000	-0.04306102	6.31151500
153.49999106	0.00000000	-0.41830710	6.31151500
153.69999105	0.00000000	-1.16264800	6.31151500
153.89999104	0.00000000	-1.53789400	6.31151500
154.09999103	0.00000000	-1.62401600	6.31151500
154.29999102	0.00000000	-1.95620100	6.31151500
154.49999100	0.00000000	-2.32529500	6.31151500
154.69999099	0.00000000	-1.95620100	6.31151500
154.89999098	0.00000000	-1.58095500	6.31151500
155.09999097	0.00000000	-1.20570900	6.26845500
155.29999096	0.00000000	-0.79355310	5.89320800
155.49999094	0.00000000	-0.78740150	5.15501900
155.69999093	0.00000000	-0.37524600	4.77977300
155.89999092	0.00000000	-0.04306102	4.77977300
156.09999091	0.00000000	0.00000000	5.15501900
156.29999090	0.00000000	-0.04306102	5.89320800
156.49999089	0.00000000	-0.41830710	6.26845500
156.69999087	0.00000000	-1.16264800	6.35457700
156.89999086	0.00000000	-1.58095500	6.68676100
157.09999085	0.00000000	-1.99926200	7.05585600
157.29999084	0.00000000	-2.69439000	6.68676100
157.49999083	0.00000000	-2.69439000	6.35457700
157.69999081	0.00000000	-1.99926200	6.31151500
157.89999080	0.00000000	-1.62401600	6.26845500
158.09999079	0.00000000	-1.58095500	5.89320800
158.29999078	0.00000000	-1.53789400	5.15501900
158.49999077	0.00000000	-1.20570900	4.77977300
158.69999075	0.00000000	-0.83661410	4.73671200
158.89999074	0.00000000	-1.16264800	4.77977300
159.09999073	0.00000000	-1.16264800	5.15501900
159.29999072	0.00000000	-0.83661410	5.89320800
159.49999071	0.00000000	-1.20570900	6.26845500
159.69999070	0.00000000	-1.53789400	6.31151500
159.89999068	0.00000000	-1.58095500	6.31151500
160.09999067	0.00000000	-1.58095500	6.31151500
160.29999066	0.00000000	-1.58095500	6.31151500
160.49999065	0.00000000	-1.58095500	6.31151500
160.69999064	0.00000000	-1.58095500	6.26845500
160.89999062	0.00000000	-1.58095500	5.89320800
161.09999061	0.00000000	-1.58095500	5.15501900
161.29999060	0.00000000	-1.58095500	4.77977300
161.49999059	0.00000000	-1.53789400	4.77977300
161.69999058	0.00000000	-1.20570900	5.11195900
161.89999056	0.00000000	-0.79355310	5.51796200
162.09999055	0.00000000	-0.78740150	5.53026500
162.29999054	0.00000000	-0.37524600	5.93626900
162.49999053	0.00000000	-0.09227362	6.26845500
162.69999052	0.00000000	-0.41830710	6.31151500
162.89999051	0.00000000	-1.16264800	6.31151500
163.09999049	0.00000000	-1.53789400	6.31151500
163.29999048	0.00000000	-1.58095500	6.31151500
163.49999047	0.00000000	-1.58095500	6.31151500
163.69999046	0.00000000	-1.58095500	6.31151500
163.89999045	0.00000000	-1.58095500	6.31151500
164.09999043	0.00000000	-1.58095500	6.31151500
164.29999042	0.00000000	-1.58095500	6.26845500
164.49999041	0.00000000	-1.53789400	5.93626900
164.69999040	0.00000000	-1.16264800	5.57332700
164.89999039	0.00000000	-0.41830710	5.93626900
165.09999037	0.00000000	-0.04306102	6.26845500
165.29999036	0.00000000	0.00000000	6.31151500
165.49999035	0.00000000	-0.04306102	6.31151500
165.69999034	0.00000000	-0.41830710	6.31151500
165.89999033	0.00000000	-1.16264800	6.31151500
166.09999032	0.00000000	-1.53789400	6.31151500
166.29999030	0.00000000	-1.58095500	6.31151500
166.49999029	0.00000000	-1.62401600	6.31151500
166.69999028	0.00000000	-1.95620100	6.31151500
166.89999027	0.00000000	-2.32529500	6.31151500
167.09999026	0.00000000	-1.95620100	6.31151500
167.29999024	0.00000000	-1.62401600	6.31151500
167.49999023	0.00000000	-1.53789400	6.31151500
167.69999022	0.00000000	-1.16264800	6.31151500
167.89999021	0.00000000	-0.41830710	6.31151500
168.09999020	0.00000000	-0.04306102	6.31151500
168.29999018	0.00000000	0.00000000	6.31151500
168.49999017	0.00000000	0.00000000	6.31151500
168.69999016	0.00000000	0.00000000	6.31151500
168.89999015	0.00000000	-0.04306102	6.26845500
169.09999014	0.00000000	-0.41830710	5.89320800
169.29999013	0.00000000	-1.16264800	5.15501900
169.49999011	0.00000000	-1.53789400	4.82898600
169.69999010	0.00000000	-1.58095500	5.11195900
169.89999009	0.00000000	-1.58095500	5.51796200
170.09999008	0.00000000	-1.58095500	5.53026500
170.29999007	0.00000000	-1.58095500	5.93626900
170.49999005	0.00000000	-1.58095500	6.26845500
170.69999004	0.00000000	-1.58095500	6.31151500
170.89999003	0.00000000	-1.53789400	6.31151500
171.09999002	0.00000000	-1.20570900	6.31151500
171.29999001	0.00000000	-0.83661410	6.26845500
171.49998999	0.00000000	-1.16264800	5.93626900
171.69998998	0.00000000	-1.16264800	5.53026500
171.89998997	0.00000000	-0.83661410	5.56717500
172.09998996	0.00000000	-1.20570900	5.53026500
172.29998995	0.00000000	-1.53789400	5.89320800
172.49998994	0.00000000	-1.58095500	5.89320800
172.69998992	0.00000000	-1.58095500	5.53026500
172.89998991	0.00000000	-1.58095500	5.56717500
173.09998990	0.00000000	-1.58095500	5.53026500
173.29998989	0.00000000	-1.58095500	5.93626900
173.49998988	0.00000000	-1.58095500	6.26845500
173.69998986	0.00000000	-1.58095500	6.31151500
173.89998985	0.00000000	-1.58095500	6.31151500
174.09998984	0.00000000	-1.58095500	6.26845500
174.29998983	0.00000000	-1.58095500	5.89320800
174.49998982	0.00000000	-1.58095500	5.19808000
174.69998980	0.00000000	-1.58095500	5.19808000
174.89998979	0.00000000	-1.58095500	5.89320800
175.09998978	0.00000000	-1.58095500	6.26845500
175.29998977	0.00000000	-1.58095500	6.31151500
175.49998976	0.00000000	-1.53789400	6.31151500
175.69998975	0.00000000	-1.20570900	6.31151500
175.89998973	0.00000000	-0.83661410	6.31151500
176.09998972	0.00000000	-1.20570900	6.31151500
176.29998971	0.00000000	-1.48868100	6.31151500
176.49998970	0.00000000	-1.20570900	6.31151500
176.69998969	0.00000000	-0.83661410	6.31151500
176.89998967	0.00000000	-1.20570900	6.31151500
177.09998966	0.00000000	-1.53789400	6.31151500
177.29998965	0.00000000	-1.58095500	6.31151500
177.49998964	0.00000000	-1.58095500	6.26845500
177.69998963	0.00000000	-1.58095500	5.93626900
177.89998961	0.00000000	-1.58095500	5.57332700
178.09998960	0.00000000	-1.58095500	5.93626900
178.29998959	0.00000000	-1.58095500	6.26845500
178.49998958	0.00000000	-1.58095500	6.31151500
178.69998957	0.00000000	-1.58095500	6.31151500
178.89998956	0.00000000	-1.58095500	6.31151500
179.09998954	0.00000000	-1.58095500	6.31151500
179.29998953	0.00000000	-1.58095500	6.31151500
179.49998952	0.00000000	-1.58095500	6.31151500
179.69998951	0.00000000	-1.58095500	6.31151500
179.89998950	0.00000000	-1.58095500	6.31151500
180.09998948	0.00000000	-1.58095500	6.26845500
180.29998947	0.00000000	-1.58095500	5.89320800
180.49998946	0.00000000	-1.58095500	5.19808000
180.69998945	0.00000000	-1.58095500	5.19808000
180.89998944	0.00000000	-1.58095500	5.89320800
181.09998942	0.00000000	-1.58095500	6.26845500
181.29998941	0.00000000	-1.58095500	6.31151500
181.49998940	0.00000000	-1.58095500	6.31151500
181.69998939	0.00000000	-1.53789400	6.31151500
181.89998938	0.00000000	-1.20570900	6.31151500
182.09998937	0.00000000	-0.79355310	6.31151500
182.29998935	0.00000000	-0.78740150	6.31151500
182.49998934	0.00000000	-0.37524600	6.31151500
182.69998933	0.00000000	-0.04306102	6.31151500
182.89998932	0.00000000	0.00000000	6.31151500
183.09998931	0.00000000	0.00000000	6.26845500
183.29998929	0.00000000	-0.04306102	5.89320800
183.49998928	0.00000000	-0.41830710	5.15501900
183.69998927	0.00000000	-1.16264800	4.77977300
183.89998926	0.00000000	-1.53789400	4.77977300
184.09998925	0.00000000	-1.58095500	5.15501900
184.29998923	0.00000000	-1.58095500	5.89320800
184.49998922	0.00000000	-1.58095500	6.26845500
184.69998921	0.00000000	-1.58095500	6.31151500
184.89998920	0.00000000	-1.58095500	6.31151500
185.09998919	0.00000000	-1.58095500	6.31151500
185.29998918	0.00000000	-1.53789400	6.31151500
185.49998916	0.00000000	-1.16264800	6.26845500
185.69998915	0.00000000	-0.41830710	5.89320800
185.89998914	0.00000000	-0.04306102	5.15501900
186.09998913	0.00000000	-0.04306102	4.77977300
186.29998912	0.00000000	-0.41830710	4.73671200
186.49998910	0.00000000	-1.16264800	4.73671200
186.69998909	0.00000000	-1.53789400	4.73671200
186.89998908	0.00000000	-1.58095500	4.77977300
187.09998907	0.00000000	-1.58095500	5.15501900
187.29998906	0.00000000	-1.58095500	5.93626900
187.49998904	0.00000000	-1.58095500	6.68676100
187.69998903	0.00000000	-1.58095500	7.42495000
187.89998902	0.00000000	-1.58095500	7.42495000
188.09998901	0.00000000	-1.58095500	6.72982200
188.29998900	0.00000000	-1.53789400	6.35457700
188.49998899	0.00000000	-1.16264800	6.31151500
188.69998897	0.00000000	-0.46751960	6.26845500
188.89998896	0.00000000	-0.41830710	5.89320800
189.09998895	0.00000000	-0.78740150	5.15501900
189.29998894	0.00000000	-0.79355310	4.77977300
189.49998893	0.00000000	-1.20570900	4.73671200
189.69998891	0.00000000	-1.53789400	4.77977300
189.89998890	0.00000000	-1.58095500	5.15501900
190.09998889	0.00000000	-1.58095500	5.89320800
190.29998888	0.00000000	-1.58095500	6.26845500
190.49998887	0.00000000	-1.58095500	6.31151500
190.69998885	0.00000000	-1.58095500	6.31151500
190.89998884	0.00000000	-1.53789400	6.31151500
191.09998883	0.00000000	-1.16264800	6.31151500
191.29998882	0.00000000	-0.46751960	6.31151500
191.49998881	0.00000000	-0.41830710	6.31151500
191.69998880	0.00000000	-0.74434050	6.31151500
191.89998878	0.00000000	-0.37524600	6.31151500
192.09998877	0.00000000	-0.04306102	6.31151500
192.29998876	0.00000000	-0.04306102	6.26845500
192.49998875	0.00000000	-0.37524600	5.93626900
192.69998874	0.00000000	-0.78740150	5.53026500
192.89998872	0.00000000	-0.79355310	5.56717500
193.09998871	0.00000000	-1.20570900	5.53026500
193.29998870	0.00000000	-1.53789400	5.93626900
193.49998869	0.00000000	-1.58095500	6.26845500
193.69998868	0.00000000	-1.58095500	6.31151500
193.89998866	0.00000000	-1.53789400	6.31151500
194.09998865	0.00000000	-1.20570900	6.31151500
194.29998864	0.00000000	-0.79355310	6.31151500
194.49998863	0.00000000	-0.78740150	6.31151500
194.69998862	0.00000000	-0.37524600	6.31151500
194.89998861	0.00000000	-0.04306102	6.31151500
195.09998859	0.00000000	-0.04306102	6.31151500
195.29998858	0.00000000	-0.41830710	6.31151500
195.49998857	0.00000000	-1.16264800	6.31151500
195.69998856	0.00000000	-1.53789400	6.31151500
195.89998855	0.00000000	-1.58095500	6.31151500
196.09998853	0.00000000	-1.58095500	6.31151500
