Time	Channel A	Channel B
(us)	(V)	(mV)

-4.49999956	0.00000000	-19.09449000
-4.29999957	0.00000000	-19.04527000
-4.09999958	0.00000000	-19.04527000
-3.89999959	0.00000000	-19.04527000
-3.69999960	0.00000000	-19.09449000
-3.49999962	0.00000000	-19.50664000
-3.29999963	0.00000000	-20.31865000
-3.09999964	0.00000000	-20.68159000
-2.89999965	0.00000000	-20.36786000
-2.69999966	0.00000000	-19.91880000
-2.49999968	0.00000000	-19.90650000
-2.29999969	0.00000000	-19.45743000
-2.09999970	0.00000000	-19.14370000
-1.89999971	0.00000000	-19.50664000
-1.69999972	0.00000000	-20.31865000
-1.49999973	0.00000000	-20.73080000
-1.29999975	0.00000000	-20.78002000
-1.09999976	0.00000000	-20.78002000
-0.89999977	0.00000000	-20.78002000
-0.69999978	0.00000000	-20.78002000
-0.49999979	0.17531990	-20.73080000
-0.29999981	0.52657480	-20.36786000
-0.09999982	0.70250980	-19.96801000
0.10000017	1.05376500	-20.36786000
0.30000016	0.87844490	-20.73080000
0.50000015	0.52657480	-20.78002000
0.70000013	-0.17531990	-20.78002000
0.90000012	-1.05376500	-20.78002000
1.10000011	-2.10814500	-20.78002000
1.30000010	-2.63533500	-20.78002000
1.50000009	-2.81127000	-20.78002000
1.70000008	-1.93282500	-20.78002000
1.90000006	-0.35125490	-20.78002000
2.10000005	1.58095500	-20.78002000
2.30000004	3.68971500	-20.78002000
2.50000003	5.09534900	-20.78002000
2.70000002	5.27128500	-20.78002000
2.90000000	4.04096900	-20.78002000
3.09999999	1.40563500	-20.78002000
3.29999998	-1.93282500	-20.78002000
3.49999997	-5.27128500	-20.78002000
3.69999996	-7.37942900	-20.73080000
3.89999994	-7.90661900	-20.36786000
4.09999993	-6.50098400	-19.91880000
4.29999992	-2.98659000	-19.95571000
4.49999991	1.40563500	-19.91880000
4.69999990	5.44660400	-20.36786000
4.89999989	8.60974400	-20.73080000
5.09999987	9.48818900	-20.78002000
5.29999986	7.90661900	-20.78002000
5.49999985	4.39283900	-20.78002000
5.69999984	-0.17531990	-20.78002000
5.89999983	-4.91941500	-20.78002000
6.09999981	-8.25849000	-20.73080000
6.29999980	-9.48818900	-20.36786000
6.49999979	-8.43380900	-19.96801000
6.69999978	-5.27128500	-20.36786000
6.89999977	-1.05376500	-20.73080000
7.09999975	3.33846000	-20.78002000
7.29999974	6.32566500	-20.78002000
7.49999973	7.73129900	-20.78002000
7.69999972	7.02817400	-20.82923000
7.89999971	4.74409400	-21.19217000
8.09999970	1.40563500	-21.59203000
8.29999968	-1.75689000	-21.19217000
8.49999967	-4.04096900	-20.78002000
8.69999966	-5.09534900	-20.36786000
8.89999965	-4.74409400	-19.96801000
9.09999964	-3.33846000	-20.36786000
9.29999962	-1.40563500	-20.73080000
9.49999961	0.52657480	-20.78002000
9.69999960	1.93282500	-20.78002000
9.89999959	2.45940000	-20.78002000
10.09999958	2.28408000	-20.78002000
10.29999956	1.58095500	-20.78002000
10.49999955	0.70250980	-20.78002000
10.69999954	-0.17531990	-20.78002000
10.89999953	-0.70250980	-20.78002000
11.09999952	-0.87844490	-20.78002000
11.29999951	-0.87844490	-20.78002000
11.49999949	-0.70250980	-20.78002000
11.69999948	-0.35125490	-20.78002000
11.89999947	0.00000000	-20.78002000
12.09999946	0.00000000	-20.78002000
12.29999945	0.00000000	-20.78002000
12.49999943	-0.17531990	-20.78002000
12.69999942	-0.17531990	-20.78002000
12.89999941	-0.17531990	-20.78002000
13.09999940	-0.17531990	-20.78002000
13.29999939	0.00000000	-20.78002000
13.49999937	0.00000000	-20.78002000
13.69999936	0.00000000	-20.78002000
13.89999935	0.00000000	-20.78002000
14.09999934	0.00000000	-20.78002000
14.29999933	0.00000000	-20.78002000
14.49999932	0.00000000	-20.78002000
14.69999930	0.00000000	-20.78002000
14.89999929	0.00000000	-20.78002000
15.09999928	0.00000000	-20.78002000
15.29999927	0.00000000	-20.78002000
15.49999926	0.00000000	-20.78002000
15.69999924	0.00000000	-20.78002000
15.89999923	0.00000000	-20.78002000
16.09999922	0.00000000	-20.78002000
16.29999921	0.00000000	-20.78002000
16.49999920	0.00000000	-20.78002000
16.69999919	0.00000000	-20.78002000
16.89999917	0.00000000	-20.78002000
17.09999916	0.00000000	-20.78002000
17.29999915	0.00000000	-20.78002000
17.49999914	0.00000000	-20.78002000
17.69999913	0.00000000	-20.78002000
17.89999911	0.00000000	-20.78002000
18.09999910	0.00000000	-20.78002000
18.29999909	0.00000000	-20.78002000
18.49999908	0.00000000	-20.78002000
18.69999907	0.00000000	-20.78002000
18.89999905	0.00000000	-20.78002000
19.09999904	0.00000000	-20.78002000
19.29999903	0.00000000	-20.78002000
19.49999902	0.00000000	-20.78002000
19.69999901	0.00000000	-20.78002000
19.89999900	0.00000000	-20.78002000
20.09999898	0.00000000	-20.78002000
20.29999897	0.00000000	-20.78002000
20.49999896	0.00000000	-20.78002000
20.69999895	0.00000000	-20.78002000
20.89999894	0.00000000	-20.78002000
21.09999892	0.00000000	-20.78002000
21.29999891	0.00000000	-20.78002000
21.49999890	0.00000000	-20.78002000
21.69999889	0.00000000	-20.78002000
21.89999888	0.00000000	-20.78002000
22.09999886	0.00000000	-20.78002000
22.29999885	0.00000000	-20.78002000
22.49999884	0.00000000	-20.82923000
22.69999883	0.00000000	-21.24139000
22.89999882	0.00000000	-22.04724000
23.09999881	0.00000000	-22.45940000
23.29999879	0.00000000	-22.50861000
23.49999878	0.00000000	-22.50861000
23.69999877	0.00000000	-22.50861000
23.89999876	0.00000000	-22.50861000
24.09999875	0.00000000	-22.45940000
24.29999873	0.00000000	-21.99803000
24.49999872	0.00000000	-20.73080000
24.69999871	0.00000000	-19.09449000
24.89999870	0.00000000	-17.82726000
25.09999869	0.00000000	-17.41511000
25.29999867	0.00000000	-17.82726000
25.49999866	0.00000000	-19.14370000
25.69999865	0.00000000	-21.29060000
25.89999864	0.00000000	-24.24335000
26.09999863	0.00000000	-27.19611000
26.29999862	0.00000000	-29.28765000
26.49999860	0.00000000	-30.09965000
26.69999859	0.00000000	-28.77707000
26.89999858	0.00000000	-25.31373000
27.09999857	0.00000000	-19.80807000
27.29999856	0.00000000	-13.04134000
27.49999854	0.00000000	-7.17273600
27.69999853	0.00000000	-3.40182100
27.89999852	0.00000000	-3.50024600
28.09999851	0.00000000	-8.13853400
28.29999850	0.00000000	-16.24016000
28.49999848	0.00000000	-26.48253000
28.69999847	0.00000000	-37.43848000
28.89999846	0.00000000	-46.20448000
29.09999845	0.00000000	-49.52017000
29.29999844	0.00000000	-46.10605000
29.49999843	0.00000000	-36.32505000
29.69999841	0.00000000	-21.85039000
29.89999840	0.00000000	-5.33956700
30.09999839	0.00000000	9.78715500
30.29999838	0.00000000	18.96531000
30.49999837	0.00000000	18.91609000
30.69999835	0.00000000	9.17814900
30.89999834	0.00000000	-8.18774500
31.09999833	0.00000000	-29.38607000
31.29999832	0.00000000	-50.12918000
31.49999831	0.00000000	-65.72342000
31.69999829	0.00000000	-71.99188000
31.89999828	0.00000000	-66.84916000
32.09999827	0.00000000	-50.74434000
32.29999826	0.00000000	-27.04847000
32.49999825	0.00000000	-1.21186000
32.69999824	0.00000000	21.15526000
32.89999822	0.00000000	34.65797000
33.09999821	0.00000000	35.48228000
33.29999820	0.00000000	23.60359000
33.49999819	0.00000000	1.13189000
33.69999818	0.00000000	-27.14690000
33.89999816	0.00000000	-54.25689000
34.09999815	0.00000000	-74.13878000
34.29999814	0.00000000	-82.54182000
34.49999813	0.00000000	-76.63017000
34.69999812	0.00000000	-58.08316000
34.89999810	0.00000000	-31.83440000
35.09999809	0.00000000	-3.45103300
35.29999808	0.00000000	20.65084000
35.49999807	0.00000000	35.02091000
35.69999806	0.00000000	36.28814000
35.89999805	0.00000000	24.11417000
36.09999803	0.00000000	2.15305100
36.29999802	0.00000000	-24.09572000
36.49999801	0.00000000	-49.10802000
36.69999800	0.00000000	-67.26131000
36.89999799	0.00000000	-74.44020000
37.09999797	0.00000000	-68.57775000
37.29999796	0.00000000	-51.75935000
37.49999795	0.00000000	-29.02928000
37.69999794	0.00000000	-6.10851300
37.89999793	0.00000000	11.68799000
38.09999791	0.00000000	21.40748000
38.29999790	0.00000000	20.14025000
38.49999789	0.00000000	8.42150500
38.69999788	0.00000000	-9.62721400
38.89999787	0.00000000	-29.03543000
39.09999786	0.00000000	-44.27903000
39.29999784	0.00000000	-52.42372000
39.49999783	0.00000000	-52.47293000
39.69999782	0.00000000	-44.98031000
39.89999781	0.00000000	-32.75098000
40.09999780	0.00000000	-19.24212000
40.29999778	0.00000000	-7.47416300
40.49999777	0.00000000	-1.10728300
40.69999776	0.00000000	-1.35949800
40.89999775	0.00000000	-6.36072800
41.09999774	0.00000000	-14.36393000
41.29999772	0.00000000	-23.17913000
41.49999771	0.00000000	-29.95817000
41.69999770	0.00000000	-33.37229000
41.89999769	0.00000000	-32.96014000
42.09999768	0.00000000	-28.82628000
42.29999767	0.00000000	-23.06841000
42.49999765	0.00000000	-18.38090000
42.69999764	0.00000000	-15.77879000
42.89999763	0.00000000	-14.96678000
43.09999762	0.00000000	-16.55389000
43.29999761	0.00000000	-19.40207000
43.49999759	0.00000000	-21.14296000
43.69999758	0.00000000	-22.45940000
43.89999757	0.00000000	-23.22219000
44.09999756	0.00000000	-22.41018000
44.29999755	0.00000000	-20.82923000
44.49999753	0.00000000	-19.60507000
44.69999752	0.00000000	-19.60507000
44.89999751	0.00000000	-20.82923000
45.09999750	0.00000000	-22.50861000
45.29999749	0.00000000	-24.19414000
45.49999748	0.00000000	-25.41215000
45.69999746	0.00000000	-25.36294000
45.89999745	0.00000000	-23.68356000
46.09999744	0.00000000	-20.73080000
46.29999743	0.00000000	-17.41511000
46.49999742	0.00000000	-14.86836000
46.69999740	0.00000000	-14.05020000
46.89999739	0.00000000	-14.86836000
47.09999738	0.00000000	-17.46432000
47.29999737	0.00000000	-21.24139000
47.49999736	0.00000000	-25.46137000
47.69999734	0.00000000	-28.82628000
47.89999733	0.00000000	-30.51181000
48.09999732	0.00000000	-30.10580000
48.29999731	0.00000000	-27.60827000
48.49999730	0.00000000	-24.24335000
48.69999729	0.00000000	-20.82923000
48.89999727	0.00000000	-17.87647000
49.09999726	0.00000000	-16.14173000
49.29999725	0.00000000	-15.68036000
49.49999724	0.00000000	-16.14173000
49.69999723	0.00000000	-17.82726000
49.89999721	0.00000000	-20.36786000
50.09999720	0.00000000	-22.87155000
50.29999719	0.00000000	-25.05536000
50.49999718	0.00000000	-26.33489000
50.69999717	0.00000000	-27.24532000
50.89999715	0.00000000	-27.60827000
51.09999714	0.00000000	-27.19611000
51.29999713	0.00000000	-25.87352000
51.49999712	0.00000000	-23.78199000
51.69999711	0.00000000	-21.24139000
51.89999710	0.00000000	-19.09449000
52.09999708	0.00000000	-17.36589000
52.29999707	0.00000000	-16.14173000
52.49999706	0.00000000	-16.19094000
52.69999705	0.00000000	-17.82726000
52.89999704	0.00000000	-20.41708000
53.09999702	0.00000000	-23.33292000
53.29999701	0.00000000	-26.32874000
53.49999700	0.00000000	-28.02042000
53.69999699	0.00000000	-28.87549000
53.89999698	0.00000000	-28.37106000
54.09999696	0.00000000	-25.87352000
54.29999695	0.00000000	-22.50861000
54.49999694	0.00000000	-19.09449000
54.69999693	0.00000000	-16.14173000
54.89999692	0.00000000	-14.51156000
55.09999691	0.00000000	-14.91757000
55.29999689	0.00000000	-17.41511000
55.49999688	0.00000000	-20.73080000
55.69999687	0.00000000	-23.73277000
55.89999686	0.00000000	-25.87352000
56.09999685	0.00000000	-27.14690000
56.29999683	0.00000000	-27.09768000
56.49999682	0.00000000	-25.41215000
56.69999681	0.00000000	-22.45940000
56.89999680	0.00000000	-19.09449000
57.09999679	0.00000000	-16.19094000
57.29999677	0.00000000	-14.91757000
57.49999676	0.00000000	-15.72958000
57.69999675	0.00000000	-17.82726000
57.89999674	0.00000000	-20.82923000
58.09999673	0.00000000	-24.19414000
58.29999672	0.00000000	-27.14690000
58.49999670	0.00000000	-28.77707000
58.69999669	0.00000000	-28.37106000
58.89999668	0.00000000	-25.87352000
59.09999667	0.00000000	-22.50861000
59.29999666	0.00000000	-19.09449000
59.49999664	0.00000000	-16.14173000
59.69999663	0.00000000	-14.51156000
59.89999662	0.00000000	-14.91757000
60.09999661	0.00000000	-17.46432000
60.29999660	0.00000000	-21.24139000
60.49999658	0.00000000	-25.46137000
60.69999657	0.00000000	-28.77707000
60.89999656	0.00000000	-30.09965000
61.09999655	0.00000000	-29.28765000
61.29999654	0.00000000	-27.19611000
61.49999653	0.00000000	-24.14493000
61.69999651	0.00000000	-20.36786000
61.89999650	0.00000000	-16.60310000
62.09999649	0.00000000	-14.51156000
62.29999648	0.00000000	-14.46235000
62.49999647	0.00000000	-16.14173000
62.69999645	0.00000000	-19.04527000
62.89999644	0.00000000	-22.04724000
63.09999643	0.00000000	-24.60630000
63.29999642	0.00000000	-26.74089000
63.49999641	0.00000000	-27.60827000
63.69999639	0.00000000	-27.65748000
63.89999638	0.00000000	-27.19611000
64.09999637	0.00000000	-25.87352000
64.29999636	0.00000000	-23.78199000
64.49999635	0.00000000	-21.24139000
64.69999634	0.00000000	-19.14370000
64.89999632	0.00000000	-17.77805000
65.09999631	0.00000000	-16.95374000
65.29999630	0.00000000	-16.55389000
65.49999629	0.00000000	-17.41511000
65.69999628	0.00000000	-19.09449000
65.89999626	0.00000000	-21.29060000
66.09999625	0.00000000	-24.29257000
66.29999624	0.00000000	-27.60827000
66.49999623	0.00000000	-30.15502000
66.69999622	0.00000000	-31.02239000
66.89999620	0.00000000	-30.56102000
67.09999619	0.00000000	-28.37106000
67.29999618	0.00000000	-24.19414000
67.49999617	0.00000000	-19.55585000
67.69999616	0.00000000	-15.68036000
67.89999615	0.00000000	-12.77682000
68.09999613	0.00000000	-11.91560000
68.29999612	0.00000000	-13.63804000
68.49999611	0.00000000	-17.00910000
68.69999610	0.00000000	-22.14567000
68.89999609	0.00000000	-27.60827000
69.09999607	0.00000000	-32.24040000
69.29999606	0.00000000	-34.78716000
69.49999605	0.00000000	-34.38730000
69.69999604	0.00000000	-31.83440000
69.89999603	0.00000000	-27.14690000
70.09999601	0.00000000	-21.29060000
70.29999600	0.00000000	-16.14173000
70.49999599	0.00000000	-12.26624000
70.69999598	0.00000000	-9.81791200
70.89999597	0.00000000	-10.27928000
71.09999596	0.00000000	-14.00098000
71.29999594	0.00000000	-19.04527000
71.49999593	0.00000000	-24.19414000
71.69999592	0.00000000	-28.87549000
71.89999591	0.00000000	-32.24040000
72.09999590	0.00000000	-33.51378000
72.29999588	0.00000000	-32.24040000
72.49999587	0.00000000	-28.87549000
72.69999586	0.00000000	-24.19414000
72.89999585	0.00000000	-19.14370000
73.09999584	0.00000000	-14.91757000
73.29999582	0.00000000	-12.77682000
73.49999581	0.00000000	-12.77682000
73.69999580	0.00000000	-14.86836000
73.89999579	0.00000000	-18.68233000
74.09999578	0.00000000	-22.92076000
74.29999577	0.00000000	-27.14690000
74.49999575	0.00000000	-30.10580000
74.69999574	0.00000000	-30.97318000
74.89999573	0.00000000	-30.10580000
75.09999572	0.00000000	-27.09768000
75.29999571	0.00000000	-22.50861000
75.49999569	0.00000000	-17.87647000
75.69999568	0.00000000	-14.46235000
75.89999567	0.00000000	-12.77682000
76.09999566	0.00000000	-13.23204000
76.29999565	0.00000000	-16.19094000
76.49999563	0.00000000	-20.82923000
76.69999562	0.00000000	-25.87352000
76.89999561	0.00000000	-30.09965000
77.09999560	0.00000000	-32.19119000
77.29999559	0.00000000	-31.78518000
77.49999558	0.00000000	-28.82628000
77.69999556	0.00000000	-24.14493000
77.89999555	0.00000000	-18.68233000
78.09999554	0.00000000	-13.64419000
78.29999553	0.00000000	-11.14665000
78.49999552	0.00000000	-11.50344000
78.69999550	0.00000000	-14.51156000
78.89999549	0.00000000	-19.60507000
79.09999548	0.00000000	-25.92274000
79.29999547	0.00000000	-31.83440000
79.49999546	0.00000000	-35.60531000
79.69999544	0.00000000	-36.47268000
79.89999543	0.00000000	-33.92593000
80.09999542	0.00000000	-28.87549000
80.29999541	0.00000000	-22.50861000
80.49999540	0.00000000	-16.14173000
80.69999539	0.00000000	-11.09744000
80.89999537	0.00000000	-8.55068800
81.09999536	0.00000000	-9.41190900
81.29999535	0.00000000	-13.18282000
81.49999534	0.00000000	-19.14370000
81.69999533	0.00000000	-25.87352000
81.89999531	0.00000000	-31.83440000
82.09999530	0.00000000	-35.70374000
82.29999529	0.00000000	-37.38927000
82.49999528	0.00000000	-36.47268000
82.69999527	0.00000000	-32.19119000
82.89999525	0.00000000	-25.51058000
83.09999524	0.00000000	-18.33169000
83.29999523	0.00000000	-12.82603000
83.49999522	0.00000000	-9.76870100
83.69999521	0.00000000	-9.36269600
83.89999520	0.00000000	-11.45423000
84.09999518	0.00000000	-15.72958000
84.29999517	0.00000000	-21.24139000
84.49999516	0.00000000	-27.19611000
84.69999515	0.00000000	-32.28962000
84.89999514	0.00000000	-35.70374000
85.09999512	0.00000000	-36.92790000
85.29999511	0.00000000	-35.19931000
85.49999510	0.00000000	-30.61023000
85.69999509	0.00000000	-24.65551000
85.89999508	0.00000000	-18.68233000
86.09999506	0.00000000	-13.18282000
86.29999505	0.00000000	-9.81791200
86.49999504	0.00000000	-9.31348400
86.69999503	0.00000000	-11.04823000
86.89999502	0.00000000	-14.91757000
87.09999501	0.00000000	-20.82923000
87.29999499	0.00000000	-27.14690000
87.49999498	0.00000000	-32.28962000
87.69999497	0.00000000	-35.70374000
87.89999496	-0.17531990	-36.92790000
88.09999495	0.00000000	-35.19931000
88.29999493	0.00000000	-30.56102000
88.49999492	0.00000000	-24.24335000
88.69999491	0.00000000	-17.87647000
88.89999490	0.00000000	-12.77682000
89.09999489	0.00000000	-9.76870100
89.29999487	0.00000000	-9.36269600
89.49999486	0.00000000	-11.50344000
89.69999485	0.00000000	-16.14173000
89.89999484	0.00000000	-22.04724000
90.09999483	0.00000000	-27.55905000
90.29999482	0.00000000	-31.83440000
90.49999480	0.00000000	-33.92593000
90.69999479	0.00000000	-33.56914000
90.89999478	0.00000000	-31.02239000
91.09999477	0.00000000	-27.24532000
91.29999476	0.00000000	-22.96998000
91.49999474	0.00000000	-19.14370000
91.69999473	0.00000000	-16.14173000
91.89999472	0.00000000	-14.51156000
92.09999471	0.00000000	-14.86836000
92.29999470	0.00000000	-17.00295000
92.49999468	0.00000000	-19.91880000
92.69999467	0.00000000	-23.32062000
92.89999466	0.00000000	-25.87352000
93.09999465	0.00000000	-27.60827000
93.29999464	0.00000000	-28.46949000
93.49999463	0.00000000	-28.02042000
93.69999461	0.00000000	-26.79011000
93.89999460	0.00000000	-24.65551000
94.09999459	0.00000000	-22.60704000
94.29999458	0.00000000	-21.29060000
94.49999457	0.00000000	-20.82923000
94.69999455	0.00000000	-20.78002000
94.89999454	0.00000000	-20.82923000
95.09999453	0.00000000	-21.24139000
95.29999452	0.00000000	-22.09646000
95.49999451	0.00000000	-22.92076000
95.69999449	0.00000000	-23.83120000
95.89999448	0.00000000	-24.65551000
96.09999447	0.00000000	-25.51058000
96.29999446	0.00000000	-25.92274000
96.49999445	0.00000000	-25.92274000
96.69999444	0.00000000	-25.51058000
96.89999442	0.00000000	-24.70472000
97.09999441	0.00000000	-24.24335000
97.29999440	0.00000000	-23.78199000
97.49999439	0.00000000	-22.92076000
97.69999438	0.00000000	-22.14567000
97.89999436	0.00000000	-21.64739000
98.09999435	0.00000000	-21.69045000
98.29999434	0.00000000	-21.64739000
98.49999433	0.00000000	-22.14567000
98.69999432	0.00000000	-22.92076000
98.89999430	0.00000000	-23.83120000
99.09999429	0.00000000	-24.65551000
99.29999428	0.00000000	-25.51058000
99.49999427	0.00000000	-25.92274000
99.69999426	0.00000000	-25.92274000
99.89999425	0.00000000	-25.51058000
100.09999423	0.00000000	-24.65551000
100.29999422	0.00000000	-23.78199000
100.49999421	0.00000000	-22.50861000
100.69999420	0.00000000	-21.29060000
100.89999419	0.00000000	-20.82923000
101.09999417	0.00000000	-20.82923000
101.29999416	0.00000000	-21.29060000
101.49999415	0.00000000	-22.50861000
101.69999414	0.00000000	-23.78199000
101.89999413	0.00000000	-24.65551000
102.09999411	0.00000000	-25.51058000
102.29999410	0.00000000	-25.87352000
102.49999409	0.00000000	-25.51058000
102.69999408	0.00000000	-24.65551000
102.89999407	0.00000000	-23.78199000
103.09999406	0.00000000	-22.50861000
103.29999404	0.00000000	-21.29060000
103.49999403	0.00000000	-20.82923000
103.69999402	0.00000000	-20.82923000
103.89999401	0.00000000	-21.24139000
104.09999400	0.00000000	-22.09646000
104.29999398	0.00000000	-22.92076000
104.49999397	0.00000000	-23.78199000
104.69999396	0.00000000	-24.24335000
104.89999395	0.00000000	-24.65551000
105.09999394	0.00000000	-25.05536000
105.29999392	0.00000000	-24.60630000
105.49999391	0.00000000	-23.78199000
105.69999390	0.00000000	-22.50861000
105.89999389	0.00000000	-21.29060000
106.09999388	0.00000000	-20.82923000
106.29999387	0.00000000	-20.82923000
106.49999385	0.00000000	-21.29060000
106.69999384	0.00000000	-22.55782000
106.89999383	0.00000000	-24.19414000
107.09999382	0.00000000	-25.46137000
107.29999381	0.00000000	-25.92274000
107.49999379	0.00000000	-25.92274000
107.69999378	0.00000000	-25.51058000
107.89999377	0.00000000	-24.65551000
108.09999376	0.00000000	-23.78199000
108.29999375	0.00000000	-22.50861000
108.49999374	0.00000000	-21.29060000
108.69999372	0.00000000	-20.82923000
108.89999371	0.00000000	-20.82923000
109.09999370	0.00000000	-21.29060000
109.29999369	0.00000000	-22.55782000
109.49999368	0.00000000	-24.24335000
109.69999366	0.00000000	-25.92274000
109.89999365	0.00000000	-27.19611000
110.09999364	0.00000000	-27.60827000
110.29999363	0.00000000	-27.19611000
110.49999362	0.00000000	-25.92274000
110.69999360	0.00000000	-24.24335000
110.89999359	0.00000000	-22.50861000
111.09999358	0.00000000	-20.82923000
111.29999357	0.00000000	-19.60507000
111.49999356	0.00000000	-19.60507000
111.69999355	0.00000000	-20.82923000
111.89999353	0.00000000	-22.55782000
112.09999352	0.00000000	-24.65551000
112.29999351	0.00000000	-26.74089000
112.49999350	0.00000000	-27.65748000
112.69999349	0.00000000	-28.11885000
112.89999347	0.00000000	-28.42027000
113.09999346	0.00000000	-27.14690000
113.29999345	0.00000000	-24.70472000
113.49999344	0.00000000	-22.50861000
113.69999343	0.00000000	-20.41708000
113.89999341	0.00000000	-18.74385000
114.09999340	0.00000000	-18.78076000
114.29999339	0.00000000	-19.96186000
114.49999338	0.00000000	-22.14567000
114.69999337	0.00000000	-24.65551000
114.89999336	0.00000000	-27.19611000
115.09999334	0.00000000	-28.87549000
115.29999333	0.00000000	-29.28765000
115.49999332	0.00000000	-28.46949000
115.69999331	0.00000000	-26.33489000
115.89999330	0.00000000	-23.83120000
116.09999328	0.00000000	-21.29060000
116.29999327	0.00000000	-19.60507000
116.49999326	0.00000000	-19.14370000
116.69999325	0.00000000	-19.60507000
116.89999324	0.00000000	-21.29060000
117.09999322	0.00000000	-23.78199000
117.29999321	0.00000000	-25.87352000
117.49999320	0.00000000	-27.19611000
117.69999319	0.00000000	-27.60827000
117.89999318	0.00000000	-27.19611000
118.09999317	0.00000000	-25.92274000
118.29999315	0.00000000	-24.24335000
118.49999314	0.00000000	-22.55782000
118.69999313	0.00000000	-21.29060000
118.89999312	0.00000000	-20.82923000
119.09999311	0.00000000	-20.82923000
119.29999309	0.00000000	-21.29060000
119.49999308	0.00000000	-22.50861000
119.69999307	0.00000000	-23.78199000
119.89999306	0.00000000	-24.65551000
120.09999305	0.00000000	-25.51058000
120.29999303	0.00000000	-25.87352000
120.49999302	0.00000000	-25.51058000
120.69999301	0.00000000	-24.65551000
120.89999300	0.00000000	-23.83120000
121.09999299	0.00000000	-22.96998000
121.29999298	0.00000000	-22.55782000
121.49999296	0.00000000	-22.50861000
121.69999295	0.00000000	-22.55782000
121.89999294	0.00000000	-22.96998000
122.09999293	0.00000000	-23.78199000
122.29999292	0.00000000	-24.24335000
122.49999290	0.00000000	-24.65551000
122.69999289	0.00000000	-25.05536000
122.89999288	0.00000000	-24.65551000
123.09999287	0.00000000	-24.29257000
123.29999286	0.00000000	-24.19414000
123.49999284	0.00000000	-23.78199000
123.69999283	0.00000000	-22.96998000
123.89999282	0.00000000	-22.55782000
124.09999281	0.00000000	-22.55782000
124.29999280	0.00000000	-22.96998000
124.49999279	0.00000000	-23.83120000
124.69999277	0.00000000	-24.65551000
124.89999276	0.00000000	-25.51058000
125.09999275	0.00000000	-25.92274000
125.29999274	0.00000000	-25.92274000
125.49999273	0.00000000	-25.51058000
125.69999271	0.00000000	-24.65551000
125.89999270	0.00000000	-23.83120000
126.09999269	0.00000000	-22.96998000
126.29999268	0.00000000	-22.55782000
126.49999267	0.00000000	-22.55782000
126.69999265	0.00000000	-23.01919000
126.89999264	0.00000000	-24.24335000
127.09999263	0.00000000	-25.51058000
127.29999262	0.00000000	-26.33489000
127.49999261	0.00000000	-26.78395000
127.69999260	0.00000000	-26.38410000
127.89999258	0.00000000	-25.97195000
128.09999257	0.00000000	-25.46137000
128.29999256	0.00000000	-24.24335000
128.49999255	0.00000000	-23.01919000
128.69999254	0.00000000	-22.55782000
128.89999252	0.00000000	-22.50861000
129.09999251	0.00000000	-22.55782000
129.29999250	0.00000000	-23.01919000
129.49999249	0.00000000	-24.24335000
129.69999248	0.00000000	-25.46137000
129.89999246	0.00000000	-25.92274000
130.09999245	0.00000000	-25.97195000
130.29999244	0.00000000	-25.97195000
130.49999243	0.00000000	-25.92274000
130.69999242	0.00000000	-25.46137000
130.89999241	0.00000000	-24.24335000
131.09999239	0.00000000	-23.01919000
131.29999238	0.00000000	-22.55782000
131.49999237	0.00000000	-22.55782000
131.69999236	0.00000000	-22.96998000
131.89999235	0.00000000	-23.83120000
132.09999233	0.00000000	-24.65551000
132.29999232	0.00000000	-25.51058000
132.49999231	0.00000000	-25.87352000
132.69999230	0.00000000	-25.51058000
132.89999229	0.00000000	-24.70472000
133.09999227	0.00000000	-24.24335000
133.29999226	0.00000000	-23.78199000
133.49999225	0.00000000	-23.01919000
133.69999224	0.00000000	-23.01919000
133.89999223	0.00000000	-23.83120000
134.09999222	0.00000000	-24.65551000
134.29999220	0.00000000	-25.51058000
134.49999219	0.00000000	-25.92274000
134.69999218	0.00000000	-25.92274000
134.89999217	0.00000000	-25.51058000
135.09999216	0.00000000	-24.70472000
135.29999214	0.00000000	-24.24335000
135.49999213	0.00000000	-23.78199000
135.69999212	0.00000000	-22.96998000
135.89999211	0.00000000	-22.60704000
136.09999210	0.00000000	-22.96998000
136.29999208	0.00000000	-23.83120000
136.49999207	0.00000000	-24.65551000
136.69999206	0.00000000	-25.51058000
136.89999205	0.00000000	-25.92274000
137.09999204	0.00000000	-25.97195000
137.29999203	0.00000000	-25.92274000
137.49999201	0.00000000	-25.46137000
137.69999200	0.00000000	-24.24335000
137.89999199	0.00000000	-22.96998000
138.09999198	0.00000000	-22.09646000
138.29999197	0.00000000	-21.29060000
138.49999195	0.00000000	-21.33981000
138.69999194	0.00000000	-22.50861000
138.89999193	0.00000000	-23.78199000
139.09999192	0.00000000	-24.70472000
139.29999191	0.00000000	-25.92274000
139.49999189	0.00000000	-26.78395000
139.69999188	0.00000000	-26.79626000
139.89999187	0.00000000	-26.78395000
140.09999186	0.00000000	-25.92274000
140.29999185	0.00000000	-24.70472000
140.49999184	0.00000000	-23.83120000
140.69999182	0.00000000	-22.96998000
140.89999181	0.00000000	-22.55782000
141.09999180	0.00000000	-22.55782000
141.29999179	0.00000000	-22.96998000
141.49999178	0.00000000	-23.83120000
141.69999176	0.00000000	-24.65551000
141.89999175	0.00000000	-25.55979000
142.09999174	0.00000000	-26.33489000
142.29999173	0.00000000	-26.78395000
142.49999172	0.00000000	-26.38410000
142.69999170	0.00000000	-26.02116000
142.89999169	0.00000000	-25.92274000
143.09999168	0.00000000	-25.51058000
143.29999167	0.00000000	-24.70472000
143.49999166	0.00000000	-24.29257000
143.69999165	0.00000000	-24.24335000
143.89999163	0.00000000	-24.24335000
144.09999162	0.00000000	-24.24335000
144.29999161	0.00000000	-24.24335000
144.49999160	0.00000000	-24.24335000
144.69999159	0.00000000	-24.29257000
144.89999157	0.00000000	-24.70472000
145.09999156	0.00000000	-25.51058000
145.29999155	0.00000000	-25.92274000
145.49999154	0.00000000	-25.97195000
145.69999153	0.00000000	-25.97195000
145.89999151	0.00000000	-25.97195000
146.09999150	0.00000000	-25.92274000
146.29999149	0.00000000	-25.51058000
146.49999148	0.00000000	-24.70472000
146.69999147	0.00000000	-24.29257000
146.89999146	0.00000000	-24.19414000
147.09999144	0.00000000	-23.83120000
147.29999143	0.00000000	-23.43135000
147.49999142	0.00000000	-23.83120000
147.69999141	0.00000000	-24.24335000
147.89999140	0.00000000	-24.70472000
148.09999138	0.00000000	-25.51058000
148.29999137	0.00000000	-25.97195000
148.49999136	0.00000000	-26.38410000
148.69999135	0.00000000	-26.78395000
148.89999134	0.00000000	-26.33489000
149.09999132	0.00000000	-25.55979000
149.29999131	0.00000000	-24.65551000
149.49999130	0.00000000	-23.83120000
149.69999129	0.00000000	-22.96998000
149.89999128	0.00000000	-22.60704000
150.09999127	0.00000000	-22.96998000
150.29999125	0.00000000	-23.83120000
150.49999124	0.00000000	-24.65551000
150.69999123	0.00000000	-25.51058000
150.89999122	0.00000000	-25.92274000
151.09999121	0.00000000	-25.97195000
151.29999119	0.00000000	-25.97195000
151.49999118	0.00000000	-25.92274000
151.69999117	0.00000000	-25.51058000
151.89999116	0.00000000	-24.70472000
152.09999115	0.00000000	-24.24335000
152.29999113	0.00000000	-23.83120000
152.49999112	0.00000000	-23.43135000
152.69999111	0.00000000	-23.83120000
152.89999110	0.00000000	-24.19414000
153.09999109	0.00000000	-24.29257000
153.29999108	0.00000000	-24.70472000
153.49999106	0.00000000	-25.51058000
153.69999105	0.00000000	-25.92274000
153.89999104	0.00000000	-25.97195000
154.09999103	0.00000000	-25.92274000
154.29999102	0.00000000	-25.51058000
154.49999100	0.00000000	-24.70472000
154.69999099	0.00000000	-24.29257000
154.89999098	0.00000000	-24.24335000
155.09999097	0.00000000	-24.24335000
155.29999096	0.00000000	-24.24335000
155.49999094	0.00000000	-24.24335000
155.69999093	0.00000000	-24.29257000
155.89999092	0.00000000	-24.65551000
156.09999091	0.00000000	-25.10458000
156.29999090	0.00000000	-25.11073000
156.49999089	0.00000000	-25.55979000
156.69999087	0.00000000	-25.92274000
156.89999086	0.00000000	-25.97195000
157.09999085	0.00000000	-25.92274000
157.29999084	0.00000000	-25.55979000
157.49999083	0.00000000	-25.15994000
157.69999081	0.00000000	-25.55979000
157.89999080	0.00000000	-25.87352000
158.09999079	0.00000000	-25.51058000
158.29999078	0.00000000	-24.70472000
158.49999077	0.00000000	-24.29257000
158.69999075	0.00000000	-24.24335000
158.89999074	0.00000000	-24.29257000
159.09999073	0.00000000	-24.70472000
159.29999072	0.00000000	-25.51058000
159.49999071	0.00000000	-25.92274000
159.69999070	0.00000000	-25.97195000
159.89999068	0.00000000	-25.97195000
160.09999067	0.00000000	-25.97195000
160.29999066	0.00000000	-25.97195000
160.49999065	0.00000000	-25.97195000
160.69999064	0.00000000	-25.97195000
160.89999062	0.00000000	-25.92274000
161.09999061	0.00000000	-25.51058000
161.29999060	0.00000000	-24.70472000
161.49999059	0.00000000	-24.29257000
161.69999058	0.00000000	-24.24335000
161.89999056	0.00000000	-24.24335000
162.09999055	0.00000000	-24.29257000
162.29999054	0.00000000	-24.70472000
162.49999053	0.00000000	-25.51058000
162.69999052	0.00000000	-25.92274000
162.89999051	0.00000000	-25.97195000
163.09999049	0.00000000	-25.97195000
163.29999048	0.00000000	-25.97195000
163.49999047	0.00000000	-25.97195000
163.69999046	0.00000000	-25.92274000
163.89999045	0.00000000	-25.51058000
164.09999043	0.00000000	-24.70472000
164.29999042	0.00000000	-24.29257000
164.49999041	0.00000000	-24.24335000
164.69999040	0.00000000	-24.24335000
164.89999039	0.00000000	-24.29257000
165.09999037	0.00000000	-24.70472000
165.29999036	0.00000000	-25.51058000
165.49999035	0.00000000	-25.92274000
165.69999034	0.00000000	-25.97195000
165.89999033	0.00000000	-25.97195000
166.09999032	0.00000000	-25.97195000
166.29999030	0.00000000	-25.92274000
166.49999029	0.00000000	-25.55979000
166.69999028	0.00000000	-25.11073000
166.89999027	0.00000000	-25.10458000
167.09999026	0.00000000	-24.70472000
167.29999024	0.00000000	-24.75394000
167.49999023	0.00000000	-25.51058000
167.69999022	0.00000000	-25.92274000
167.89999021	0.00000000	-25.92274000
168.09999020	0.00000000	-25.55979000
168.29999018	0.00000000	-25.15994000
168.49999017	0.00000000	-25.55979000
168.69999016	0.00000000	-25.92274000
168.89999015	0.00000000	-25.92274000
169.09999014	0.00000000	-25.55979000
169.29999013	0.00000000	-25.15994000
169.49999011	0.00000000	-25.55979000
169.69999010	0.00000000	-25.92274000
169.89999009	0.00000000	-25.97195000
170.09999008	0.00000000	-25.97195000
170.29999007	0.00000000	-26.02116000
170.49999005	0.00000000	-26.38410000
170.69999004	0.00000000	-26.78395000
170.89999003	0.00000000	-26.38410000
171.09999002	0.00000000	-26.02116000
171.29999001	0.00000000	-25.97195000
171.49998999	0.00000000	-25.97195000
171.69998998	0.00000000	-25.92274000
171.89998997	0.00000000	-25.51058000
172.09998996	0.00000000	-24.75394000
172.29998995	0.00000000	-24.75394000
172.49998994	0.00000000	-25.51058000
172.69998992	0.00000000	-25.92274000
172.89998991	0.00000000	-25.97195000
173.09998990	0.00000000	-26.02116000
173.29998989	0.00000000	-26.38410000
173.49998988	0.00000000	-26.78395000
173.69998986	0.00000000	-26.38410000
173.89998985	0.00000000	-26.02116000
174.09998984	0.00000000	-25.97195000
174.29998983	0.00000000	-25.92274000
174.49998982	0.00000000	-25.51058000
174.69998980	0.00000000	-24.75394000
174.89998979	0.00000000	-24.75394000
175.09998978	0.00000000	-25.51058000
175.29998977	0.00000000	-25.92274000
175.49998976	0.00000000	-25.97195000
175.69998975	0.00000000	-25.97195000
175.89998973	0.00000000	-26.02116000
176.09998972	0.00000000	-26.38410000
176.29998971	0.00000000	-26.78395000
176.49998970	0.00000000	-26.38410000
176.69998969	0.00000000	-26.02116000
176.89998967	0.00000000	-25.97195000
177.09998966	0.00000000	-25.97195000
177.29998965	0.00000000	-25.97195000
177.49998964	0.00000000	-25.97195000
177.69998963	0.00000000	-25.97195000
177.89998961	0.00000000	-25.97195000
178.09998960	0.00000000	-25.97195000
178.29998959	0.00000000	-25.97195000
178.49998958	0.00000000	-25.97195000
178.69998957	0.00000000	-25.97195000
178.89998956	0.00000000	-25.97195000
179.09998954	0.00000000	-25.97195000
179.29998953	0.00000000	-25.97195000
179.49998952	0.00000000	-25.97195000
179.69998951	0.00000000	-25.92274000
179.89998950	0.00000000	-25.51058000
180.09998948	0.00000000	-24.70472000
180.29998947	0.00000000	-24.34178000
180.49998946	0.00000000	-24.70472000
180.69998945	0.00000000	-25.51058000
180.89998944	0.00000000	-25.92274000
181.09998942	0.00000000	-25.97195000
181.29998941	0.00000000	-25.97195000
181.49998940	0.00000000	-25.97195000
181.69998939	0.00000000	-25.97195000
181.89998938	0.00000000	-25.97195000
182.09998937	0.00000000	-25.97195000
182.29998935	0.00000000	-25.97195000
182.49998934	0.00000000	-25.97195000
182.69998933	0.00000000	-25.97195000
182.89998932	0.00000000	-25.97195000
183.09998931	0.00000000	-25.97195000
183.29998929	0.00000000	-25.92274000
183.49998928	0.00000000	-25.55979000
183.69998927	0.00000000	-25.15994000
183.89998926	0.00000000	-25.55979000
184.09998925	0.00000000	-25.92274000
184.29998923	0.00000000	-25.97195000
184.49998922	0.00000000	-25.97195000
184.69998921	0.00000000	-25.97195000
184.89998920	0.00000000	-25.97195000
185.09998919	0.00000000	-25.97195000
185.29998918	0.00000000	-25.97195000
185.49998916	0.00000000	-25.97195000
185.69998915	0.00000000	-25.97195000
185.89998914	0.00000000	-25.97195000
186.09998913	0.00000000	-25.97195000
186.29998912	0.00000000	-25.97195000
186.49998910	0.00000000	-25.97195000
186.69998909	0.00000000	-25.92274000
186.89998908	0.00000000	-25.55979000
187.09998907	0.00000000	-25.15994000
187.29998906	0.00000000	-25.55979000
187.49998904	0.00000000	-25.92274000
187.69998903	0.00000000	-25.97195000
187.89998902	0.00000000	-26.02116000
188.09998901	0.00000000	-26.43332000
188.29998900	0.00000000	-27.19611000
188.49998899	0.00000000	-27.19611000
188.69998897	0.00000000	-26.43332000
188.89998896	0.00000000	-26.02116000
189.09998895	0.00000000	-25.97195000
189.29998894	0.00000000	-25.97195000
189.49998893	0.00000000	-25.97195000
189.69998891	0.00000000	-25.97195000
189.89998890	0.00000000	-25.97195000
190.09998889	0.00000000	-25.97195000
190.29998888	0.00000000	-26.02116000
190.49998887	0.00000000	-26.43332000
190.69998885	0.00000000	-27.24532000
190.89998884	0.00000000	-27.65748000
191.09998883	0.00000000	-27.70669000
191.29998882	0.00000000	-27.65748000
191.49998881	0.00000000	-27.24532000
191.69998880	0.00000000	-26.43332000
191.89998878	0.00000000	-26.02116000
192.09998877	0.00000000	-25.97195000
192.29998876	0.00000000	-25.97195000
192.49998875	0.00000000	-25.97195000
192.69998874	0.00000000	-25.97195000
192.89998872	0.00000000	-25.97195000
193.09998871	0.00000000	-25.97195000
193.29998870	0.00000000	-25.97195000
193.49998869	0.00000000	-26.02116000
193.69998868	0.00000000	-26.43332000
193.89998866	0.00000000	-27.19611000
194.09998865	0.00000000	-27.19611000
194.29998864	0.00000000	-26.43332000
194.49998863	0.00000000	-26.02116000
194.69998862	0.00000000	-25.97195000
194.89998861	0.00000000	-25.97195000
195.09998859	0.00000000	-25.97195000
195.29998858	0.00000000	-25.97195000
195.49998857	0.00000000	-25.97195000
195.69998856	0.00000000	-25.97195000
195.89998855	0.00000000	-25.97195000
196.09998853	0.00000000	-25.97195000
