Time	Channel A	Channel B	Channel C
(us)	(V)	(mV)	(mV)

-4.53333289	0.00000000	-63.20127000	-23.68356000
-4.33333290	0.00000000	-63.24434000	-23.68356000
-4.13333291	0.00000000	-63.24434000	-23.68356000
-3.93333293	0.00000000	-63.24434000	-23.68356000
-3.73333294	0.00000000	-63.24434000	-23.68356000
-3.53333295	0.00000000	-63.24434000	-23.68356000
-3.33333296	0.00000000	-63.24434000	-23.68356000
-3.13333297	0.00000000	-63.20127000	-23.68356000
-2.93333299	0.00000000	-62.86909000	-23.68356000
-2.73333300	0.00000000	-62.50000000	-23.68356000
-2.53333301	0.00000000	-62.82603000	-23.68356000
-2.33333302	0.00000000	-62.82603000	-23.68356000
-2.13333303	0.00000000	-62.50000000	-23.68356000
-1.93333304	0.00000000	-62.86909000	-23.68356000
-1.73333306	0.00000000	-63.20127000	-23.68356000
-1.53333307	0.00000000	-63.20127000	-23.68356000
-1.33333308	0.00000000	-62.82603000	-23.68356000
-1.13333309	0.00000000	-62.13090000	-23.68356000
-0.93333310	0.00000000	-62.13090000	-23.68356000
-0.73333312	0.00000000	-62.77681000	-23.68356000
-0.53333313	0.00000000	-62.82603000	-23.68356000
-0.33333314	0.15871060	-62.50000000	-23.68356000
-0.13333315	0.47736220	-62.86909000	-23.68356000
0.06666684	0.95533960	-63.20127000	-23.68356000
0.26666682	0.95533960	-63.20127000	-23.68356000
0.46666681	0.95533960	-62.82603000	-23.68356000
0.66666680	0.47736220	-62.13090000	-23.68356000
0.86666679	-0.31803640	-62.08169000	-23.68356000
1.06666678	-1.27399100	-62.40772000	-23.68356000
1.26666677	-2.22994600	-62.08169000	-23.68356000
1.46666675	-2.70792300	-62.08169000	-23.68356000
1.66666674	-2.54859700	-62.45079000	-23.68356000
1.86666673	-1.59264300	-62.41388000	-23.68356000
2.06666672	0.00000000	-62.45079000	-23.68356000
2.26666671	2.07062000	-62.08169000	-23.68356000
2.46666669	4.14124000	-62.13090000	-23.68356000
2.66666668	5.25652100	-62.82603000	-23.68356000
2.86666667	5.09719500	-63.20127000	-23.68356000
3.06666666	3.50393700	-63.20127000	-23.68356000
3.26666665	0.63668800	-62.86909000	-23.68356000
3.46666663	-2.86724900	-62.50000000	-23.68356000
3.66666662	-5.89382400	-62.82603000	-23.68356000
3.86666661	-7.80511800	-62.77681000	-23.68356000
4.06666660	-7.80511800	-62.08169000	-23.64050000
4.26666659	-5.73449800	-61.70644000	-23.26525000
4.46666658	-2.07062000	-61.66338000	-22.57013000
4.66666656	2.38927200	-61.66338000	-22.57013000
4.86666655	6.37180100	-61.66338000	-23.26525000
5.06666654	8.92039900	-61.70644000	-23.64050000
5.26666653	9.39837600	-62.08169000	-23.72662000
5.46666652	7.32714100	-62.82603000	-24.10187000
5.66666650	3.34522600	-63.20127000	-24.79700000
5.86666649	-1.43331700	-63.24434000	-24.79700000
6.06666648	-5.73449800	-63.20127000	-24.10187000
6.26666647	-8.76107300	-62.82603000	-23.72662000
6.46666646	-9.39837600	-62.13090000	-23.68356000
6.66666644	-7.80511800	-62.08169000	-23.68356000
6.86666643	-4.30056600	-62.40772000	-23.68356000
7.06666642	0.00000000	-62.03863000	-23.68356000
7.26666641	3.98191400	-61.70644000	-23.68356000
7.46666640	6.84916400	-61.66338000	-23.68356000
7.66666639	7.80511800	-61.70644000	-23.68356000
7.86666637	6.69045300	-62.08169000	-23.68356000
8.06666636	4.14124000	-62.77681000	-23.68356000
8.26666635	0.79601380	-62.77681000	-23.68356000
8.46666634	-2.22994600	-62.08169000	-23.68356000
8.66666633	-4.45989200	-61.70644000	-23.68356000
8.86666631	-5.25652100	-61.66338000	-23.68356000
9.06666630	-4.61921700	-61.66338000	-23.68356000
9.26666629	-3.18590100	-61.66338000	-23.68356000
9.46666628	-1.11466500	-61.66338000	-23.68356000
9.66666627	0.63668800	-61.70644000	-23.68356000
9.86666625	1.91129400	-62.08169000	-23.68356000
10.06666624	2.54859700	-62.82603000	-23.68356000
10.26666623	2.22994600	-63.15207000	-23.68356000
10.46666622	1.59264300	-62.82603000	-23.68356000
10.66666621	0.63668800	-62.08169000	-23.68356000
10.86666620	-0.15871060	-61.70644000	-23.68356000
11.06666618	-0.79601380	-61.66338000	-23.68356000
11.26666617	-0.95533960	-61.66338000	-23.68356000
11.46666616	-0.95533960	-61.66338000	-23.68356000
11.66666615	-0.79601380	-61.70644000	-23.68356000
11.86666614	-0.47736220	-62.08169000	-23.68356000
12.06666612	-0.15871060	-62.77681000	-23.68356000
12.26666611	-0.15871060	-62.77681000	-23.68356000
12.46666610	-0.15871060	-62.08169000	-23.68356000
12.66666609	0.00000000	-61.70644000	-23.68356000
12.86666608	0.00000000	-61.66338000	-23.68356000
13.06666606	0.00000000	-61.66338000	-23.68356000
13.26666605	0.00000000	-61.66338000	-23.68356000
13.46666604	0.00000000	-61.66338000	-23.68356000
13.66666603	0.00000000	-61.66338000	-23.68356000
13.86666602	0.00000000	-61.66338000	-23.68356000
14.06666601	-0.15871060	-61.70644000	-23.68356000
14.26666599	-0.15871060	-62.08169000	-23.68356000
14.46666598	-0.15871060	-62.77681000	-23.68356000
14.66666597	-0.15871060	-62.77681000	-23.68356000
14.86666596	0.00000000	-62.08169000	-23.68356000
15.06666595	0.00000000	-61.70644000	-23.68356000
15.26666593	0.00000000	-61.70644000	-23.68356000
15.46666592	0.00000000	-62.03863000	-23.68356000
15.66666591	0.00000000	-62.45079000	-23.68356000
15.86666590	0.00000000	-62.45694000	-23.68356000
16.06666589	0.00000000	-62.82603000	-23.68356000
16.26666587	-0.15871060	-62.77681000	-23.68356000
16.46666586	-0.15871060	-62.08169000	-23.68356000
16.66666585	-0.15871060	-61.70644000	-23.68356000
16.86666584	-0.15871060	-61.62032000	-23.68356000
17.06666583	0.00000000	-61.24508000	-23.68356000
17.26666582	0.00000000	-60.50073000	-23.68356000
17.46666580	0.00000000	-60.12549000	-23.68356000
17.66666579	0.00000000	-60.12549000	-23.68356000
17.86666578	0.00000000	-60.54995000	-23.68356000
18.06666577	0.00000000	-61.70644000	-23.68356000
18.26666576	0.00000000	-63.24434000	-23.68356000
18.46666574	0.00000000	-64.78223000	-23.68356000
18.66666573	-0.15871060	-65.98794000	-23.68356000
18.86666572	0.00000000	-66.73843000	-23.68356000
19.06666571	0.00000000	-67.10752000	-23.68356000
19.26666570	0.00000000	-66.22785000	-23.68356000
19.46666568	0.00000000	-63.93946000	-23.68356000
19.66666567	0.00000000	-60.41461000	-23.68356000
19.86666566	0.00000000	-56.58833000	-23.68356000
20.06666565	0.00000000	-53.10654000	-23.68356000
20.26666564	0.00000000	-51.24261000	-23.64050000
20.46666563	0.00000000	-51.61786000	-23.30832000
20.66666561	0.00000000	-54.40452000	-22.93922000
20.86666560	0.00000000	-59.52263000	-23.30832000
21.06666559	0.00000000	-66.87376000	-23.64050000
21.26666558	0.00000000	-74.92002000	-23.68356000
21.46666557	0.00000000	-81.02238000	-23.68356000
21.66666555	0.00000000	-83.29847000	-23.68356000
21.86666554	0.00000000	-80.56102000	-23.68356000
22.06666553	0.00000000	-73.16068000	-23.68356000
22.26666552	0.00000000	-62.27239000	-23.68356000
22.46666551	0.00000000	-49.52633000	-23.68356000
22.66666549	0.00000000	-38.02903000	-23.68356000
22.86666548	0.00000000	-31.13927000	-23.68356000
23.06666547	0.00000000	-31.18848000	-23.64050000
23.26666546	0.00000000	-38.58267000	-23.26525000
23.46666545	0.00000000	-52.17150000	-22.52091000
23.66666544	0.00000000	-69.61736000	-22.14567000
23.86666542	0.00000000	-87.30314000	-22.10261000
24.06666541	0.00000000	-100.75050000	-22.10261000
24.26666540	0.00000000	-105.68410000	-22.14567000
24.46666539	0.00000000	-100.65820000	-22.61319000
24.66666538	0.00000000	-86.28198000	-24.14493000
24.86666536	0.00000000	-65.43430000	-26.42101000
25.06666535	0.00000000	-42.63656000	-28.28494000
25.26666534	0.00000000	-23.36983000	-29.11540000
25.46666533	0.00000000	-12.20472000	-28.70325000
25.66666532	0.00000000	-12.25394000	-27.54060000
25.86666530	-0.15871060	-23.83735000	-25.12918000
26.06666529	0.00000000	-44.35285000	-21.68430000
26.26666528	0.00000000	-69.43897000	-17.78420000
26.46666527	0.00000000	-93.35014000	-14.34547000
26.66666526	0.00000000	-109.96550000	-12.06939000
26.86666525	0.00000000	-115.77880000	-12.15551000
27.06666523	0.00000000	-109.54110000	-15.27436000
27.26666522	0.00000000	-92.18749000	-21.08145000
27.46666521	0.00000000	-67.94415000	-28.42027000
27.66666520	0.00000000	-43.19635000	-35.75910000
27.86666519	0.00000000	-23.41904000	-41.52312000
28.06666517	0.00000000	-12.20472000	-44.17446000
28.26666516	0.00000000	-12.25394000	-42.55044000
28.46666515	0.00000000	-23.74508000	-36.32505000
28.66666514	0.00000000	-43.38090000	-26.24262000
28.86666513	0.00000000	-65.80955000	-14.29626000
29.06666511	0.00000000	-86.37425000	-3.10654500
29.26666510	0.00000000	-101.03350000	4.52140800
29.46666509	0.00000000	-106.52070000	6.41609200
29.66666508	0.00000000	-101.96230000	1.35949800
29.86666507	0.00000000	-89.62844000	-9.41806000
30.06666506	0.00000000	-72.22563000	-23.81890000
30.26666504	0.00000000	-53.66018000	-39.20398000
30.46666503	0.00000000	-38.16437000	-52.30069000
30.66666502	0.00000000	-28.44488000	-59.23351000
30.86666501	0.00000000	-26.48868000	-58.85826000
31.06666500	0.00000000	-32.21579000	-51.05191000
31.26666498	0.00000000	-43.75615000	-36.74335000
31.46666497	0.00000000	-58.08316000	-19.03912000
31.66666496	0.00000000	-71.99802000	-2.03617100
31.86666495	0.00000000	-82.88017000	10.32234000
32.06666494	0.00000000	-88.33046000	15.80339000
32.26666492	0.00000000	-87.99828000	13.43504000
32.46666491	0.00000000	-82.18504000	3.77091500
32.66666490	0.00000000	-72.18258000	-11.74336000
32.86666489	0.00000000	-60.63607000	-29.82283000
33.06666488	0.00000000	-50.54749000	-46.45054000
33.26666487	0.00000000	-43.93454000	-57.65256000
33.46666485	0.00000000	-41.56618000	-61.59571000
33.66666484	0.00000000	-43.89148000	-57.69562000
33.86666483	0.00000000	-49.98769000	-46.91191000
34.06666482	0.00000000	-58.12622000	-31.44069000
34.26666481	0.00000000	-66.22785000	-14.85605000
34.46666479	0.00000000	-72.78542000	-0.54749010
34.66666478	0.00000000	-75.86122000	8.37229300
34.86666477	0.00000000	-74.79084000	10.32234000
35.06666476	0.00000000	-70.60162000	5.30265700
35.26666475	0.00000000	-64.78223000	-5.89320800
35.46666473	0.00000000	-58.63681000	-20.52780000
35.66666472	0.00000000	-53.61712000	-35.16240000
35.86666471	0.00000000	-51.32874000	-46.35826000
36.06666470	0.00000000	-52.07923000	-51.37795000
36.26666469	0.00000000	-55.89320000	-49.51402000
36.46666468	0.00000000	-61.24508000	-41.43085000
36.66666466	0.00000000	-66.22785000	-29.58292000
36.86666465	0.00000000	-69.71580000	-17.22441000
37.06666464	0.00000000	-70.50935000	-7.59719500
37.26666463	0.00000000	-69.02066000	-2.58981300
37.46666462	0.00000000	-65.89567000	-3.74630900
37.66666460	0.00000000	-61.62032000	-10.53765000
37.86666459	0.00000000	-57.01279000	-20.10950000
38.06666458	0.00000000	-53.19881000	-29.35531000
38.26666457	0.00000000	-51.66092000	-36.27584000
38.46666456	0.00000000	-52.77436000	-38.92716000
38.66666454	0.00000000	-55.85014000	-36.27584000
38.86666453	0.00000000	-60.08243000	-29.35531000
39.06666452	0.00000000	-64.36392000	-20.19562000
39.26666451	0.00000000	-67.85802000	-11.41732000
39.46666450	0.00000000	-70.22637000	-6.48991100
39.66666449	0.00000000	-70.97687000	-6.81594400
39.86666447	-0.15871060	-70.18331000	-12.20472000
40.06666446	0.00000000	-67.48277000	-20.98917000
40.26666445	0.00000000	-63.61958000	-30.60408000
40.46666444	0.00000000	-59.75024000	-38.27509000
40.66666443	0.00000000	-56.22539000	-42.13213000
40.86666441	0.00000000	-53.89394000	-40.92643000
41.06666440	0.00000000	-52.68823000	-34.78716000
41.26666439	0.00000000	-52.73130000	-25.21530000
41.46666438	-0.15871060	-54.31225000	-15.22515000
41.66666437	0.00000000	-57.38804000	-7.55413300
41.86666435	0.00000000	-61.24508000	-4.07849400
42.06666434	0.00000000	-64.73917000	-5.97933100
42.26666433	-0.15871060	-67.48277000	-12.02633000
42.46666432	0.00000000	-69.02066000	-20.15256000
42.66666431	0.00000000	-69.06373000	-28.28494000
42.86666430	0.00000000	-67.90108000	-35.20546000
43.06666428	0.00000000	-65.94488000	-39.01944000
43.26666427	0.00000000	-63.24434000	-38.32431000
43.46666426	0.00000000	-60.54995000	-34.14124000
43.66666425	0.00000000	-58.59375000	-28.00197000
43.86666424	0.00000000	-57.43110000	-21.45669000
44.06666422	0.00000000	-57.38804000	-16.43085000
44.26666421	0.00000000	-58.08316000	-13.64419000
44.46666420	0.00000000	-58.45841000	-13.27510000
44.66666419	0.00000000	-58.50147000	-15.13902000
44.86666418	0.00000000	-58.50147000	-18.61466000
45.06666416	0.00000000	-58.54454000	-22.47785000
45.26666415	0.00000000	-59.01205000	-26.32874000
45.46666414	0.00000000	-60.54995000	-29.02928000
45.66666413	0.00000000	-62.91216000	-29.82283000
45.86666412	0.00000000	-65.61884000	-29.11540000
46.06666411	0.00000000	-68.73154000	-27.17150000
46.26666409	0.00000000	-70.97687000	-24.84621000
46.46666408	0.00000000	-71.71505000	-22.10261000
46.66666407	0.00000000	-70.09104000	-19.45743000
46.86666406	0.00000000	-65.85260000	-17.91953000
47.06666405	0.00000000	-60.03937000	-17.87647000
47.26666403	0.00000000	-53.85088000	-19.03912000
47.46666402	0.00000000	-48.45595000	-20.94611000
47.66666401	0.00000000	-45.42937000	-23.30832000
47.86666400	0.00000000	-45.84769000	-25.59055000
48.06666399	0.00000000	-50.12303000	-27.54060000
48.26666397	0.00000000	-57.47416000	-28.28494000
48.46666396	0.00000000	-66.36318000	-27.90969000
48.66666395	0.00000000	-74.78469000	-26.32874000
48.86666394	0.00000000	-80.18578000	-23.64050000
49.06666393	0.00000000	-80.97932000	-20.57087000
49.26666392	0.00000000	-77.48523000	-17.87647000
49.46666390	0.00000000	-70.09104000	-16.33858000
49.66666389	0.00000000	-60.08243000	-16.33858000
49.86666388	0.00000000	-50.12303000	-17.87647000
50.06666387	0.00000000	-43.19635000	-20.61393000
50.26666386	0.00000000	-41.19094000	-24.10187000
50.46666384	0.00000000	-43.89148000	-27.90969000
50.66666383	0.00000000	-50.49828000	-30.60408000
50.86666382	0.00000000	-60.08243000	-31.39763000
51.06666381	0.00000000	-69.67273000	-30.60408000
51.26666380	0.00000000	-76.27953000	-27.90969000
51.46666379	0.00000000	-78.98006000	-24.05881000
51.66666377	0.00000000	-77.02386000	-20.19562000
51.86666376	0.00000000	-70.50935000	-16.71383000
52.06666375	0.00000000	-61.75566000	-14.80684000
52.26666374	0.00000000	-53.61712000	-14.80684000
52.46666373	0.00000000	-48.21604000	-16.76304000
52.66666371	0.00000000	-46.26599000	-20.57087000
52.86666370	0.00000000	-48.63435000	-24.75394000
53.06666369	0.00000000	-54.68750000	-27.86663000
53.26666368	0.00000000	-62.40772000	-29.44759000
53.46666367	0.00000000	-69.26057000	-29.44759000
53.66666365	0.00000000	-73.57283000	-27.90969000
53.86666364	0.00000000	-73.96038000	-25.26452000
54.06666363	0.00000000	-71.29675000	-22.57013000
54.26666362	0.00000000	-65.85260000	-20.61393000
54.46666361	0.00000000	-59.01205000	-19.45743000
54.66666360	0.00000000	-53.24187000	-19.45743000
54.86666358	0.00000000	-50.17224000	-20.61393000
55.06666357	0.00000000	-50.49828000	-22.47785000
55.26666356	0.00000000	-53.93700000	-24.37869000
55.46666355	0.00000000	-58.96899000	-25.12918000
55.66666354	0.00000000	-64.73917000	-24.79700000
55.86666352	0.00000000	-69.67273000	-23.59129000
56.06666351	0.00000000	-71.62893000	-21.72736000
56.26666350	0.00000000	-70.50935000	-19.82652000
56.46666349	0.00000000	-67.06447000	-19.12524000
56.66666348	0.00000000	-62.03863000	-19.87574000
56.86666346	0.00000000	-57.05585000	-22.23794000
57.06666345	0.00000000	-53.19881000	-25.63976000
57.26666344	0.00000000	-51.66092000	-29.07234000
57.46666343	0.00000000	-52.77436000	-30.97933000
57.66666342	0.00000000	-55.85014000	-30.97933000
57.86666341	0.00000000	-60.03937000	-28.98007000
58.06666339	0.00000000	-63.93946000	-24.75394000
58.26666338	0.00000000	-66.64616000	-19.41437000
58.46666337	0.00000000	-68.17789000	-14.80684000
58.66666336	0.00000000	-67.39050000	-12.06939000
58.86666335	0.00000000	-64.78223000	-11.73720000
59.06666333	0.00000000	-61.70644000	-14.11171000
59.26666332	0.00000000	-59.01205000	-19.50049000
59.46666331	0.00000000	-57.43110000	-26.37795000
59.66666330	0.00000000	-57.01279000	-32.51107000
59.86666329	0.00000000	-57.43110000	-36.36811000
60.06666327	0.00000000	-58.96899000	-36.74335000
60.26666326	0.00000000	-61.19586000	-33.71678000
60.46666325	0.00000000	-62.73376000	-28.24188000
60.66666324	0.00000000	-63.20127000	-21.30905000
60.86666323	0.00000000	-63.20127000	-14.01944000
61.06666322	0.00000000	-62.77681000	-9.04281500
61.26666320	0.00000000	-61.62032000	-7.46801100
61.46666319	0.00000000	-60.12549000	-9.41806000
61.66666318	0.00000000	-58.96899000	-14.84990000
61.86666317	0.00000000	-58.59375000	-22.52091000
62.06666316	0.00000000	-58.96899000	-30.60408000
62.26666314	0.00000000	-60.12549000	-36.74335000
62.46666313	0.00000000	-61.66338000	-39.48080000
62.66666312	0.00000000	-63.20127000	-38.32431000
62.86666311	0.00000000	-64.31471000	-33.71678000
63.06666310	0.00000000	-64.31471000	-26.75320000
63.26666308	0.00000000	-63.15207000	-19.08218000
63.46666307	0.00000000	-61.24508000	-12.48770000
63.66666306	0.00000000	-58.96899000	-8.62450800
63.86666305	0.00000000	-57.43110000	-7.83710600
64.06666304	0.00000000	-57.01279000	-10.58071000
64.26666303	0.00000000	-57.38804000	-16.29552000
64.46666301	0.00000000	-58.59375000	-23.21604000
64.66666300	0.00000000	-60.50073000	-29.40452000
64.86666299	0.00000000	-62.77681000	-33.71678000
65.06666298	0.00000000	-64.31471000	-35.67298000
65.26666297	0.00000000	-64.68996000	-35.29773000
65.46666295	0.00000000	-63.93946000	-32.60334000
65.66666294	0.00000000	-62.03863000	-28.37721000
65.86666293	0.00000000	-60.17470000	-23.72662000
66.06666292	0.00000000	-58.96899000	-19.45743000
66.26666291	0.00000000	-58.59375000	-16.33858000
66.46666289	0.00000000	-58.96899000	-14.72072000
66.66666288	0.00000000	-60.12549000	-14.30241000
66.86666287	0.00000000	-61.62032000	-14.72072000
67.06666286	0.00000000	-62.77681000	-16.29552000
67.26666285	0.00000000	-63.15207000	-18.98991000
67.46666284	0.00000000	-62.73376000	-22.10261000
67.66666282	0.00000000	-61.19586000	-25.26452000
67.86666281	0.00000000	-58.91978000	-28.37721000
68.06666280	0.00000000	-57.01279000	-31.06545000
68.26666279	0.00000000	-55.85014000	-32.56028000
68.46666278	0.00000000	-55.89320000	-32.22810000
68.66666276	0.00000000	-57.47416000	-30.24114000
68.86666275	0.00000000	-60.54995000	-27.11614000
69.06666274	0.00000000	-64.40699000	-22.43479000
69.26666273	0.00000000	-67.85802000	-17.50123000
69.46666272	0.00000000	-70.18331000	-13.60113000
69.66666270	0.00000000	-70.50935000	-11.64493000
69.86666269	0.00000000	-68.59621000	-11.69414000
70.06666268	0.00000000	-64.68996000	-14.01944000
70.26666267	0.00000000	-59.66412000	-18.66388000
70.46666266	0.00000000	-54.26919000	-24.05881000
70.66666265	0.00000000	-50.07997000	-29.49065000
70.86666263	0.00000000	-48.54207000	-33.67372000
71.06666262	0.00000000	-50.07997000	-35.25467000
71.26666261	0.00000000	-54.31225000	-34.09203000
71.46666260	0.00000000	-60.12549000	-30.60408000
71.66666259	0.00000000	-66.27091000	-25.26452000
71.86666257	0.00000000	-71.29675000	-19.87574000
72.06666256	0.00000000	-73.62820000	-15.96334000
72.26666255	0.00000000	-73.29601000	-13.60113000
72.46666254	0.00000000	-70.50935000	-13.27510000
72.66666253	0.00000000	-65.52657000	-15.13902000
72.86666251	0.00000000	-59.33809000	-18.57160000
73.06666250	0.00000000	-53.93700000	-22.05955000
73.26666249	0.00000000	-50.03691000	-25.17224000
73.46666248	0.00000000	-48.54207000	-27.44832000
73.66666247	0.00000000	-50.03691000	-27.82357000
73.86666246	0.00000000	-53.89394000	-26.37795000
74.06666244	0.00000000	-58.91978000	-24.14493000
74.26666243	0.00000000	-64.31471000	-22.61319000
74.46666242	0.00000000	-68.51008000	-22.19488000
74.66666241	0.00000000	-70.13410000	-22.57013000
74.86666240	0.00000000	-69.39591000	-23.68356000
75.06666238	0.00000000	-67.10752000	-24.79700000
75.26666237	0.00000000	-63.61958000	-25.17224000
75.46666236	0.00000000	-60.17470000	-24.79700000
75.66666235	0.00000000	-57.43110000	-23.59129000
75.86666234	0.00000000	-55.85014000	-21.64124000
76.06666232	0.00000000	-55.47490000	-18.94685000
76.26666231	0.00000000	-56.22539000	-16.33858000
76.46666230	0.00000000	-58.12622000	-15.22515000
76.66666229	0.00000000	-59.99015000	-16.38779000
76.86666228	0.00000000	-61.19586000	-19.45743000
77.06666227	0.00000000	-61.62032000	-23.68356000
77.26666225	0.00000000	-61.62032000	-27.95275000
77.46666224	0.00000000	-61.24508000	-31.39763000
77.66666223	0.00000000	-60.54995000	-33.34153000
77.86666222	0.00000000	-60.54995000	-32.92938000
78.06666221	0.00000000	-61.28814000	-30.60408000
78.26666219	0.00000000	-62.03863000	-26.28568000
78.46666218	0.00000000	-62.82603000	-20.57087000
78.66666217	0.00000000	-63.15207000	-15.22515000
78.86666216	0.00000000	-62.77681000	-12.11245000
79.06666215	0.00000000	-61.57111000	-11.69414000
79.26666213	0.00000000	-59.66412000	-13.60113000
79.46666212	0.00000000	-57.38804000	-17.45817000
79.66666211	0.00000000	-55.85014000	-22.10261000
79.86666210	0.00000000	-55.43184000	-26.74705000
80.06666209	0.00000000	-55.85014000	-30.60408000
80.26666208	0.00000000	-57.43110000	-32.56028000
80.46666206	0.00000000	-60.12549000	-32.60334000
80.66666205	0.00000000	-63.20127000	-31.02239000
80.86666204	0.00000000	-65.85260000	-27.95275000
81.06666203	0.00000000	-67.01525000	-24.10187000
81.26666202	0.00000000	-66.27091000	-20.61393000
81.46666200	0.00000000	-64.35777000	-17.87647000
81.66666199	0.00000000	-61.62032000	-16.29552000
81.86666198	0.00000000	-58.54454000	-15.82800000
82.06666197	0.00000000	-55.89320000	-15.87721000
82.26666196	0.00000000	-54.73056000	-16.71383000
82.46666194	0.00000000	-55.43184000	-18.98991000
82.66666193	0.00000000	-56.96358000	-21.68430000
82.86666192	0.00000000	-58.91978000	-24.10187000
83.06666191	0.00000000	-61.24508000	-26.79626000
83.26666190	0.00000000	-63.15207000	-29.07234000
83.46666189	0.00000000	-64.31471000	-29.90895000
83.66666187	0.00000000	-64.31471000	-29.90895000
83.86666186	0.00000000	-63.20127000	-29.07234000
84.06666185	0.00000000	-61.70644000	-26.70398000
84.26666184	0.00000000	-60.50073000	-23.26525000
84.46666183	0.00000000	-59.70718000	-19.36516000
84.66666181	0.00000000	-58.91978000	-15.92027000
84.86666180	0.00000000	-58.59375000	-13.60113000
85.06666179	0.00000000	-58.91978000	-13.27510000
85.26666178	0.00000000	-59.66412000	-15.22515000
85.46666177	0.00000000	-60.03937000	-19.41437000
85.66666175	0.00000000	-60.03937000	-24.37869000
85.86666174	0.00000000	-59.70718000	-28.28494000
86.06666173	0.00000000	-59.33809000	-31.02239000
86.26666172	0.00000000	-59.75024000	-32.13582000
86.46666171	0.00000000	-60.45767000	-30.97933000
86.66666170	0.00000000	-61.28814000	-27.90969000
86.86666168	0.00000000	-62.03863000	-23.64050000
87.06666167	0.00000000	-62.82603000	-19.03912000
87.26666166	0.00000000	-63.15207000	-15.22515000
87.46666165	0.00000000	-62.77681000	-13.65034000
87.66666164	0.00000000	-61.62032000	-14.38853000
87.86666162	0.00000000	-60.08243000	-16.71383000
88.06666161	0.00000000	-58.54454000	-20.61393000
88.26666160	0.00000000	-57.38804000	-25.17224000
88.46666159	0.00000000	-57.01279000	-29.02928000
88.66666158	0.00000000	-57.38804000	-30.97933000
88.86666156	0.00000000	-58.54454000	-30.97933000
89.06666155	0.00000000	-60.08243000	-29.02928000
89.26666154	0.00000000	-61.62032000	-25.17224000
89.46666153	0.00000000	-62.77681000	-20.57087000
89.66666152	0.00000000	-63.15207000	-16.38779000
89.86666151	0.00000000	-62.82603000	-14.11171000
90.06666149	0.00000000	-62.03863000	-14.80684000
90.26666148	0.00000000	-61.28814000	-17.50123000
90.46666147	0.00000000	-60.45767000	-21.36442000
90.66666146	0.00000000	-59.70718000	-25.95964000
90.86666145	0.00000000	-58.96899000	-29.39837000
91.06666143	0.00000000	-58.96899000	-30.97933000
91.26666142	0.00000000	-59.66412000	-30.56102000
91.46666141	0.00000000	-60.03937000	-27.86663000
91.66666140	0.00000000	-60.08243000	-23.64050000
91.86666139	0.00000000	-60.08243000	-19.03912000
92.06666137	0.00000000	-60.08243000	-15.22515000
92.26666136	0.00000000	-60.08243000	-13.69340000
92.46666135	0.00000000	-60.08243000	-14.80684000
92.66666134	0.00000000	-60.12549000	-17.87647000
92.86666133	0.00000000	-60.54995000	-22.14567000
93.06666132	0.00000000	-61.66338000	-26.74705000
93.26666130	0.00000000	-62.77681000	-30.51181000
93.46666129	0.00000000	-63.20127000	-31.67446000
93.66666128	0.00000000	-63.20127000	-29.82283000
93.86666127	0.00000000	-62.73376000	-26.37795000
94.06666126	0.00000000	-61.19586000	-22.10261000
94.26666124	0.00000000	-58.91978000	-17.91953000
94.46666123	0.00000000	-56.96358000	-15.22515000
94.66666122	0.00000000	-55.43184000	-14.80684000
94.86666121	0.00000000	-54.68750000	-16.33858000
95.06666120	0.00000000	-55.47490000	-19.45743000
95.26666118	0.00000000	-57.38804000	-23.64050000
95.46666117	0.00000000	-60.12549000	-27.44832000
95.66666116	0.00000000	-63.20127000	-29.40452000
95.86666115	0.00000000	-65.89567000	-29.44759000
96.06666114	0.00000000	-67.43970000	-27.90969000
96.26666113	0.00000000	-67.43970000	-25.21530000
96.46666111	0.00000000	-65.85260000	-22.10261000
96.66666110	0.00000000	-62.73376000	-19.03297000
96.86666109	0.00000000	-58.54454000	-16.75689000
97.06666108	0.00000000	-54.64444000	-16.38164000
97.26666107	0.00000000	-51.98080000	-17.87647000
97.46666105	0.00000000	-50.78740000	-20.52780000
97.66666104	0.00000000	-51.98080000	-23.22219000
97.86666103	0.00000000	-54.64444000	-25.17224000
98.06666102	0.00000000	-58.54454000	-26.32874000
98.26666101	0.00000000	-62.73376000	-26.32874000
98.46666099	0.00000000	-65.89567000	-25.21530000
98.66666098	0.00000000	-67.85802000	-23.72662000
98.86666097	0.00000000	-68.60236000	-22.57013000
99.06666096	0.00000000	-67.39050000	-22.14567000
99.26666095	0.00000000	-64.36392000	-22.10261000
99.46666094	0.00000000	-60.50073000	-22.05955000
99.66666092	0.00000000	-57.01279000	-21.68430000
99.86666091	0.00000000	-54.26919000	-20.94611000
100.06666090	0.00000000	-52.73130000	-20.57087000
100.26666089	0.00000000	-52.73130000	-20.52780000
100.46666088	0.00000000	-54.22613000	-20.52780000
100.66666086	0.00000000	-56.58833000	-20.57087000
100.86666085	0.00000000	-59.29502000	-20.98917000
101.06666084	0.00000000	-62.40772000	-22.15182000
101.26666083	0.00000000	-64.68996000	-23.68356000
101.46666082	0.00000000	-65.93873000	-25.26452000
101.66666080	0.00000000	-66.27091000	-26.75320000
101.86666079	0.00000000	-65.52042000	-27.49138000
102.06666078	0.00000000	-63.57652000	-26.66092000
102.26666077	0.00000000	-61.28814000	-24.42790000
102.46666076	0.00000000	-58.91978000	-21.32136000
102.66666075	0.00000000	-56.96358000	-18.66388000
102.86666073	0.00000000	-55.43184000	-16.71383000
103.06666072	0.00000000	-54.68750000	-16.33858000
103.26666071	0.00000000	-55.47490000	-17.45817000
103.46666070	0.00000000	-57.33883000	-19.40822000
103.66666069	0.00000000	-59.66412000	-22.15182000
103.86666067	0.00000000	-61.62032000	-25.21530000
104.06666066	0.00000000	-63.20127000	-27.86663000
104.26666065	0.00000000	-64.31471000	-29.02928000
104.46666064	0.00000000	-64.31471000	-28.28494000
104.66666063	0.00000000	-63.20127000	-26.37795000
104.86666061	0.00000000	-61.66338000	-23.68356000
105.06666060	0.00000000	-60.08243000	-20.98917000
105.26666059	0.00000000	-58.54454000	-19.03912000
105.46666058	0.00000000	-57.38804000	-17.87647000
105.66666057	0.00000000	-57.01279000	-17.91953000
105.86666056	0.00000000	-57.38804000	-19.40822000
106.06666054	0.00000000	-58.54454000	-21.72736000
106.26666053	0.00000000	-60.03937000	-24.00960000
106.46666052	0.00000000	-61.19586000	-25.95964000
106.66666051	0.00000000	-61.62032000	-26.70398000
106.86666050	0.00000000	-61.62032000	-26.32874000
107.06666048	0.00000000	-61.19586000	-24.79700000
107.26666047	0.00000000	-60.08243000	-22.52091000
107.46666046	0.00000000	-58.96899000	-20.61393000
107.66666045	0.00000000	-58.54454000	-19.45743000
107.86666044	0.00000000	-58.54454000	-19.45743000
108.06666042	0.00000000	-58.91978000	-20.57087000
108.26666041	0.00000000	-59.70718000	-22.10261000
108.46666040	0.00000000	-60.50073000	-23.64050000
108.66666039	0.00000000	-61.62032000	-24.79700000
108.86666038	0.00000000	-62.35851000	-25.22145000
109.06666037	0.00000000	-61.99557000	-25.17224000
109.26666035	0.00000000	-61.24508000	-24.37869000
109.46666034	0.00000000	-60.08243000	-22.47785000
109.66666033	0.00000000	-58.96899000	-20.61393000
109.86666032	0.00000000	-58.50147000	-19.41437000
110.06666031	0.00000000	-58.12622000	-19.03912000
110.26666029	0.00000000	-57.80634000	-19.41437000
110.46666028	0.00000000	-58.54454000	-20.57087000
110.66666027	0.00000000	-59.66412000	-22.10261000
110.86666026	0.00000000	-60.45767000	-23.64050000
111.06666025	0.00000000	-61.24508000	-24.79700000
111.26666023	0.00000000	-61.62032000	-25.22145000
111.46666022	0.00000000	-61.62032000	-25.26452000
111.66666021	0.00000000	-61.24508000	-25.22145000
111.86666020	0.00000000	-60.50073000	-24.79700000
112.06666019	0.00000000	-60.08243000	-23.68356000
112.26666018	0.00000000	-59.66412000	-22.52091000
112.46666016	0.00000000	-58.91978000	-21.72736000
112.66666015	0.00000000	-58.54454000	-20.94611000
112.86666014	0.00000000	-58.54454000	-20.57087000
113.06666013	0.00000000	-58.91978000	-20.57087000
113.26666012	0.00000000	-59.66412000	-20.94611000
113.46666010	0.00000000	-60.03937000	-21.68430000
113.66666009	0.00000000	-60.08243000	-22.10261000
113.86666008	0.00000000	-60.08243000	-22.52091000
114.06666007	0.00000000	-60.08243000	-23.26525000
114.26666006	0.00000000	-60.08243000	-23.64050000
114.46666004	0.00000000	-60.08243000	-23.68356000
114.66666003	0.00000000	-60.08243000	-23.68356000
114.86666002	0.00000000	-60.08243000	-23.68356000
115.06666001	0.00000000	-60.03937000	-23.68356000
115.26666000	0.00000000	-59.66412000	-23.68356000
115.46665999	0.00000000	-58.91978000	-23.64050000
115.66665997	0.00000000	-58.59375000	-23.26525000
115.86665996	0.00000000	-58.91978000	-22.47785000
116.06665995	0.00000000	-59.66412000	-21.72736000
116.26665994	0.00000000	-60.03937000	-20.94611000
116.46665993	0.00000000	-60.08243000	-20.57087000
116.66665991	0.00000000	-60.08243000	-20.57087000
116.86665990	0.00000000	-60.08243000	-20.94611000
117.06665989	0.00000000	-60.08243000	-21.72736000
117.26665988	0.00000000	-60.03937000	-22.52091000
117.46665987	0.00000000	-59.66412000	-23.68356000
117.66665985	0.00000000	-58.91978000	-24.79700000
117.86665984	0.00000000	-58.50147000	-25.17224000
118.06665983	0.00000000	-58.12622000	-24.84621000
118.26665982	0.00000000	-57.80634000	-24.05881000
118.46665981	0.00000000	-58.54454000	-23.30832000
118.66665980	0.00000000	-59.66412000	-22.47785000
118.86665978	0.00000000	-60.50073000	-21.72736000
119.06665977	0.00000000	-61.66338000	-20.94611000
119.26665976	0.00000000	-62.73376000	-20.57087000
119.46665975	0.00000000	-62.73376000	-20.52780000
119.66665974	0.00000000	-61.66338000	-20.57087000
119.86665972	0.00000000	-60.50073000	-20.94611000
120.06665971	0.00000000	-59.66412000	-21.72736000
120.26665970	0.00000000	-58.50147000	-22.47785000
120.46665969	0.00000000	-57.38804000	-23.26525000
120.66665968	0.00000000	-56.96358000	-23.64050000
120.86665966	0.00000000	-56.96358000	-23.68356000
121.06665965	0.00000000	-57.38804000	-23.68356000
121.26665964	0.00000000	-58.54454000	-23.64050000
121.46665963	0.00000000	-60.03937000	-23.26525000
121.66665962	0.00000000	-61.19586000	-22.52091000
121.86665961	0.00000000	-61.66338000	-22.14567000
122.06665959	0.00000000	-62.03863000	-22.10261000
122.26665958	0.00000000	-62.40772000	-22.10261000
122.46665957	0.00000000	-61.99557000	-22.05955000
122.66665956	0.00000000	-61.24508000	-21.72736000
122.86665955	0.00000000	-60.03937000	-21.32136000
123.06665953	0.00000000	-58.54454000	-21.35827000
123.26665952	0.00000000	-57.38804000	-21.32136000
123.46665951	0.00000000	-56.96358000	-21.72736000
123.66665950	0.00000000	-56.96358000	-22.10261000
123.86665949	0.00000000	-57.33883000	-22.52091000
124.06665947	0.00000000	-58.12622000	-23.26525000
124.26665946	0.00000000	-58.87672000	-23.64050000
124.46665945	0.00000000	-59.70718000	-23.68356000
124.66665944	0.00000000	-60.45767000	-23.68356000
124.86665943	0.00000000	-61.24508000	-23.64050000
125.06665942	0.00000000	-61.62032000	-23.26525000
125.26665940	0.00000000	-61.66338000	-22.47785000
125.46665939	0.00000000	-61.62032000	-21.72736000
125.66665938	0.00000000	-61.19586000	-20.94611000
125.86665937	0.00000000	-60.08243000	-20.62008000
126.06665936	0.00000000	-58.91978000	-20.94611000
126.26665934	0.00000000	-58.12622000	-21.68430000
126.46665933	0.00000000	-57.33883000	-22.05955000
126.66665932	0.00000000	-57.01279000	-22.10261000
126.86665931	0.00000000	-57.38804000	-22.14567000
127.06665930	0.00000000	-58.50147000	-22.52091000
127.26665928	0.00000000	-59.66412000	-23.26525000
127.46665927	0.00000000	-60.45767000	-23.64050000
127.66665926	0.00000000	-61.24508000	-23.64050000
127.86665925	0.00000000	-61.57111000	-23.26525000
128.06665924	0.00000000	-61.24508000	-22.52091000
128.26665923	0.00000000	-60.45767000	-22.10261000
128.46665921	0.00000000	-59.66412000	-21.68430000
128.66665920	0.00000000	-58.50147000	-20.94611000
128.86665919	0.00000000	-57.38804000	-20.57087000
129.06665918	0.00000000	-57.01279000	-20.57087000
129.26665917	0.00000000	-57.33883000	-20.94611000
129.46665915	0.00000000	-58.12622000	-21.72736000
129.66665914	0.00000000	-58.91978000	-22.47785000
129.86665913	0.00000000	-60.08243000	-23.26525000
130.06665912	0.00000000	-61.19586000	-23.64050000
130.26665911	0.00000000	-61.62032000	-23.64050000
130.46665909	0.00000000	-61.62032000	-23.26525000
130.66665908	0.00000000	-61.19586000	-22.52091000
130.86665907	0.00000000	-60.08243000	-22.14567000
131.06665906	0.00000000	-58.96899000	-22.10261000
131.26665905	0.00000000	-58.54454000	-22.10261000
131.46665904	0.00000000	-58.50147000	-22.14567000
131.66665902	0.00000000	-58.50147000	-22.52091000
131.86665901	0.00000000	-58.54454000	-23.26525000
132.06665900	0.00000000	-58.91978000	-23.64050000
132.26665899	0.00000000	-59.66412000	-23.68356000
132.46665898	0.00000000	-60.03937000	-23.64050000
132.66665896	0.00000000	-60.08243000	-23.26525000
132.86665895	0.00000000	-60.08243000	-22.47785000
133.06665894	0.00000000	-60.08243000	-21.72736000
133.26665893	0.00000000	-60.03937000	-20.94611000
133.46665892	0.00000000	-59.66412000	-20.57087000
133.66665890	0.00000000	-58.96899000	-20.52780000
133.86665889	0.00000000	-58.91978000	-20.57087000
134.06665888	0.00000000	-59.24582000	-20.94611000
134.26665887	0.00000000	-58.91978000	-21.72736000
134.46665886	0.00000000	-58.91978000	-22.47785000
134.66665885	0.00000000	-59.24582000	-23.26525000
134.86665883	0.00000000	-58.87672000	-23.64050000
135.06665882	0.00000000	-58.54454000	-23.68356000
135.26665881	0.00000000	-58.50147000	-23.64050000
135.46665880	0.00000000	-58.50147000	-23.26525000
135.66665879	0.00000000	-58.54454000	-22.52091000
135.86665877	0.00000000	-58.91978000	-22.10261000
136.06665876	0.00000000	-59.66412000	-21.68430000
136.26665875	0.00000000	-60.03937000	-20.94611000
136.46665874	0.00000000	-60.08243000	-20.57087000
136.66665873	0.00000000	-60.08243000	-20.57087000
136.86665871	0.00000000	-60.03937000	-20.94611000
137.06665870	0.00000000	-59.66412000	-21.68430000
137.26665869	0.00000000	-58.91978000	-22.10261000
137.46665868	0.00000000	-58.50147000	-22.52091000
137.66665867	0.00000000	-58.08316000	-23.26525000
137.86665866	0.00000000	-57.38804000	-23.64050000
138.06665864	0.00000000	-57.38804000	-23.68356000
138.26665863	0.00000000	-58.12622000	-23.68356000
138.46665862	0.00000000	-58.87672000	-23.64050000
138.66665861	0.00000000	-59.66412000	-23.26525000
138.86665860	0.00000000	-60.03937000	-22.47785000
139.06665858	0.00000000	-60.08243000	-21.72736000
139.26665857	0.00000000	-60.08243000	-20.94611000
139.46665856	0.00000000	-60.03937000	-20.57087000
139.66665855	0.00000000	-59.66412000	-20.57087000
139.86665854	0.00000000	-58.91978000	-20.94611000
140.06665852	0.00000000	-58.54454000	-21.72736000
140.26665851	0.00000000	-58.50147000	-22.47785000
140.46665850	0.00000000	-58.50147000	-23.26525000
140.66665849	0.00000000	-58.50147000	-23.64050000
140.86665848	0.00000000	-58.54454000	-23.68356000
141.06665847	0.00000000	-58.91978000	-23.68356000
141.26665845	0.00000000	-59.66412000	-23.64050000
141.46665844	0.00000000	-59.99015000	-23.26525000
141.66665843	0.00000000	-59.66412000	-22.47785000
141.86665842	0.00000000	-58.91978000	-21.72736000
142.06665841	0.00000000	-58.54454000	-20.94611000
142.26665839	0.00000000	-58.50147000	-20.57087000
142.46665838	0.00000000	-58.50147000	-20.52780000
142.66665837	0.00000000	-58.50147000	-20.57087000
142.86665836	0.00000000	-58.54454000	-20.94611000
143.06665835	0.00000000	-58.91978000	-21.72736000
143.26665834	0.00000000	-59.66412000	-22.47785000
143.46665832	0.00000000	-60.03937000	-23.26525000
143.66665831	0.00000000	-60.08243000	-23.64050000
143.86665830	0.00000000	-60.03937000	-23.64050000
144.06665829	0.00000000	-59.66412000	-23.26525000
144.26665828	0.00000000	-58.91978000	-22.47785000
144.46665826	0.00000000	-58.50147000	-21.72736000
144.66665825	0.00000000	-58.12622000	-20.94611000
144.86665824	0.00000000	-57.75713000	-20.57087000
145.06665823	0.00000000	-58.12622000	-20.52780000
145.26665822	0.00000000	-58.50147000	-20.57087000
145.46665820	0.00000000	-58.91978000	-20.94611000
145.66665819	0.00000000	-59.66412000	-21.68430000
145.86665818	0.00000000	-59.99015000	-22.05955000
146.06665817	0.00000000	-59.70718000	-22.14567000
146.26665816	0.00000000	-59.29502000	-22.52091000
146.46665815	0.00000000	-59.28888000	-23.26525000
146.66665813	0.00000000	-58.87672000	-23.59129000
146.86665812	0.00000000	-58.54454000	-23.26525000
147.06665811	0.00000000	-58.50147000	-22.52091000
147.26665810	0.00000000	-58.50147000	-22.10261000
147.46665809	0.00000000	-58.50147000	-21.68430000
147.66665807	0.00000000	-58.54454000	-20.94611000
147.86665806	0.00000000	-58.91978000	-20.57087000
148.06665805	0.00000000	-59.66412000	-20.57087000
148.26665804	0.00000000	-60.03937000	-20.94611000
148.46665803	0.00000000	-60.08243000	-21.72736000
148.66665801	0.00000000	-60.08243000	-22.43479000
148.86665800	0.00000000	-60.03937000	-22.84695000
149.06665799	0.00000000	-59.66412000	-22.47785000
149.26665798	0.00000000	-58.91978000	-22.19488000
149.46665797	0.00000000	-58.54454000	-22.47785000
149.66665796	0.00000000	-58.50147000	-22.84695000
149.86665794	0.00000000	-58.50147000	-22.47785000
150.06665793	0.00000000	-58.50147000	-22.10261000
150.26665792	0.00000000	-58.50147000	-21.68430000
150.46665791	0.00000000	-58.50147000	-20.98917000
150.66665790	0.00000000	-58.54454000	-20.98917000
150.86665788	0.00000000	-58.91978000	-21.68430000
151.06665787	0.00000000	-59.66412000	-22.05955000
151.26665786	0.00000000	-60.03937000	-22.10261000
151.46665785	0.00000000	-60.08243000	-22.10261000
151.66665784	0.00000000	-60.03937000	-22.14567000
151.86665782	0.00000000	-59.61491000	-22.47785000
152.06665781	0.00000000	-58.54454000	-22.84695000
152.26665780	0.00000000	-57.80634000	-22.47785000
152.46665779	0.00000000	-58.12622000	-22.14567000
152.66665778	0.00000000	-58.45841000	-22.10261000
152.86665777	0.00000000	-58.50147000	-22.10261000
153.06665775	0.00000000	-58.50147000	-22.05955000
153.26665774	0.00000000	-58.50147000	-21.72736000
153.46665773	0.00000000	-58.54454000	-21.36442000
153.66665772	0.00000000	-58.91978000	-21.72736000
153.86665771	0.00000000	-59.66412000	-22.05955000
154.06665769	0.00000000	-60.03937000	-22.10261000
154.26665768	0.00000000	-60.08243000	-22.10261000
154.46665767	0.00000000	-60.03937000	-22.10261000
154.66665766	0.00000000	-59.66412000	-22.10261000
154.86665765	0.00000000	-58.91978000	-22.10261000
155.06665763	0.00000000	-58.54454000	-22.10261000
155.26665762	0.00000000	-58.50147000	-22.10261000
155.46665761	0.00000000	-58.50147000	-22.10261000
155.66665760	0.00000000	-58.50147000	-22.10261000
155.86665759	0.00000000	-58.50147000	-22.10261000
156.06665758	0.00000000	-58.54454000	-22.10261000
156.26665756	0.00000000	-58.91978000	-22.05955000
156.46665755	0.00000000	-59.66412000	-21.68430000
156.66665754	0.00000000	-60.03937000	-20.94611000
156.86665753	0.00000000	-60.08243000	-20.57087000
157.06665752	0.00000000	-60.08243000	-20.52780000
157.26665750	0.00000000	-60.03937000	-20.57087000
157.46665749	0.00000000	-59.66412000	-20.94611000
157.66665748	0.00000000	-58.91978000	-21.68430000
157.86665747	0.00000000	-58.54454000	-22.05955000
158.06665746	0.00000000	-58.50147000	-22.14567000
158.26665744	0.00000000	-58.50147000	-22.47785000
158.46665743	0.00000000	-58.50147000	-22.84695000
158.66665742	0.00000000	-58.50147000	-22.47785000
158.86665741	0.00000000	-58.50147000	-22.14567000
159.06665740	0.00000000	-58.50147000	-22.10261000
159.26665739	0.00000000	-58.50147000	-22.05955000
159.46665737	0.00000000	-58.50147000	-21.68430000
159.66665736	0.00000000	-58.50147000	-20.98917000
159.86665735	0.00000000	-58.50147000	-20.94611000
160.06665734	0.00000000	-58.50147000	-21.26599000
160.26665733	0.00000000	-58.50147000	-20.94611000
160.46665731	0.00000000	-58.54454000	-20.98917000
160.66665730	0.00000000	-58.87672000	-21.72736000
160.86665729	0.00000000	-59.24582000	-22.43479000
161.06665728	0.00000000	-58.87672000	-22.84695000
161.26665727	0.00000000	-58.54454000	-22.47785000
161.46665725	0.00000000	-58.50147000	-22.14567000
161.66665724	0.00000000	-58.50147000	-22.10261000
161.86665723	0.00000000	-58.45841000	-22.10261000
162.06665722	0.00000000	-58.12622000	-22.10261000
162.26665721	0.00000000	-57.75713000	-22.05955000
162.46665720	0.00000000	-58.12622000	-21.72736000
162.66665718	0.00000000	-58.45841000	-21.36442000
162.86665717	0.00000000	-58.54454000	-21.72736000
163.06665716	0.00000000	-58.91978000	-22.05955000
163.26665715	0.00000000	-59.61491000	-22.10261000
163.46665714	-0.15871060	-59.66412000	-22.10261000
163.66665712	0.00000000	-59.33809000	-22.10261000
163.86665711	0.00000000	-59.66412000	-22.10261000
164.06665710	0.00000000	-59.61491000	-22.10261000
164.26665709	0.00000000	-58.91978000	-22.10261000
164.46665708	0.00000000	-58.54454000	-22.10261000
164.66665706	0.00000000	-58.45841000	-22.10261000
164.86665705	0.00000000	-58.12622000	-22.10261000
165.06665704	0.00000000	-57.75713000	-22.10261000
165.26665703	0.00000000	-58.12622000	-22.10261000
165.46665702	0.00000000	-58.45841000	-22.10261000
165.66665701	0.00000000	-58.50147000	-22.10261000
165.86665699	0.00000000	-58.54454000	-22.10261000
166.06665698	0.00000000	-58.91978000	-22.10261000
166.26665697	0.00000000	-59.61491000	-22.10261000
166.46665696	0.00000000	-59.61491000	-22.10261000
166.66665695	0.00000000	-58.91978000	-22.10261000
166.86665693	0.00000000	-58.54454000	-22.10261000
167.06665692	0.00000000	-58.50147000	-22.10261000
167.26665691	0.00000000	-58.50147000	-22.10261000
167.46665690	0.00000000	-58.50147000	-22.10261000
167.66665689	0.00000000	-58.50147000	-22.10261000
167.86665687	0.00000000	-58.50147000	-22.10261000
168.06665686	0.00000000	-58.50147000	-22.10261000
168.26665685	0.00000000	-58.50147000	-22.10261000
168.46665684	0.00000000	-58.50147000	-22.10261000
168.66665683	0.00000000	-58.50147000	-22.10261000
168.86665682	0.00000000	-58.50147000	-22.10261000
169.06665680	0.00000000	-58.54454000	-22.10261000
169.26665679	0.00000000	-58.87672000	-22.10261000
169.46665678	0.00000000	-59.24582000	-22.10261000
169.66665677	0.00000000	-58.87672000	-22.10261000
169.86665676	0.00000000	-58.54454000	-22.10261000
170.06665674	0.00000000	-58.50147000	-22.10261000
170.26665673	0.00000000	-58.50147000	-22.10261000
170.46665672	0.00000000	-58.50147000	-22.10261000
170.66665671	0.00000000	-58.50147000	-22.10261000
170.86665670	0.00000000	-58.50147000	-22.10261000
171.06665668	0.00000000	-58.50147000	-22.10261000
171.26665667	0.00000000	-58.50147000	-22.10261000
171.46665666	0.00000000	-58.50147000	-22.10261000
171.66665665	0.00000000	-58.50147000	-22.10261000
171.86665664	0.00000000	-58.50147000	-22.10261000
172.06665663	0.00000000	-58.50147000	-22.10261000
172.26665661	0.00000000	-58.50147000	-22.10261000
172.46665660	0.00000000	-58.50147000	-22.10261000
172.66665659	0.00000000	-58.50147000	-22.10261000
172.86665658	0.00000000	-58.50147000	-22.10261000
173.06665657	0.00000000	-58.50147000	-22.10261000
173.26665655	0.00000000	-58.50147000	-22.10261000
173.46665654	0.00000000	-58.50147000	-22.10261000
173.66665653	0.00000000	-58.50147000	-22.10261000
173.86665652	0.00000000	-58.50147000	-22.10261000
174.06665651	0.00000000	-58.50147000	-22.10261000
174.26665649	0.00000000	-58.50147000	-22.10261000
174.46665648	0.00000000	-58.50147000	-22.10261000
174.66665647	0.00000000	-58.50147000	-22.10261000
174.86665646	0.00000000	-58.50147000	-22.10261000
175.06665645	0.00000000	-58.50147000	-22.10261000
175.26665644	0.00000000	-58.50147000	-22.10261000
175.46665642	0.00000000	-58.50147000	-22.10261000
175.66665641	0.00000000	-58.50147000	-22.10261000
175.86665640	0.00000000	-58.50147000	-22.10261000
176.06665639	0.00000000	-58.45841000	-22.10261000
176.26665638	0.00000000	-58.12622000	-22.10261000
176.46665636	0.00000000	-57.75713000	-22.10261000
176.66665635	0.00000000	-58.12622000	-22.10261000
176.86665634	0.00000000	-58.45841000	-22.10261000
177.06665633	0.00000000	-58.50147000	-22.10261000
177.26665632	0.00000000	-58.50147000	-22.10261000
177.46665630	0.00000000	-58.50147000	-22.10261000
177.66665629	0.00000000	-58.50147000	-22.10261000
177.86665628	0.00000000	-58.50147000	-22.10261000
178.06665627	0.00000000	-58.50147000	-22.10261000
178.26665626	0.00000000	-58.50147000	-22.10261000
178.46665625	0.00000000	-58.50147000	-22.10261000
178.66665623	0.00000000	-58.50147000	-22.10261000
178.86665622	0.00000000	-58.50147000	-22.10261000
179.06665621	0.00000000	-58.50147000	-22.10261000
179.26665620	0.00000000	-58.50147000	-22.10261000
179.46665619	0.00000000	-58.50147000	-22.10261000
179.66665617	0.00000000	-58.50147000	-22.10261000
179.86665616	0.00000000	-58.50147000	-22.10261000
180.06665615	0.00000000	-58.50147000	-22.10261000
180.26665614	0.00000000	-58.50147000	-22.10261000
180.46665613	0.00000000	-58.50147000	-22.10261000
180.66665611	0.00000000	-58.45841000	-22.10261000
180.86665610	0.00000000	-58.12622000	-22.10261000
181.06665609	0.00000000	-57.75713000	-22.05955000
181.26665608	0.00000000	-58.12622000	-21.72736000
181.46665607	0.00000000	-58.45841000	-21.36442000
181.66665606	0.00000000	-58.50147000	-21.72736000
181.86665604	0.00000000	-58.50147000	-22.05955000
182.06665603	0.00000000	-58.50147000	-22.10261000
182.26665602	0.00000000	-58.50147000	-22.10261000
182.46665601	0.00000000	-58.50147000	-22.10261000
182.66665600	0.00000000	-58.50147000	-22.10261000
182.86665598	0.00000000	-58.50147000	-22.10261000
183.06665597	0.00000000	-58.50147000	-22.10261000
183.26665596	0.00000000	-58.50147000	-22.10261000
183.46665595	0.00000000	-58.50147000	-22.10261000
183.66665594	0.00000000	-58.50147000	-22.10261000
183.86665592	0.00000000	-58.50147000	-22.05955000
184.06665591	0.00000000	-58.50147000	-21.68430000
184.26665590	0.00000000	-58.50147000	-20.94611000
184.46665589	0.00000000	-58.50147000	-20.57087000
184.66665588	0.00000000	-58.50147000	-20.52780000
184.86665587	0.00000000	-58.50147000	-20.57087000
185.06665585	0.00000000	-58.50147000	-20.94611000
185.26665584	0.00000000	-58.50147000	-21.68430000
185.46665583	0.00000000	-58.45841000	-22.05955000
185.66665582	0.00000000	-58.08316000	-22.10261000
185.86665581	0.00000000	-57.38804000	-22.10261000
186.06665579	0.00000000	-57.38804000	-22.10261000
186.26665578	0.00000000	-58.08316000	-22.10261000
186.46665577	0.00000000	-58.45841000	-22.10261000
186.66665576	0.00000000	-58.50147000	-22.10261000
186.86665575	0.00000000	-58.50147000	-22.05955000
187.06665573	0.00000000	-58.50147000	-21.68430000
187.26665572	0.00000000	-58.50147000	-20.94611000
187.46665571	0.00000000	-58.50147000	-20.57087000
187.66665570	0.00000000	-58.50147000	-20.52780000
187.86665569	0.00000000	-58.50147000	-20.52780000
188.06665568	0.00000000	-58.50147000	-20.57087000
188.26665566	0.00000000	-58.45841000	-20.94611000
188.46665565	0.00000000	-58.08316000	-21.68430000
188.66665564	0.00000000	-57.38804000	-22.05955000
188.86665563	0.00000000	-57.38804000	-22.10261000
189.06665562	0.00000000	-58.08316000	-22.10261000
189.26665560	0.00000000	-58.45841000	-22.10261000
189.46665559	0.00000000	-58.50147000	-22.10261000
189.66665558	0.00000000	-58.50147000	-22.10261000
189.86665557	0.00000000	-58.50147000	-22.10261000
190.06665556	0.00000000	-58.50147000	-22.05955000
190.26665554	0.00000000	-58.50147000	-21.68430000
190.46665553	0.00000000	-58.50147000	-20.94611000
190.66665552	0.00000000	-58.50147000	-20.57087000
190.86665551	0.00000000	-58.50147000	-20.57087000
191.06665550	0.00000000	-58.45841000	-20.94611000
191.26665549	0.00000000	-58.08316000	-21.68430000
191.46665547	0.00000000	-57.33883000	-22.05955000
191.66665546	0.00000000	-57.01279000	-22.10261000
191.86665545	0.00000000	-57.29576000	-22.10261000
192.06665544	0.00000000	-57.70792000	-22.10261000
192.26665543	0.00000000	-57.71407000	-22.10261000
192.46665541	0.00000000	-58.12622000	-22.10261000
192.66665540	0.00000000	-58.45841000	-22.10261000
192.86665539	0.00000000	-58.50147000	-22.10261000
193.06665538	0.00000000	-58.50147000	-22.10261000
193.26665537	0.00000000	-58.50147000	-22.10261000
193.46665535	0.00000000	-58.50147000	-22.05955000
193.66665534	0.00000000	-58.50147000	-21.68430000
193.86665533	0.00000000	-58.45841000	-20.94611000
194.06665532	0.00000000	-58.08316000	-20.62008000
194.26665531	0.00000000	-57.33883000	-20.90305000
194.46665530	0.00000000	-57.01279000	-21.30905000
194.66665528	0.00000000	-57.29576000	-21.32136000
194.86665527	0.00000000	-57.66486000	-21.72736000
195.06665526	0.00000000	-57.33883000	-22.05955000
195.26665525	0.00000000	-57.38804000	-22.10261000
195.46665524	0.00000000	-58.08316000	-22.10261000
195.66665522	0.00000000	-58.45841000	-22.10261000
195.86665521	0.00000000	-58.45841000	-22.10261000
196.06665520	0.00000000	-58.12622000	-22.14567000
