Time	Channel A	Channel B	Channel C
(us)	(V)	(mV)	(mV)

-4.49999956	0.00000000	-44.27288000	-15.78494000
-4.29999957	0.00000000	-44.27288000	-15.78494000
-4.09999958	0.00000000	-44.27288000	-15.78494000
-3.89999959	0.00000000	-44.27288000	-15.78494000
-3.69999960	0.00000000	-44.27288000	-15.78494000
-3.49999962	0.00000000	-44.27288000	-15.78494000
-3.29999963	0.00000000	-44.27288000	-15.78494000
-3.09999964	0.00000000	-44.27288000	-15.78494000
-2.89999965	0.00000000	-44.27288000	-15.78494000
-2.69999966	0.00000000	-44.27288000	-15.78494000
-2.49999968	0.00000000	-44.27288000	-15.78494000
-2.29999969	0.00000000	-44.27288000	-15.78494000
-2.09999970	0.00000000	-44.27288000	-15.78494000
-1.89999971	0.00000000	-44.27288000	-15.78494000
-1.69999972	0.00000000	-44.27288000	-15.78494000
-1.49999973	0.00000000	-44.27288000	-15.78494000
-1.29999975	0.00000000	-44.27288000	-15.78494000
-1.09999976	0.00000000	-44.27288000	-15.78494000
-0.89999977	0.00000000	-44.27288000	-15.78494000
-0.69999978	0.00000000	-44.27288000	-15.78494000
-0.49999979	0.00000000	-44.27288000	-15.78494000
-0.29999981	0.15871060	-44.27288000	-15.78494000
-0.09999982	0.63668800	-44.27288000	-15.78494000
0.10000017	0.95533960	-44.27288000	-15.78494000
0.30000016	0.95533960	-44.27288000	-15.78494000
0.50000015	0.79601380	-44.27288000	-15.78494000
0.70000013	0.31803640	-44.27288000	-15.78494000
0.90000012	-0.47736220	-44.27288000	-15.78494000
1.10000011	-1.43331700	-44.27288000	-15.78494000
1.30000010	-2.38927200	-44.27288000	-15.74188000
1.50000009	-2.86724900	-44.27288000	-15.36663000
1.70000008	-2.54859700	-44.27288000	-14.62844000
1.90000006	-1.27399100	-44.27288000	-14.25320000
2.10000005	0.47736220	-44.27288000	-14.25320000
2.30000004	2.54859700	-44.27288000	-14.62844000
2.50000003	4.30056600	-44.27288000	-15.36663000
2.70000002	5.25652100	-44.27288000	-15.74188000
2.90000000	4.93786900	-44.27288000	-15.78494000
3.09999999	3.02657500	-44.27288000	-15.78494000
3.29999998	0.00000000	-44.27288000	-15.78494000
3.49999997	-3.34522600	-44.27288000	-15.78494000
3.69999996	-6.37180100	-44.27288000	-15.74188000
3.89999994	-7.96444400	-44.27288000	-15.36663000
4.09999993	-7.48646600	-44.27288000	-14.62844000
4.29999992	-5.25652100	-44.27288000	-14.25320000
4.49999991	-1.27399100	-44.27288000	-14.21014000
4.69999990	3.18590100	-44.27288000	-14.25320000
4.89999989	7.00848900	-44.27288000	-14.62844000
5.09999987	9.23905000	-44.27288000	-15.36663000
5.29999986	9.07972400	-44.27288000	-15.74188000
5.49999985	6.69045300	-44.27288000	-15.78494000
5.69999984	2.54859700	-44.27288000	-15.78494000
5.89999983	-2.22994600	-44.27288000	-15.78494000
6.09999981	-6.53112700	-44.27288000	-15.78494000
6.29999980	-9.07972400	-44.27288000	-15.74188000
6.49999979	-9.39837600	-44.27288000	-15.36663000
6.69999978	-7.32714100	-44.27288000	-14.62844000
6.89999977	-3.50393700	-44.27288000	-14.25320000
7.09999975	0.79601380	-44.27288000	-14.25320000
7.29999974	4.61921700	-44.27288000	-14.62844000
7.49999973	7.16781500	-44.27288000	-15.36663000
7.69999972	7.64579200	-44.27288000	-15.74188000
7.89999971	6.37180100	-44.27288000	-15.78494000
8.09999970	3.50393700	-44.27288000	-15.78494000
8.29999968	0.31803640	-44.27288000	-15.78494000
8.49999967	-2.70792300	-44.27288000	-15.78494000
8.69999966	-4.61921700	-44.27288000	-15.78494000
8.89999965	-5.25652100	-44.27288000	-15.78494000
9.09999964	-4.45989200	-44.27288000	-15.78494000
9.29999962	-2.86724900	-44.27288000	-15.74188000
9.49999961	-0.79601380	-44.31594000	-15.36663000
9.69999960	0.95533960	-44.64813000	-14.67150000
9.89999959	2.22994600	-45.01722000	-14.67150000
10.09999958	2.54859700	-44.64813000	-15.36663000
10.29999956	2.22994600	-44.31594000	-15.74188000
10.49999955	1.43331700	-44.27288000	-15.78494000
10.69999954	0.63668800	-44.27288000	-15.78494000
10.89999953	-0.15871060	-44.27288000	-15.78494000
11.09999952	-0.79601380	-44.27288000	-15.78494000
11.29999951	-0.95533960	-44.27288000	-15.78494000
11.49999949	-0.95533960	-44.27288000	-15.78494000
11.69999948	-0.79601380	-44.27288000	-15.78494000
11.89999947	-0.47736220	-44.27288000	-15.78494000
12.09999946	-0.15871060	-44.27288000	-15.78494000
12.29999945	-0.15871060	-44.27288000	-15.78494000
12.49999943	-0.15871060	-44.27288000	-15.78494000
12.69999942	0.00000000	-44.27288000	-15.78494000
12.89999941	0.00000000	-44.27288000	-15.78494000
13.09999940	0.00000000	-44.27288000	-15.78494000
13.29999939	0.00000000	-44.27288000	-15.78494000
13.49999937	0.00000000	-44.27288000	-15.78494000
13.69999936	0.00000000	-44.27288000	-15.78494000
13.89999935	0.00000000	-44.27288000	-15.78494000
14.09999934	-0.15871060	-44.27288000	-15.78494000
14.29999933	-0.15871060	-44.27288000	-15.78494000
14.49999932	-0.15871060	-44.27288000	-15.74188000
14.69999930	0.00000000	-44.27288000	-15.40969000
14.89999929	0.00000000	-44.27288000	-15.04675000
15.09999928	0.00000000	-44.27288000	-15.40969000
15.29999927	0.00000000	-44.27288000	-15.74188000
15.49999926	0.00000000	-44.27288000	-15.78494000
15.69999924	0.00000000	-44.27288000	-15.78494000
15.89999923	0.00000000	-44.27288000	-15.74188000
16.09999922	0.00000000	-44.27288000	-15.40969000
16.29999921	0.00000000	-44.27288000	-15.04675000
16.49999920	-0.15871060	-44.27288000	-15.40969000
16.69999919	-0.15871060	-44.22982000	-15.74188000
16.89999917	-0.15871060	-43.80536000	-15.74188000
17.09999916	0.00000000	-42.73499000	-15.40969000
17.29999915	0.00000000	-41.99680000	-15.04675000
17.49999914	0.00000000	-42.31668000	-15.40969000
17.69999913	0.00000000	-42.69193000	-15.69267000
17.89999911	0.00000000	-43.15945000	-15.36663000
18.09999910	0.00000000	-44.27288000	-14.67150000
18.29999909	0.00000000	-45.47859000	-14.67150000
18.49999908	-0.15871060	-46.64739000	-15.36663000
18.69999907	0.00000000	-48.17913000	-15.74188000
18.89999905	-0.15871060	-48.92347000	-15.78494000
19.09999904	-0.15871060	-48.92347000	-15.78494000
19.29999903	0.00000000	-48.04380000	-15.78494000
19.49999902	0.00000000	-45.34325000	-15.78494000
19.69999901	0.00000000	-41.48622000	-15.78494000
19.89999900	0.00000000	-37.61687000	-15.78494000
20.09999898	0.00000000	-34.12894000	-15.78494000
20.29999897	0.00000000	-32.30807000	-15.78494000
20.49999896	0.00000000	-33.10162000	-15.78494000
20.69999895	0.00000000	-37.00787000	-15.78494000
20.89999894	0.00000000	-43.20251000	-15.78494000
21.09999892	0.00000000	-50.59670000	-15.78494000
21.29999891	0.00000000	-57.90477000	-15.78494000
21.49999890	0.00000000	-63.25048000	-15.78494000
21.69999889	0.00000000	-64.74532000	-15.78494000
21.89999888	0.00000000	-61.58341000	-15.78494000
22.09999886	0.00000000	-53.76476000	-15.78494000
22.29999885	0.00000000	-42.18134000	-15.78494000
22.49999884	0.00000000	-29.43528000	-15.78494000
22.69999883	0.00000000	-18.68233000	-15.78494000
22.89999882	0.00000000	-12.58612000	-15.74188000
23.09999881	0.00000000	-13.84104000	-15.36663000
23.29999879	0.00000000	-22.73007000	-14.62844000
23.49999878	0.00000000	-37.47539000	-14.21014000
23.69999877	0.00000000	-55.25344000	-13.79183000
23.89999876	0.00000000	-72.18872000	-13.09670000
24.09999875	0.00000000	-83.72907000	-13.09670000
24.29999873	0.00000000	-86.75565000	-13.83489000
24.49999872	0.00000000	-80.14271000	-14.62844000
24.69999871	0.00000000	-64.60999000	-15.87721000
24.89999870	0.00000000	-43.38705000	-17.74114000
25.09999869	0.00000000	-20.96457000	-19.64198000
25.29999867	0.00000000	-2.90969500	-20.39247000
25.49999866	-0.15871060	6.34842400	-20.06029000
25.69999865	0.00000000	3.98006900	-18.81152000
25.89999864	0.00000000	-9.51648500	-16.43701000
26.09999863	0.00000000	-31.23770000	-12.58612000
26.29999862	0.00000000	-56.64985000	-8.40305000
26.49999860	0.00000000	-79.81668000	-5.29035400
26.69999859	0.00000000	-94.48203000	-3.80167300
26.89999858	0.00000000	-98.01304000	-4.59522600
27.09999857	0.00000000	-89.45004000	-8.12007800
27.29999856	0.00000000	-70.55856000	-13.60113000
27.49999854	0.00000000	-45.85384000	-20.94611000
27.69999853	0.00000000	-21.14911000	-28.56176000
27.89999852	0.00000000	-2.20841500	-33.58144000
28.09999851	0.00000000	6.71751900	-35.11934000
28.29999850	0.00000000	4.06619100	-32.74483000
28.49999848	0.00000000	-9.00590400	-26.06422000
28.69999847	0.00000000	-29.10310000	-16.01870000
28.89999846	0.00000000	-51.53174000	-4.04158400
29.09999845	0.00000000	-71.63509000	6.69291300
29.29999844	0.00000000	-84.79945000	13.61343000
29.49999843	0.00000000	-88.33661000	14.68381000
29.69999841	0.00000000	-82.23425000	8.88287400
29.89999840	0.00000000	-68.32554000	-2.73129900
30.09999839	0.00000000	-50.22145000	-17.78420000
30.29999838	0.00000000	-31.98819000	-33.21235000
30.49999837	0.00000000	-17.65502000	-45.15256000
30.69999835	0.00000000	-9.47342500	-50.95964000
30.89999834	0.00000000	-9.04896600	-49.37868000
31.09999833	0.00000000	-15.93873000	-40.45890000
31.29999832	0.00000000	-27.94045000	-25.77510000
31.49999831	0.00000000	-42.64272000	-8.35998900
31.69999829	0.00000000	-56.88361000	8.23080600
31.89999828	0.00000000	-67.02756000	20.54011000
32.09999827	0.00000000	-71.35827000	25.14149000
32.29999826	0.00000000	-70.23253000	20.95841000
32.49999825	0.00000000	-63.62573000	9.34424200
32.69999824	0.00000000	-53.24803000	-7.28961600
32.89999822	0.00000000	-41.66461000	-25.77510000
33.09999821	0.00000000	-31.61294000	-41.62155000
33.29999820	0.00000000	-25.37524000	-51.33489000
33.49999819	0.00000000	-23.79429000	-53.70325000
33.69999818	0.00000000	-26.87008000	-48.26525000
33.89999816	0.00000000	-33.75369000	-36.27584000
34.09999815	0.00000000	-42.22441000	-20.06029000
34.29999814	0.00000000	-50.00000000	-3.10654500
34.49999813	0.00000000	-55.81324000	10.46383000
34.69999812	0.00000000	-58.46457000	18.22096000
34.89999810	0.00000000	-56.96973000	19.00837000
35.09999809	0.00000000	-52.04232000	12.41388000
35.29999808	0.00000000	-45.85384000	0.09842519
35.49999807	0.00000000	-39.66535000	-15.32357000
35.69999806	0.00000000	-34.73179000	-29.91511000
35.89999805	0.00000000	-33.19390000	-39.99754000
36.09999803	0.00000000	-35.38385000	-43.52854000
36.29999802	0.00000000	-39.57308000	-40.45890000
36.49999801	0.00000000	-44.27288000	-31.63140000
36.69999800	0.00000000	-48.88041000	-19.36516000
36.89999799	0.00000000	-52.31914000	-7.42495000
37.09999797	0.00000000	-53.06963000	1.49483300
37.29999796	0.00000000	-51.20571000	5.67790300
37.49999795	0.00000000	-47.34252000	3.77091500
37.69999794	0.00000000	-42.73499000	-3.84473400
37.89999793	0.00000000	-38.45964000	-14.11786000
38.09999791	0.00000000	-35.38385000	-23.73892000
38.29999790	0.00000000	-34.22121000	-29.91511000
38.49999789	0.00000000	-35.38385000	-31.45300000
38.69999788	0.00000000	-38.45964000	-27.96506000
38.89999787	0.00000000	-42.69193000	-19.93110000
39.09999786	0.00000000	-46.96727000	-10.02707000
39.29999784	0.00000000	-50.46136000	-1.61786400
39.49999783	0.00000000	-52.78666000	2.56520700
39.69999782	0.00000000	-53.16190000	1.07652500
39.89999781	0.00000000	-51.66707000	-5.42568800
40.09999780	0.00000000	-48.92347000	-14.58538000
40.29999778	0.00000000	-45.43553000	-23.86811000
40.49999777	0.00000000	-41.52928000	-30.75172000
40.69999776	0.00000000	-38.08440000	-33.81520000
40.89999775	0.00000000	-35.71604000	-31.45300000
41.09999774	0.00000000	-34.92249000	-24.20029000
41.29999772	0.00000000	-35.29773000	-14.25320000
41.49999771	0.00000000	-36.92175000	-4.63828700
41.69999770	0.00000000	-39.99754000	1.95620100
41.89999769	0.00000000	-43.85457000	4.65059000
42.09999768	0.00000000	-47.34252000	2.70054100
42.29999767	0.00000000	-50.04306000	-3.80167300
42.49999765	0.00000000	-51.20571000	-12.58612000
42.69999764	0.00000000	-50.50443000	-21.08760000
42.89999763	0.00000000	-48.97269000	-27.26378000
43.09999762	0.00000000	-46.96727000	-30.00738000
43.29999761	0.00000000	-44.31594000	-28.89395000
43.49999759	0.00000000	-41.99680000	-24.66781000
43.69999758	0.00000000	-40.77879000	-18.52854000
43.89999757	0.00000000	-39.94832000	-11.97711000
44.09999756	0.00000000	-39.62229000	-6.95743000
44.29999755	0.00000000	-39.94832000	-4.21998000
44.49999753	0.00000000	-40.69267000	-4.21998000
44.69999752	0.00000000	-41.06791000	-6.86515700
44.89999751	0.00000000	-41.15403000	-11.04823000
45.09999750	0.00000000	-41.52928000	-15.32357000
45.29999749	0.00000000	-42.35974000	-18.81152000
45.49999748	0.00000000	-43.57775000	-21.13066000
45.69999746	0.00000000	-45.94611000	-21.54897000
45.89999745	0.00000000	-48.97269000	-20.43553000
46.09999744	0.00000000	-51.66707000	-18.47933000
46.29999743	0.00000000	-53.20496000	-15.78494000
46.49999742	0.00000000	-53.16190000	-13.09055000
46.69999740	0.00000000	-51.20571000	-11.14050000
46.89999739	0.00000000	-47.25640000	-9.98400600
47.09999738	0.00000000	-41.85531000	-10.02707000
47.29999737	0.00000000	-35.66683000	-11.51575000
47.49999736	0.00000000	-30.68405000	-13.83489000
47.69999734	0.00000000	-28.03272000	-16.16018000
47.89999733	0.00000000	-28.86934000	-18.52854000
48.09999732	0.00000000	-33.88902000	-20.39247000
48.29999731	0.00000000	-41.57234000	-21.17372000
48.49999730	0.00000000	-50.12918000	-20.39247000
48.69999729	0.00000000	-57.81250000	-18.47933000
48.89999727	0.00000000	-62.78912000	-15.74188000
49.09999726	0.00000000	-63.16436000	-12.67224000
49.29999725	0.00000000	-58.92593000	-9.98400600
49.49999724	0.00000000	-51.15649000	-8.44611200
49.69999723	0.00000000	-41.15403000	-8.44611200
49.89999721	0.00000000	-31.56988000	-9.98400600
50.09999720	0.00000000	-25.37524000	-12.72146000
50.29999719	0.00000000	-23.79429000	-16.20325000
50.49999718	0.00000000	-26.91314000	-20.01722000
50.69999717	0.00000000	-34.22121000	-22.66855000
50.89999715	0.00000000	-43.85457000	-23.08686000
51.09999714	0.00000000	-53.06963000	-21.59203000
51.29999713	0.00000000	-59.62721000	-18.85458000
51.49999712	0.00000000	-61.53420000	-15.32357000
51.69999711	0.00000000	-58.50763000	-11.09129000
51.89999710	0.00000000	-51.58095000	-7.33267600
52.09999708	0.00000000	-42.77805000	-5.75172200
52.29999707	0.00000000	-34.68258000	-6.48991100
52.49999706	0.00000000	-29.65674000	-8.77214500
52.69999705	0.00000000	-28.49409000	-12.29700000
52.89999704	0.00000000	-31.56988000	-16.11712000
53.09999702	0.00000000	-38.08440000	-19.59892000
53.29999701	0.00000000	-45.71850000	-21.50590000
53.49999700	0.00000000	-52.27608000	-21.54897000
53.69999699	0.00000000	-55.76402000	-20.01722000
53.89999698	0.00000000	-55.81324000	-17.32283000
54.09999696	0.00000000	-52.69439000	-14.25320000
54.29999695	0.00000000	-46.92421000	-11.60187000
54.49999694	0.00000000	-40.04060000	-10.44537000
54.69999693	0.00000000	-34.31348000	-11.18356000
54.89999692	0.00000000	-31.61294000	-13.04749000
55.09999691	0.00000000	-32.73252000	-15.32357000
55.29999689	0.00000000	-36.92175000	-16.85531000
55.49999688	0.00000000	-42.69193000	-17.27362000
55.69999687	0.00000000	-48.46210000	-16.85531000
55.89999686	0.00000000	-52.69439000	-15.32357000
56.09999685	0.00000000	-54.23228000	-13.09055000
56.29999683	0.00000000	-52.73745000	-11.55881000
56.49999682	0.00000000	-48.88041000	-11.18356000
56.69999681	0.00000000	-43.89763000	-11.97711000
56.89999680	0.00000000	-38.87795000	-14.34547000
57.09999679	0.00000000	-35.43307000	-17.74114000
57.29999677	0.00000000	-34.22121000	-21.17372000
57.49999676	0.00000000	-35.38385000	-23.03765000
57.69999675	0.00000000	-38.45964000	-22.71161000
57.89999674	0.00000000	-42.69193000	-20.30020000
58.09999673	0.00000000	-46.88115000	-16.06791000
58.29999672	0.00000000	-49.62475000	-10.35310000
58.49999670	0.00000000	-50.41830000	-5.75172200
58.69999669	0.00000000	-49.62475000	-3.42642700
58.89999668	0.00000000	-46.96727000	-3.47564000
59.09999667	0.00000000	-43.57775000	-6.95743000
59.29999666	0.00000000	-41.20325000	-12.72146000
59.49999664	0.00000000	-39.62229000	-19.27288000
59.69999663	0.00000000	-38.87795000	-25.40600000
59.89999662	0.00000000	-39.62229000	-28.84473000
60.09999661	0.00000000	-41.15403000	-28.84473000
60.29999660	0.00000000	-43.06717000	-25.35679000
60.49999658	0.00000000	-44.96801000	-18.81152000
60.69999657	0.00000000	-45.76156000	-11.18356000
60.89999656	0.00000000	-45.81078000	-4.59522600
61.09999655	0.00000000	-45.38631000	-0.73203740
61.29999654	0.00000000	-44.22982000	0.04921259
61.49999653	0.00000000	-42.73499000	-2.68208600
61.69999651	0.00000000	-41.57849000	-8.48917200
61.89999650	0.00000000	-41.20325000	-16.16018000
62.09999649	0.00000000	-41.62155000	-23.86811000
62.29999648	0.00000000	-43.15945000	-29.21998000
62.49999647	0.00000000	-45.38631000	-31.21309000
62.69999645	0.00000000	-46.88115000	-29.26919000
62.89999644	0.00000000	-46.96727000	-24.24335000
63.09999643	0.00000000	-46.18602000	-16.94759000
63.29999642	0.00000000	-45.01722000	-9.23966500
63.49999641	0.00000000	-43.06717000	-3.46948800
63.69999639	0.00000000	-41.20325000	-0.32603340
63.89999638	0.00000000	-39.99754000	-0.73203740
64.09999637	0.00000000	-39.62229000	-4.12770700
64.29999636	0.00000000	-39.99754000	-9.55954600
64.49999635	0.00000000	-41.20325000	-15.74188000
64.69999634	0.00000000	-43.06717000	-21.54897000
64.89999632	0.00000000	-45.01722000	-25.77510000
65.09999631	0.00000000	-46.13681000	-27.35605000
65.29999630	0.00000000	-46.54896000	-26.24262000
65.49999629	0.00000000	-45.76156000	-23.17298000
65.69999628	0.00000000	-44.27288000	-18.90379000
65.89999626	0.00000000	-42.73499000	-14.25320000
66.09999625	0.00000000	-41.57849000	-9.98400600
66.29999624	0.00000000	-41.20325000	-6.86515700
66.49999623	0.00000000	-41.62155000	-5.29035400
66.69999622	0.00000000	-43.11023000	-5.24729300
66.89999620	0.00000000	-45.01722000	-6.40378900
67.09999619	0.00000000	-46.09375000	-8.35383800
67.29999618	0.00000000	-46.17372000	-11.09744000
67.49999617	0.00000000	-44.98031000	-14.21014000
67.69999616	0.00000000	-43.43627000	-17.36589000
67.89999615	0.00000000	-41.11097000	-20.47859000
68.09999613	0.00000000	-38.87795000	-23.12992000
68.29999612	0.00000000	-38.08440000	-24.29257000
68.49999611	0.00000000	-38.45964000	-23.54823000
68.69999610	0.00000000	-40.08366000	-21.59203000
68.89999609	0.00000000	-43.15945000	-18.39321000
69.09999607	0.00000000	-47.01648000	-13.79183000
69.29999606	0.00000000	-50.46136000	-8.77829600
69.49999605	0.00000000	-52.73745000	-4.95816900
69.69999604	0.00000000	-52.69439000	-2.97121000
69.89999603	0.00000000	-50.04306000	-3.38336600
70.09999601	0.00000000	-45.76156000	-5.75172200
70.29999600	0.00000000	-40.73573000	-10.44537000
70.49999599	0.00000000	-35.71604000	-16.90453000
70.69999598	0.00000000	-32.26501000	-22.66240000
70.89999597	0.00000000	-31.14542000	-26.19955000
71.09999596	0.00000000	-33.05856000	-27.35605000
71.29999594	-0.15871060	-37.70915000	-25.82431000
71.49999593	0.00000000	-43.48548000	-21.96727000
71.69999592	0.00000000	-49.66781000	-16.94759000
71.89999591	0.00000000	-54.27534000	-11.55881000
72.09999590	0.00000000	-56.27460000	-7.33267600
72.29999588	0.00000000	-55.85630000	-5.37647600
72.49999587	0.00000000	-52.73745000	-5.70866100
72.69999586	0.00000000	-47.34252000	-8.02780400
72.89999585	0.00000000	-41.20325000	-11.46653000
73.09999584	0.00000000	-35.75910000	-15.32357000
73.29999582	0.00000000	-32.30807000	-18.35015000
73.49999581	0.00000000	-31.47761000	-19.59892000
73.69999580	0.00000000	-33.42765000	-19.22982000
73.89999579	0.00000000	-37.24778000	-18.11024000
74.09999578	0.00000000	-42.31668000	-16.20325000
74.29999577	0.00000000	-47.29946000	-14.72072000
74.49999575	0.00000000	-51.15649000	-14.25320000
74.69999574	0.00000000	-52.69439000	-14.30241000
74.89999573	0.00000000	-51.62401000	-15.04675000
75.09999572	0.00000000	-48.92347000	-16.52928000
75.29999571	0.00000000	-45.47859000	-17.23056000
75.49999569	0.00000000	-41.99680000	-16.85531000
75.69999568	0.00000000	-39.66535000	-15.27436000
75.89999567	0.00000000	-38.45964000	-12.62918000
76.09999566	0.00000000	-38.45964000	-9.93479300
76.29999565	0.00000000	-39.57308000	-8.02780400
76.49999563	0.00000000	-41.11097000	-7.28346400
76.69999562	0.00000000	-42.64886000	-8.48917200
76.89999561	0.00000000	-43.80536000	-11.55881000
77.09999560	0.00000000	-44.22982000	-15.83415000
77.29999559	0.00000000	-44.27288000	-20.43553000
77.49999558	0.00000000	-44.22982000	-24.24335000
77.69999556	0.00000000	-43.89763000	-25.78125000
77.89999555	0.00000000	-43.52854000	-24.66166000
78.09999554	0.00000000	-43.94069000	-21.54897000
78.29999553	0.00000000	-44.64813000	-16.89837000
78.49999552	0.00000000	-45.43553000	-11.51575000
78.69999550	0.00000000	-45.76156000	-6.90821800
78.89999549	0.00000000	-45.38631000	-4.17076700
79.09999548	0.00000000	-44.18061000	-3.80167300
79.29999547	0.00000000	-42.27362000	-5.70866100
79.49999546	0.00000000	-39.99754000	-9.60875900
79.69999544	0.00000000	-38.45964000	-14.58538000
79.89999543	0.00000000	-38.04134000	-19.59892000
80.09999542	0.00000000	-38.45964000	-23.08686000
80.29999541	0.00000000	-40.04060000	-24.66781000
80.49999540	0.00000000	-42.73499000	-24.29257000
80.69999539	0.00000000	-45.81078000	-22.01649000
80.89999537	0.00000000	-48.46210000	-18.89764000
81.09999536	0.00000000	-49.62475000	-15.40969000
81.29999535	0.00000000	-48.88041000	-11.93405000
81.49999534	0.00000000	-46.96727000	-9.55954600
81.69999533	0.00000000	-44.22982000	-7.98474400
81.89999531	0.00000000	-41.15403000	-7.24040300
82.09999530	0.00000000	-38.50270000	-7.98474400
82.29999529	0.00000000	-37.34006000	-9.51648500
82.49999528	0.00000000	-38.04134000	-11.46653000
82.69999527	0.00000000	-39.57308000	-13.87795000
82.89999525	0.00000000	-41.52928000	-16.57849000
83.09999524	0.00000000	-43.85457000	-19.64198000
83.29999523	0.00000000	-45.76156000	-21.59203000
83.49999522	0.00000000	-46.92421000	-22.38558000
83.69999521	0.00000000	-46.92421000	-22.33637000
83.89999520	0.00000000	-45.81078000	-20.34941000
84.09999518	0.00000000	-44.31594000	-16.94759000
84.29999517	0.00000000	-43.11023000	-13.04749000
84.49999516	0.00000000	-42.31668000	-9.55954600
84.69999515	0.00000000	-41.57849000	-6.82209600
84.89999514	0.00000000	-41.57849000	-5.33341500
85.09999512	0.00000000	-42.27362000	-5.70866100
85.29999511	0.00000000	-42.64886000	-8.07086500
85.49999510	0.00000000	-42.69193000	-11.93405000
85.69999509	0.00000000	-42.69193000	-16.94759000
85.89999508	0.00000000	-42.69193000	-21.50590000
86.09999506	0.00000000	-42.69193000	-24.24335000
86.29999505	0.00000000	-42.73499000	-24.66781000
86.49999504	0.00000000	-43.11023000	-23.12992000
86.69999503	0.00000000	-43.89763000	-20.01722000
86.89999502	0.00000000	-44.64813000	-15.74188000
87.09999501	0.00000000	-45.43553000	-11.14050000
87.29999499	0.00000000	-45.76156000	-7.33267600
87.49999498	0.00000000	-45.38631000	-5.75172200
87.69999497	0.00000000	-44.22982000	-6.48991100
87.89999496	0.00000000	-42.69193000	-8.86441900
88.09999495	0.00000000	-41.15403000	-13.09670000
88.29999493	0.00000000	-39.99754000	-18.01796000
88.49999492	0.00000000	-39.62229000	-21.50590000
88.69999491	0.00000000	-39.99754000	-23.08686000
88.89999490	0.00000000	-41.15403000	-22.66855000
89.09999489	0.00000000	-42.69193000	-19.97416000
89.29999487	0.00000000	-44.22982000	-15.74188000
89.49999486	0.00000000	-45.38631000	-11.14050000
89.69999485	0.00000000	-45.76156000	-7.28346400
89.89999484	0.00000000	-45.38631000	-5.42568800
90.09999483	0.00000000	-44.22982000	-6.17618100
90.29999482	0.00000000	-42.78420000	-9.60875900
90.49999480	0.00000000	-41.94759000	-14.16708000
90.69999479	0.00000000	-41.89838000	-18.43627000
90.89999478	0.00000000	-41.52928000	-21.50590000
91.09999477	0.00000000	-41.57849000	-22.66240000
91.29999476	0.00000000	-42.27362000	-21.50590000
91.49999474	0.00000000	-42.64886000	-18.43627000
91.69999473	0.00000000	-42.69193000	-14.21014000
91.89999472	0.00000000	-42.64886000	-9.98400600
92.09999471	0.00000000	-42.27362000	-6.91437000
92.29999470	0.00000000	-41.57849000	-5.75172200
92.49999468	0.00000000	-41.57849000	-6.95743000
92.69999467	0.00000000	-42.31668000	-10.40231000
92.89999466	0.00000000	-43.11023000	-15.36663000
93.09999465	0.00000000	-44.27288000	-19.92495000
93.29999464	0.00000000	-45.38631000	-22.66855000
93.49999463	0.00000000	-45.76156000	-23.08686000
93.69999461	0.00000000	-45.43553000	-21.50590000
93.89999460	0.00000000	-44.60506000	-18.06102000
94.09999459	0.00000000	-43.38705000	-13.46580000
94.29999458	0.00000000	-41.06791000	-9.65182000
94.49999457	0.00000000	-38.45964000	-7.28346400
94.69999455	0.00000000	-36.92175000	-6.95743000
94.89999454	0.00000000	-36.92175000	-8.86441900
95.09999453	0.00000000	-38.41658000	-12.67224000
95.29999452	0.00000000	-40.77879000	-16.85531000
95.49999451	0.00000000	-43.48548000	-19.97416000
95.69999449	0.00000000	-46.59818000	-21.54897000
95.89999448	0.00000000	-48.88041000	-21.54897000
96.09999447	-0.15871060	-50.08612000	-19.97416000
96.29999446	0.00000000	-50.00000000	-16.90453000
96.49999445	0.00000000	-48.04380000	-13.09670000
96.69999444	0.00000000	-44.22982000	-10.07013000
96.89999442	0.00000000	-39.99754000	-8.86441900
97.09999441	0.00000000	-36.50344000	-9.60875900
97.29999440	0.00000000	-34.17815000	-11.46653000
97.49999439	0.00000000	-33.80290000	-13.83489000
97.69999438	0.00000000	-35.34079000	-16.11712000
97.89999436	0.00000000	-38.41658000	-18.01796000
98.09999435	0.00000000	-42.31668000	-18.43627000
98.29999434	0.00000000	-46.18602000	-17.74114000
98.49999433	0.00000000	-49.66781000	-16.94759000
98.69999432	0.00000000	-51.58095000	-15.78494000
98.89999430	0.00000000	-51.62401000	-14.62844000
99.09999429	0.00000000	-50.04306000	-13.83489000
99.29999428	0.00000000	-46.96727000	-13.09670000
99.49999427	0.00000000	-43.11023000	-13.04749000
99.69999426	0.00000000	-39.62229000	-13.37352000
99.89999425	0.00000000	-36.87869000	-13.00443000
100.09999423	0.00000000	-35.34079000	-12.67224000
100.29999422	0.00000000	-35.34079000	-12.62918000
100.49999421	0.00000000	-36.87869000	-12.62918000
100.69999420	0.00000000	-39.57308000	-12.67224000
100.89999419	0.00000000	-42.69193000	-13.09670000
101.09999417	0.00000000	-45.76156000	-14.25320000
101.29999416	0.00000000	-48.08686000	-15.78494000
101.49999415	0.00000000	-48.88041000	-17.32283000
101.69999414	0.00000000	-48.54823000	-18.43627000
101.89999413	0.00000000	-47.34252000	-18.43627000
102.09999411	0.00000000	-45.43553000	-17.27362000
102.29999410	0.00000000	-43.06717000	-15.32357000
102.49999409	0.00000000	-40.77879000	-12.62918000
102.69999408	0.00000000	-38.83489000	-9.98400600
102.89999407	0.00000000	-38.04134000	-8.40305000
103.09999406	0.00000000	-37.99213000	-8.02780400
103.29999404	0.00000000	-38.45964000	-8.82135800
103.49999403	0.00000000	-39.99754000	-11.18356000
103.69999402	0.00000000	-42.27362000	-14.58538000
103.89999401	0.00000000	-44.22982000	-18.06102000
104.09999400	0.00000000	-45.81078000	-20.34941000
104.29999398	0.00000000	-46.92421000	-21.13066000
104.49999397	0.00000000	-46.92421000	-19.97416000
104.69999396	0.00000000	-45.81078000	-17.32283000
104.89999395	0.00000000	-44.27288000	-14.25320000
105.09999394	0.00000000	-42.69193000	-11.51575000
105.29999392	0.00000000	-41.15403000	-9.60875900
105.49999391	0.00000000	-40.04060000	-8.82135800
105.69999390	0.00000000	-39.99754000	-9.60875900
105.89999389	0.00000000	-40.73573000	-11.46653000
106.09999388	0.00000000	-41.52928000	-13.83489000
106.29999387	0.00000000	-42.69193000	-16.11712000
106.49999385	0.00000000	-43.80536000	-18.01796000
106.69999384	0.00000000	-44.22982000	-18.43627000
106.89999383	0.00000000	-44.22982000	-17.69808000
107.09999382	0.00000000	-43.80536000	-16.52928000
107.29999381	0.00000000	-42.69193000	-14.58538000
107.49999379	0.00000000	-41.57849000	-12.72146000
107.69999378	0.00000000	-41.15403000	-11.55881000
107.89999377	0.00000000	-41.15403000	-11.55881000
108.09999376	0.00000000	-41.52928000	-12.67224000
108.29999375	0.00000000	-42.31668000	-14.21014000
108.49999374	0.00000000	-43.06717000	-15.74188000
108.69999372	0.00000000	-43.85457000	-16.89837000
108.89999371	0.00000000	-44.22982000	-17.27362000
109.09999370	0.00000000	-44.22982000	-16.89837000
109.29999369	0.00000000	-43.80536000	-15.74188000
109.49999368	0.00000000	-42.69193000	-14.21014000
109.69999366	0.00000000	-41.57849000	-12.67224000
109.89999365	0.00000000	-41.15403000	-11.51575000
110.09999364	0.00000000	-41.11097000	-11.14050000
110.29999363	0.00000000	-41.15403000	-11.51575000
110.49999362	0.00000000	-41.52928000	-12.67224000
110.69999360	0.00000000	-42.31668000	-14.21014000
110.89999359	0.00000000	-43.06717000	-15.74188000
111.09999358	0.00000000	-43.85457000	-16.89837000
111.29999357	0.00000000	-44.22982000	-17.32283000
111.49999356	0.00000000	-44.22982000	-17.32283000
111.69999355	0.00000000	-43.85457000	-16.89837000
111.89999353	0.00000000	-43.06717000	-15.78494000
112.09999352	0.00000000	-42.31668000	-14.62844000
112.29999351	0.00000000	-41.52928000	-13.83489000
112.49999350	0.00000000	-41.15403000	-13.04749000
112.69999349	0.00000000	-41.15403000	-12.67224000
112.89999347	0.00000000	-41.52928000	-12.67224000
113.09999346	0.00000000	-42.27362000	-13.04749000
113.29999345	0.00000000	-42.64886000	-13.79183000
113.49999344	0.00000000	-42.69193000	-14.16708000
113.69999343	0.00000000	-42.69193000	-14.21014000
113.89999341	0.00000000	-42.69193000	-14.25320000
114.09999340	0.00000000	-42.69193000	-14.62844000
114.29999339	0.00000000	-42.69193000	-15.36663000
114.49999338	0.00000000	-42.69193000	-15.74188000
114.69999337	0.00000000	-42.69193000	-15.78494000
114.89999336	0.00000000	-42.69193000	-15.78494000
115.09999334	0.00000000	-42.69193000	-15.78494000
115.29999333	0.00000000	-42.69193000	-15.74188000
115.49999332	0.00000000	-42.69193000	-15.36663000
115.69999331	0.00000000	-42.69193000	-14.58538000
115.89999330	0.00000000	-42.69193000	-13.83489000
116.09999328	0.00000000	-42.69193000	-13.04749000
116.29999327	0.00000000	-42.69193000	-12.67224000
116.49999326	0.00000000	-42.69193000	-12.62918000
116.69999325	0.00000000	-42.69193000	-12.67224000
116.89999324	0.00000000	-42.69193000	-13.04749000
117.09999322	0.00000000	-42.69193000	-13.83489000
117.29999321	0.00000000	-42.64886000	-14.58538000
117.49999320	0.00000000	-42.27362000	-15.40969000
117.69999319	0.00000000	-41.52928000	-16.11712000
117.89999318	0.00000000	-41.15403000	-16.52928000
118.09999317	0.00000000	-41.11097000	-16.16018000
118.29999315	0.00000000	-41.15403000	-15.78494000
118.49999314	0.00000000	-41.57849000	-15.36663000
118.69999313	0.00000000	-42.69193000	-14.58538000
118.89999312	0.00000000	-43.80536000	-13.83489000
119.09999311	0.00000000	-44.27288000	-13.04749000
119.29999309	0.00000000	-44.64813000	-12.67224000
119.49999308	0.00000000	-45.01722000	-12.67224000
119.69999307	0.00000000	-44.60506000	-13.04749000
119.89999306	0.00000000	-43.85457000	-13.79183000
120.09999305	0.00000000	-42.64886000	-14.21014000
120.29999303	0.00000000	-41.15403000	-14.62844000
120.49999302	0.00000000	-39.99754000	-15.36663000
120.69999301	0.00000000	-39.62229000	-15.74188000
120.89999300	0.00000000	-39.94832000	-15.78494000
121.09999299	0.00000000	-40.73573000	-15.78494000
121.29999298	0.00000000	-41.52928000	-15.78494000
121.49999296	0.00000000	-42.73499000	-15.74188000
121.69999295	0.00000000	-44.22982000	-15.36663000
121.89999294	0.00000000	-45.38631000	-14.62844000
122.09999293	0.00000000	-45.76156000	-14.25320000
122.29999292	0.00000000	-45.38631000	-14.16708000
122.49999290	0.00000000	-44.27288000	-13.83489000
122.69999289	0.00000000	-43.11023000	-13.42274000
122.89999288	0.00000000	-42.27362000	-13.45964000
123.09999287	0.00000000	-41.11097000	-13.42274000
123.29999286	0.00000000	-39.99754000	-13.83489000
123.49999284	0.00000000	-39.57308000	-14.16708000
123.69999283	0.00000000	-39.57308000	-14.25320000
123.89999282	0.00000000	-39.99754000	-14.62844000
124.09999281	0.00000000	-41.11097000	-15.36663000
124.29999280	0.00000000	-42.27362000	-15.74188000
124.49999279	0.00000000	-43.06717000	-15.74188000
124.69999277	0.00000000	-43.85457000	-15.36663000
124.89999276	0.00000000	-44.22982000	-14.62844000
125.09999275	0.00000000	-44.27288000	-14.25320000
125.29999274	0.00000000	-44.22982000	-14.16708000
125.49999273	0.00000000	-43.85457000	-13.83489000
125.69999271	0.00000000	-43.06717000	-13.42274000
125.89999270	0.00000000	-42.27362000	-13.41658000
126.09999269	0.00000000	-41.11097000	-13.00443000
126.29999268	0.00000000	-39.99754000	-12.72146000
126.49999267	0.00000000	-39.57308000	-13.04749000
126.69999265	0.00000000	-39.57308000	-13.83489000
126.89999264	0.00000000	-39.99754000	-14.58538000
127.09999263	0.00000000	-41.15403000	-15.36663000
127.29999262	0.00000000	-42.64886000	-15.74188000
127.49999261	0.00000000	-43.80536000	-15.74188000
127.69999260	0.00000000	-44.22982000	-15.36663000
127.89999258	0.00000000	-44.27288000	-14.62844000
128.09999257	0.00000000	-44.22982000	-14.25320000
128.29999256	0.00000000	-43.80536000	-14.16708000
128.49999255	0.00000000	-42.64886000	-13.79183000
128.69999254	0.00000000	-41.15403000	-13.09670000
128.89999252	0.00000000	-39.99754000	-13.09670000
129.09999251	0.00000000	-39.62229000	-13.79183000
129.29999250	0.00000000	-39.99754000	-14.16708000
129.49999249	0.00000000	-41.11097000	-14.25320000
129.69999248	0.00000000	-42.27362000	-14.58538000
129.89999246	0.00000000	-43.06717000	-14.94833000
130.09999245	0.00000000	-43.85457000	-14.58538000
130.29999244	0.00000000	-44.22982000	-14.25320000
130.49999243	0.00000000	-44.22982000	-14.21014000
130.69999242	0.00000000	-43.80536000	-14.21014000
130.89999241	0.00000000	-42.69193000	-14.21014000
131.09999239	0.00000000	-41.57849000	-14.21014000
131.29999238	0.00000000	-41.15403000	-14.21014000
131.49999237	0.00000000	-41.11097000	-14.21014000
131.69999236	0.00000000	-41.15403000	-14.25320000
131.89999235	0.00000000	-41.52928000	-14.62844000
132.09999233	0.00000000	-42.27362000	-15.36663000
132.29999232	0.00000000	-42.64886000	-15.74188000
132.49999231	0.00000000	-42.69193000	-15.74188000
132.69999230	0.00000000	-42.69193000	-15.36663000
132.89999229	0.00000000	-42.69193000	-14.62844000
133.09999227	0.00000000	-42.69193000	-14.21014000
133.29999226	0.00000000	-42.69193000	-13.79183000
133.49999225	0.00000000	-42.69193000	-13.04749000
133.69999224	0.00000000	-42.69193000	-12.67224000
133.89999223	0.00000000	-42.69193000	-12.67224000
134.09999222	0.00000000	-42.69193000	-13.04749000
134.29999220	0.00000000	-42.69193000	-13.83489000
134.49999219	0.00000000	-42.64886000	-14.58538000
134.69999218	0.00000000	-42.27362000	-15.36663000
134.89999217	0.00000000	-41.52928000	-15.74188000
135.09999216	0.00000000	-41.15403000	-15.78494000
135.29999214	0.00000000	-41.11097000	-15.74188000
135.49999213	0.00000000	-41.15403000	-15.36663000
135.69999212	0.00000000	-41.52928000	-14.58538000
135.89999211	0.00000000	-42.27362000	-13.83489000
136.09999210	0.00000000	-42.69193000	-13.04749000
136.29999208	0.00000000	-43.11023000	-12.67224000
136.49999207	0.00000000	-43.80536000	-12.67224000
136.69999206	0.00000000	-43.80536000	-13.04749000
136.89999205	0.00000000	-43.06717000	-13.79183000
137.09999204	0.00000000	-42.31668000	-14.16708000
137.29999203	0.00000000	-41.52928000	-14.25320000
137.49999201	0.00000000	-41.15403000	-14.62844000
137.69999200	0.00000000	-41.11097000	-15.36663000
137.89999199	0.00000000	-41.11097000	-15.74188000
138.09999198	0.00000000	-41.15403000	-15.78494000
138.29999197	0.00000000	-41.52928000	-15.74188000
138.49999195	0.00000000	-42.27362000	-15.36663000
138.69999194	0.00000000	-42.69193000	-14.62844000
138.89999193	0.00000000	-43.06717000	-14.25320000
139.09999192	0.00000000	-43.43627000	-14.16708000
139.29999191	0.00000000	-43.06717000	-13.79183000
139.49999189	0.00000000	-42.73499000	-13.09670000
139.69999188	0.00000000	-42.64886000	-13.04749000
139.89999187	0.00000000	-42.27362000	-13.41658000
140.09999186	0.00000000	-41.52928000	-13.42274000
140.29999185	0.00000000	-41.15403000	-13.87795000
140.49999184	0.00000000	-41.15403000	-14.58538000
140.69999182	0.00000000	-41.52928000	-15.36663000
140.89999181	0.00000000	-42.27362000	-15.74188000
141.09999180	0.00000000	-42.64886000	-15.78494000
141.29999179	0.00000000	-42.69193000	-15.74188000
141.49999178	0.00000000	-42.69193000	-15.36663000
141.69999176	0.00000000	-42.69193000	-14.58538000
141.89999175	0.00000000	-42.64886000	-13.83489000
142.09999174	0.00000000	-42.27362000	-13.04749000
142.29999173	0.00000000	-41.52928000	-12.67224000
142.49999172	0.00000000	-41.15403000	-12.67224000
142.69999170	0.00000000	-41.11097000	-13.04749000
142.89999169	0.00000000	-41.15403000	-13.79183000
143.09999168	0.00000000	-41.52928000	-14.21014000
143.29999167	0.00000000	-42.27362000	-14.62844000
143.49999166	0.00000000	-42.64886000	-15.36663000
143.69999165	0.00000000	-42.69193000	-15.74188000
143.89999163	0.00000000	-42.64886000	-15.74188000
144.09999162	0.00000000	-42.31668000	-15.36663000
144.29999161	0.00000000	-41.90453000	-14.58538000
144.49999160	0.00000000	-41.89838000	-13.83489000
144.69999159	0.00000000	-41.48622000	-13.04749000
144.89999157	0.00000000	-41.15403000	-12.67224000
145.09999156	0.00000000	-41.15403000	-12.67224000
145.29999155	0.00000000	-41.52928000	-13.04749000
145.49999154	0.00000000	-42.27362000	-13.79183000
145.69999153	0.00000000	-42.64886000	-14.21014000
145.89999151	0.00000000	-42.69193000	-14.62844000
146.09999150	0.00000000	-42.69193000	-15.36663000
146.29999149	0.00000000	-42.69193000	-15.74188000
146.49999148	0.00000000	-42.64886000	-15.74188000
146.69999147	0.00000000	-42.27362000	-15.36663000
146.89999146	0.00000000	-41.52928000	-14.62844000
147.09999144	0.00000000	-41.15403000	-14.25320000
147.29999143	0.00000000	-41.11097000	-14.16708000
147.49999142	0.00000000	-41.15403000	-13.79183000
147.69999141	0.00000000	-41.52928000	-13.04749000
147.89999140	0.00000000	-42.27362000	-12.72146000
148.09999138	0.00000000	-42.64886000	-13.04749000
148.29999137	0.00000000	-42.69193000	-13.79183000
148.49999136	0.00000000	-42.69193000	-14.16708000
148.69999135	0.00000000	-42.69193000	-14.21014000
148.89999134	0.00000000	-42.64886000	-14.21014000
149.09999132	0.00000000	-42.27362000	-14.25320000
149.29999131	0.00000000	-41.52928000	-14.58538000
149.49999130	0.00000000	-41.15403000	-14.94833000
149.69999129	0.00000000	-41.11097000	-14.58538000
149.89999128	0.00000000	-41.11097000	-14.25320000
150.09999127	0.00000000	-41.15403000	-14.16708000
150.29999125	0.00000000	-41.52928000	-13.79183000
150.49999124	0.00000000	-42.27362000	-13.04749000
150.69999123	0.00000000	-42.64886000	-12.67224000
150.89999122	0.00000000	-42.69193000	-12.67224000
151.09999121	0.00000000	-42.69193000	-13.04749000
151.29999119	0.00000000	-42.69193000	-13.79183000
151.49999118	0.00000000	-42.69193000	-14.16708000
151.69999117	0.00000000	-42.64886000	-14.21014000
151.89999116	0.00000000	-42.27362000	-14.21014000
152.09999115	0.00000000	-41.52928000	-14.21014000
152.29999113	0.00000000	-41.15403000	-14.21014000
152.49999112	0.00000000	-41.11097000	-14.21014000
152.69999111	0.00000000	-41.11097000	-14.21014000
152.89999110	0.00000000	-41.11097000	-14.21014000
153.09999109	0.00000000	-41.15403000	-14.21014000
153.29999108	0.00000000	-41.52928000	-14.21014000
153.49999106	0.00000000	-42.27362000	-14.16708000
153.69999105	0.00000000	-42.64886000	-13.83489000
153.89999104	0.00000000	-42.69193000	-13.46580000
154.09999103	0.00000000	-42.69193000	-13.79183000
154.29999102	0.00000000	-42.64886000	-13.74262000
154.49999100	0.00000000	-42.31668000	-13.09670000
154.69999099	0.00000000	-41.90453000	-13.09670000
154.89999098	0.00000000	-41.89838000	-13.79183000
155.09999097	0.00000000	-41.48622000	-14.16708000
155.29999096	0.00000000	-41.15403000	-14.21014000
155.49999094	0.00000000	-41.11097000	-14.21014000
155.69999093	0.00000000	-41.11097000	-14.21014000
155.89999092	0.00000000	-41.11097000	-14.21014000
156.09999091	0.00000000	-41.15403000	-14.21014000
156.29999090	0.00000000	-41.52928000	-14.21014000
156.49999089	0.00000000	-42.27362000	-14.16708000
156.69999087	0.00000000	-42.64886000	-13.79183000
156.89999086	0.00000000	-42.69193000	-13.04749000
157.09999085	0.00000000	-42.69193000	-12.67224000
157.29999084	0.00000000	-42.69193000	-12.67224000
157.49999083	0.00000000	-42.64886000	-13.04749000
157.69999081	0.00000000	-42.27362000	-13.79183000
157.89999080	0.00000000	-41.52928000	-14.16708000
158.09999079	0.00000000	-41.15403000	-14.21014000
158.29999078	0.00000000	-41.11097000	-14.21014000
158.49999077	0.00000000	-41.11097000	-14.21014000
158.69999075	0.00000000	-41.11097000	-14.21014000
158.89999074	0.00000000	-41.11097000	-14.21014000
159.09999073	0.00000000	-41.15403000	-14.21014000
159.29999072	0.00000000	-41.52928000	-14.16708000
159.49999071	0.00000000	-42.27362000	-13.79183000
159.69999070	0.00000000	-42.64886000	-13.04749000
159.89999068	0.00000000	-42.64886000	-12.72146000
160.09999067	0.00000000	-42.31668000	-13.04749000
160.29999066	0.00000000	-41.94759000	-13.79183000
160.49999065	0.00000000	-42.31668000	-14.16708000
160.69999064	0.00000000	-42.59965000	-14.25320000
160.89999062	0.00000000	-42.31668000	-14.58538000
161.09999061	0.00000000	-41.90453000	-14.94833000
161.29999060	0.00000000	-41.89838000	-14.58538000
161.49999059	0.00000000	-41.48622000	-14.25320000
161.69999058	0.00000000	-41.15403000	-14.21014000
161.89999056	0.00000000	-41.11097000	-14.21014000
162.09999055	0.00000000	-41.11097000	-14.21014000
162.29999054	0.00000000	-41.11097000	-14.16708000
162.49999053	0.00000000	-41.11097000	-13.83489000
162.69999052	0.00000000	-41.15403000	-13.46580000
162.89999051	0.00000000	-41.52928000	-13.83489000
163.09999049	0.00000000	-42.27362000	-14.16708000
163.29999048	0.00000000	-42.64886000	-14.16708000
163.49999047	0.00000000	-42.69193000	-13.83489000
163.69999046	0.00000000	-42.64886000	-13.46580000
163.89999045	0.00000000	-42.31668000	-13.83489000
164.09999043	0.00000000	-41.94759000	-14.16708000
164.29999042	0.00000000	-42.27362000	-14.21014000
164.49999041	0.00000000	-42.22441000	-14.21014000
164.69999040	0.00000000	-41.52928000	-14.21014000
164.89999039	0.00000000	-41.15403000	-14.21014000
165.09999037	0.00000000	-41.11097000	-14.21014000
165.29999036	0.00000000	-41.11097000	-14.21014000
165.49999035	0.00000000	-41.15403000	-14.16708000
165.69999034	0.00000000	-41.52928000	-13.83489000
165.89999033	0.00000000	-42.27362000	-13.46580000
166.09999032	0.00000000	-42.64886000	-13.83489000
166.29999030	0.00000000	-42.69193000	-14.16708000
166.49999029	0.00000000	-42.69193000	-14.21014000
166.69999028	0.00000000	-42.69193000	-14.21014000
166.89999027	0.00000000	-42.64886000	-14.21014000
167.09999026	0.00000000	-42.27362000	-14.21014000
167.29999024	0.00000000	-41.52928000	-14.21014000
167.49999023	0.00000000	-41.15403000	-14.25320000
167.69999022	0.00000000	-41.11097000	-14.58538000
167.89999021	0.00000000	-41.11097000	-14.94833000
168.09999020	0.00000000	-41.11097000	-14.58538000
168.29999018	0.00000000	-41.11097000	-14.25320000
168.49999017	0.00000000	-41.11097000	-14.21014000
168.69999016	0.00000000	-41.11097000	-14.21014000
168.89999015	0.00000000	-41.11097000	-14.21014000
169.09999014	0.00000000	-41.11097000	-14.21014000
169.29999013	0.00000000	-41.15403000	-14.21014000
169.49999011	0.00000000	-41.48622000	-14.21014000
169.69999010	0.00000000	-41.89838000	-14.21014000
169.89999009	0.00000000	-41.86147000	-14.21014000
170.09999008	0.00000000	-41.89838000	-14.21014000
170.29999007	0.00000000	-41.48622000	-14.21014000
170.49999005	0.00000000	-41.15403000	-14.21014000
170.69999004	0.00000000	-41.11097000	-14.21014000
170.89999003	0.00000000	-41.11097000	-14.21014000
171.09999002	0.00000000	-41.11097000	-14.21014000
171.29999001	0.00000000	-41.11097000	-14.21014000
171.49998999	0.00000000	-41.11097000	-14.21014000
171.69998998	0.00000000	-41.11097000	-14.21014000
171.89998997	0.00000000	-41.11097000	-14.21014000
172.09998996	0.00000000	-41.11097000	-14.21014000
172.29998995	0.00000000	-41.11097000	-14.16708000
172.49998994	0.00000000	-41.11097000	-13.79183000
172.69998992	0.00000000	-41.11097000	-13.09670000
172.89998991	0.00000000	-41.11097000	-13.09670000
173.09998990	0.00000000	-41.11097000	-13.79183000
173.29998989	0.00000000	-41.11097000	-14.16708000
173.49998988	0.00000000	-41.11097000	-14.21014000
173.69998986	0.00000000	-41.11097000	-14.21014000
173.89998985	0.00000000	-41.11097000	-14.21014000
174.09998984	0.00000000	-41.11097000	-14.21014000
174.29998983	0.00000000	-41.11097000	-14.21014000
174.49998982	0.00000000	-41.11097000	-14.21014000
174.69998980	0.00000000	-41.11097000	-14.21014000
174.89998979	0.00000000	-41.11097000	-14.21014000
175.09998978	0.00000000	-41.11097000	-14.21014000
175.29998977	0.00000000	-41.11097000	-14.21014000
175.49998976	0.00000000	-41.11097000	-14.21014000
175.69998975	0.00000000	-41.11097000	-14.21014000
175.89998973	0.00000000	-41.11097000	-14.21014000
176.09998972	0.00000000	-41.11097000	-14.21014000
176.29998971	0.00000000	-41.11097000	-14.21014000
176.49998970	0.00000000	-41.11097000	-14.21014000
176.69998969	0.00000000	-41.11097000	-14.21014000
176.89998967	0.00000000	-41.11097000	-14.21014000
177.09998966	0.00000000	-41.11097000	-14.21014000
177.29998965	0.00000000	-41.11097000	-14.21014000
177.49998964	0.00000000	-41.11097000	-14.21014000
177.69998963	0.00000000	-41.11097000	-14.21014000
177.89998961	0.00000000	-41.11097000	-14.21014000
178.09998960	0.00000000	-41.11097000	-14.21014000
178.29998959	0.00000000	-41.11097000	-14.21014000
178.49998958	0.00000000	-41.15403000	-14.21014000
178.69998957	0.00000000	-41.48622000	-14.21014000
178.89998956	0.00000000	-41.85531000	-14.21014000
179.09998954	0.00000000	-41.48622000	-14.21014000
179.29998953	0.00000000	-41.15403000	-14.21014000
179.49998952	0.00000000	-41.11097000	-14.21014000
179.69998951	0.00000000	-41.11097000	-14.21014000
179.89998950	0.00000000	-41.11097000	-14.21014000
180.09998948	0.00000000	-41.11097000	-14.21014000
180.29998947	0.00000000	-41.11097000	-14.21014000
180.49998946	0.00000000	-41.11097000	-14.21014000
180.69998945	0.00000000	-41.11097000	-14.21014000
180.89998944	0.00000000	-41.11097000	-14.21014000
181.09998942	0.00000000	-41.11097000	-14.16708000
181.29998941	0.00000000	-41.11097000	-13.79183000
181.49998940	0.00000000	-41.11097000	-13.04749000
181.69998939	0.00000000	-41.11097000	-12.72146000
181.89998938	0.00000000	-41.11097000	-13.04749000
182.09998937	0.00000000	-41.11097000	-13.74262000
182.29998935	0.00000000	-41.11097000	-13.79183000
182.49998934	0.00000000	-41.11097000	-13.46580000
182.69998933	0.00000000	-41.11097000	-13.83489000
182.89998932	0.00000000	-41.11097000	-14.16708000
183.09998931	0.00000000	-41.11097000	-14.21014000
183.29998929	0.00000000	-41.11097000	-14.21014000
183.49998928	0.00000000	-41.11097000	-14.21014000
183.69998927	0.00000000	-41.11097000	-14.16708000
183.89998926	0.00000000	-41.11097000	-13.79183000
184.09998925	0.00000000	-41.11097000	-13.04749000
184.29998923	0.00000000	-41.11097000	-12.67224000
184.49998922	0.00000000	-41.11097000	-12.62918000
184.69998921	0.00000000	-41.11097000	-12.62918000
184.89998920	0.00000000	-41.11097000	-12.62918000
185.09998919	0.00000000	-41.11097000	-12.67224000
185.29998918	0.00000000	-41.11097000	-13.04749000
185.49998916	0.00000000	-41.11097000	-13.79183000
185.69998915	0.00000000	-41.11097000	-14.16708000
185.89998914	0.00000000	-41.11097000	-14.21014000
186.09998913	0.00000000	-41.11097000	-14.21014000
186.29998912	0.00000000	-41.11097000	-14.21014000
186.49998910	0.00000000	-41.11097000	-14.21014000
186.69998909	0.00000000	-41.15403000	-14.21014000
186.89998908	0.00000000	-41.52928000	-14.16708000
187.09998907	0.00000000	-42.22441000	-13.79183000
187.29998906	0.00000000	-42.22441000	-13.04749000
187.49998904	0.00000000	-41.52928000	-12.72146000
187.69998903	0.00000000	-41.15403000	-13.04749000
187.89998902	0.00000000	-41.11097000	-13.79183000
188.09998901	0.00000000	-41.11097000	-14.16708000
188.29998900	0.00000000	-41.11097000	-14.21014000
188.49998899	0.00000000	-41.11097000	-14.21014000
188.69998897	0.00000000	-41.11097000	-14.21014000
188.89998896	0.00000000	-41.11097000	-14.21014000
189.09998895	0.00000000	-41.11097000	-14.21014000
189.29998894	0.00000000	-41.11097000	-14.21014000
189.49998893	0.00000000	-41.11097000	-14.21014000
189.69998891	0.00000000	-41.11097000	-14.21014000
189.89998890	0.00000000	-41.11097000	-14.21014000
190.09998889	0.00000000	-41.11097000	-14.21014000
190.29998888	0.00000000	-41.15403000	-14.21014000
190.49998887	0.00000000	-41.48622000	-14.21014000
190.69998885	0.00000000	-41.85531000	-14.21014000
190.89998884	0.00000000	-41.48622000	-14.21014000
191.09998883	0.00000000	-41.15403000	-14.21014000
191.29998882	0.00000000	-41.11097000	-14.21014000
191.49998881	0.00000000	-41.11097000	-14.21014000
191.69998880	0.00000000	-41.11097000	-14.21014000
191.89998878	0.00000000	-41.11097000	-14.21014000
192.09998877	0.00000000	-41.11097000	-14.21014000
192.29998876	0.00000000	-41.11097000	-14.21014000
192.49998875	0.00000000	-41.11097000	-14.21014000
192.69998874	0.00000000	-41.15403000	-14.21014000
192.89998872	0.00000000	-41.48622000	-14.21014000
193.09998871	0.00000000	-41.85531000	-14.16708000
193.29998870	0.00000000	-41.52928000	-13.83489000
193.49998869	0.00000000	-41.52928000	-13.42274000
193.69998868	0.00000000	-41.85531000	-13.41658000
193.89998866	0.00000000	-41.48622000	-13.00443000
194.09998865	0.00000000	-41.15403000	-12.67224000
194.29998864	0.00000000	-41.11097000	-12.62918000
194.49998863	0.00000000	-41.11097000	-12.67224000
194.69998862	0.00000000	-41.11097000	-13.04749000
194.89998861	0.00000000	-41.11097000	-13.79183000
195.09998859	0.00000000	-41.11097000	-14.16708000
195.29998858	0.00000000	-41.11097000	-14.21014000
195.49998857	0.00000000	-41.15403000	-14.21014000
195.69998856	0.00000000	-41.48622000	-14.21014000
195.89998855	0.00000000	-41.85531000	-14.21014000
196.09998853	0.00000000	-41.48622000	-14.21014000
