Time	Channel A	Channel B	Channel C
(us)	(V)	(mV)	(mV)

-4.49999956	0.00000000	-43.06717000	-14.21014000
-4.29999957	0.00000000	-43.43627000	-14.21014000
-4.09999958	0.00000000	-43.06717000	-14.21014000
-3.89999959	0.00000000	-42.73499000	-14.21014000
-3.69999960	0.00000000	-42.73499000	-14.21014000
-3.49999962	0.00000000	-43.06717000	-14.21014000
-3.29999963	0.00000000	-43.43627000	-14.21014000
-3.09999964	0.00000000	-43.06717000	-14.21014000
-2.89999965	0.00000000	-42.73499000	-14.21014000
-2.69999966	0.00000000	-42.69193000	-14.21014000
-2.49999968	0.00000000	-42.69193000	-14.21014000
-2.29999969	0.00000000	-42.69193000	-14.21014000
-2.09999970	0.00000000	-42.69193000	-14.21014000
-1.89999971	0.00000000	-42.69193000	-14.21014000
-1.69999972	0.00000000	-42.69193000	-14.21014000
-1.49999973	0.00000000	-42.69193000	-14.21014000
-1.29999975	0.00000000	-42.69193000	-14.21014000
-1.09999976	0.00000000	-42.69193000	-14.21014000
-0.89999977	0.00000000	-42.69193000	-14.21014000
-0.69999978	0.00000000	-42.69193000	-14.21014000
-0.49999979	0.00000000	-42.69193000	-14.21014000
-0.29999981	0.31803640	-42.69193000	-14.21014000
-0.09999982	0.63668800	-42.69193000	-14.21014000
0.10000017	0.95533960	-42.69193000	-14.21014000
0.30000016	0.95533960	-42.73499000	-14.21014000
0.50000015	0.79601380	-43.06717000	-14.25320000
0.70000013	0.15871060	-43.43627000	-14.58538000
0.90000012	-0.79601380	-43.06717000	-14.94833000
1.10000011	-1.75196900	-42.73499000	-14.58538000
1.30000010	-2.54859700	-42.69193000	-14.25320000
1.50000009	-2.86724900	-42.69193000	-14.21014000
1.70000008	-2.22994600	-42.69193000	-14.21014000
1.90000006	-0.95533960	-42.69193000	-14.21014000
2.10000005	1.11466500	-42.69193000	-14.21014000
2.30000004	3.18590100	-42.69193000	-14.21014000
2.50000003	4.77854300	-42.69193000	-14.25320000
2.70000002	5.25652100	-42.73499000	-14.62844000
2.90000000	4.45989200	-43.11023000	-15.36663000
3.09999999	2.22994600	-43.85457000	-15.74188000
3.29999998	-0.95533960	-44.18061000	-15.74188000
3.49999997	-4.45989200	-43.85457000	-15.36663000
3.69999996	-7.00848900	-43.11023000	-14.62844000
3.89999994	-7.96444400	-42.73499000	-14.25320000
4.09999993	-7.00848900	-42.69193000	-14.16708000
4.29999992	-4.14124000	-42.69193000	-13.83489000
4.49999991	0.00000000	-42.69193000	-13.46580000
4.69999990	4.45989200	-42.73499000	-13.83489000
4.89999989	7.80511800	-43.11023000	-14.21014000
5.09999987	9.39837600	-43.85457000	-14.62844000
5.29999986	8.60174700	-44.22982000	-15.36663000
5.49999985	5.57517200	-44.22982000	-15.74188000
5.69999984	1.11466500	-43.85457000	-15.78494000
5.89999983	-3.50393700	-43.11023000	-15.74188000
6.09999981	-7.48646600	-42.73499000	-15.36663000
6.29999980	-9.39837600	-42.69193000	-14.62844000
6.49999979	-8.92039900	-42.69193000	-14.25320000
6.69999978	-6.37180100	-42.69193000	-14.21014000
6.89999977	-2.38927200	-42.69193000	-14.21014000
7.09999975	1.91129400	-42.69193000	-14.21014000
7.29999974	5.57517200	-42.69193000	-14.25320000
7.49999973	7.48646600	-42.69193000	-14.58538000
7.69999972	7.48646600	-42.69193000	-14.99139000
7.89999971	5.57517200	-42.69193000	-14.95448000
8.09999970	2.54859700	-42.69193000	-14.99139000
8.29999968	-0.63668800	-42.69193000	-14.58538000
8.49999967	-3.50393700	-42.69193000	-14.25320000
8.69999966	-4.93786900	-42.69193000	-14.21014000
8.89999965	-5.09719500	-42.69193000	-14.21014000
9.09999964	-3.98191400	-42.69193000	-14.21014000
9.29999962	-2.22994600	-42.69193000	-14.21014000
9.49999961	-0.15871060	-42.69193000	-14.21014000
9.69999960	1.43331700	-42.69193000	-14.21014000
9.89999959	2.22994600	-42.69193000	-14.21014000
10.09999958	2.54859700	-42.73499000	-14.21014000
10.29999956	2.07062000	-43.06717000	-14.21014000
10.49999955	1.27399100	-43.43627000	-14.21014000
10.69999954	0.31803640	-43.06717000	-14.21014000
10.89999953	-0.47736220	-42.73499000	-14.21014000
11.09999952	-0.79601380	-42.69193000	-14.21014000
11.29999951	-0.95533960	-42.69193000	-14.21014000
11.49999949	-0.95533960	-42.69193000	-14.21014000
11.69999948	-0.63668800	-42.69193000	-14.21014000
11.89999947	-0.31803640	-42.69193000	-14.21014000
12.09999946	-0.15871060	-42.69193000	-14.21014000
12.29999945	-0.15871060	-42.69193000	-14.21014000
12.49999943	0.00000000	-42.69193000	-14.21014000
12.69999942	0.00000000	-42.69193000	-14.21014000
12.89999941	0.00000000	-42.69193000	-14.21014000
13.09999940	0.00000000	-42.69193000	-14.21014000
13.29999939	0.00000000	-42.69193000	-14.21014000
13.49999937	0.00000000	-42.69193000	-14.21014000
13.69999936	0.00000000	-42.69193000	-14.21014000
13.89999935	-0.15871060	-42.69193000	-14.21014000
14.09999934	-0.15871060	-42.69193000	-14.21014000
14.29999933	-0.15871060	-42.69193000	-14.21014000
14.49999932	-0.15871060	-42.69193000	-14.21014000
14.69999930	0.00000000	-42.69193000	-14.21014000
14.89999929	0.00000000	-42.69193000	-14.21014000
15.09999928	0.00000000	-42.69193000	-14.21014000
15.29999927	0.00000000	-42.73499000	-14.21014000
15.49999926	0.00000000	-43.11023000	-14.25320000
15.69999924	0.00000000	-43.80536000	-14.58538000
15.89999923	0.00000000	-43.80536000	-14.94833000
16.09999922	0.00000000	-43.11023000	-14.58538000
16.29999921	-0.15871060	-42.73499000	-14.25320000
16.49999920	-0.15871060	-42.69193000	-14.21014000
16.69999919	-0.15871060	-42.69193000	-14.21014000
16.89999917	-0.15871060	-42.64886000	-14.21014000
17.09999916	0.00000000	-42.27362000	-14.21014000
17.29999915	0.00000000	-41.52928000	-14.21014000
17.49999914	0.00000000	-41.15403000	-14.21014000
17.69999913	0.00000000	-41.15403000	-14.25320000
17.89999911	0.00000000	-41.57849000	-14.62844000
18.09999910	0.00000000	-42.73499000	-15.32357000
18.29999909	0.00000000	-44.27288000	-15.32357000
18.49999908	0.00000000	-45.85384000	-14.62844000
18.69999907	-0.15871060	-47.34252000	-14.25320000
18.89999905	0.00000000	-48.12992000	-14.21014000
19.09999904	-0.15871060	-47.71776000	-14.21014000
19.29999903	0.00000000	-46.50590000	-14.21014000
19.49999902	0.00000000	-43.71924000	-14.21014000
19.69999901	0.00000000	-39.53002000	-14.21014000
19.89999900	0.00000000	-35.29773000	-14.21014000
20.09999898	0.00000000	-32.22195000	-14.21014000
20.29999897	0.00000000	-31.10236000	-14.21014000
20.49999896	0.00000000	-32.73252000	-14.21014000
20.69999895	0.00000000	-37.38312000	-14.21014000
20.89999894	0.00000000	-44.36515000	-14.21014000
21.09999892	0.00000000	-52.08538000	-14.21014000
21.29999891	0.00000000	-59.01821000	-14.21014000
21.49999890	0.00000000	-63.20743000	-14.21014000
21.69999889	0.00000000	-63.16436000	-14.21014000
21.89999888	0.00000000	-58.46457000	-14.25320000
22.09999886	0.00000000	-49.48942000	-14.62844000
22.29999885	0.00000000	-37.48154000	-15.32357000
22.49999884	0.00000000	-24.77854000	-15.32357000
22.69999883	0.00000000	-14.81914000	-14.62844000
22.89999882	0.00000000	-10.62992000	-14.25320000
23.09999881	0.00000000	-13.84104000	-14.21014000
23.29999879	0.00000000	-24.63705000	-14.16708000
23.49999878	-0.15871060	-40.91412000	-13.79183000
23.69999877	0.00000000	-58.65526000	-13.04749000
23.89999876	0.00000000	-74.50787000	-12.67224000
24.09999875	0.00000000	-84.05511000	-12.67224000
24.29999873	0.00000000	-84.79945000	-13.09670000
24.49999872	0.00000000	-75.77510000	-14.29626000
24.69999871	0.00000000	-58.00320000	-16.16018000
24.89999870	0.00000000	-35.24852000	-18.11024000
25.09999869	0.00000000	-13.28740000	-19.27903000
25.29999867	0.00000000	2.53444900	-20.01722000
25.49999866	0.00000000	8.29847400	-19.59892000
25.69999865	-0.15871060	2.48523600	-17.64887000
25.89999864	0.00000000	-13.79798000	-14.90526000
26.09999863	0.00000000	-37.34006000	-11.00517000
26.29999862	0.00000000	-62.78912000	-6.82209600
26.49999860	0.00000000	-83.63681000	-3.75246000
26.69999859	0.00000000	-95.26328000	-2.63902500
26.89999858	0.00000000	-95.22021000	-4.21998000
27.09999857	0.00000000	-83.26156000	-8.48917200
27.29999856	0.00000000	-62.04478000	-14.72072000
27.49999854	0.00000000	-36.96481000	-22.05955000
27.69999853	0.00000000	-13.74877000	-28.98007000
27.89999852	0.00000000	2.48523600	-33.53838000
28.09999851	0.00000000	8.29847400	-34.27657000
28.29999850	0.00000000	2.57751000	-30.33341000
28.49999848	0.00000000	-12.86294000	-22.20103000
28.69999847	0.00000000	-34.08588000	-10.96211000
28.89999846	0.00000000	-56.50836000	0.97810030
29.09999845	0.00000000	-74.70472000	10.96826000
29.29999844	0.00000000	-85.21776000	16.26476000
29.49999843	0.00000000	-86.38041000	14.68996000
29.69999841	0.00000000	-77.95890000	6.18848400
29.89999840	0.00000000	-62.55536000	-7.33267600
30.09999839	0.00000000	-44.35900000	-23.17298000
30.29999838	0.00000000	-26.91314000	-37.85679000
30.49999837	0.00000000	-13.74877000	-48.26525000
30.69999835	0.00000000	-7.51722400	-52.07923000
30.89999834	0.00000000	-9.00590400	-47.80388000
31.09999833	0.00000000	-17.47047000	-36.23277000
31.29999832	0.00000000	-30.59178000	-19.97416000
31.49999831	0.00000000	-45.30019000	-2.22071800
31.69999829	0.00000000	-58.42150000	13.24434000
31.89999828	0.00000000	-66.97834000	22.91462000
32.09999827	0.00000000	-69.44512000	25.18455000
32.29999826	0.00000000	-66.75073000	19.00221000
32.49999825	0.00000000	-59.71949000	5.53641700
32.69999824	0.00000000	-48.92347000	-11.47269000
32.89999822	0.00000000	-37.38312000	-28.93701000
33.09999821	0.00000000	-28.07579000	-43.57775000
33.29999820	0.00000000	-22.63779000	-52.03002000
33.49999819	0.00000000	-22.21334000	-52.07923000
33.69999818	0.00000000	-26.40256000	-44.03912000
33.89999816	0.00000000	-33.75369000	-30.51796000
34.09999815	0.00000000	-42.59965000	-14.21014000
34.29999814	0.00000000	-50.69513000	2.00541300
34.49999813	0.00000000	-55.72096000	14.68996000
34.69999812	0.00000000	-56.92667000	20.49705000
34.89999810	0.00000000	-54.27534000	18.26402000
35.09999809	0.00000000	-48.92347000	9.43651600
35.29999808	0.00000000	-42.73499000	-3.75861200
35.49999807	0.00000000	-36.96481000	-18.76845000
35.69999806	0.00000000	-33.10162000	-32.23425000
35.89999805	0.00000000	-32.35113000	-40.37278000
36.09999803	0.00000000	-34.59645000	-41.99680000
36.29999802	0.00000000	-39.19783000	-37.34621000
36.49999801	0.00000000	-44.18061000	-27.35605000
36.69999800	0.00000000	-48.46210000	-14.72072000
36.89999799	0.00000000	-51.15649000	-3.14960600
37.09999797	-0.15871060	-51.53174000	4.56446800
37.29999796	-0.15871060	-49.62475000	6.88361200
37.49999795	0.00000000	-45.71850000	3.07578700
37.69999794	0.00000000	-40.77879000	-5.33341500
37.89999793	0.00000000	-36.13435000	-15.64960000
38.09999791	0.00000000	-33.47072000	-24.84621000
38.29999790	0.00000000	-33.01550000	-29.87205000
38.49999789	0.00000000	-34.96555000	-29.91511000
38.69999788	0.00000000	-38.41658000	-25.26452000
38.89999787	0.00000000	-42.69193000	-16.85531000
39.09999786	0.00000000	-46.92421000	-7.33267600
39.29999784	0.00000000	-50.04306000	-0.08612204
39.49999783	0.00000000	-51.62401000	2.60826800
39.69999782	0.00000000	-51.62401000	-0.08612204
39.89999781	0.00000000	-50.04306000	-7.33267600
40.09999780	0.00000000	-46.96727000	-16.94759000
40.29999778	0.00000000	-43.11023000	-26.15034000
40.49999777	0.00000000	-39.62229000	-32.65256000
40.69999776	0.00000000	-36.83563000	-34.14124000
40.89999775	0.00000000	-34.92249000	-29.95817000
41.09999774	0.00000000	-34.13509000	-21.54897000
41.29999772	0.00000000	-34.96555000	-11.55881000
41.49999771	-0.15871060	-37.25394000	-2.68208600
41.69999770	-0.15871060	-40.73573000	3.07578700
41.89999769	0.00000000	-44.22982000	4.23228400
42.09999768	0.00000000	-47.34252000	0.42445860
42.29999767	0.00000000	-49.66781000	-6.86515700
42.49999765	0.00000000	-50.41830000	-15.69882000
42.69999764	0.00000000	-49.71087000	-23.78199000
42.89999763	0.00000000	-47.76698000	-28.80167000
43.09999762	0.00000000	-45.43553000	-30.05044000
43.29999761	0.00000000	-42.73499000	-27.73130000
43.49999759	0.00000000	-40.41584000	-22.75467000
43.69999758	0.00000000	-39.19783000	-16.20325000
43.89999757	0.00000000	-38.41658000	-10.07013000
44.09999756	0.00000000	-38.41658000	-5.75172200
44.29999755	0.00000000	-39.11171000	-3.84473400
44.49999753	0.00000000	-39.48696000	-4.59522600
44.69999752	0.00000000	-39.53002000	-7.98474400
44.89999751	0.00000000	-39.57308000	-12.16166000
45.09999750	0.00000000	-39.99754000	-15.69882000
45.29999749	0.00000000	-41.15403000	-18.47933000
45.49999748	0.00000000	-42.73499000	-20.34941000
45.69999746	0.00000000	-44.74040000	-20.75541000
45.89999745	0.00000000	-47.47785000	-19.22982000
46.09999744	0.00000000	-50.46136000	-16.94759000
46.29999743	0.00000000	-52.36220000	-14.21014000
46.49999742	0.00000000	-51.95005000	-11.55881000
46.69999740	0.00000000	-49.57554000	-9.98400600
46.89999739	0.00000000	-44.88189000	-9.56569900
47.09999738	0.00000000	-38.36737000	-9.93479300
47.29999737	0.00000000	-32.22195000	-11.14050000
47.49999736	0.00000000	-27.94045000	-13.04749000
47.69999734	0.00000000	-26.45177000	-15.40969000
47.89999733	0.00000000	-28.45103000	-17.69808000
48.09999732	0.00000000	-34.26427000	-19.59892000
48.29999731	0.00000000	-42.73499000	-19.93110000
48.49999730	0.00000000	-51.58095000	-18.47933000
48.69999729	0.00000000	-58.55069000	-16.16018000
48.89999727	0.00000000	-62.00172000	-13.79183000
49.09999726	0.00000000	-61.20817000	-11.04823000
49.29999725	0.00000000	-55.76402000	-8.40305000
49.49999724	0.00000000	-46.92421000	-6.90821800
49.69999723	0.00000000	-36.87869000	-7.28346400
49.89999721	0.00000000	-28.03272000	-9.60875900
50.09999720	0.00000000	-22.68085000	-13.04749000
50.29999719	-0.15871060	-22.68085000	-16.94759000
50.49999718	0.00000000	-27.98966000	-20.39247000
50.69999717	0.00000000	-36.45423000	-22.71161000
50.89999715	0.00000000	-45.76156000	-23.03765000
51.09999714	0.00000000	-54.23228000	-21.13066000
51.29999713	0.00000000	-59.57800000	-17.32283000
51.49999712	0.00000000	-60.00246000	-13.09670000
51.69999711	0.00000000	-55.76402000	-9.55954600
51.89999710	0.00000000	-48.08686000	-6.86515700
52.09999708	0.00000000	-38.92101000	-5.75172200
52.29999707	0.00000000	-31.61294000	-6.91437000
52.49999706	0.00000000	-28.07579000	-9.93479300
52.69999705	0.00000000	-28.40797000	-13.79183000
52.89999704	0.00000000	-32.30807000	-17.27977000
53.09999702	0.00000000	-38.82874000	-19.97416000
53.29999701	0.00000000	-46.50590000	-21.13066000
53.49999700	0.00000000	-52.60211000	-20.39247000
53.69999699	0.00000000	-55.34571000	-18.47933000
53.89999698	0.00000000	-54.18307000	-15.78494000
54.09999696	0.00000000	-49.62475000	-13.09055000
54.29999695	0.00000000	-43.11023000	-11.18356000
54.49999694	0.00000000	-36.96481000	-10.40231000
54.69999693	0.00000000	-32.68332000	-11.18356000
54.89999692	0.00000000	-31.19464000	-13.00443000
55.09999691	0.00000000	-33.05856000	-14.94833000
55.29999689	0.00000000	-37.65994000	-16.06791000
55.49999688	0.00000000	-43.06717000	-16.48007000
55.69999687	0.00000000	-48.46210000	-15.64960000
55.89999686	0.00000000	-52.22687000	-13.79183000
56.09999685	0.00000000	-52.69439000	-11.51575000
56.29999683	0.00000000	-50.41830000	-10.02707000
56.49999682	0.00000000	-46.50590000	-10.02707000
56.69999681	0.00000000	-41.15403000	-11.60187000
56.89999680	0.00000000	-36.17741000	-14.67150000
57.09999679	0.00000000	-33.47072000	-18.47933000
57.29999677	0.00000000	-33.01550000	-21.50590000
57.49999676	0.00000000	-34.96555000	-22.66240000
57.69999675	0.00000000	-38.41658000	-21.46284000
57.89999674	0.00000000	-42.64886000	-18.01796000
58.09999673	0.00000000	-46.46284000	-13.00443000
58.29999672	0.00000000	-48.41904000	-8.02780400
58.49999670	0.00000000	-48.46210000	-4.17076700
58.69999669	0.00000000	-46.92421000	-2.63902500
58.89999668	0.00000000	-44.27288000	-3.79552100
59.09999667	0.00000000	-41.52928000	-7.33267600
59.29999666	0.00000000	-39.24704000	-13.13976000
59.49999664	0.00000000	-37.71530000	-20.01722000
59.69999663	0.00000000	-38.08440000	-25.73203000
59.89999662	0.00000000	-39.53002000	-28.42643000
60.09999661	0.00000000	-41.11097000	-27.31299000
60.29999660	0.00000000	-42.69193000	-23.03765000
60.49999658	0.00000000	-44.18061000	-16.48622000
60.69999657	0.00000000	-44.92495000	-8.77829600
60.89999656	0.00000000	-44.18061000	-2.31299200
61.09999655	0.00000000	-42.73499000	1.21186000
61.29999654	0.00000000	-41.52928000	0.79970470
61.49999653	0.00000000	-40.73573000	-3.01427100
61.69999651	0.00000000	-39.99754000	-9.60875900
61.89999650	0.00000000	-40.08366000	-17.27977000
62.09999649	0.00000000	-41.52928000	-24.29257000
62.29999648	0.00000000	-43.43627000	-29.21998000
62.49999647	0.00000000	-44.60506000	-30.74557000
62.69999645	0.00000000	-45.38631000	-27.68824000
62.89999644	0.00000000	-45.34325000	-21.59203000
63.09999643	0.00000000	-44.22982000	-14.21014000
63.29999642	0.00000000	-42.69193000	-6.91437000
63.49999641	0.00000000	-41.11097000	-1.52559000
63.69999639	0.00000000	-39.57308000	0.42445860
63.89999638	0.00000000	-38.45964000	-1.06422200
64.09999637	0.00000000	-38.41658000	-5.29035400
64.29999636	0.00000000	-39.24704000	-11.09744000
64.49999635	0.00000000	-40.74188000	-17.27362000
64.69999634	0.00000000	-43.06102000	-22.71161000
64.89999632	0.00000000	-44.55585000	-26.15034000
65.09999631	0.00000000	-45.38631000	-26.98080000
65.29999630	0.00000000	-45.34325000	-25.08612000
65.49999629	0.00000000	-44.22982000	-21.64124000
65.69999628	0.00000000	-42.69193000	-17.32283000
65.89999626	0.00000000	-41.15403000	-12.72146000
66.09999625	0.00000000	-40.04060000	-8.82135800
66.29999624	0.00000000	-40.04060000	-6.44685000
66.49999623	0.00000000	-41.15403000	-5.24729300
66.69999622	0.00000000	-42.69193000	-5.29035400
66.89999620	0.00000000	-44.22982000	-6.77903500
67.09999619	0.00000000	-45.34325000	-9.14124000
67.29999618	0.00000000	-45.30019000	-11.88484000
67.49999617	0.00000000	-43.80536000	-15.40969000
67.69999616	0.00000000	-41.48622000	-18.85458000
67.89999615	0.00000000	-39.15477000	-21.64124000
68.09999613	0.00000000	-36.87869000	-23.54823000
68.29999612	0.00000000	-35.80832000	-24.29257000
68.49999611	0.00000000	-36.92175000	-23.08686000
68.69999610	0.00000000	-39.62229000	-20.01722000
68.89999609	0.00000000	-43.11023000	-15.74188000
69.09999607	0.00000000	-46.96727000	-11.04823000
69.29999606	0.00000000	-50.00000000	-6.44685000
69.49999605	0.00000000	-51.20571000	-2.96505900
69.69999604	0.00000000	-50.36909000	-1.84547200
69.89999603	0.00000000	-47.66855000	-2.96505900
70.09999601	0.00000000	-42.97490000	-6.48991100
70.29999600	0.00000000	-37.65994000	-11.51575000
70.49999599	0.00000000	-33.01550000	-17.32283000
70.69999598	0.00000000	-30.68405000	-22.66240000
70.89999597	0.00000000	-30.68405000	-25.77510000
71.09999596	0.00000000	-33.05856000	-26.19955000
71.29999594	0.00000000	-38.08440000	-24.24335000
71.49999593	0.00000000	-44.22982000	-20.01722000
71.69999592	0.00000000	-50.04306000	-14.62844000
71.89999591	0.00000000	-54.27534000	-9.60875900
72.09999590	0.00000000	-55.81324000	-5.75172200
72.29999588	0.00000000	-54.27534000	-4.21998000
72.49999587	0.00000000	-50.04306000	-5.33341500
72.69999586	0.00000000	-44.22982000	-8.35998900
72.89999585	0.00000000	-38.03519000	-12.16166000
73.09999584	0.00000000	-32.68332000	-15.27436000
73.29999582	0.00000000	-29.93971000	-17.27362000
73.49999581	0.00000000	-30.30881000	-18.39321000
73.69999580	0.00000000	-32.97244000	-18.01796000
73.89999579	0.00000000	-37.61687000	-16.16018000
74.09999578	0.00000000	-42.59965000	-14.29626000
74.29999577	0.00000000	-46.92421000	-13.13976000
74.49999575	0.00000000	-50.00000000	-13.13976000
74.69999574	0.00000000	-51.15649000	-14.25320000
74.89999573	0.00000000	-50.00000000	-15.74188000
75.09999572	0.00000000	-46.96727000	-16.89837000
75.29999571	0.00000000	-43.11023000	-17.27362000
75.49999569	0.00000000	-39.66535000	-16.81225000
75.69999568	0.00000000	-37.29700000	-14.85605000
75.89999567	0.00000000	-36.50344000	-11.46653000
76.09999566	0.00000000	-36.87869000	-8.44611200
76.29999565	0.00000000	-38.41658000	-6.86515700
76.49999563	0.00000000	-40.64345000	-6.86515700
76.69999562	0.00000000	-42.18134000	-8.44611200
76.89999561	0.00000000	-42.64886000	-11.60187000
77.09999560	0.00000000	-42.69193000	-16.20325000
77.29999559	0.00000000	-42.69193000	-21.17372000
77.49999558	0.00000000	-42.69193000	-24.61860000
77.69999556	0.00000000	-42.69193000	-25.78125000
77.89999555	0.00000000	-42.73499000	-24.20029000
78.09999554	0.00000000	-43.11023000	-19.97416000
78.29999553	0.00000000	-43.85457000	-14.25320000
78.49999552	0.00000000	-44.22982000	-8.82135800
78.69999550	0.00000000	-44.22982000	-4.91510800
78.89999549	0.00000000	-43.80536000	-2.59596400
79.09999548	0.00000000	-42.59965000	-2.63902500
79.29999547	0.00000000	-40.69267000	-5.33341500
79.49999546	0.00000000	-38.41658000	-9.93479300
79.69999544	0.00000000	-36.92175000	-15.32357000
79.89999543	0.00000000	-36.87869000	-19.92495000
80.09999542	0.00000000	-38.04134000	-22.71161000
80.29999541	0.00000000	-39.99754000	-23.50517000
80.49999540	0.00000000	-42.69193000	-22.75467000
80.69999539	0.00000000	-45.34325000	-20.43553000
80.89999537	0.00000000	-46.92421000	-17.36589000
81.09999536	0.00000000	-47.29946000	-14.21014000
81.29999535	0.00000000	-46.50590000	-11.09744000
81.49999534	0.00000000	-44.18061000	-8.40305000
81.69999533	0.00000000	-41.15403000	-6.86515700
81.89999531	0.00000000	-38.45964000	-6.82209600
82.09999530	0.00000000	-36.87869000	-7.93553100
82.29999529	0.00000000	-36.46038000	-9.51648500
82.49999528	0.00000000	-36.87869000	-11.51575000
82.69999527	0.00000000	-38.45964000	-14.21014000
82.89999525	0.00000000	-41.11097000	-16.90453000
83.09999524	0.00000000	-43.76230000	-18.90379000
83.29999523	0.00000000	-45.34325000	-20.47859000
83.49999522	0.00000000	-45.76156000	-21.54897000
83.69999521	0.00000000	-45.38631000	-21.13066000
83.89999520	0.00000000	-44.27288000	-18.85458000
84.09999518	0.00000000	-43.11023000	-15.74188000
84.29999517	0.00000000	-42.31668000	-12.21087000
84.49999516	0.00000000	-41.52928000	-8.40305000
84.69999515	0.00000000	-41.15403000	-5.70866100
84.89999514	0.00000000	-41.11097000	-4.91510800
85.09999512	0.00000000	-41.11097000	-5.70866100
85.29999511	0.00000000	-41.11097000	-8.44611200
85.49999510	0.00000000	-41.11097000	-12.62918000
85.69999509	0.00000000	-41.11097000	-16.90453000
85.89999508	0.00000000	-41.11097000	-20.39247000
86.09999506	0.00000000	-41.15403000	-22.71161000
86.29999505	0.00000000	-41.52928000	-23.08686000
86.49999504	0.00000000	-42.31668000	-21.54897000
86.69999503	0.00000000	-43.06717000	-18.39321000
86.89999502	0.00000000	-43.85457000	-13.79183000
87.09999501	0.00000000	-44.22982000	-8.86441900
87.29999499	0.00000000	-44.27288000	-5.80093500
87.49999498	0.00000000	-44.18061000	-5.33341500
87.69999497	0.00000000	-43.38705000	-6.86515700
87.89999496	0.00000000	-41.52928000	-9.98400600
88.09999495	0.00000000	-39.99754000	-14.21014000
88.29999493	0.00000000	-39.19783000	-18.43627000
88.49999492	0.00000000	-38.83489000	-21.50590000
88.69999491	0.00000000	-39.62229000	-22.66240000
88.89999490	0.00000000	-41.11097000	-21.50590000
89.09999489	0.00000000	-42.64886000	-18.39321000
89.29999487	0.00000000	-43.80536000	-13.83489000
89.49999486	0.00000000	-44.22982000	-9.19660400
89.69999485	0.00000000	-44.22982000	-6.16387700
89.89999484	0.00000000	-43.85457000	-4.96432100
90.09999483	0.00000000	-43.06717000	-6.53912400
90.29999482	0.00000000	-42.27362000	-9.93479300
90.49999480	0.00000000	-41.11097000	-14.21014000
90.69999479	0.00000000	-40.04060000	-18.43627000
90.89999478	0.00000000	-39.99754000	-21.50590000
91.09999477	0.00000000	-40.69267000	-22.61934000
91.29999476	0.00000000	-41.06791000	-21.08760000
91.49999474	0.00000000	-41.11097000	-17.27362000
91.69999473	0.00000000	-41.11097000	-12.67224000
91.89999472	0.00000000	-41.11097000	-8.44611200
92.09999471	0.00000000	-41.11097000	-5.75172200
92.29999470	0.00000000	-41.11097000	-5.37647600
92.49999468	0.00000000	-41.15403000	-7.33267600
92.69999467	0.00000000	-41.52928000	-11.51575000
92.89999466	0.00000000	-42.31668000	-16.48622000
93.09999465	0.00000000	-43.11023000	-20.34941000
93.29999464	0.00000000	-44.22982000	-22.66855000
93.49999463	0.00000000	-44.96801000	-22.61934000
93.69999461	0.00000000	-44.55585000	-19.97416000
93.89999460	0.00000000	-43.43627000	-15.78494000
94.09999459	0.00000000	-41.44316000	-11.51575000
94.29999458	0.00000000	-39.19783000	-8.07086500
94.49999457	0.00000000	-37.20472000	-6.12696800
94.69999455	0.00000000	-36.08513000	-6.53912400
94.89999454	0.00000000	-35.71604000	-8.82135800
95.09999453	0.00000000	-36.92175000	-12.67224000
95.29999452	0.00000000	-39.57308000	-16.81225000
95.49999451	0.00000000	-42.69193000	-19.55585000
95.69999449	0.00000000	-45.76156000	-20.39247000
95.89999448	0.00000000	-48.08686000	-19.97416000
96.09999447	0.00000000	-48.83735000	-18.01796000
96.29999446	0.00000000	-48.08686000	-14.62844000
96.49999445	0.00000000	-45.71850000	-11.55881000
96.69999444	0.00000000	-42.27362000	-9.55954600
96.89999442	0.00000000	-38.36737000	-8.44611200
97.09999441	0.00000000	-34.92249000	-8.86441900
97.29999440	0.00000000	-32.59719000	-11.09744000
97.49999439	0.00000000	-32.26501000	-13.74262000
97.69999438	0.00000000	-34.12894000	-15.69882000
97.89999436	0.00000000	-37.61687000	-16.89837000
98.09999435	0.00000000	-41.48622000	-17.27362000
98.29999434	0.00000000	-45.43553000	-16.89837000
98.49999433	0.00000000	-48.83735000	-15.74188000
98.69999432	0.00000000	-50.73819000	-14.25320000
98.89999430	0.00000000	-50.00000000	-13.09670000
99.09999429	-0.15871060	-47.34252000	-12.67224000
99.29999428	0.00000000	-43.85457000	-12.62918000
99.49999427	0.00000000	-39.94832000	-12.62918000
99.69999426	0.00000000	-36.50344000	-12.62918000
99.89999425	0.00000000	-34.12894000	-12.58612000
100.09999423	0.00000000	-33.37844000	-12.21087000
100.29999422	0.00000000	-34.12894000	-11.46653000
100.49999421	0.00000000	-36.45423000	-11.14050000
100.69999420	0.00000000	-39.53002000	-11.51575000
100.89999419	0.00000000	-42.64886000	-12.67224000
101.09999417	0.00000000	-45.34325000	-14.21014000
101.29999416	0.00000000	-46.96727000	-15.78494000
101.49999415	0.00000000	-47.71776000	-17.32283000
101.69999414	0.00000000	-47.71161000	-18.43627000
101.89999413	0.00000000	-46.13681000	-18.39321000
102.09999411	0.00000000	-43.85457000	-16.85531000
102.29999410	0.00000000	-41.11097000	-14.16092000
102.49999409	0.00000000	-38.45964000	-11.14050000
102.69999408	0.00000000	-36.87869000	-8.82135800
102.89999407	0.00000000	-36.46038000	-8.02780400
103.09999406	0.00000000	-36.83563000	-8.40305000
103.29999404	0.00000000	-37.99213000	-9.98400600
103.49999403	0.00000000	-39.57308000	-12.67224000
103.69999402	0.00000000	-41.52928000	-15.74188000
103.89999401	0.00000000	-43.80536000	-18.43627000
104.09999400	0.00000000	-45.34325000	-19.97416000
104.29999398	0.00000000	-45.76156000	-19.97416000
104.49999397	0.00000000	-45.38631000	-18.43627000
104.69999396	0.00000000	-44.22982000	-15.78494000
104.89999395	0.00000000	-42.69193000	-13.04749000
105.09999394	0.00000000	-41.11097000	-10.72219000
105.29999392	0.00000000	-39.57308000	-8.82135800
105.49999391	0.00000000	-38.45964000	-8.44611200
105.69999390	0.00000000	-38.45964000	-9.55954600
105.89999389	0.00000000	-39.57308000	-11.46653000
106.09999388	0.00000000	-41.06791000	-13.79183000
106.29999387	0.00000000	-42.22441000	-15.69882000
106.49999385	0.00000000	-42.64886000	-16.89837000
106.69999384	0.00000000	-42.69193000	-17.27362000
106.89999383	0.00000000	-42.64886000	-16.89837000
107.09999382	0.00000000	-42.27362000	-15.69882000
107.29999381	0.00000000	-41.48622000	-13.83489000
107.49999379	0.00000000	-40.73573000	-11.93405000
107.69999378	0.00000000	-39.99754000	-11.18356000
107.89999377	0.00000000	-39.99754000	-11.51575000
108.09999376	0.00000000	-40.73573000	-12.67224000
108.29999375	0.00000000	-41.52928000	-14.21014000
108.49999374	0.00000000	-42.69193000	-15.74188000
108.69999372	0.00000000	-43.80536000	-16.85531000
108.89999371	0.00000000	-44.18061000	-16.85531000
109.09999370	0.00000000	-43.80536000	-15.74188000
109.29999369	0.00000000	-42.64886000	-14.21014000
109.49999368	0.00000000	-41.15403000	-12.67224000
109.69999366	0.00000000	-39.99754000	-11.51575000
109.89999365	0.00000000	-39.57308000	-11.09129000
110.09999364	0.00000000	-39.57308000	-11.09129000
110.29999363	0.00000000	-39.94832000	-11.51575000
110.49999362	0.00000000	-40.73573000	-12.67224000
110.69999360	0.00000000	-41.48622000	-14.21014000
110.89999359	0.00000000	-42.31668000	-15.74188000
111.09999358	0.00000000	-43.02411000	-16.89837000
111.29999357	0.00000000	-43.43627000	-17.27362000
111.49999356	0.00000000	-43.06717000	-16.94759000
111.69999355	0.00000000	-42.69193000	-16.16018000
111.89999353	0.00000000	-42.27362000	-15.36663000
112.09999352	0.00000000	-41.52928000	-14.21014000
112.29999351	0.00000000	-41.15403000	-13.09670000
112.49999350	0.00000000	-41.06791000	-12.67224000
112.69999349	0.00000000	-40.73573000	-12.62918000
112.89999347	0.00000000	-40.36663000	-12.62918000
113.09999346	0.00000000	-40.73573000	-12.67224000
113.29999345	0.00000000	-41.06791000	-13.04749000
113.49999344	0.00000000	-41.11097000	-13.79183000
113.69999343	0.00000000	-41.11097000	-14.16708000
113.89999341	0.00000000	-41.11097000	-14.21014000
114.09999340	0.00000000	-41.11097000	-14.21014000
114.29999339	0.00000000	-41.11097000	-14.25320000
114.49999338	0.00000000	-41.11097000	-14.62844000
114.69999337	0.00000000	-41.11097000	-15.36663000
114.89999336	0.00000000	-41.11097000	-15.74188000
115.09999334	0.00000000	-41.11097000	-15.74188000
115.29999333	0.00000000	-41.11097000	-15.36663000
115.49999332	0.00000000	-41.11097000	-14.58538000
115.69999331	0.00000000	-41.11097000	-13.83489000
115.89999330	0.00000000	-41.15403000	-13.00443000
116.09999328	0.00000000	-41.52928000	-12.25394000
116.29999327	0.00000000	-42.27362000	-11.51575000
116.49999326	0.00000000	-42.64886000	-11.51575000
116.69999325	0.00000000	-42.64886000	-12.25394000
116.89999324	0.00000000	-42.27362000	-13.00443000
117.09999322	0.00000000	-41.52928000	-13.83489000
117.29999321	0.00000000	-41.11097000	-14.58538000
117.49999320	0.00000000	-40.69267000	-15.36663000
117.69999319	0.00000000	-39.94832000	-15.74188000
117.89999318	0.00000000	-39.57308000	-15.74188000
118.09999317	0.00000000	-39.57308000	-15.36663000
118.29999315	0.00000000	-39.94832000	-14.58538000
118.49999314	0.00000000	-40.73573000	-13.79183000
118.69999313	0.00000000	-41.48622000	-12.62918000
118.89999312	0.00000000	-42.31668000	-11.51575000
119.09999311	0.00000000	-43.06717000	-11.09129000
119.29999309	0.00000000	-43.80536000	-11.04823000
119.49999308	0.00000000	-43.76230000	-11.09129000
119.69999307	0.00000000	-42.69193000	-11.51575000
119.89999306	0.00000000	-41.52928000	-12.62918000
120.09999305	0.00000000	-40.69267000	-13.74262000
120.29999303	0.00000000	-39.53002000	-14.16708000
120.49999302	0.00000000	-38.41658000	-14.21014000
120.69999301	0.00000000	-38.04134000	-14.21014000
120.89999300	0.00000000	-38.41658000	-14.21014000
121.09999299	0.00000000	-39.57308000	-14.21014000
121.29999298	0.00000000	-41.06791000	-14.21014000
121.49999296	0.00000000	-42.27362000	-14.16708000
121.69999295	0.00000000	-43.06717000	-13.79183000
121.89999294	0.00000000	-43.85457000	-13.04749000
122.09999293	0.00000000	-44.18061000	-12.67224000
122.29999292	0.00000000	-43.80536000	-12.62918000
122.49999290	0.00000000	-42.64886000	-12.62918000
122.69999289	0.00000000	-41.15403000	-12.62918000
122.89999288	0.00000000	-39.99754000	-12.62918000
123.09999287	0.00000000	-39.57308000	-12.62918000
123.29999286	0.00000000	-39.53002000	-12.67224000
123.49999284	0.00000000	-39.53002000	-13.04749000
123.69999283	0.00000000	-39.53002000	-13.79183000
123.89999282	0.00000000	-39.57308000	-14.16708000
124.09999281	0.00000000	-39.94832000	-14.21014000
124.29999280	0.00000000	-40.69267000	-14.21014000
124.49999279	0.00000000	-41.11097000	-14.21014000
124.69999277	0.00000000	-41.57849000	-14.21014000
124.89999276	0.00000000	-42.69193000	-14.21014000
125.09999275	0.00000000	-43.76230000	-14.16708000
125.29999274	0.00000000	-43.76230000	-13.79183000
125.49999273	0.00000000	-42.69193000	-13.04749000
125.69999271	0.00000000	-41.52928000	-12.67224000
125.89999270	0.00000000	-40.73573000	-12.62918000
126.09999269	0.00000000	-39.90526000	-12.62918000
126.29999268	0.00000000	-39.19783000	-12.67224000
126.49999267	0.00000000	-38.78568000	-13.04749000
126.69999265	0.00000000	-39.19783000	-13.79183000
126.89999264	0.00000000	-39.94832000	-14.21014000
127.09999263	0.00000000	-41.11097000	-14.62844000
127.29999262	0.00000000	-42.27362000	-15.32357000
127.49999261	0.00000000	-43.06717000	-15.32357000
127.69999260	0.00000000	-43.80536000	-14.62844000
127.89999258	0.00000000	-43.80536000	-14.25320000
128.09999257	0.00000000	-43.06717000	-14.16708000
128.29999256	0.00000000	-42.27362000	-13.79183000
128.49999255	0.00000000	-41.06791000	-13.04749000
128.69999254	0.00000000	-39.62229000	-12.67224000
128.89999252	0.00000000	-38.83489000	-12.67224000
129.09999251	0.00000000	-39.15477000	-13.04749000
129.29999250	0.00000000	-39.53002000	-13.79183000
129.49999249	0.00000000	-39.99754000	-14.16708000
129.69999248	0.00000000	-41.11097000	-14.21014000
129.89999246	0.00000000	-42.22441000	-14.21014000
130.09999245	0.00000000	-42.64886000	-14.21014000
130.29999244	0.00000000	-42.69193000	-14.16708000
130.49999243	0.00000000	-42.64886000	-13.79183000
130.69999242	0.00000000	-42.22441000	-13.04749000
130.89999241	0.00000000	-41.11097000	-12.67224000
131.09999239	0.00000000	-39.99754000	-12.62918000
131.29999238	0.00000000	-39.57308000	-12.67224000
131.49999237	0.00000000	-39.53002000	-13.04749000
131.69999236	0.00000000	-39.57308000	-13.79183000
131.89999235	0.00000000	-39.94832000	-14.16708000
132.09999233	0.00000000	-40.69267000	-14.21014000
132.29999232	0.00000000	-41.06791000	-14.21014000
132.49999231	0.00000000	-41.11097000	-14.21014000
132.69999230	0.00000000	-41.11097000	-14.16708000
132.89999229	0.00000000	-41.11097000	-13.79183000
133.09999227	0.00000000	-41.11097000	-13.00443000
133.29999226	0.00000000	-41.11097000	-12.25394000
133.49999225	0.00000000	-41.11097000	-11.51575000
133.69999224	0.00000000	-41.11097000	-11.51575000
133.89999223	0.00000000	-41.11097000	-12.25394000
134.09999222	0.00000000	-41.11097000	-13.00443000
134.29999220	0.00000000	-41.11097000	-13.83489000
134.49999219	0.00000000	-41.06791000	-14.58538000
134.69999218	0.00000000	-40.69267000	-15.32357000
134.89999217	0.00000000	-39.94832000	-15.32357000
135.09999216	0.00000000	-39.57308000	-14.62844000
135.29999214	0.00000000	-39.53002000	-14.25320000
135.49999213	0.00000000	-39.57308000	-14.16708000
135.69999212	0.00000000	-39.94832000	-13.79183000
135.89999211	0.00000000	-40.73573000	-13.04749000
136.09999210	0.00000000	-41.48622000	-12.67224000
136.29999208	0.00000000	-42.27362000	-12.62918000
136.49999207	0.00000000	-42.64886000	-12.62918000
136.69999206	0.00000000	-42.64886000	-12.67224000
136.89999205	0.00000000	-42.27362000	-13.04749000
137.09999204	0.00000000	-41.48622000	-13.79183000
137.29999203	0.00000000	-40.73573000	-14.16708000
137.49999201	0.00000000	-39.94832000	-14.21014000
137.69999200	0.00000000	-39.57308000	-14.25320000
137.89999199	0.00000000	-39.53002000	-14.58538000
138.09999198	0.00000000	-39.57308000	-14.99139000
138.29999197	0.00000000	-39.99754000	-14.95448000
138.49999195	0.00000000	-41.11097000	-14.99139000
138.69999194	0.00000000	-42.22441000	-14.53617000
138.89999193	0.00000000	-42.64886000	-13.83489000
139.09999192	0.00000000	-42.64886000	-13.04749000
139.29999191	0.00000000	-42.27362000	-12.67224000
139.49999189	0.00000000	-41.52928000	-12.62918000
139.69999188	0.00000000	-41.11097000	-12.62918000
139.89999187	0.00000000	-40.69267000	-12.62918000
140.09999186	0.00000000	-39.94832000	-12.67224000
140.29999185	0.00000000	-39.62229000	-13.04749000
140.49999184	0.00000000	-39.94832000	-13.83489000
140.69999182	0.00000000	-40.69267000	-14.58538000
140.89999181	0.00000000	-41.06791000	-15.36663000
141.09999180	0.00000000	-41.11097000	-15.69267000
141.29999179	0.00000000	-41.11097000	-15.32357000
141.49999178	0.00000000	-41.11097000	-14.21014000
141.69999176	0.00000000	-41.11097000	-13.09670000
141.89999175	0.00000000	-41.11097000	-12.62918000
142.09999174	0.00000000	-41.11097000	-12.21087000
142.29999173	0.00000000	-41.06791000	-11.51575000
142.49999172	0.00000000	-40.73573000	-11.51575000
142.69999170	0.00000000	-40.36663000	-12.25394000
142.89999169	0.00000000	-40.73573000	-13.00443000
143.09999168	0.00000000	-41.06791000	-13.83489000
143.29999167	0.00000000	-41.11097000	-14.58538000
143.49999166	0.00000000	-41.11097000	-15.36663000
143.69999165	0.00000000	-41.11097000	-15.69267000
143.89999163	0.00000000	-41.11097000	-15.36663000
144.09999162	0.00000000	-41.06791000	-14.58538000
144.29999161	0.00000000	-40.69267000	-13.83489000
144.49999160	0.00000000	-39.94832000	-13.04749000
144.69999159	0.00000000	-39.53002000	-12.67224000
144.89999157	0.00000000	-39.15477000	-12.62918000
145.09999156	0.00000000	-38.83489000	-12.62918000
145.29999155	0.00000000	-39.57308000	-12.67224000
145.49999154	0.00000000	-40.64345000	-13.04749000
145.69999153	0.00000000	-41.06791000	-13.79183000
145.89999151	0.00000000	-41.11097000	-14.16708000
146.09999150	0.00000000	-41.11097000	-14.21014000
146.29999149	0.00000000	-41.11097000	-14.21014000
146.49999148	0.00000000	-41.06791000	-14.21014000
146.69999147	0.00000000	-40.69267000	-14.21014000
146.89999146	0.00000000	-39.94832000	-14.16708000
147.09999144	0.00000000	-39.57308000	-13.79183000
147.29999143	0.00000000	-39.57308000	-13.04749000
147.49999142	0.00000000	-39.94832000	-12.67224000
147.69999141	0.00000000	-40.69267000	-12.62918000
147.89999140	0.00000000	-41.06791000	-12.62918000
148.09999138	0.00000000	-41.11097000	-12.62918000
148.29999137	0.00000000	-41.11097000	-12.67224000
148.49999136	0.00000000	-41.11097000	-13.04749000
148.69999135	0.00000000	-41.11097000	-13.79183000
148.89999134	0.00000000	-41.11097000	-14.16708000
149.09999132	0.00000000	-41.06791000	-14.21014000
149.29999131	0.00000000	-40.69267000	-14.21014000
149.49999130	0.00000000	-39.94832000	-14.21014000
149.69999129	0.00000000	-39.57308000	-14.16708000
149.89999128	0.00000000	-39.57308000	-13.79183000
150.09999127	0.00000000	-39.94832000	-13.04749000
150.29999125	0.00000000	-40.73573000	-12.67224000
150.49999124	0.00000000	-41.44316000	-12.62918000
150.69999123	0.00000000	-41.85531000	-12.62918000
150.89999122	0.00000000	-41.48622000	-12.62918000
151.09999121	0.00000000	-41.15403000	-12.62918000
151.29999119	0.00000000	-41.11097000	-12.67224000
151.49999118	0.00000000	-41.15403000	-13.04749000
151.69999117	0.00000000	-41.48622000	-13.79183000
151.89999116	0.00000000	-41.80610000	-14.16708000
152.09999115	0.00000000	-41.06791000	-14.21014000
152.29999113	0.00000000	-39.99754000	-14.16708000
152.49999112	0.00000000	-39.57308000	-13.83489000
152.69999111	0.00000000	-39.53002000	-13.42274000
152.89999110	0.00000000	-39.53002000	-13.41658000
153.09999109	0.00000000	-39.57308000	-13.00443000
153.29999108	0.00000000	-39.94832000	-12.67224000
153.49999106	0.00000000	-40.69267000	-12.62918000
153.69999105	0.00000000	-41.06791000	-12.62918000
153.89999104	0.00000000	-41.11097000	-12.62918000
154.09999103	0.00000000	-41.11097000	-12.62918000
154.29999102	0.00000000	-41.11097000	-12.62918000
154.49999100	0.00000000	-41.11097000	-12.67224000
154.69999099	0.00000000	-41.11097000	-13.04749000
154.89999098	0.00000000	-41.06791000	-13.79183000
155.09999097	0.00000000	-40.69267000	-14.16708000
155.29999096	0.00000000	-39.94832000	-14.21014000
155.49999094	0.00000000	-39.57308000	-14.21014000
155.69999093	0.00000000	-39.53002000	-14.16708000
155.89999092	0.00000000	-39.57308000	-13.79183000
156.09999091	0.00000000	-39.94832000	-13.04749000
156.29999090	0.00000000	-40.69267000	-12.67224000
156.49999089	0.00000000	-41.06791000	-12.62918000
156.69999087	0.00000000	-41.11097000	-12.62918000
156.89999086	0.00000000	-41.11097000	-12.62918000
157.09999085	0.00000000	-41.11097000	-12.62918000
157.29999084	0.00000000	-41.11097000	-12.62918000
157.49999083	0.00000000	-41.06791000	-12.67224000
157.69999081	0.00000000	-40.69267000	-13.04749000
157.89999080	0.00000000	-39.94832000	-13.79183000
158.09999079	0.00000000	-39.57308000	-14.16708000
158.29999078	0.00000000	-39.53002000	-14.21014000
158.49999077	0.00000000	-39.53002000	-14.21014000
158.69999075	0.00000000	-39.57308000	-14.21014000
158.89999074	0.00000000	-39.94832000	-14.21014000
159.09999073	0.00000000	-40.69267000	-14.16708000
159.29999072	0.00000000	-41.06791000	-13.79183000
159.49999071	0.00000000	-41.11097000	-13.04749000
159.69999070	0.00000000	-41.15403000	-12.67224000
159.89999068	0.00000000	-41.48622000	-12.62918000
160.09999067	0.00000000	-41.85531000	-12.67224000
160.29999066	0.00000000	-41.48622000	-13.04749000
160.49999065	0.00000000	-41.15403000	-13.79183000
160.69999064	0.00000000	-41.11097000	-14.16708000
160.89999062	0.00000000	-41.11097000	-14.21014000
161.09999061	0.00000000	-41.11097000	-14.21014000
161.29999060	0.00000000	-41.06791000	-14.21014000
161.49999059	0.00000000	-40.69267000	-14.16708000
161.69999058	0.00000000	-39.94832000	-13.79183000
161.89999056	0.00000000	-39.57308000	-13.04749000
162.09999055	0.00000000	-39.53002000	-12.67224000
162.29999054	0.00000000	-39.53002000	-12.62918000
162.49999053	0.00000000	-39.57308000	-12.62918000
162.69999052	0.00000000	-39.94832000	-12.62918000
162.89999051	0.00000000	-40.69267000	-12.62918000
163.09999049	0.00000000	-41.06791000	-12.62918000
163.29999048	0.00000000	-41.11097000	-12.62918000
163.49999047	0.00000000	-41.11097000	-12.62918000
163.69999046	0.00000000	-41.11097000	-12.62918000
163.89999045	0.00000000	-41.11097000	-12.62918000
164.09999043	0.00000000	-41.06791000	-12.67224000
164.29999042	0.00000000	-40.69267000	-13.00443000
164.49999041	0.00000000	-39.94832000	-13.41658000
164.69999040	0.00000000	-39.57308000	-13.37967000
164.89999039	0.00000000	-39.53002000	-13.41658000
165.09999037	0.00000000	-39.53002000	-13.00443000
165.29999036	0.00000000	-39.53002000	-12.67224000
165.49999035	0.00000000	-39.57308000	-12.62918000
165.69999034	0.00000000	-39.94832000	-12.62918000
165.89999033	0.00000000	-40.69267000	-12.62918000
166.09999032	0.00000000	-41.06791000	-12.62918000
166.29999030	0.00000000	-41.11097000	-12.67224000
166.49999029	0.00000000	-41.11097000	-13.00443000
166.69999028	0.00000000	-41.11097000	-13.41658000
166.89999027	0.00000000	-41.06791000	-13.42274000
167.09999026	0.00000000	-40.69267000	-13.83489000
167.29999024	0.00000000	-39.94832000	-14.16708000
167.49999023	0.00000000	-39.57308000	-14.21014000
167.69999022	0.00000000	-39.53002000	-14.21014000
167.89999021	0.00000000	-39.53002000	-14.21014000
168.09999020	0.00000000	-39.53002000	-14.21014000
168.29999018	0.00000000	-39.57308000	-14.21014000
168.49999017	0.00000000	-39.94832000	-14.16708000
168.69999016	0.00000000	-40.69267000	-13.83489000
168.89999015	0.00000000	-41.06791000	-13.46580000
169.09999014	0.00000000	-41.11097000	-13.83489000
169.29999013	0.00000000	-41.11097000	-14.16708000
169.49999011	0.00000000	-41.11097000	-14.21014000
169.69999010	0.00000000	-41.11097000	-14.21014000
169.89999009	0.00000000	-41.11097000	-14.21014000
170.09999008	0.00000000	-41.11097000	-14.21014000
170.29999007	0.00000000	-41.11097000	-14.21014000
170.49999005	0.00000000	-41.11097000	-14.21014000
170.69999004	0.00000000	-41.11097000	-14.21014000
170.89999003	0.00000000	-41.06791000	-14.21014000
171.09999002	0.00000000	-40.69267000	-14.21014000
171.29999001	0.00000000	-39.94832000	-14.21014000
171.49998999	0.00000000	-39.57308000	-14.21014000
171.69998998	0.00000000	-39.57308000	-14.21014000
171.89998997	0.00000000	-39.94832000	-14.21014000
172.09998996	0.00000000	-40.69267000	-14.21014000
172.29998995	0.00000000	-41.06791000	-14.21014000
172.49998994	0.00000000	-41.11097000	-14.21014000
172.69998992	0.00000000	-41.11097000	-14.21014000
172.89998991	0.00000000	-41.06791000	-14.21014000
173.09998990	0.00000000	-40.69267000	-14.21014000
173.29998989	0.00000000	-39.94832000	-14.16708000
173.49998988	0.00000000	-39.57308000	-13.79183000
173.69998986	0.00000000	-39.53002000	-13.04749000
173.89998985	0.00000000	-39.57308000	-12.72146000
174.09998984	0.00000000	-39.90526000	-13.04749000
174.29998983	0.00000000	-40.31742000	-13.74262000
174.49998982	0.00000000	-40.28051000	-13.74262000
174.69998980	0.00000000	-40.36048000	-13.04749000
174.89998979	0.00000000	-40.28051000	-12.67224000
175.09998978	0.00000000	-40.36048000	-12.62918000
175.29998977	0.00000000	-40.28051000	-12.62918000
175.49998976	0.00000000	-40.31742000	-12.62918000
175.69998975	0.00000000	-39.90526000	-12.62918000
175.89998973	0.00000000	-39.62229000	-12.62918000
176.09998972	-0.15871060	-39.94832000	-12.62918000
176.29998971	0.00000000	-40.60039000	-12.67224000
176.49998970	0.00000000	-40.31742000	-13.00443000
176.69998969	0.00000000	-39.58538000	-13.37352000
176.89998967	0.00000000	-39.94217000	-13.00443000
177.09998966	0.00000000	-39.90526000	-12.67224000
177.29998965	0.00000000	-39.94832000	-12.62918000
177.49998964	0.00000000	-40.31742000	-12.62918000
177.69998963	0.00000000	-40.28051000	-12.62918000
177.89998961	0.00000000	-40.36048000	-12.62918000
178.09998960	0.00000000	-40.32357000	-12.62918000
178.29998959	0.00000000	-40.69267000	-12.62918000
178.49998958	0.00000000	-40.64345000	-12.62918000
178.69998957	0.00000000	-39.94832000	-12.62918000
178.89998956	0.00000000	-39.57308000	-12.62918000
179.09998954	0.00000000	-39.53002000	-12.62918000
179.29998953	0.00000000	-39.53002000	-12.67224000
179.49998952	0.00000000	-39.53002000	-13.04749000
179.69998951	0.00000000	-39.53002000	-13.79183000
179.89998950	0.00000000	-39.53002000	-14.16708000
180.09998948	0.00000000	-39.53002000	-14.21014000
180.29998947	0.00000000	-39.57308000	-14.16708000
180.49998946	0.00000000	-39.94832000	-13.79183000
180.69998945	0.00000000	-40.69267000	-13.09670000
180.89998944	0.00000000	-41.06791000	-13.04749000
181.09998942	0.00000000	-41.11097000	-13.37352000
181.29998941	0.00000000	-41.11097000	-13.00443000
181.49998940	0.00000000	-41.11097000	-12.67224000
181.69998939	0.00000000	-41.06791000	-12.62918000
181.89998938	0.00000000	-40.69267000	-12.62918000
182.09998937	0.00000000	-39.94832000	-12.62918000
182.29998935	0.00000000	-39.57308000	-12.67224000
182.49998934	0.00000000	-39.53002000	-13.04749000
182.69998933	0.00000000	-39.53002000	-13.79183000
182.89998932	0.00000000	-39.53002000	-14.16708000
183.09998931	0.00000000	-39.53002000	-14.21014000
183.29998929	0.00000000	-39.53002000	-14.21014000
183.49998928	0.00000000	-39.57308000	-14.21014000
183.69998927	0.00000000	-39.90526000	-14.21014000
183.89998926	0.00000000	-40.27436000	-14.16708000
184.09998925	0.00000000	-39.94832000	-13.79183000
184.29998923	0.00000000	-39.94832000	-13.04749000
184.49998922	0.00000000	-40.27436000	-12.67224000
184.69998921	0.00000000	-39.90526000	-12.62918000
184.89998920	0.00000000	-39.57308000	-12.62918000
185.09998919	0.00000000	-39.53002000	-12.62918000
185.29998918	0.00000000	-39.53002000	-12.67224000
185.49998916	0.00000000	-39.53002000	-13.04749000
185.69998915	0.00000000	-39.53002000	-13.79183000
185.89998914	0.00000000	-39.53002000	-14.16708000
186.09998913	0.00000000	-39.53002000	-14.16708000
186.29998912	0.00000000	-39.53002000	-13.83489000
186.49998910	0.00000000	-39.53002000	-13.42274000
186.69998909	0.00000000	-39.57308000	-13.41658000
186.89998908	0.00000000	-39.94832000	-13.00443000
187.09998907	0.00000000	-40.69267000	-12.67224000
187.29998906	0.00000000	-41.01870000	-12.62918000
187.49998904	0.00000000	-40.69267000	-12.62918000
187.69998903	0.00000000	-39.99754000	-12.62918000
187.89998902	0.00000000	-39.94832000	-12.62918000
188.09998901	0.00000000	-40.27436000	-12.62918000
188.29998900	0.00000000	-39.90526000	-12.67224000
188.49998899	0.00000000	-39.57308000	-13.04749000
188.69998897	0.00000000	-39.53002000	-13.79183000
188.89998896	0.00000000	-39.53002000	-14.16708000
189.09998895	0.00000000	-39.53002000	-14.21014000
189.29998894	0.00000000	-39.53002000	-14.21014000
189.49998893	0.00000000	-39.57308000	-14.16708000
189.69998891	0.00000000	-39.94832000	-13.79183000
189.89998890	0.00000000	-40.69267000	-13.04749000
190.09998889	0.00000000	-41.06791000	-12.67224000
190.29998888	0.00000000	-41.06791000	-12.62918000
190.49998887	0.00000000	-40.69267000	-12.62918000
190.69998885	0.00000000	-39.94832000	-12.62918000
190.89998884	0.00000000	-39.57308000	-12.62918000
191.09998883	0.00000000	-39.53002000	-12.62918000
191.29998882	0.00000000	-39.53002000	-12.67224000
191.49998881	0.00000000	-39.53002000	-13.04749000
191.69998880	0.00000000	-39.53002000	-13.74262000
191.89998878	0.00000000	-39.53002000	-13.79183000
192.09998877	0.00000000	-39.53002000	-13.46580000
192.29998876	0.00000000	-39.57308000	-13.83489000
192.49998875	0.00000000	-39.90526000	-14.16708000
192.69998874	0.00000000	-40.27436000	-14.21014000
192.89998872	0.00000000	-39.94832000	-14.16708000
193.09998871	0.00000000	-39.99754000	-13.79183000
193.29998870	0.00000000	-40.69267000	-13.04749000
193.49998869	0.00000000	-41.06791000	-12.67224000
193.69998868	0.00000000	-41.06791000	-12.62918000
193.89998866	0.00000000	-40.69267000	-12.62918000
194.09998865	0.00000000	-39.94832000	-12.62918000
194.29998864	0.00000000	-39.57308000	-12.62918000
194.49998863	0.00000000	-39.53002000	-12.62918000
194.69998862	0.00000000	-39.53002000	-12.62918000
194.89998861	0.00000000	-39.53002000	-12.62918000
195.09998859	0.00000000	-39.57308000	-12.62918000
195.29998858	0.00000000	-39.90526000	-12.62918000
195.49998857	0.00000000	-40.27436000	-12.67224000
195.69998856	0.00000000	-39.94832000	-13.04749000
195.89998855	0.00000000	-39.99754000	-13.79183000
196.09998853	0.00000000	-40.69267000	-14.16708000
