Time	Channel A	Channel B	Channel C
(us)	(V)	(mV)	(mV)

-4.59999956	-0.15871060	-33.20005000	-9.47342500
-4.39999957	0.00000000	-33.20005000	-9.47342500
-4.19999958	0.00000000	-33.20005000	-9.47342500
-3.99999959	0.00000000	-33.20005000	-9.47342500
-3.79999960	0.00000000	-33.20005000	-9.47342500
-3.59999962	0.00000000	-33.20005000	-9.47342500
-3.39999963	0.00000000	-33.20005000	-9.47342500
-3.19999964	0.00000000	-33.20005000	-9.47342500
-2.99999965	0.00000000	-33.20005000	-9.47342500
-2.79999966	0.00000000	-33.20005000	-9.47342500
-2.59999968	0.00000000	-33.20005000	-9.47342500
-2.39999969	0.00000000	-33.20005000	-9.47342500
-2.19999970	0.00000000	-33.20005000	-9.47342500
-1.99999971	0.00000000	-33.20005000	-9.47342500
-1.79999972	0.00000000	-33.20005000	-9.47342500
-1.59999973	0.00000000	-33.15699000	-9.47342500
-1.39999975	0.00000000	-32.82480000	-9.47342500
-1.19999976	0.00000000	-32.45571000	-9.47342500
-0.99999977	0.00000000	-32.82480000	-9.47342500
-0.79999978	0.00000000	-33.15699000	-9.51648500
-0.59999979	0.00000000	-33.20005000	-9.84867000
-0.39999981	0.00000000	-33.20005000	-10.21161000
-0.19999982	0.47736220	-33.20005000	-9.84867000
0.00000017	0.79601380	-33.20005000	-9.51648500
0.20000016	0.95533960	-33.20005000	-9.47342500
0.40000015	0.95533960	-33.20005000	-9.47342500
0.60000013	0.63668800	-33.20005000	-9.47342500
0.80000012	0.00000000	-33.20005000	-9.47342500
1.00000011	-0.95533960	-33.20005000	-9.47342500
1.20000010	-1.91129400	-33.20005000	-9.47342500
1.40000009	-2.54859700	-33.20005000	-9.47342500
1.60000008	-2.70792300	-33.20005000	-9.47342500
1.80000006	-2.07062000	-33.20005000	-9.47342500
2.00000005	-0.63668800	-33.20005000	-9.43036400
2.20000004	1.43331700	-33.20005000	-9.09817800
2.40000003	3.50393700	-33.20005000	-8.72908400
2.60000002	4.93786900	-33.20005000	-9.14124000
2.80000000	5.25652100	-33.20005000	-9.79945900
2.99999999	4.14124000	-33.20005000	-10.21161000
3.19999998	1.75196900	-33.20005000	-9.84867000
3.39999997	-1.43331700	-33.20005000	-9.51648500
3.59999996	-4.77854300	-33.20005000	-9.47342500
3.79999994	-7.32714100	-33.20005000	-9.47342500
3.99999993	-7.96444400	-33.15699000	-9.47342500
4.19999992	-6.69045300	-32.82480000	-9.47342500
4.39999991	-3.50393700	-32.41265000	-9.43036400
4.59999990	0.79601380	-32.40649000	-9.09817800
4.79999989	5.09719500	-32.03740000	-8.72908400
4.99999987	8.28309500	-32.08661000	-9.09817800
5.19999986	9.55770200	-32.78174000	-9.47342500
5.39999985	8.28309500	-33.15699000	-9.89173200
5.59999984	4.93786900	-33.20005000	-10.58686000
5.79999983	0.31803640	-33.20005000	-10.58686000
5.99999981	-4.45989200	-33.20005000	-9.89173200
6.19999980	-7.96444400	-33.15699000	-9.51648500
6.39999979	-9.39837600	-32.78174000	-9.47342500
6.59999978	-8.60174700	-32.08661000	-9.43036400
6.79999977	-5.73449800	-32.03740000	-9.05511800
6.99999975	-1.59264300	-32.40649000	-8.35998900
7.19999974	2.70792300	-32.36959000	-8.35998900
7.39999973	6.05315000	-32.44956000	-9.05511800
7.59999972	7.64579200	-32.41265000	-9.43036400
7.79999971	7.32714100	-32.82480000	-9.47342500
7.99999970	5.09719500	-33.15699000	-9.47342500
8.19999968	2.07062000	-33.20005000	-9.47342500
8.39999967	-1.27399100	-33.20005000	-9.47342500
8.59999966	-3.82258900	-33.15699000	-9.47342500
8.79999965	-5.09719500	-32.82480000	-9.47342500
8.99999964	-4.93786900	-32.41265000	-9.47342500
9.19999962	-3.66326300	-32.40649000	-9.47342500
9.39999961	-1.91129400	-32.03740000	-9.47342500
9.59999960	0.15871060	-32.08661000	-9.47342500
9.79999959	1.59264300	-32.78174000	-9.47342500
9.99999958	2.38927200	-33.15699000	-9.47342500
10.19999956	2.38927200	-33.20005000	-9.47342500
10.39999955	1.91129400	-33.20005000	-9.47342500
10.59999954	0.95533960	-33.20005000	-9.47342500
10.79999953	0.15871060	-33.15699000	-9.47342500
10.99999952	-0.47736220	-32.82480000	-9.47342500
11.19999951	-0.79601380	-32.45571000	-9.47342500
11.39999949	-0.95533960	-32.82480000	-9.47342500
11.59999948	-0.95533960	-33.15699000	-9.47342500
11.79999947	-0.63668800	-33.20005000	-9.47342500
11.99999946	-0.31803640	-33.15699000	-9.47342500
12.19999945	-0.15871060	-32.82480000	-9.47342500
12.39999943	-0.15871060	-32.45571000	-9.47342500
12.59999942	0.00000000	-32.82480000	-9.47342500
12.79999941	0.00000000	-33.15699000	-9.47342500
12.99999940	0.00000000	-33.20005000	-9.47342500
13.19999939	0.00000000	-33.15699000	-9.47342500
13.39999937	0.00000000	-32.78174000	-9.47342500
13.59999936	0.00000000	-32.03740000	-9.47342500
13.79999935	0.00000000	-31.66215000	-9.47342500
13.99999934	-0.15871060	-31.66215000	-9.47342500
14.19999933	-0.15871060	-32.03740000	-9.47342500
14.39999932	-0.15871060	-32.78174000	-9.47342500
14.59999930	-0.15871060	-33.15699000	-9.47342500
14.79999929	0.00000000	-33.20005000	-9.47342500
14.99999928	0.00000000	-33.20005000	-9.47342500
15.19999927	0.00000000	-33.20005000	-9.47342500
15.39999926	0.00000000	-33.20005000	-9.47342500
15.59999924	0.00000000	-33.15699000	-9.47342500
15.79999923	0.00000000	-32.82480000	-9.47342500
15.99999922	0.00000000	-32.45571000	-9.47342500
16.19999921	0.00000000	-32.78174000	-9.47342500
16.39999920	-0.15871060	-32.68946000	-9.47342500
16.59999919	-0.15871060	-31.66215000	-9.47342500
16.79999917	-0.15871060	-30.92396000	-9.47342500
16.99999916	-0.15871060	-31.20078000	-9.47342500
17.19999915	0.00000000	-31.15157000	-9.47342500
17.39999914	0.00000000	-30.45644000	-9.47342500
17.59999913	0.00000000	-30.13041000	-9.47342500
17.79999911	0.00000000	-30.50566000	-9.47342500
17.99999910	0.00000000	-31.61909000	-9.47342500
18.19999909	0.00000000	-32.82480000	-9.47342500
18.39999908	0.00000000	-34.04282000	-9.47342500
18.59999907	-0.15871060	-35.94980000	-9.47342500
18.79999905	0.00000000	-37.43848000	-9.47342500
18.99999904	-0.15871060	-37.81373000	-9.47342500
19.19999903	0.00000000	-37.02018000	-9.47342500
19.39999902	-0.15871060	-34.69488000	-9.47342500
19.59999901	0.00000000	-31.57603000	-9.47342500
19.79999900	0.00000000	-28.03888000	-9.47342500
19.99999898	0.00000000	-24.22490000	-9.47342500
20.19999897	0.00000000	-21.57357000	-9.47342500
20.39999896	0.00000000	-21.19833000	-9.47342500
20.59999895	0.00000000	-23.19759000	-9.47342500
20.79999894	0.00000000	-27.89739000	-9.47342500
20.99999892	-0.15871060	-34.87328000	-9.47342500
21.19999891	0.00000000	-42.55659000	-9.47342500
21.39999890	0.00000000	-49.11417000	-9.47342500
21.59999889	0.00000000	-52.51599000	-9.47342500
21.79999888	0.00000000	-51.72244000	-9.47342500
21.99999886	0.00000000	-46.19217000	-9.47342500
22.19999885	0.00000000	-36.50959000	-9.47342500
22.39999884	0.00000000	-24.08957000	-9.47342500
22.59999883	0.00000000	-11.84793000	-9.47342500
22.79999882	0.00000000	-2.96505900	-9.47342500
22.99999881	0.00000000	-0.35063970	-9.43036400
23.19999879	0.00000000	-4.68134800	-9.05511800
23.39999878	-0.15871060	-16.35704000	-8.31077700
23.59999877	0.00000000	-33.29232000	-7.89247000
23.79999876	0.00000000	-51.07037000	-7.51722400
23.99999875	0.00000000	-65.77264000	-7.14812900
24.19999873	0.00000000	-74.15108000	-7.56028500
24.39999872	0.00000000	-73.26525000	-8.31077700
24.59999871	0.00000000	-62.05708000	-9.51648500
24.79999870	0.00000000	-43.11638000	-11.04823000
24.99999869	0.00000000	-20.68774000	-12.58612000
25.19999867	0.00000000	0.52288380	-13.74262000
25.39999866	0.00000000	15.08981000	-14.11786000
25.59999865	0.00000000	18.94685000	-13.69956000
25.79999864	-0.15871060	10.81447000	-12.07554000
25.99999863	0.00000000	-7.33882900	-8.96284400
26.19999862	0.00000000	-31.66830000	-4.73671200
26.39999860	0.00000000	-56.37303000	-0.55364170
26.59999859	0.00000000	-75.68896000	2.14074800
26.79999858	0.00000000	-85.35925000	2.50984200
26.99999857	0.00000000	-82.99089000	0.51673230
27.19999856	0.00000000	-69.12524000	-4.17691900
27.39999854	0.00000000	-46.74582000	-11.09744000
27.59999853	0.00000000	-21.66585000	-18.43627000
27.79999852	0.00000000	0.43676180	-24.61860000
27.99999851	0.00000000	15.08981000	-28.42643000
28.19999850	-0.15871060	18.94685000	-28.38337000
28.39999848	0.00000000	10.90059000	-24.06496000
28.59999847	0.00000000	-6.40378900	-15.88336000
28.79999846	0.00000000	-28.41412000	-4.69365100
28.99999845	0.00000000	-50.09227000	6.87746000
29.19999844	0.00000000	-66.75688000	16.08022000
29.39999843	0.00000000	-75.31373000	20.63238000
29.59999841	0.00000000	-74.19414000	18.26402000
29.79999840	0.00000000	-64.19168000	9.38730200
29.99999839	0.00000000	-47.99458000	-4.17691900
30.19999838	0.00000000	-29.43528000	-19.97416000
30.39999837	0.00000000	-12.77682000	-34.23351000
30.59999835	0.00000000	-1.10113200	-43.48548000
30.79999834	0.00000000	3.54945900	-45.80462000
30.99999833	0.00000000	0.52288380	-40.37278000
31.19999832	0.00000000	-9.10433000	-28.34030000
31.39999831	0.00000000	-22.60088000	-11.70029000
31.59999829	0.00000000	-36.97096000	6.36687900
31.79999828	0.00000000	-49.35408000	21.05069000
31.99999827	0.00000000	-57.48647000	29.22613000
32.19999826	0.00000000	-59.44266000	29.97047000
32.39999825	0.00000000	-55.25959000	22.58243000
32.59999824	0.00000000	-46.41363000	8.32308000
32.79999822	0.00000000	-35.20546000	-9.47342500
32.99999821	0.00000000	-24.36024000	-27.22072000
33.19999820	0.00000000	-15.84646000	-41.11097000
33.39999819	0.00000000	-11.57111000	-47.71161000
33.59999818	0.00000000	-12.30930000	-46.22293000
33.79999816	0.00000000	-17.29208000	-37.34621000
33.99999815	0.00000000	-25.38755000	-23.03765000
34.19999814	0.00000000	-34.18430000	-6.40378900
34.39999813	0.00000000	-41.20940000	9.43651600
34.59999812	0.00000000	-45.12180000	21.00148000
34.79999810	0.00000000	-45.90305000	25.65207000
34.99999809	0.00000000	-43.16560000	22.58243000
35.19999808	0.00000000	-37.43848000	12.59227000
35.39999807	0.00000000	-30.54872000	-1.62401600
35.59999806	0.00000000	-24.77854000	-16.35089000
35.79999805	0.00000000	-21.65969000	-28.71555000
35.99999803	0.00000000	-21.61663000	-36.42347000
36.19999802	0.00000000	-24.31102000	-37.16781000
36.39999801	0.00000000	-28.92470000	-31.07775000
36.59999800	0.00000000	-34.27657000	-19.97416000
36.79999799	0.00000000	-38.50886000	-7.28961600
36.99999797	0.00000000	-40.46506000	3.53715500
37.19999796	0.00000000	-40.08981000	10.45768000
37.39999795	0.00000000	-37.39542000	11.62032000
37.59999794	0.00000000	-33.15699000	6.69906400
37.79999793	0.00000000	-28.54946000	-2.08538400
37.99999791	0.00000000	-24.68627000	-12.07554000
38.19999790	0.00000000	-22.73007000	-20.52780000
38.39999789	0.00000000	-22.68701000	-25.08612000
38.59999788	0.00000000	-24.31102000	-24.34178000
38.79999787	0.00000000	-27.76206000	-18.25787000
38.99999786	0.00000000	-32.36343000	-9.47342500
39.19999784	0.00000000	-36.23277000	-0.64591530
39.39999783	0.00000000	-39.01944000	5.85629900
39.59999782	0.00000000	-40.55733000	7.76328700
39.79999781	0.00000000	-40.51427000	4.69980300
39.99999780	0.00000000	-38.60113000	-2.63902500
40.19999778	0.00000000	-35.11319000	-12.53691000
40.39999777	0.00000000	-31.24384000	-21.73966000
40.59999776	0.00000000	-27.34375000	-27.09153000
40.79999775	0.00000000	-24.26796000	-27.54675000
40.99999774	0.00000000	-22.68701000	-22.85925000
41.19999772	0.00000000	-22.68701000	-14.48696000
41.39999771	0.00000000	-24.22490000	-4.45989200
41.59999770	0.00000000	-26.96850000	3.95546200
41.79999769	0.00000000	-30.45644000	9.01205700
41.99999768	0.00000000	-34.31963000	9.38730200
42.19999767	0.00000000	-37.39542000	5.16117100
42.39999765	0.00000000	-39.01944000	-2.50369100
42.59999764	0.00000000	-39.39468000	-11.70029000
42.79999763	0.00000000	-38.64419000	-19.42052000
42.99999762	0.00000000	-36.70029000	-24.06496000
43.19999761	0.00000000	-34.36884000	-24.85236000
43.39999759	0.00000000	-31.66830000	-21.45669000
43.59999758	0.00000000	-29.34301000	-15.74188000
43.79999757	0.00000000	-28.17421000	-9.51648500
43.99999756	0.00000000	-27.71284000	-3.70939900
44.19999755	0.00000000	-28.08194000	0.51673230
44.39999753	0.00000000	-28.41412000	2.04847400
44.59999752	0.00000000	-28.45718000	0.55979330
44.79999751	0.00000000	-28.45718000	-3.20497000
44.99999750	0.00000000	-28.50024000	-7.43110200
45.19999749	0.00000000	-28.92470000	-10.96211000
45.39999748	0.00000000	-30.13041000	-13.69956000
45.59999746	0.00000000	-32.08661000	-15.23130000
45.79999745	0.00000000	-34.78716000	-15.23130000
45.99999744	0.00000000	-37.53075000	-13.69956000
46.19999743	0.00000000	-39.81299000	-11.04823000
46.39999742	0.00000000	-41.29552000	-8.35383800
46.59999740	0.00000000	-40.46506000	-6.36072800
46.79999739	0.00000000	-37.39542000	-4.82283400
46.99999738	0.00000000	-32.68946000	-4.08464600
47.19999737	0.00000000	-26.87623000	-4.82283400
47.39999736	0.00000000	-21.10605000	-6.36072800
47.59999734	0.00000000	-16.91683000	-8.31077700
47.79999733	0.00000000	-15.80339000	-10.62992000
47.99999732	0.00000000	-18.54700000	-12.53691000
48.19999731	0.00000000	-24.73548000	-13.74262000
48.39999730	0.00000000	-33.20005000	-14.07480000
48.59999729	0.00000000	-41.67076000	-13.28125000
48.79999727	0.00000000	-47.90846000	-10.96211000
48.99999726	0.00000000	-50.93504000	-7.89247000
49.19999725	0.00000000	-49.67397000	-4.82283400
49.39999724	0.00000000	-43.15945000	-2.50369100
49.59999723	0.00000000	-33.57529000	-1.75319900
49.79999721	0.00000000	-23.89271000	-2.50369100
49.99999720	0.00000000	-15.80339000	-4.87204700
50.19999719	0.00000000	-11.57111000	-8.31077700
50.39999718	0.00000000	-12.35851000	-12.16166000
50.59999717	0.00000000	-17.71038000	-15.23130000
50.79999715	0.00000000	-26.59326000	-16.81225000
50.99999714	0.00000000	-36.18971000	-16.76919000
51.19999713	0.00000000	-44.32209000	-14.85605000
51.39999712	0.00000000	-48.88656000	-11.38041000
51.59999711	0.00000000	-48.56053000	-7.51722400
51.79999710	0.00000000	-43.58390000	-3.66633800
51.99999708	0.00000000	-35.90059000	-1.01501000
52.19999707	0.00000000	-27.38681000	-0.59670270
52.39999706	0.00000000	-20.12795000	-2.08538400
52.59999705	0.00000000	-16.26476000	-4.82283400
52.79999704	0.00000000	-17.05217000	-8.31077700
52.99999702	0.00000000	-21.99188000	-12.11860000
53.19999701	0.00000000	-29.61983000	-14.81299000
53.39999700	0.00000000	-36.92790000	-15.60654000
53.59999699	0.00000000	-42.00295000	-14.85605000
53.79999698	0.00000000	-44.27903000	-12.53691000
53.99999696	0.00000000	-42.74114000	-9.51648500
54.19999695	0.00000000	-37.77067000	-6.82209600
54.39999694	0.00000000	-31.24384000	-5.29035400
54.59999693	0.00000000	-24.73548000	-5.24729300
54.79999692	0.00000000	-20.50320000	-6.36072800
54.99999691	0.00000000	-19.70349000	-7.89247000
55.19999689	0.00000000	-21.99188000	-9.42421200
55.39999688	0.00000000	-27.01156000	-10.53765000
55.59999687	0.00000000	-33.11393000	-10.53765000
55.79999686	0.00000000	-38.50886000	-9.42421200
55.99999685	0.00000000	-41.58464000	-7.89247000
56.19999683	0.00000000	-41.62770000	-6.36072800
56.39999682	0.00000000	-38.93332000	-5.24729300
56.59999681	0.00000000	-34.31963000	-5.29035400
56.79999680	0.00000000	-28.92470000	-6.86515700
56.99999679	0.00000000	-24.36024000	-9.93479300
57.19999677	0.00000000	-21.99188000	-13.69956000
57.39999676	0.00000000	-22.36097000	-16.35089000
57.59999675	0.00000000	-24.64321000	-16.76919000
57.79999674	0.00000000	-28.50024000	-15.18824000
57.99999673	0.00000000	-32.68946000	-11.70029000
58.19999672	0.00000000	-35.81446000	-6.68676100
58.39999670	0.00000000	-37.39542000	-1.71013800
58.59999669	0.00000000	-37.39542000	2.14074800
58.79999668	0.00000000	-35.85752000	3.58636800
58.99999667	0.00000000	-33.15699000	1.67322800
59.19999666	0.00000000	-30.13041000	-3.29109200
59.39999664	0.00000000	-27.80512000	-9.47342500
59.59999663	0.00000000	-27.01156000	-15.64960000
59.79999662	0.00000000	-27.34375000	-20.62008000
59.99999661	0.00000000	-28.50024000	-22.52707000
60.19999660	0.00000000	-30.03814000	-20.99532000
60.39999658	0.00000000	-31.57603000	-16.35089000
60.59999657	0.00000000	-32.73252000	-9.42421200
60.79999656	0.00000000	-33.10777000	-2.12844500
60.99999655	0.00000000	-32.73252000	3.67249000
61.19999654	0.00000000	-31.57603000	6.69291300
61.39999653	0.00000000	-30.08120000	5.94857300
61.59999651	0.00000000	-28.92470000	1.30413400
61.79999650	0.00000000	-28.54946000	-5.62253900
61.99999649	0.00000000	-28.92470000	-13.74262000
62.19999648	0.00000000	-30.08120000	-20.95226000
62.39999647	0.00000000	-31.61909000	-24.85236000
62.59999645	0.00000000	-33.15699000	-24.52633000
62.79999644	0.00000000	-34.27657000	-21.03838000
62.99999643	0.00000000	-34.27657000	-14.81299000
63.19999642	0.00000000	-33.15699000	-6.77903500
63.39999641	0.00000000	-31.57603000	0.51673230
63.59999639	0.00000000	-29.66289000	5.16117100
63.79999638	0.00000000	-27.76206000	6.36687900
63.99999637	0.00000000	-27.01156000	4.09079700
64.19999636	0.00000000	-27.34375000	-0.55364170
64.39999635	0.00000000	-28.50024000	-6.72982200
64.59999634	0.00000000	-30.03814000	-13.28125000
64.79999632	0.00000000	-31.61909000	-18.30093000
64.99999631	0.00000000	-33.11393000	-21.03838000
65.19999630	0.00000000	-33.90133000	-21.08760000
65.39999629	0.00000000	-33.53223000	-18.81152000
65.59999628	0.00000000	-32.78174000	-15.32357000
65.79999626	0.00000000	-31.57603000	-11.00517000
65.99999625	0.00000000	-30.08120000	-6.40378900
66.19999624	0.00000000	-28.96776000	-2.50369100
66.39999623	0.00000000	-28.96776000	-0.17839570
66.59999622	0.00000000	-30.08120000	0.65206690
66.79999620	0.00000000	-31.57603000	-0.09227362
66.99999619	0.00000000	-32.78174000	-1.62401600
67.19999618	0.00000000	-33.48917000	-3.66633800
67.39999617	0.00000000	-33.47687000	-6.77903500
67.59999616	0.00000000	-31.95128000	-10.62992000
67.79999615	0.00000000	-30.03814000	-14.11786000
67.99999613	0.00000000	-28.08194000	-16.85531000
68.19999612	0.00000000	-26.18110000	-18.39321000
68.39999611	0.00000000	-25.47367000	-18.39321000
68.59999610	-0.15871060	-26.26722000	-16.81225000
68.79999609	0.00000000	-28.96776000	-13.69956000
68.99999607	0.00000000	-32.78174000	-9.43036400
69.19999606	0.00000000	-36.27584000	-4.77977300
69.39999605	0.00000000	-38.97638000	-0.51058070
69.59999604	0.00000000	-40.08981000	2.51599400
69.79999603	0.00000000	-38.93332000	3.29724400
69.99999601	0.00000000	-35.81446000	1.39640700
70.19999600	0.00000000	-31.15772000	-2.08538400
70.39999599	0.00000000	-25.76279000	-6.82209600
70.59999598	0.00000000	-21.19833000	-12.58612000
70.79999597	0.00000000	-18.87303000	-17.92569000
70.99999596	0.00000000	-19.61737000	-20.99532000
71.19999594	0.00000000	-22.68701000	-21.03838000
71.39999593	0.00000000	-27.38681000	-18.35015000
71.59999592	0.00000000	-33.20005000	-13.74262000
71.79999591	0.00000000	-38.97638000	-8.35998900
71.99999590	0.00000000	-43.16560000	-3.70939900
72.19999588	0.00000000	-44.32209000	-0.59670270
72.39999587	0.00000000	-42.04601000	0.55979330
72.59999586	0.00000000	-37.43848000	-0.59670270
72.79999585	0.00000000	-31.61909000	-3.62327700
72.99999584	0.00000000	-25.80585000	-7.42495000
73.19999582	0.00000000	-21.19833000	-10.53765000
73.39999581	0.00000000	-18.87303000	-12.49385000
73.59999580	0.00000000	-19.61737000	-13.28125000
73.79999579	0.00000000	-22.68701000	-12.53691000
73.99999578	0.00000000	-27.34375000	-11.04823000
74.19999577	0.00000000	-32.73868000	-9.51648500
74.39999575	0.00000000	-37.34621000	-8.35998900
74.59999574	0.00000000	-40.08981000	-7.98474400
74.79999573	0.00000000	-40.46506000	-8.35998900
74.99999572	0.00000000	-38.60113000	-9.51648500
75.19999571	0.00000000	-35.11319000	-10.96211000
75.39999569	0.00000000	-31.29306000	-11.70029000
75.59999568	0.00000000	-27.80512000	-10.91289000
75.79999567	0.00000000	-25.84892000	-9.00590400
75.99999566	0.00000000	-25.38755000	-6.26845500
76.19999565	0.00000000	-25.80585000	-3.24803100
76.39999563	0.00000000	-27.34375000	-1.01501000
76.59999562	0.00000000	-29.57062000	-1.01501000
76.79999561	0.00000000	-31.10851000	-3.29109200
76.99999560	0.00000000	-31.57603000	-6.77903500
77.19999559	0.00000000	-31.61909000	-11.04823000
77.39999558	0.00000000	-31.57603000	-15.27436000
77.59999556	0.00000000	-31.20078000	-18.30093000
77.79999555	0.00000000	-30.50566000	-19.04527000
77.99999554	0.00000000	-30.54872000	-16.76919000
78.19999553	0.00000000	-31.61909000	-12.53691000
78.39999552	0.00000000	-32.73252000	-7.51722400
78.59999550	0.00000000	-33.10777000	-2.50369100
78.79999549	0.00000000	-32.73252000	0.97810030
78.99999548	0.00000000	-31.57603000	2.55905500
79.19999547	0.00000000	-29.99508000	2.14074800
79.39999546	0.00000000	-28.08194000	-0.59670270
79.59999544	0.00000000	-26.18110000	-5.19808000
79.79999543	0.00000000	-25.43061000	-10.58686000
79.99999542	0.00000000	-25.80585000	-15.18824000
80.19999541	0.00000000	-27.34375000	-17.92569000
80.39999540	0.00000000	-29.70595000	-18.35015000
80.59999539	0.00000000	-32.36959000	-16.85531000
80.79999537	0.00000000	-35.06397000	-14.16092000
80.99999536	0.00000000	-36.23277000	-11.04823000
81.19999535	0.00000000	-36.27584000	-7.89247000
81.39999534	0.00000000	-35.43922000	-4.77977300
81.59999533	0.00000000	-33.11393000	-2.12844500
81.79999531	0.00000000	-30.08120000	-0.92888770
81.99999530	0.00000000	-27.34375000	-1.24877000
82.19999529	0.00000000	-25.43061000	-2.04232300
82.39999528	0.00000000	-24.68627000	-3.66633800
82.59999527	0.00000000	-25.80585000	-6.36072800
82.79999525	0.00000000	-28.08194000	-9.42421200
82.99999524	0.00000000	-30.37032000	-12.16781000
83.19999523	0.00000000	-32.36343000	-14.11786000
83.39999522	0.00000000	-33.48917000	-15.32357000
83.59999521	0.00000000	-33.94439000	-15.69267000
83.79999520	0.00000000	-33.53223000	-15.23130000
83.99999518	0.00000000	-32.78174000	-13.28125000
84.19999517	0.00000000	-31.61909000	-9.79945900
84.39999516	0.00000000	-30.45644000	-5.98548200
84.59999515	0.00000000	-29.70595000	-2.46063000
84.79999514	0.00000000	-29.29380000	-0.17839570
84.99999512	0.00000000	-29.66289000	0.60285430
85.19999511	0.00000000	-29.99508000	-0.59670270
85.39999510	0.00000000	-30.03814000	-3.66633800
85.59999509	0.00000000	-29.99508000	-7.93553100
85.79999508	0.00000000	-29.66289000	-12.53691000
85.99999506	0.00000000	-29.29380000	-16.39395000
86.19999505	0.00000000	-29.66289000	-18.30093000
86.39999504	0.00000000	-30.03814000	-17.97490000
86.59999503	0.00000000	-30.50566000	-15.60654000
86.79999502	0.00000000	-31.61909000	-11.74336000
86.99999501	0.00000000	-32.73252000	-6.77903500
87.19999499	0.00000000	-33.10777000	-2.54675200
87.39999498	0.00000000	-32.73252000	-0.17839570
87.59999497	0.00000000	-31.57603000	0.55979330
87.79999496	0.00000000	-30.08120000	-1.02116100
87.99999495	0.00000000	-28.87549000	-4.82898600
88.19999493	0.00000000	-28.08194000	-9.43036400
88.39999492	0.00000000	-27.34375000	-13.65650000
88.59999491	0.00000000	-27.38681000	-16.35089000
88.79999490	0.00000000	-28.45718000	-16.76919000
88.99999489	0.00000000	-29.66289000	-15.23130000
89.19999487	0.00000000	-30.83169000	-12.11860000
89.39999486	0.00000000	-32.36343000	-7.89247000
89.59999485	0.00000000	-33.06471000	-3.66633800
89.79999484	0.00000000	-32.78174000	-0.59670270
89.99999483	0.00000000	-31.99434000	0.51673230
90.19999482	0.00000000	-31.24384000	-1.02116100
90.39999480	0.00000000	-30.41338000	-4.82898600
90.59999479	0.00000000	-29.66289000	-9.43036400
90.79999478	0.00000000	-28.87549000	-13.69956000
90.99999477	0.00000000	-28.54946000	-16.72613000
91.19999476	0.00000000	-28.87549000	-17.46432000
91.39999474	0.00000000	-29.61983000	-15.18824000
91.59999473	0.00000000	-29.99508000	-11.00517000
91.79999472	0.00000000	-30.03814000	-6.35457700
91.99999471	0.00000000	-29.99508000	-2.12844500
92.19999470	0.00000000	-29.66289000	0.51673230
92.39999468	0.00000000	-29.29380000	0.51673230
92.59999467	0.00000000	-29.70595000	-2.12844500
92.79999466	0.00000000	-30.41338000	-6.35457700
92.99999465	0.00000000	-31.24384000	-10.95595000
93.19999464	0.00000000	-31.99434000	-14.81299000
93.39999463	0.00000000	-32.78174000	-16.71998000
93.59999461	0.00000000	-33.10777000	-16.35089000
93.79999460	0.00000000	-32.73252000	-13.65650000
93.99999459	0.00000000	-31.52682000	-9.43036400
94.19999458	0.00000000	-29.61983000	-4.82898600
94.39999457	0.00000000	-27.29453000	-1.06422200
94.59999455	0.00000000	-25.43061000	0.09842519
94.79999454	0.00000000	-24.60015000	-1.71013800
94.99999453	0.00000000	-25.01230000	-4.77977300
95.19999452	0.00000000	-26.18110000	-8.31077700
95.39999451	0.00000000	-28.59252000	-12.16166000
95.59999449	0.00000000	-31.99434000	-15.18824000
95.79999448	0.00000000	-35.43922000	-16.34473000
95.99999447	0.00000000	-37.39542000	-15.23130000
96.19999446	0.00000000	-37.77067000	-12.53691000
96.39999445	0.00000000	-36.59571000	-9.09817800
96.59999444	0.00000000	-33.53223000	-5.66560000
96.79999442	0.00000000	-30.03814000	-3.70939900
96.99999441	0.00000000	-26.50098000	-3.24803100
97.19999440	0.00000000	-23.06225000	-3.70939900
97.39999439	0.00000000	-21.14911000	-5.61638700
97.59999438	0.00000000	-21.10605000	-8.58759800
97.79999436	0.00000000	-22.73007000	-10.53765000
97.99999435	0.00000000	-26.18110000	-11.38041000
98.19999434	0.00000000	-30.78248000	-11.74336000
98.39999433	0.00000000	-34.65182000	-10.96211000
98.59999432	0.00000000	-37.43848000	-9.51648500
98.79999430	0.00000000	-38.93332000	-8.31077700
98.99999429	0.00000000	-38.50886000	-7.51722400
99.19999428	0.00000000	-35.85752000	-6.77903500
99.39999427	0.00000000	-32.03740000	-6.77903500
99.59999426	0.00000000	-28.50024000	-7.42495000
99.79999425	0.00000000	-25.38755000	-7.42495000
99.99999423	0.00000000	-23.06225000	-6.72982200
100.19999422	0.00000000	-22.31176000	-6.35457700
100.39999421	0.00000000	-23.06225000	-6.31151500
100.59999420	0.00000000	-25.38755000	-6.35457700
100.79999419	0.00000000	-28.45718000	-6.77903500
100.99999417	0.00000000	-31.57603000	-7.93553100
101.19999416	0.00000000	-34.27657000	-9.47342500
101.39999415	0.00000000	-35.85752000	-11.00517000
101.59999414	0.00000000	-36.27584000	-12.16166000
101.79999413	0.00000000	-35.85752000	-12.53691000
101.99999411	0.00000000	-34.31963000	-12.11860000
102.19999410	0.00000000	-31.99434000	-10.53765000
102.39999409	0.00000000	-29.66289000	-7.89247000
102.59999408	0.00000000	-27.34375000	-5.19808000
102.79999407	0.00000000	-25.80585000	-3.24803100
102.99999406	0.00000000	-25.38755000	-2.08538400
103.19999404	0.00000000	-25.76279000	-2.12844500
103.39999403	0.00000000	-26.91929000	-3.66633800
103.59999402	0.00000000	-28.45718000	-6.36072800
103.79999401	0.00000000	-30.03814000	-9.47342500
103.99999400	0.00000000	-31.61909000	-12.53691000
104.19999398	0.00000000	-33.11393000	-14.76993000
104.39999397	0.00000000	-33.90133000	-14.81299000
104.59999396	0.00000000	-33.48917000	-12.91215000
104.79999395	0.00000000	-32.36343000	-10.25467000
104.99999394	0.00000000	-30.45644000	-7.14812900
105.19999392	0.00000000	-28.92470000	-4.82283400
105.39999391	0.00000000	-28.08194000	-3.24803100
105.59999390	0.00000000	-27.34375000	-2.54675200
105.79999389	0.00000000	-27.38681000	-3.70939900
105.99999388	0.00000000	-28.45718000	-6.31151500
106.19999387	0.00000000	-29.61983000	-9.00590400
106.39999385	0.00000000	-30.41338000	-10.96211000
106.59999384	0.00000000	-31.20078000	-12.11860000
106.79999383	0.00000000	-31.52682000	-12.11860000
106.99999382	0.00000000	-31.20078000	-11.00517000
107.19999381	0.00000000	-30.41338000	-9.42421200
107.39999379	0.00000000	-29.66289000	-7.51722400
107.59999378	0.00000000	-28.87549000	-5.61638700
107.79999377	0.00000000	-28.50024000	-4.87204700
107.99999376	0.00000000	-28.50024000	-5.19808000
108.19999375	0.00000000	-28.92470000	-6.36072800
108.39999374	0.00000000	-30.03814000	-7.89247000
108.59999372	0.00000000	-31.15157000	-9.42421200
108.79999371	0.00000000	-31.57603000	-10.58686000
108.99999370	0.00000000	-31.57603000	-10.95595000
109.19999369	0.00000000	-31.20078000	-10.58686000
109.39999368	0.00000000	-30.41338000	-9.42421200
109.59999366	0.00000000	-29.61983000	-7.89247000
109.79999365	0.00000000	-28.45718000	-6.36072800
109.99999364	0.00000000	-27.38681000	-5.24729300
110.19999363	0.00000000	-27.34375000	-5.19808000
110.39999362	0.00000000	-28.08194000	-5.93626900
110.59999360	0.00000000	-28.87549000	-6.72982200
110.79999359	0.00000000	-30.03814000	-7.93553100
110.99999358	0.00000000	-31.15157000	-9.42421200
111.19999357	0.00000000	-31.57603000	-10.58686000
111.39999356	0.00000000	-31.61909000	-10.95595000
111.59999355	0.00000000	-31.57603000	-10.62992000
111.79999353	0.00000000	-31.15157000	-9.84867000
111.99999352	0.00000000	-30.03814000	-9.05511800
112.19999351	0.00000000	-28.92470000	-7.89247000
112.39999350	0.00000000	-28.50024000	-6.77903500
112.59999349	0.00000000	-28.45718000	-6.35457700
112.79999347	0.00000000	-28.45718000	-6.31151500
112.99999346	0.00000000	-28.50024000	-6.35457700
113.19999345	0.00000000	-28.87549000	-6.72982200
113.39999344	0.00000000	-29.61983000	-7.47416300
113.59999343	0.00000000	-29.99508000	-7.84940900
113.79999341	0.00000000	-29.99508000	-7.93553100
113.99999340	0.00000000	-29.66289000	-8.31077700
114.19999339	0.00000000	-29.29380000	-9.05511800
114.39999338	0.00000000	-29.66289000	-9.43036400
114.59999337	0.00000000	-29.99508000	-9.47342500
114.79999336	0.00000000	-30.03814000	-9.47342500
114.99999334	0.00000000	-30.03814000	-9.47342500
115.19999333	0.00000000	-29.99508000	-9.43036400
115.39999332	0.00000000	-29.66289000	-9.05511800
115.59999331	0.00000000	-29.25074000	-8.26771600
115.79999330	0.00000000	-29.28765000	-7.51722400
115.99999328	0.00000000	-29.25074000	-6.72982200
116.19999327	0.00000000	-29.66289000	-6.35457700
116.39999326	0.00000000	-29.99508000	-6.31151500
116.59999325	0.00000000	-30.03814000	-6.31151500
116.79999324	0.00000000	-30.03814000	-6.35457700
116.99999322	0.00000000	-29.99508000	-6.77903500
117.19999321	0.00000000	-29.61983000	-7.89247000
117.39999320	0.00000000	-28.87549000	-9.05511800
117.59999319	0.00000000	-28.45718000	-9.84867000
117.79999318	0.00000000	-28.03888000	-10.58686000
117.99999317	0.00000000	-27.34375000	-10.58686000
118.19999315	0.00000000	-27.34375000	-9.84867000
118.39999314	0.00000000	-28.08194000	-9.09817800
118.59999313	0.00000000	-28.87549000	-8.26771600
118.79999312	0.00000000	-30.03814000	-7.51722400
118.99999311	0.00000000	-31.15157000	-6.72982200
119.19999309	0.00000000	-31.57603000	-6.35457700
119.39999308	0.00000000	-31.61909000	-6.31151500
119.59999307	0.00000000	-31.57603000	-6.31151500
119.79999306	0.00000000	-31.15157000	-6.35457700
119.99999305	0.00000000	-29.99508000	-6.72982200
120.19999303	0.00000000	-28.50024000	-7.51722400
120.39999302	0.00000000	-27.34375000	-8.26771600
120.59999301	0.00000000	-26.91929000	-9.05511800
120.79999300	0.00000000	-26.91929000	-9.43036400
120.99999299	0.00000000	-27.34375000	-9.43036400
121.19999298	0.00000000	-28.45718000	-9.05511800
121.39999296	0.00000000	-29.61983000	-8.31077700
121.59999295	0.00000000	-30.41338000	-7.93553100
121.79999294	0.00000000	-31.20078000	-7.89247000
121.99999293	0.00000000	-31.57603000	-7.89247000
122.19999292	0.00000000	-31.57603000	-7.84940900
122.39999290	0.00000000	-31.20078000	-7.47416300
122.59999289	0.00000000	-30.41338000	-6.77903500
122.79999288	0.00000000	-29.66289000	-6.72982200
122.99999287	0.00000000	-28.83243000	-7.05585600
123.19999286	0.00000000	-28.08194000	-6.72982200
123.39999284	0.00000000	-27.29453000	-6.77903500
123.59999283	0.00000000	-26.91929000	-7.47416300
123.79999282	0.00000000	-26.91929000	-7.89247000
123.99999281	0.00000000	-27.29453000	-8.26771600
124.19999280	0.00000000	-28.08194000	-8.67987200
124.39999279	0.00000000	-28.87549000	-8.68602300
124.59999277	0.00000000	-30.03814000	-9.05511800
124.79999276	0.00000000	-31.15157000	-9.00590400
124.99999275	0.00000000	-31.57603000	-8.31077700
125.19999274	0.00000000	-31.57603000	-7.89247000
125.39999273	0.00000000	-31.20078000	-7.47416300
125.59999271	0.00000000	-30.41338000	-6.72982200
125.79999270	0.00000000	-29.66289000	-6.35457700
125.99999269	0.00000000	-28.83243000	-6.31151500
126.19999268	0.00000000	-28.08194000	-6.35457700
126.39999267	0.00000000	-27.29453000	-6.72982200
126.59999265	0.00000000	-26.96850000	-7.47416300
126.79999264	0.00000000	-27.29453000	-7.89247000
126.99999263	0.00000000	-28.08194000	-8.31077700
127.19999262	0.00000000	-28.87549000	-9.05511800
127.39999261	0.00000000	-30.03814000	-9.38115100
127.59999260	0.00000000	-31.15157000	-9.05511800
127.79999258	0.00000000	-31.57603000	-8.31077700
127.99999257	0.00000000	-31.57603000	-7.93553100
128.19999256	0.00000000	-31.15157000	-7.89247000
128.39999255	0.00000000	-30.03814000	-7.84940900
128.59999254	0.00000000	-28.87549000	-7.51722400
128.79999252	0.00000000	-28.08194000	-7.14812900
128.99999251	0.00000000	-27.34375000	-7.51722400
129.19999250	0.00000000	-27.34375000	-7.84940900
129.39999249	0.00000000	-28.08194000	-7.89247000
129.59999248	0.00000000	-28.83243000	-7.93553100
129.79999246	0.00000000	-29.66289000	-8.26771600
129.99999245	0.00000000	-30.41338000	-8.63681000
130.19999244	0.00000000	-31.20078000	-8.22465500
130.39999243	0.00000000	-31.52682000	-7.56028500
130.59999242	0.00000000	-31.20078000	-7.14812900
130.79999241	0.00000000	-30.41338000	-7.51722400
130.99999239	0.00000000	-29.61983000	-7.80019600
131.19999238	0.00000000	-28.45718000	-7.51722400
131.39999237	0.00000000	-27.38681000	-7.14812900
131.59999236	0.00000000	-27.34375000	-7.51722400
131.79999235	0.00000000	-28.03888000	-7.89247000
131.99999233	0.00000000	-28.45718000	-8.31077700
132.19999232	0.00000000	-28.87549000	-9.05511800
132.39999231	0.00000000	-29.61983000	-9.38115100
132.59999230	0.00000000	-29.99508000	-9.05511800
132.79999229	0.00000000	-30.03814000	-8.26771600
132.99999227	0.00000000	-30.03814000	-7.51722400
133.19999226	0.00000000	-29.99508000	-6.72982200
133.39999225	0.00000000	-29.61983000	-6.35457700
133.59999224	0.00000000	-28.87549000	-6.31151500
133.79999223	0.00000000	-28.50024000	-6.35457700
133.99999222	0.00000000	-28.45718000	-6.72982200
134.19999220	0.00000000	-28.45718000	-7.47416300
134.39999219	0.00000000	-28.45718000	-7.89247000
134.59999218	0.00000000	-28.45718000	-8.31077700
134.79999217	0.00000000	-28.45718000	-9.05511800
134.99999216	0.00000000	-28.45718000	-9.43036400
135.19999214	0.00000000	-28.45718000	-9.43036400
135.39999213	0.00000000	-28.45718000	-9.05511800
135.59999212	0.00000000	-28.50024000	-8.26771600
135.79999211	0.00000000	-28.87549000	-7.51722400
135.99999210	0.00000000	-29.61983000	-6.72982200
136.19999208	0.00000000	-29.99508000	-6.35457700
136.39999207	0.00000000	-30.03814000	-6.35457700
136.59999206	0.00000000	-30.03814000	-6.72982200
136.79999205	0.00000000	-29.99508000	-7.47416300
136.99999204	0.00000000	-29.61983000	-7.84940900
137.19999203	0.00000000	-28.87549000	-7.93553100
137.39999201	0.00000000	-28.45718000	-8.31077700
137.59999200	0.00000000	-28.03888000	-9.05511800
137.79999199	0.00000000	-27.34375000	-9.43036400
137.99999198	0.00000000	-27.34375000	-9.47342500
138.19999197	0.00000000	-28.08194000	-9.43036400
138.39999195	0.00000000	-28.83243000	-9.05511800
138.59999194	0.00000000	-29.61983000	-8.26771600
138.79999193	0.00000000	-29.99508000	-7.51722400
138.99999192	0.00000000	-30.03814000	-6.72982200
139.19999191	0.00000000	-29.99508000	-6.35457700
139.39999189	0.00000000	-29.61983000	-6.31151500
139.59999188	0.00000000	-28.87549000	-6.31151500
139.79999187	0.00000000	-28.50024000	-6.35457700
139.99999186	0.00000000	-28.45718000	-6.72982200
140.19999185	0.00000000	-28.45718000	-7.51722400
140.39999184	0.00000000	-28.45718000	-8.26771600
140.59999182	0.00000000	-28.45718000	-9.05511800
140.79999181	0.00000000	-28.45718000	-9.43036400
140.99999180	0.00000000	-28.50024000	-9.47342500
141.19999179	0.00000000	-28.87549000	-9.43036400
141.39999178	0.00000000	-29.57062000	-9.05511800
141.59999176	0.00000000	-29.57062000	-8.26771600
141.79999175	0.00000000	-28.87549000	-7.51722400
141.99999174	0.00000000	-28.50024000	-6.72982200
142.19999173	0.00000000	-28.45718000	-6.35457700
142.39999172	0.00000000	-28.45718000	-6.31151500
142.59999170	0.00000000	-28.45718000	-6.35457700
142.79999169	0.00000000	-28.50024000	-6.72982200
142.99999168	0.00000000	-28.87549000	-7.51722400
143.19999167	0.00000000	-29.61983000	-8.26771600
143.39999166	0.00000000	-29.99508000	-9.05511800
143.59999165	0.00000000	-29.99508000	-9.43036400
143.79999163	0.00000000	-29.61983000	-9.43036400
143.99999162	0.00000000	-28.87549000	-9.05511800
144.19999161	0.00000000	-28.50024000	-8.26771600
144.39999160	0.00000000	-28.45718000	-7.51722400
144.59999159	0.00000000	-28.45718000	-6.72982200
144.79999157	0.00000000	-28.45718000	-6.35457700
144.99999156	0.00000000	-28.45718000	-6.31151500
145.19999155	0.00000000	-28.45718000	-6.31151500
145.39999154	0.00000000	-28.50024000	-6.35457700
145.59999153	0.00000000	-28.87549000	-6.72982200
145.79999151	0.00000000	-29.61983000	-7.51722400
145.99999150	0.00000000	-29.99508000	-8.26771600
146.19999149	0.00000000	-29.99508000	-9.05511800
146.39999148	0.00000000	-29.61983000	-9.38115100
146.59999147	0.00000000	-28.83243000	-9.00590400
146.79999146	0.00000000	-28.12500000	-7.89247000
146.99999144	0.00000000	-27.71284000	-6.82209600
147.19999143	0.00000000	-28.08194000	-6.72982200
147.39999142	0.00000000	-28.41412000	-7.05585600
147.59999141	0.00000000	-28.45718000	-6.68676100
147.79999140	0.00000000	-28.50024000	-6.35457700
147.99999138	0.00000000	-28.87549000	-6.35457700
148.19999137	0.00000000	-29.61983000	-6.72982200
148.39999136	0.00000000	-29.99508000	-7.47416300
148.59999135	0.00000000	-29.99508000	-7.84940900
148.79999134	0.00000000	-29.61983000	-7.89247000
148.99999132	0.00000000	-28.87549000	-7.89247000
149.19999131	0.00000000	-28.50024000	-7.89247000
149.39999130	0.00000000	-28.45718000	-7.89247000
149.59999129	0.00000000	-28.45718000	-7.89247000
149.79999128	0.00000000	-28.45718000	-7.89247000
149.99999127	0.00000000	-28.45718000	-7.89247000
150.19999125	0.00000000	-28.45718000	-7.84940900
150.39999124	0.00000000	-28.45718000	-7.47416300
150.59999123	0.00000000	-28.45718000	-6.72982200
150.79999122	0.00000000	-28.50024000	-6.40378900
150.99999121	0.00000000	-28.87549000	-6.72982200
151.19999119	0.00000000	-29.61983000	-7.47416300
151.39999118	0.00000000	-29.94586000	-7.84940900
151.59999117	0.00000000	-29.61983000	-7.89247000
151.79999116	0.00000000	-28.87549000	-7.89247000
151.99999115	0.00000000	-28.50024000	-7.89247000
152.19999113	0.00000000	-28.45718000	-7.89247000
152.39999112	0.00000000	-28.45718000	-7.89247000
152.59999111	0.00000000	-28.45718000	-7.89247000
152.79999110	0.00000000	-28.45718000	-7.84940900
152.99999109	0.00000000	-28.45718000	-7.47416300
153.19999108	0.00000000	-28.45718000	-6.72982200
153.39999106	-0.15871060	-28.45718000	-6.35457700
153.59999105	0.00000000	-28.50024000	-6.31151500
153.79999104	0.00000000	-28.87549000	-6.31151500
153.99999103	0.00000000	-29.61983000	-6.35457700
154.19999102	0.00000000	-29.99508000	-6.72982200
154.39999100	0.00000000	-29.99508000	-7.47416300
154.59999099	0.00000000	-29.61983000	-7.84940900
154.79999098	0.00000000	-28.87549000	-7.89247000
154.99999097	0.00000000	-28.45718000	-7.89247000
155.19999096	0.00000000	-28.03888000	-7.89247000
155.39999094	0.00000000	-27.29453000	-7.89247000
155.59999093	0.00000000	-26.91929000	-7.89247000
155.79999092	0.00000000	-26.87623000	-7.89247000
155.99999091	0.00000000	-26.91929000	-7.89247000
156.19999090	0.00000000	-27.29453000	-7.84940900
156.39999089	0.00000000	-28.08194000	-7.47416300
156.59999087	0.00000000	-28.83243000	-6.72982200
156.79999086	0.00000000	-29.61983000	-6.35457700
156.99999085	0.00000000	-29.99508000	-6.31151500
157.19999084	0.00000000	-29.99508000	-6.35457700
157.39999083	0.00000000	-29.61983000	-6.72982200
157.59999081	0.00000000	-28.87549000	-7.47416300
157.79999080	0.00000000	-28.50024000	-7.84940900
157.99999079	0.00000000	-28.45718000	-7.89247000
158.19999078	0.00000000	-28.45718000	-7.89247000
158.39999077	0.00000000	-28.45718000	-7.89247000
158.59999075	0.00000000	-28.45718000	-7.89247000
158.79999074	0.00000000	-28.45718000	-7.84940900
158.99999073	0.00000000	-28.45718000	-7.47416300
159.19999072	0.00000000	-28.45718000	-6.72982200
159.39999071	0.00000000	-28.45718000	-6.35457700
159.59999070	0.00000000	-28.50024000	-6.31151500
159.79999068	0.00000000	-28.83243000	-6.31151500
159.99999067	0.00000000	-29.20152000	-6.35457700
160.19999066	0.00000000	-28.83243000	-6.72982200
160.39999065	0.00000000	-28.50024000	-7.47416300
160.59999064	0.00000000	-28.45718000	-7.84940900
160.79999062	0.00000000	-28.45718000	-7.93553100
160.99999061	0.00000000	-28.45718000	-8.26771600
161.19999060	0.00000000	-28.45718000	-8.63681000
161.39999059	0.00000000	-28.45718000	-8.26771600
161.59999058	0.00000000	-28.41412000	-7.93553100
161.79999056	0.00000000	-28.03888000	-7.89247000
161.99999055	0.00000000	-27.34375000	-7.84940900
162.19999054	0.00000000	-27.34375000	-7.47416300
162.39999053	0.00000000	-28.03888000	-6.72982200
162.59999052	0.00000000	-28.41412000	-6.35457700
162.79999051	0.00000000	-28.45718000	-6.35457700
162.99999049	0.00000000	-28.45718000	-6.72982200
163.19999048	0.00000000	-28.50024000	-7.42495000
163.39999047	0.00000000	-28.83243000	-7.47416300
163.59999046	0.00000000	-29.20152000	-7.14812900
163.79999045	0.00000000	-28.83243000	-7.51722400
163.99999043	0.00000000	-28.50024000	-7.84940900
164.19999042	0.00000000	-28.45718000	-7.89247000
164.39999041	0.00000000	-28.41412000	-7.89247000
164.59999040	0.00000000	-28.03888000	-7.89247000
164.79999039	0.00000000	-27.29453000	-7.89247000
164.99999037	0.00000000	-26.91929000	-7.89247000
165.19999036	0.00000000	-26.91929000	-7.89247000
165.39999035	0.00000000	-27.29453000	-7.89247000
165.59999034	0.00000000	-28.03888000	-7.89247000
165.79999033	0.00000000	-28.41412000	-7.89247000
165.99999032	0.00000000	-28.45718000	-7.84940900
166.19999030	0.00000000	-28.45718000	-7.51722400
166.39999029	0.00000000	-28.45718000	-7.10506800
166.59999028	0.00000000	-28.45718000	-7.14197800
166.79999027	0.00000000	-28.45718000	-7.10506800
166.99999026	0.00000000	-28.45718000	-7.51722400
167.19999024	0.00000000	-28.41412000	-7.84940900
167.39999023	0.00000000	-28.08194000	-7.89247000
167.59999022	0.00000000	-27.66978000	-7.89247000
167.79999021	0.00000000	-27.70669000	-7.89247000
167.99999020	0.00000000	-27.66978000	-7.89247000
168.19999018	0.00000000	-28.08194000	-7.89247000
168.39999017	0.00000000	-28.41412000	-7.89247000
168.59999016	0.00000000	-28.41412000	-7.84940900
168.79999015	0.00000000	-28.08194000	-7.51722400
168.99999014	0.00000000	-27.71284000	-7.14812900
169.19999013	0.00000000	-28.08194000	-7.51722400
169.39999011	0.00000000	-28.41412000	-7.84940900
169.59999010	0.00000000	-28.45718000	-7.89247000
169.79999009	0.00000000	-28.45718000	-7.89247000
169.99999008	0.00000000	-28.45718000	-7.89247000
170.19999007	0.00000000	-28.45718000	-7.89247000
170.39999005	0.00000000	-28.45718000	-7.89247000
170.59999004	0.00000000	-28.45718000	-7.89247000
170.79999003	0.00000000	-28.45718000	-7.89247000
170.99999002	0.00000000	-28.45718000	-7.89247000
171.19999001	0.00000000	-28.45718000	-7.89247000
171.39998999	0.00000000	-28.45718000	-7.84940900
171.59998998	0.00000000	-28.45718000	-7.51722400
171.79998997	0.00000000	-28.45718000	-7.10506800
171.99998996	0.00000000	-28.45718000	-7.14197800
172.19998995	0.00000000	-28.45718000	-7.10506800
172.39998994	0.00000000	-28.45718000	-7.51722400
172.59998992	0.00000000	-28.45718000	-7.84940900
172.79998991	0.00000000	-28.45718000	-7.89247000
172.99998990	0.00000000	-28.45718000	-7.89247000
173.19998989	0.00000000	-28.45718000	-7.89247000
173.39998988	0.00000000	-28.45718000	-7.89247000
173.59998986	0.00000000	-28.45718000	-7.89247000
173.79998985	0.00000000	-28.45718000	-7.89247000
173.99998984	0.00000000	-28.45718000	-7.89247000
174.19998983	0.00000000	-28.41412000	-7.89247000
174.39998982	0.00000000	-28.08194000	-7.89247000
174.59998980	0.00000000	-27.66978000	-7.89247000
174.79998979	0.00000000	-27.70669000	-7.89247000
174.99998978	0.00000000	-27.66978000	-7.89247000
175.19998977	0.00000000	-28.08194000	-7.89247000
175.39998976	0.00000000	-28.41412000	-7.89247000
175.59998975	0.00000000	-28.45718000	-7.89247000
175.79998973	0.00000000	-28.45718000	-7.89247000
175.99998972	0.00000000	-28.45718000	-7.89247000
176.19998971	0.00000000	-28.45718000	-7.89247000
176.39998970	0.00000000	-28.45718000	-7.89247000
176.59998969	0.00000000	-28.45718000	-7.89247000
176.79998967	0.00000000	-28.45718000	-7.89247000
176.99998966	0.00000000	-28.45718000	-7.89247000
177.19998965	0.00000000	-28.45718000	-7.89247000
177.39998964	0.00000000	-28.45718000	-7.89247000
177.59998963	0.00000000	-28.41412000	-7.89247000
177.79998961	0.00000000	-28.08194000	-7.89247000
177.99998960	0.00000000	-27.71284000	-7.89247000
178.19998959	0.00000000	-28.08194000	-7.89247000
178.39998958	0.00000000	-28.41412000	-7.89247000
178.59998957	0.00000000	-28.45718000	-7.84940900
178.79998956	0.00000000	-28.45718000	-7.51722400
178.99998954	0.00000000	-28.45718000	-7.10506800
179.19998953	0.00000000	-28.45718000	-7.14197800
179.39998952	0.00000000	-28.45718000	-7.10506800
179.59998951	0.00000000	-28.45718000	-7.51722400
179.79998950	0.00000000	-28.45718000	-7.84940900
179.99998948	0.00000000	-28.41412000	-7.89247000
180.19998947	0.00000000	-28.08194000	-7.89247000
180.39998946	0.00000000	-27.66978000	-7.89247000
180.59998945	0.00000000	-27.70669000	-7.89247000
180.79998944	0.00000000	-27.66978000	-7.89247000
180.99998942	0.00000000	-28.08194000	-7.84940900
181.19998941	0.00000000	-28.41412000	-7.47416300
181.39998940	0.00000000	-28.45718000	-6.72982200
181.59998939	0.00000000	-28.41412000	-6.35457700
181.79998938	0.00000000	-28.08194000	-6.31151500
181.99998937	0.00000000	-27.71284000	-6.35457700
182.19998935	0.00000000	-28.03888000	-6.68676100
182.39998934	0.00000000	-27.98966000	-7.09891700
182.59998933	0.00000000	-27.34375000	-7.10506800
182.79998932	0.00000000	-27.34375000	-7.51722400
182.99998931	0.00000000	-28.03888000	-7.84940900
183.19998929	0.00000000	-28.36491000	-7.89247000
183.39998928	0.00000000	-28.08194000	-7.89247000
183.59998927	0.00000000	-27.71284000	-7.89247000
183.79998926	0.00000000	-28.08194000	-7.84940900
183.99998925	0.00000000	-28.41412000	-7.47416300
184.19998923	0.00000000	-28.45718000	-6.72982200
184.39998922	0.00000000	-28.45718000	-6.35457700
184.59998921	0.00000000	-28.41412000	-6.31151500
184.79998920	0.00000000	-28.03888000	-6.31151500
184.99998919	0.00000000	-27.29453000	-6.31151500
185.19998918	0.00000000	-26.91929000	-6.35457700
185.39998916	0.00000000	-26.87623000	-6.72982200
185.59998915	0.00000000	-26.87623000	-7.47416300
185.79998914	0.00000000	-26.87623000	-7.84940900
185.99998913	0.00000000	-26.87623000	-7.89247000
186.19998912	0.00000000	-26.87623000	-7.89247000
186.39998910	0.00000000	-26.87623000	-7.89247000
186.59998909	0.00000000	-26.91929000	-7.84940900
186.79998908	0.00000000	-27.29453000	-7.47416300
186.99998907	0.00000000	-28.03888000	-6.72982200
187.19998906	0.00000000	-28.41412000	-6.35457700
187.39998904	0.00000000	-28.45718000	-6.31151500
187.59998903	0.00000000	-28.45718000	-6.31151500
187.79998902	0.00000000	-28.41412000	-6.35457700
187.99998901	0.00000000	-28.08194000	-6.72982200
188.19998900	0.00000000	-27.66978000	-7.47416300
188.39998899	0.00000000	-27.66363000	-7.84940900
188.59998897	0.00000000	-27.25147000	-7.89247000
188.79998896	0.00000000	-26.91929000	-7.89247000
188.99998895	0.00000000	-26.87623000	-7.89247000
189.19998894	0.00000000	-26.87623000	-7.89247000
189.39998893	0.00000000	-26.91929000	-7.89247000
189.59998891	0.00000000	-27.29453000	-7.84940900
189.79998890	0.00000000	-28.03888000	-7.51722400
189.99998889	0.00000000	-28.41412000	-7.10506800
190.19998888	0.00000000	-28.45718000	-7.09891700
190.39998887	0.00000000	-28.41412000	-6.68676100
190.59998885	0.00000000	-28.03888000	-6.40378900
190.79998884	0.00000000	-27.29453000	-6.68676100
190.99998883	0.00000000	-26.91929000	-7.05585600
191.19998882	0.00000000	-26.87623000	-6.68676100
191.39998881	0.00000000	-26.87623000	-6.40378900
191.59998880	0.00000000	-26.87623000	-6.72982200
191.79998878	0.00000000	-26.87623000	-7.47416300
191.99998877	0.00000000	-26.87623000	-7.84940900
192.19998876	0.00000000	-26.91929000	-7.89247000
192.39998875	0.00000000	-27.29453000	-7.89247000
192.59998874	0.00000000	-28.03888000	-7.89247000
192.79998872	0.00000000	-28.41412000	-7.89247000
192.99998871	0.00000000	-28.45718000	-7.89247000
193.19998870	0.00000000	-28.45718000	-7.84940900
193.39998869	0.00000000	-28.45718000	-7.47416300
193.59998868	0.00000000	-28.41412000	-6.72982200
193.79998866	0.00000000	-28.03888000	-6.35457700
193.99998865	0.00000000	-27.29453000	-6.31151500
194.19998864	0.00000000	-26.91929000	-6.31151500
194.39998863	0.00000000	-26.87623000	-6.31151500
194.59998862	0.00000000	-26.87623000	-6.31151500
194.79998861	0.00000000	-26.87623000	-6.35457700
194.99998859	0.00000000	-26.87623000	-6.72982200
195.19998858	0.00000000	-26.87623000	-7.47416300
195.39998857	0.00000000	-26.91929000	-7.84940900
195.59998856	0.00000000	-27.29453000	-7.89247000
195.79998855	0.00000000	-28.03888000	-7.84940900
195.99998853	0.00000000	-28.36491000	-7.51722400
