Time	Channel A	Channel B	Channel C
(us)	(V)	(mV)	(mV)

-4.49999956	0.00000000	-14.69611000	2.32529500
-4.29999957	0.00000000	-15.39124000	2.36220500
-4.09999958	0.00000000	-15.76649000	1.95004900
-3.89999959	0.00000000	-15.76649000	1.61786400
-3.69999960	0.00000000	-15.43430000	1.57480300
-3.49999962	0.00000000	-15.06521000	1.61786400
-3.29999963	0.00000000	-15.39124000	1.95004900
-3.09999964	0.00000000	-15.39124000	2.36220500
-2.89999965	0.00000000	-15.06521000	2.32529500
-2.69999966	0.00000000	-15.43430000	2.36220500
-2.49999968	0.00000000	-15.76649000	1.95004900
-2.29999969	0.00000000	-15.80955000	1.66707700
-2.09999970	0.00000000	-15.80955000	1.95004900
-1.89999971	0.00000000	-15.80955000	2.31914400
-1.69999972	0.00000000	-15.80955000	1.99311000
-1.49999973	0.00000000	-15.80955000	1.99311000
-1.29999975	0.00000000	-15.76649000	2.36220500
-1.09999976	0.00000000	-15.39124000	2.36835600
-0.89999977	0.00000000	-14.64690000	2.78051200
-0.69999978	0.00000000	-14.32087000	3.11269700
-0.49999979	0.00000000	-14.60384000	3.11269700
-0.29999981	0.31803640	-15.01599000	2.78051200
-0.09999982	0.63668800	-15.02214000	2.36835600
0.10000017	0.95533960	-15.43430000	2.36220500
0.30000016	1.11466500	-15.76649000	1.95004900
0.50000015	0.95533960	-15.80955000	1.61786400
0.70000013	0.31803640	-15.80955000	1.57480300
0.90000012	-0.47736220	-15.80955000	1.57480300
1.10000011	-1.43331700	-15.80955000	1.57480300
1.30000010	-2.22994600	-15.80955000	1.61786400
1.50000009	-2.70792300	-15.76649000	1.99311000
1.70000008	-2.54859700	-15.39124000	2.73745100
1.90000006	-1.43331700	-14.64690000	3.11269700
2.10000005	0.31803640	-14.32087000	3.15575800
2.30000004	2.38927200	-14.64690000	3.11269700
2.50000003	4.30056600	-15.39124000	2.73745100
2.70000002	5.25652100	-15.76649000	1.99311000
2.90000000	4.93786900	-15.80955000	1.61786400
3.09999999	3.18590100	-15.80955000	1.57480300
3.29999998	0.31803640	-15.80955000	1.57480300
3.49999997	-3.02657500	-15.80955000	1.57480300
3.69999996	-6.21247500	-15.76649000	1.61786400
3.89999994	-7.80511800	-15.39124000	1.99311000
4.09999993	-7.64579200	-14.64690000	2.73745100
4.29999992	-5.41584600	-14.27165000	3.11269700
4.49999991	-1.59264300	-14.22859000	3.15575800
4.69999990	2.86724900	-14.22859000	3.11269700
4.89999989	6.84916400	-14.27165000	2.73745100
5.09999987	9.23905000	-14.64690000	1.99311000
5.29999986	9.23905000	-15.39124000	1.61786400
5.49999985	7.00848900	-15.76649000	1.57480300
5.69999984	2.86724900	-15.80955000	1.57480300
5.89999983	-1.91129400	-15.76649000	1.57480300
6.09999981	-6.21247500	-15.39124000	1.61786400
6.29999980	-8.92039900	-14.69611000	1.99311000
6.49999979	-9.39837600	-14.64690000	2.73745100
6.69999978	-7.48646600	-14.97293000	3.11269700
6.89999977	-3.82258900	-14.60384000	3.15575800
7.09999975	0.47736220	-14.27165000	3.15575800
7.29999974	4.45989200	-14.22859000	3.11269700
7.49999973	7.00848900	-14.22859000	2.73745100
7.69999972	7.64579200	-14.22859000	1.99311000
7.89999971	6.53112700	-14.22859000	1.61786400
8.09999970	3.82258900	-14.22859000	1.57480300
8.29999968	0.47736220	-14.22859000	1.57480300
8.49999967	-2.54859700	-14.22859000	1.57480300
8.69999966	-4.45989200	-14.22859000	1.61786400
8.89999965	-5.25652100	-14.22859000	1.99311000
9.09999964	-4.45989200	-14.22859000	2.68823800
9.29999962	-2.86724900	-14.22859000	2.68823800
9.49999961	-0.79601380	-14.22859000	2.04232300
9.69999960	0.95533960	-14.22859000	2.04232300
9.89999959	2.07062000	-14.27165000	2.68823800
10.09999958	2.54859700	-14.60384000	2.73745100
10.29999956	2.22994600	-14.97293000	2.36835600
10.49999955	1.59264300	-14.60384000	2.40526600
10.69999954	0.63668800	-14.27165000	2.32529500
10.89999953	-0.15871060	-14.27165000	2.40526600
11.09999952	-0.63668800	-14.64690000	2.32529500
11.29999951	-0.95533960	-15.34203000	2.40526600
11.49999949	-0.95533960	-15.34203000	2.32529500
11.69999948	-0.79601380	-14.64690000	2.36220500
11.89999947	-0.47736220	-14.27165000	1.95004900
12.09999946	-0.15871060	-14.22859000	1.66707700
12.29999945	-0.15871060	-14.22859000	1.99311000
12.49999943	0.00000000	-14.22859000	2.68823800
12.69999942	0.00000000	-14.22859000	2.73745100
12.89999941	0.00000000	-14.22859000	2.41141700
13.09999940	0.00000000	-14.22859000	2.78051200
13.29999939	0.00000000	-14.22859000	3.11269700
13.49999937	0.00000000	-14.27165000	3.15575800
13.69999936	0.00000000	-14.60384000	3.11269700
13.89999935	0.00000000	-15.01599000	2.73745100
14.09999934	-0.15871060	-14.97908000	2.04232300
14.29999933	-0.15871060	-15.01599000	1.99311000
14.49999932	-0.15871060	-14.60384000	2.36220500
14.69999930	0.00000000	-14.27165000	2.36835600
14.89999929	0.00000000	-14.27165000	2.73745100
15.09999928	0.00000000	-14.64690000	2.73745100
15.29999927	0.00000000	-15.34203000	2.36835600
15.49999926	0.00000000	-15.39124000	2.36220500
15.69999924	0.00000000	-15.06521000	1.99311000
15.89999923	0.00000000	-15.43430000	1.99311000
16.09999922	0.00000000	-15.71727000	2.36220500
16.29999921	0.00000000	-15.43430000	2.32529500
16.49999920	-0.15871060	-15.02214000	2.40526600
16.69999919	-0.15871060	-15.01599000	2.32529500
16.89999917	-0.15871060	-14.56078000	2.40526600
17.09999916	0.00000000	-13.85334000	2.32529500
17.29999915	0.00000000	-13.06594000	2.40526600
17.49999914	0.00000000	-12.69070000	2.36835600
17.69999913	0.00000000	-12.69070000	2.78051200
17.89999911	0.00000000	-13.11516000	3.11269700
18.09999910	0.00000000	-14.27165000	3.11269700
18.29999909	0.00000000	-15.80955000	2.73745100
18.49999908	0.00000000	-17.39050000	1.99311000
18.69999907	0.00000000	-18.92839000	1.66707700
18.89999905	0.00000000	-20.04183000	1.95004900
19.09999904	0.00000000	-20.04183000	2.31914400
19.29999903	0.00000000	-18.83612000	1.95004900
19.49999902	0.00000000	-16.50467000	1.61786400
19.69999901	0.00000000	-12.97982000	1.57480300
19.89999900	0.00000000	-9.15354300	1.57480300
20.09999898	0.00000000	-5.67175200	1.61786400
20.29999897	0.00000000	-3.80782500	1.95004900
20.49999896	0.00000000	-4.22613100	2.36220500
20.69999895	0.00000000	-7.38804100	2.32529500
20.89999894	0.00000000	-13.20128000	2.36220500
21.09999892	0.00000000	-20.55241000	1.99311000
21.29999891	0.00000000	-27.90354000	1.99311000
21.49999890	0.00000000	-33.63066000	2.31914400
21.69999889	0.00000000	-35.86368000	1.95004900
21.89999888	0.00000000	-33.12008000	1.61786400
22.09999886	0.00000000	-25.72589000	1.61786400
22.29999885	0.00000000	-14.83760000	1.95004900
22.49999884	0.00000000	-2.09153500	2.31914400
22.69999883	0.00000000	9.40575800	1.99311000
22.89999882	0.00000000	16.28937000	2.04232300
23.09999881	0.00000000	16.24631000	2.73745100
23.29999879	0.00000000	8.84596300	3.11269700
23.49999878	0.00000000	-4.73671200	3.19881900
23.69999877	0.00000000	-22.13336000	3.57406500
23.89999876	0.00000000	-39.49311000	4.26919300
24.09999875	0.00000000	-52.52214000	4.26919300
24.29999873	0.00000000	-57.49876000	3.53100400
24.49999872	0.00000000	-52.42987000	2.73745100
24.69999871	0.00000000	-38.47195000	1.53174200
24.89999870	0.00000000	-17.95645000	0.04306102
25.09999869	0.00000000	4.74901600	-1.15649600
25.29999867	0.00000000	23.64050000	-1.90698800
25.49999866	0.00000000	34.11048000	-2.26993100
25.69999865	0.00000000	34.06742000	-1.43946800
25.89999864	0.00000000	23.17298000	0.51058070
26.09999863	0.00000000	3.08193900	3.66633800
26.29999862	0.00000000	-21.62278000	7.84940900
26.49999860	0.00000000	-45.17101000	11.65723000
26.69999859	0.00000000	-62.10630000	13.61343000
26.89999858	0.00000000	-67.91953000	13.56422000
27.09999857	0.00000000	-61.41117000	11.14665000
27.29999856	0.00000000	-44.79576000	5.71481200
27.49999854	0.00000000	-21.62278000	-1.62401600
27.69999853	0.00000000	2.70669300	-9.33809000
27.89999852	0.00000000	22.43479000	-15.84030000
28.09999851	0.00000000	33.64296000	-18.86688000
28.29999850	0.00000000	33.69217000	-17.28592000
28.49999848	0.00000000	22.94537000	-11.06053000
28.69999847	0.00000000	4.79207600	-0.97810030
28.89999846	0.00000000	-16.87992000	10.96211000
29.09999845	0.00000000	-37.30930000	22.15797000
29.29999844	0.00000000	-51.67938000	29.82899000
29.49999843	0.00000000	-57.17273000	32.14813000
29.69999841	0.00000000	-53.77091000	28.20497000
29.89999840	0.00000000	-42.56274000	18.49163000
30.09999839	0.00000000	-26.32259000	4.18307100
30.29999838	0.00000000	-8.55068800	-11.56496000
30.49999837	0.00000000	6.93897600	-24.71703000
30.69999835	0.00000000	16.66462000	-32.43110000
30.89999834	0.00000000	19.45128000	-33.12623000
31.09999833	0.00000000	15.21900000	-25.73819000
31.29999832	0.00000000	5.21653500	-11.47884000
31.49999831	0.00000000	-7.94783400	6.22539300
31.69999829	0.00000000	-21.53666000	23.27141000
31.89999828	0.00000000	-33.12008000	36.01132000
32.09999827	0.00000000	-40.14518000	42.23056000
32.29999826	0.00000000	-41.31397000	40.23745000
32.49999825	0.00000000	-37.11245000	30.61023000
32.69999824	0.00000000	-28.23573000	15.10212000
32.89999822	0.00000000	-17.43356000	-3.02042300
33.09999821	0.00000000	-6.92052100	-20.02337000
33.29999820	0.00000000	1.54404500	-32.01279000
33.49999819	0.00000000	5.81938900	-36.65723000
33.69999818	0.00000000	5.08120100	-33.21850000
33.89999816	0.00000000	0.09842519	-22.39788000
34.09999815	0.00000000	-7.99704600	-6.96358300
34.29999814	0.00000000	-16.83686000	10.07628000
34.49999813	0.00000000	-24.23105000	25.08612000
34.69999812	0.00000000	-28.88164000	34.79330000
34.89999810	0.00000000	-30.00123000	37.12475000
35.09999809	0.00000000	-26.97465000	32.14813000
35.29999808	0.00000000	-20.83538000	20.90305000
35.49999807	0.00000000	-13.94562000	5.94242000
35.69999806	0.00000000	-7.76328700	-9.10433000
35.89999805	0.00000000	-4.26919300	-20.30635000
36.09999803	0.00000000	-3.85088600	-25.78740000
36.29999802	0.00000000	-6.18233200	-24.58169000
36.49999801	0.00000000	-11.15896000	-16.95374000
36.69999800	0.00000000	-16.83686000	-5.01968500
36.89999799	0.00000000	-21.16142000	7.62180000
37.09999797	0.00000000	-23.48671000	18.07332000
37.29999796	0.00000000	-23.85581000	23.42520000
37.49999795	0.00000000	-21.53666000	22.76083000
37.69999794	0.00000000	-17.34744000	16.59080000
37.89999793	0.00000000	-12.69070000	7.05585600
38.09999791	0.00000000	-8.45841400	-3.29724400
38.29999790	0.00000000	-5.76402500	-10.96826000
38.49999789	0.00000000	-5.33956700	-14.08095000
38.69999788	0.00000000	-6.87746000	-12.17397000
38.89999787	0.00000000	-9.99630800	-5.62253900
39.09999786	0.00000000	-14.22859000	3.53100400
39.29999784	0.00000000	-18.46087000	12.68455000
39.49999783	0.00000000	-21.57972000	18.39936000
39.69999782	0.00000000	-23.16068000	18.81767000
39.89999781	0.00000000	-23.16068000	14.21629000
40.09999780	0.00000000	-21.57972000	5.80093500
40.29999778	0.00000000	-18.50394000	-3.80782500
40.49999777	0.00000000	-14.60384000	-11.85408000
40.69999776	0.00000000	-10.73450000	-16.44316000
40.89999775	0.00000000	-7.25270600	-15.66191000
41.09999774	0.00000000	-5.33956700	-9.94094400
41.29999772	0.00000000	-5.29650500	-1.06422200
41.49999771	0.00000000	-6.83439900	8.91978400
41.69999770	0.00000000	-9.57800100	17.32899000
41.89999769	0.00000000	-13.06594000	21.55512000
42.09999768	0.00000000	-16.92298000	20.48474000
42.29999767	0.00000000	-20.04183000	15.09596000
42.49999765	0.00000000	-21.99803000	7.01279500
42.69999764	0.00000000	-22.74237000	-2.18380900
42.89999763	0.00000000	-21.62278000	-9.47957600
43.09999762	0.00000000	-19.34670000	-13.01058000
43.29999761	0.00000000	-17.01525000	-12.68455000
43.49999759	0.00000000	-14.64690000	-8.87672100
43.69999758	0.00000000	-12.69070000	-3.11269700
43.89999757	0.00000000	-11.10974000	3.11269700
44.09999756	0.00000000	-9.95324800	8.87672100
44.29999755	0.00000000	-9.57800100	12.72761000
44.49999753	0.00000000	-9.90403500	13.52116000
44.69999752	0.00000000	-10.64838000	11.65723000
44.89999751	0.00000000	-11.06668000	7.84940900
45.09999750	0.00000000	-11.53420000	3.62327700
45.29999749	0.00000000	-12.69070000	0.09227362
45.49999748	0.00000000	-14.27165000	-2.64517700
45.69999746	0.00000000	-16.22785000	-4.14000900
45.89999745	0.00000000	-18.59621000	-3.80782500
46.09999744	0.00000000	-20.92766000	-1.90698800
46.29999743	0.00000000	-23.20374000	0.37524600
46.49999742	0.00000000	-24.27411000	2.73745100
46.69999740	0.00000000	-23.06841000	4.68750000
46.89999739	0.00000000	-19.58046000	6.22539300
47.09999738	0.00000000	-14.13632000	6.96358300
47.29999737	0.00000000	-7.99704600	6.22539300
47.49999736	0.00000000	-2.60211600	4.68750000
47.69999734	0.00000000	0.47367120	2.73745100
47.89999733	0.00000000	0.47367120	0.41830710
48.09999732	0.00000000	-2.68823800	-1.48868100
48.29999731	0.00000000	-8.92593500	-2.64517700
48.49999730	0.00000000	-17.34744000	-2.60211600
48.69999729	0.00000000	-25.43676000	-1.11343500
48.89999727	0.00000000	-30.88705000	1.20570900
49.09999726	0.00000000	-33.16314000	3.57406500
49.29999725	0.00000000	-31.16388000	6.26845500
49.49999724	0.00000000	-24.60630000	8.54453700
49.69999723	0.00000000	-15.39124000	9.29502900
49.89999721	0.00000000	-5.76402500	8.54453700
50.09999720	0.00000000	1.54404500	6.17618100
50.29999719	0.00000000	4.66289300	2.73745100
50.49999718	0.00000000	3.12500000	-1.11343500
50.69999717	0.00000000	-2.64517700	-4.18307100
50.89999715	0.00000000	-11.10974000	-5.71481200
51.09999714	0.00000000	-19.99877000	-5.33956700
51.29999713	0.00000000	-27.30069000	-3.02042300
51.49999712	0.00000000	-31.16388000	0.46751960
51.69999711	0.00000000	-30.37647000	4.73671200
51.89999710	0.00000000	-25.43676000	8.91978400
52.09999708	0.00000000	-17.72268000	11.56496000
52.29999707	0.00000000	-9.66412400	11.61417000
52.49999706	0.00000000	-3.11269700	9.33809000
52.69999705	0.00000000	-0.03690945	5.85014700
52.89999704	0.00000000	-1.15649600	1.62401600
53.09999702	0.00000000	-5.76402500	-2.18380900
53.29999701	0.00000000	-12.64764000	-4.14000900
53.49999700	0.00000000	-19.53125000	-4.22613100
53.69999699	0.00000000	-24.18799000	-3.02042300
53.89999698	0.00000000	-25.76895000	-0.73818890
54.09999696	0.00000000	-24.23105000	2.36220500
54.29999695	0.00000000	-19.99877000	5.01968500
54.49999694	0.00000000	-14.22859000	6.96358300
54.69999693	0.00000000	-8.55068800	7.29576700
54.89999692	0.00000000	-5.01968500	5.80093500
55.09999691	0.00000000	-4.59522600	3.19881900
55.29999689	0.00000000	-6.13927100	0.92888770
55.49999688	0.00000000	-10.03937000	0.13533460
55.69999687	0.00000000	-15.34203000	0.51058070
55.89999686	0.00000000	-19.95571000	2.04232300
56.09999685	0.00000000	-22.69316000	4.31840500
56.29999683	0.00000000	-23.06841000	6.22539300
56.49999682	0.00000000	-21.16142000	7.33882900
56.69999681	0.00000000	-17.34744000	6.87746000
56.89999680	0.00000000	-13.11516000	4.22613100
57.09999679	0.00000000	-9.62106200	0.41830710
57.29999677	0.00000000	-7.29576700	-3.06348400
57.49999676	0.00000000	-6.92052100	-5.71481200
57.69999675	0.00000000	-8.41535400	-6.45300100
57.89999674	0.00000000	-11.10974000	-4.50910400
58.09999673	0.00000000	-14.18553000	-0.64591530
58.29999672	0.00000000	-16.87992000	4.77977300
58.49999670	0.00000000	-18.46087000	10.45152000
58.69999669	0.00000000	-18.83612000	14.30241000
58.89999668	0.00000000	-18.08563000	15.09596000
59.09999667	0.00000000	-16.18479000	13.14591000
59.29999666	0.00000000	-14.27165000	8.45226300
59.49999664	0.00000000	-12.69070000	1.53174200
59.69999663	0.00000000	-11.57726000	-5.71481200
59.89999662	0.00000000	-11.57726000	-11.10359000
60.09999661	0.00000000	-12.69070000	-13.01058000
60.29999660	0.00000000	-14.18553000	-11.10359000
60.49999658	0.00000000	-15.34203000	-5.67175200
60.69999657	0.00000000	-15.71727000	1.99311000
60.89999656	0.00000000	-15.39124000	10.07628000
61.09999655	0.00000000	-14.60384000	16.21555000
61.29999654	0.00000000	-13.85334000	18.95300000
61.49999653	0.00000000	-13.06594000	17.79650000
61.69999651	0.00000000	-12.69070000	13.14591000
61.89999650	0.00000000	-12.73991000	5.80708600
62.09999649	0.00000000	-13.53346000	-2.64517700
62.29999648	0.00000000	-15.39124000	-9.94094400
62.49999647	0.00000000	-16.92298000	-14.16708000
62.69999645	0.00000000	-17.72268000	-14.16708000
62.89999644	0.00000000	-18.08563000	-9.98400600
63.09999643	0.00000000	-17.25517000	-3.06348400
63.29999642	0.00000000	-15.39124000	4.69365100
63.49999641	0.00000000	-13.06594000	12.03248000
63.69999639	0.00000000	-11.15896000	17.37205000
63.89999638	0.00000000	-9.95324800	18.90994000
64.09999637	0.00000000	-9.57800100	16.30167000
64.29999636	0.00000000	-9.99630800	10.91289000
64.49999635	0.00000000	-11.57726000	4.36146600
64.69999634	0.00000000	-14.22859000	-2.22687000
64.89999632	0.00000000	-16.87992000	-7.24655500
65.09999631	0.00000000	-18.46087000	-9.98400600
65.29999630	0.00000000	-18.87918000	-10.03322000
65.49999629	0.00000000	-18.46087000	-7.75713500
65.69999628	0.00000000	-16.92298000	-4.22613100
65.89999626	0.00000000	-14.64690000	0.41830710
66.09999625	0.00000000	-12.73991000	5.43184000
66.29999624	0.00000000	-11.53420000	9.29502900
66.49999623	0.00000000	-11.20202000	11.65723000
66.69999622	0.00000000	-11.95251000	12.07554000
66.89999620	0.00000000	-13.85334000	10.96211000
67.09999619	0.00000000	-15.76649000	9.00590400
67.29999618	0.00000000	-17.25517000	6.26845500
67.49999617	0.00000000	-17.62426000	3.15575800
67.69999616	0.00000000	-16.14173000	0.00000000
67.89999615	0.00000000	-14.22859000	-3.06348400
68.09999613	0.00000000	-12.22933000	-5.38262700
68.29999612	0.00000000	-9.95324800	-6.21924200
68.49999611	0.00000000	-8.50147600	-6.21924200
68.69999610	0.00000000	-8.87672100	-5.33956700
68.89999609	0.00000000	-11.24508000	-2.60211600
69.09999607	0.00000000	-15.02214000	1.62401600
69.29999606	0.00000000	-19.29134000	6.26845500
69.49999605	0.00000000	-22.33022000	10.49459000
69.69999604	0.00000000	-23.89887000	13.18898000
69.89999603	0.00000000	-23.06841000	13.61343000
70.09999601	0.00000000	-19.99877000	12.07554000
70.29999600	0.00000000	-15.34203000	8.91978400
70.49999599	0.00000000	-9.95324800	4.27534400
70.69999598	0.00000000	-5.33956700	-1.11343500
70.89999597	0.00000000	-2.64517700	-5.71481200
71.09999596	0.00000000	-2.64517700	-8.40920300
71.29999594	0.00000000	-5.33956700	-8.40920300
71.49999593	0.00000000	-9.99630800	-5.75787400
71.69999592	0.00000000	-15.80955000	-1.53174200
71.89999591	0.00000000	-21.57972000	3.11269700
72.09999590	0.00000000	-25.81201000	7.33882900
72.29999588	0.00000000	-27.34990000	10.07628000
72.49999587	0.00000000	-25.81201000	10.86983000
72.69999586	0.00000000	-21.57972000	10.11934000
72.89999585	0.00000000	-15.80955000	7.80019600
73.09999584	0.00000000	-9.99630800	4.77977300
73.29999582	0.00000000	-5.33956700	2.04232300
73.49999581	0.00000000	-2.64517700	0.13533460
73.69999580	0.00000000	-2.64517700	-0.65206690
73.89999579	0.00000000	-5.33956700	0.09227362
74.09999578	0.00000000	-9.95324800	1.53174200
74.29999577	0.00000000	-15.34203000	2.68823800
74.49999575	0.00000000	-19.95571000	3.06348400
74.69999574	0.00000000	-22.69316000	2.68823800
74.89999573	0.00000000	-23.11762000	1.53174200
75.09999572	0.00000000	-21.62278000	0.04306102
75.29999571	0.00000000	-18.92839000	-1.06422200
75.49999569	0.00000000	-15.80955000	-1.02116100
75.69999568	0.00000000	-12.69070000	0.51058070
75.89999567	0.00000000	-9.99630800	3.19881900
76.09999566	0.00000000	-8.45841400	6.31151500
76.29999565	0.00000000	-8.45841400	9.38115100
76.49999563	0.00000000	-9.90403500	11.61417000
76.69999562	0.00000000	-11.81102000	11.56496000
76.89999561	0.00000000	-12.97982000	8.91978400
77.09999560	0.00000000	-13.81028000	4.64443900
77.29999559	0.00000000	-14.18553000	-0.37524600
77.49999558	0.00000000	-14.22859000	-5.33956700
77.69999556	0.00000000	-14.27165000	-8.45226300
77.89999555	0.00000000	-14.64690000	-9.20275500
78.09999554	0.00000000	-15.39124000	-7.66486200
78.29999553	0.00000000	-15.80955000	-3.39566900
78.49999552	0.00000000	-16.22785000	1.95004900
78.69999550	0.00000000	-16.92298000	7.42495000
78.89999549	0.00000000	-16.87992000	12.03248000
79.09999548	0.00000000	-15.71727000	14.72072000
79.29999547	0.00000000	-13.81028000	14.67766000
79.49999546	0.00000000	-11.48499000	11.65723000
79.69999544	0.00000000	-9.57800100	6.64370100
79.89999543	0.00000000	-8.41535400	1.24877000
80.09999542	0.00000000	-8.45841400	-3.80782500
80.29999541	0.00000000	-9.99630800	-7.25270600
80.49999540	0.00000000	-12.69070000	-8.45226300
80.69999539	0.00000000	-15.76649000	-7.33882900
80.89999537	0.00000000	-18.46087000	-4.64443900
81.09999536	0.00000000	-19.99877000	-1.15649600
81.29999535	0.00000000	-19.99877000	2.73745100
81.49999534	0.00000000	-18.46087000	6.22539300
81.69999533	0.00000000	-15.80955000	8.96284400
81.89999531	0.00000000	-13.11516000	10.49459000
82.09999530	0.00000000	-11.10974000	10.53765000
82.29999529	0.00000000	-9.57800100	9.38115100
82.49999528	0.00000000	-8.83366100	7.43110200
82.69999527	0.00000000	-9.62106200	4.68750000
82.89999525	0.00000000	-11.48499000	1.58095500
83.09999524	0.00000000	-13.81028000	-1.53174200
83.29999523	0.00000000	-15.71727000	-4.22613100
83.49999522	0.00000000	-16.92298000	-5.75787400
83.69999521	0.00000000	-17.29823000	-5.75787400
83.89999520	0.00000000	-16.97219000	-4.22613100
84.09999518	0.00000000	-16.18479000	-1.53174200
84.29999517	0.00000000	-15.39124000	1.62401600
84.49999516	0.00000000	-14.22859000	5.15501900
84.69999515	0.00000000	-13.15822000	8.96284400
84.89999514	0.00000000	-13.11516000	11.61417000
85.09999512	0.00000000	-13.81028000	12.03248000
85.29999511	0.00000000	-14.13632000	10.49459000
85.49999510	0.00000000	-13.81028000	7.38188900
85.69999509	0.00000000	-13.02288000	3.11269700
85.89999508	0.00000000	-12.27239000	-1.48868100
86.09999506	0.00000000	-11.53420000	-5.33956700
86.29999505	0.00000000	-11.57726000	-7.29576700
86.49999504	0.00000000	-12.69070000	-7.29576700
86.69999503	0.00000000	-14.22859000	-5.33956700
86.89999502	0.00000000	-15.76649000	-1.48868100
87.09999501	0.00000000	-16.92298000	3.11269700
87.29999499	0.00000000	-17.34744000	7.43110200
87.49999498	0.00000000	-17.34744000	10.86983000
87.69999497	0.00000000	-16.87992000	12.72761000
87.89999496	0.00000000	-15.34203000	11.56496000
88.09999495	0.00000000	-13.11516000	7.80019600
88.29999493	0.00000000	-11.53420000	3.15575800
88.49999492	0.00000000	-10.73450000	-1.43946800
88.69999491	0.00000000	-10.32234000	-4.92125900
88.89999490	0.00000000	-10.78371000	-6.04084600
89.09999489	0.00000000	-11.90330000	-4.96432100
89.29999487	0.00000000	-13.85334000	-1.81471400
89.49999486	0.00000000	-15.71727000	2.36835600
89.69999485	0.00000000	-16.92298000	7.00664300
89.89999484	0.00000000	-17.29823000	10.40846000
90.09999483	0.00000000	-16.92298000	11.60802000
90.29999482	0.00000000	-15.76649000	10.40846000
90.49999480	0.00000000	-14.27165000	7.00664300
90.69999479	0.00000000	-13.06594000	2.36835600
90.89999478	0.00000000	-12.31545000	-1.81471400
91.09999477	0.00000000	-11.90330000	-4.92125900
91.29999476	0.00000000	-12.27239000	-5.67175200
91.49999474	0.00000000	-12.64764000	-4.18307100
91.69999473	0.00000000	-13.06594000	-1.07037400
91.89999472	0.00000000	-13.76107000	3.15575800
92.09999471	0.00000000	-13.81028000	7.38188900
92.29999470	0.00000000	-13.48425000	10.40846000
92.49999468	0.00000000	-13.85334000	11.18971000
92.69999467	0.00000000	-14.18553000	9.24581600
92.89999466	0.00000000	-14.27165000	5.47490100
93.09999465	0.00000000	-14.64690000	0.83661410
93.29999464	0.00000000	-15.39124000	-2.97736200
93.49999463	0.00000000	-15.76649000	-5.33956700
93.69999461	0.00000000	-15.76649000	-5.67175200
93.89999460	0.00000000	-15.34203000	-3.71555100
94.09999459	0.00000000	-14.18553000	0.46136810
94.29999458	0.00000000	-12.64764000	5.38262700
94.49999457	0.00000000	-11.06668000	8.87057000
94.69999455	0.00000000	-9.52879000	10.45152000
94.89999454	0.00000000	-8.41535400	10.03322000
95.09999453	0.00000000	-8.45841400	7.33882900
95.29999452	0.00000000	-9.99630800	3.15575800
95.49999451	0.00000000	-12.69070000	-1.02116100
95.69999449	0.00000000	-15.76649000	-3.76476400
95.89999448	0.00000000	-18.46087000	-4.55831700
96.09999447	0.00000000	-20.04183000	-3.76476400
96.29999446	0.00000000	-20.41708000	-1.07037400
96.49999445	0.00000000	-19.62352000	2.69439000
96.69999444	0.00000000	-17.25517000	5.80093500
96.89999442	0.00000000	-13.81028000	7.75713500
97.09999441	0.00000000	-9.95324800	8.50147600
97.29999440	0.00000000	-6.87746000	7.38188900
97.49999439	0.00000000	-5.29650500	5.11195900
97.69999438	0.00000000	-5.33956700	2.78051200
97.89999436	0.00000000	-7.29576700	0.46751960
98.09999435	0.00000000	-11.10974000	-1.02116100
98.29999434	0.00000000	-15.34203000	-1.06422200
98.49999433	0.00000000	-18.87918000	0.04306102
98.69999432	0.00000000	-21.57972000	1.53174200
98.89999430	0.00000000	-22.74237000	2.73745100
99.09999429	0.00000000	-21.95497000	3.53100400
99.29999428	0.00000000	-19.66658000	4.26919300
99.49999427	0.00000000	-16.14173000	4.26919300
99.69999426	0.00000000	-12.31545000	3.57406500
99.89999425	0.00000000	-8.79060000	3.19881900
100.09999423	0.00000000	-6.50221400	3.19881900
100.29999422	0.00000000	-5.67175200	3.57406500
100.49999421	0.00000000	-6.45915300	4.31840500
100.69999420	0.00000000	-8.37229300	4.69365100
100.89999419	0.00000000	-11.15896000	4.69365100
101.09999417	0.00000000	-14.60384000	4.22613100
101.29999416	0.00000000	-18.04257000	2.69439000
101.49999415	0.00000000	-19.99877000	0.46751960
101.69999414	0.00000000	-20.46014000	-1.06422200
101.89999413	0.00000000	-20.04183000	-1.48253000
102.09999411	0.00000000	-18.46087000	-1.11343500
102.29999410	0.00000000	-15.80955000	0.09227362
102.49999409	0.00000000	-13.11516000	2.04232300
102.69999408	0.00000000	-11.10974000	4.73671200
102.89999407	0.00000000	-9.57800100	7.38188900
103.09999406	0.00000000	-8.79060000	8.91978400
103.29999404	0.00000000	-9.20275500	8.91978400
103.49999403	0.00000000	-10.32234000	7.38188900
103.69999402	0.00000000	-12.27239000	4.68750000
103.89999401	0.00000000	-14.18553000	1.62401600
104.09999400	0.00000000	-15.76649000	-1.11343500
104.29999398	0.00000000	-16.92298000	-3.02042300
104.49999397	0.00000000	-17.29823000	-3.76476400
104.69999396	0.00000000	-16.92298000	-2.60211600
104.89999395	0.00000000	-15.76649000	0.04306102
105.09999394	0.00000000	-14.22859000	3.11269700
105.29999392	0.00000000	-12.69070000	5.80093500
105.49999391	0.00000000	-11.53420000	7.38188900
105.69999390	0.00000000	-11.15896000	7.75713500
105.89999389	0.00000000	-11.53420000	7.01279500
106.09999388	0.00000000	-12.64764000	5.06274600
106.29999387	0.00000000	-13.76107000	2.78051200
106.49999385	0.00000000	-14.22859000	0.46751960
106.69999384	0.00000000	-14.60384000	-1.02116100
106.89999383	0.00000000	-14.97293000	-1.06422200
107.09999382	0.00000000	-14.56078000	0.04306102
107.29999381	0.00000000	-13.85334000	1.57480300
107.49999379	0.00000000	-13.02288000	3.15575800
107.69999378	0.00000000	-12.31545000	4.68750000
107.89999377	0.00000000	-11.90330000	5.80093500
108.09999376	0.00000000	-12.31545000	5.80093500
108.29999375	0.00000000	-13.06594000	4.64443900
108.49999374	0.00000000	-14.22859000	2.78051200
108.69999372	0.00000000	-15.34203000	0.87967510
108.89999371	0.00000000	-15.76649000	0.09227362
109.09999370	0.00000000	-15.76649000	0.04306102
109.29999369	0.00000000	-15.34203000	0.46136810
109.49999368	0.00000000	-14.18553000	1.62401600
109.69999366	0.00000000	-12.69070000	3.15575800
109.89999365	0.00000000	-11.53420000	4.68750000
110.09999364	0.00000000	-11.15896000	5.80093500
110.29999363	0.00000000	-11.48499000	5.80093500
110.49999362	0.00000000	-12.27239000	4.68750000
110.69999360	0.00000000	-13.02288000	3.19881900
110.89999359	0.00000000	-13.85334000	1.99311000
111.09999358	0.00000000	-14.60384000	1.19955700
111.29999357	0.00000000	-15.39124000	0.41830710
111.49999356	0.00000000	-15.71727000	0.09227362
111.69999355	0.00000000	-15.39124000	0.41830710
111.89999353	0.00000000	-14.60384000	1.19955700
112.09999352	0.00000000	-13.85334000	1.95004900
112.29999351	0.00000000	-13.02288000	2.78051200
112.49999350	0.00000000	-12.31545000	3.53100400
112.69999349	0.00000000	-11.90330000	4.26919300
112.89999347	0.00000000	-12.27239000	4.26919300
113.09999346	0.00000000	-12.64764000	3.57406500
113.29999345	0.00000000	-13.06594000	3.19881900
113.49999344	0.00000000	-13.81028000	3.11269700
113.69999343	0.00000000	-14.18553000	2.73745100
113.89999341	0.00000000	-14.22859000	1.99311000
114.09999340	0.00000000	-14.22859000	1.61786400
114.29999339	0.00000000	-14.18553000	1.57480300
114.49999338	0.00000000	-13.81028000	1.57480300
114.69999337	0.00000000	-13.06594000	1.57480300
114.89999336	0.00000000	-12.69070000	1.57480300
115.09999334	0.00000000	-12.64764000	1.57480300
115.29999333	0.00000000	-12.69070000	1.61786400
115.49999332	0.00000000	-13.02288000	1.95004900
115.69999331	0.00000000	-13.43504000	2.36220500
115.89999330	0.00000000	-13.44119000	2.41141700
116.09999328	0.00000000	-13.85334000	3.19881900
116.29999327	0.00000000	-14.18553000	4.26919300
116.49999326	0.00000000	-14.22859000	4.69365100
116.69999325	0.00000000	-14.22859000	4.73671200
116.89999324	0.00000000	-14.18553000	4.69365100
117.09999322	0.00000000	-13.81028000	4.26919300
117.29999321	0.00000000	-13.06594000	3.15575800
117.49999320	0.00000000	-12.64764000	1.99311000
117.69999319	0.00000000	-12.22933000	1.19955700
117.89999318	0.00000000	-11.53420000	0.41830710
118.09999317	0.00000000	-11.53420000	0.09227362
118.29999315	0.00000000	-12.22933000	0.46136810
118.49999314	0.00000000	-12.64764000	1.57480300
118.69999313	0.00000000	-13.06594000	2.73745100
118.89999312	0.00000000	-13.85334000	3.53100400
119.09999311	0.00000000	-14.64690000	4.31840500
119.29999309	0.00000000	-15.76649000	4.69365100
119.49999308	0.00000000	-16.46161000	4.73671200
119.69999307	0.00000000	-15.76649000	4.69365100
119.89999306	0.00000000	-14.64690000	4.31840500
120.09999305	0.00000000	-13.81028000	3.57406500
120.29999303	0.00000000	-12.60458000	3.19881900
120.49999302	0.00000000	-11.15896000	3.11269700
120.69999301	0.00000000	-10.37155000	2.73745100
120.89999300	0.00000000	-10.73450000	1.99311000
121.09999299	0.00000000	-11.44193000	1.61786400
121.29999298	0.00000000	-12.27239000	1.57480300
121.49999296	0.00000000	-13.06594000	1.61786400
121.69999295	0.00000000	-14.22859000	1.99311000
121.89999294	0.00000000	-15.34203000	2.73745100
122.09999293	0.00000000	-15.76649000	3.15575800
122.29999292	0.00000000	-15.76649000	3.57406500
122.49999290	0.00000000	-15.39124000	4.31840500
122.69999289	0.00000000	-14.60384000	4.69365100
122.89999288	0.00000000	-13.81028000	4.73671200
123.09999287	0.00000000	-12.64764000	4.69365100
123.29999286	0.00000000	-11.53420000	4.31840500
123.49999284	0.00000000	-11.10974000	3.53100400
123.69999283	0.00000000	-11.06668000	2.78051200
123.89999282	0.00000000	-11.10974000	1.99311000
124.09999281	0.00000000	-11.53420000	1.61786400
124.29999280	0.00000000	-12.64764000	1.57480300
124.49999279	0.00000000	-13.76107000	1.57480300
124.69999277	0.00000000	-14.22859000	1.57480300
124.89999276	0.00000000	-14.64690000	1.61786400
125.09999275	0.00000000	-15.39124000	1.99311000
125.29999274	0.00000000	-15.71727000	2.73745100
125.49999273	0.00000000	-15.39124000	3.11269700
125.69999271	0.00000000	-14.60384000	3.15575800
125.89999270	0.00000000	-13.85334000	3.19881900
126.09999269	0.00000000	-13.02288000	3.53100400
126.29999268	0.00000000	-12.27239000	3.90009800
126.49999267	0.00000000	-11.48499000	3.53100400
126.69999265	0.00000000	-11.10974000	3.19881900
126.89999264	0.00000000	-11.10974000	3.11269700
127.09999263	0.00000000	-11.53420000	2.73745100
127.29999262	0.00000000	-12.69070000	1.99311000
127.49999261	0.00000000	-14.18553000	1.61786400
127.69999260	0.00000000	-15.34203000	1.61786400
127.89999258	0.00000000	-15.76649000	1.99311000
128.09999257	0.00000000	-15.76649000	2.73745100
128.29999256	0.00000000	-15.34203000	3.11269700
128.49999255	0.00000000	-14.22859000	3.15575800
128.69999254	0.00000000	-13.06594000	3.15575800
128.89999252	0.00000000	-12.27239000	3.15575800
129.09999251	0.00000000	-11.48499000	3.15575800
129.29999250	0.00000000	-11.15896000	3.15575800
129.49999249	0.00000000	-11.53420000	3.11269700
129.69999248	0.00000000	-12.64764000	2.73745100
129.89999246	0.00000000	-13.81028000	2.04232300
130.09999245	0.00000000	-14.60384000	2.04232300
130.29999244	0.00000000	-15.34203000	2.73745100
130.49999243	0.00000000	-15.34203000	3.11269700
130.69999242	0.00000000	-14.64690000	3.15575800
130.89999241	0.00000000	-14.22859000	3.19881900
131.09999239	0.00000000	-13.81028000	3.53100400
131.29999238	0.00000000	-13.06594000	3.90009800
131.49999237	0.00000000	-12.69070000	3.53100400
131.69999236	0.00000000	-12.64764000	3.15575800
131.89999235	0.00000000	-12.64764000	2.73745100
132.09999233	0.00000000	-12.69070000	1.99311000
132.29999232	0.00000000	-13.06594000	1.61786400
132.49999231	0.00000000	-13.81028000	1.57480300
132.69999230	0.00000000	-14.18553000	1.61786400
132.89999229	0.00000000	-14.22859000	1.99311000
133.09999227	0.00000000	-14.18553000	2.78051200
133.29999226	0.00000000	-13.81028000	3.53100400
133.49999225	0.00000000	-13.06594000	4.31840500
133.69999224	0.00000000	-12.73991000	4.69365100
133.89999223	0.00000000	-13.02288000	4.69365100
134.09999222	0.00000000	-13.39198000	4.31840500
134.29999220	0.00000000	-13.06594000	3.53100400
134.49999219	0.00000000	-13.06594000	2.78051200
134.69999218	0.00000000	-13.39198000	1.95004900
134.89999217	0.00000000	-13.02288000	1.24877000
135.09999216	0.00000000	-12.69070000	0.83661410
135.29999214	0.00000000	-12.64764000	1.19955700
135.49999213	0.00000000	-12.64764000	1.57480300
135.69999212	0.00000000	-12.64764000	1.99311000
135.89999211	0.00000000	-12.69070000	2.78051200
136.09999210	0.00000000	-13.06594000	3.53100400
136.29999208	0.00000000	-13.81028000	4.31840500
136.49999207	0.00000000	-14.18553000	4.69365100
136.69999206	0.00000000	-14.22859000	4.69365100
136.89999205	0.00000000	-14.22859000	4.31840500
137.09999204	0.00000000	-14.18553000	3.57406500
137.29999203	0.00000000	-13.81028000	3.15575800
137.49999201	0.00000000	-13.02288000	2.73745100
137.69999200	0.00000000	-12.27239000	1.99311000
137.89999199	0.00000000	-11.48499000	1.61786400
138.09999198	0.00000000	-11.15896000	1.57480300
138.29999197	0.00000000	-11.48499000	1.57480300
138.49999195	0.00000000	-12.27239000	1.61786400
138.69999194	0.00000000	-13.02288000	1.99311000
138.89999193	0.00000000	-13.81028000	2.73745100
139.09999192	0.00000000	-14.18553000	3.15575800
139.29999191	0.00000000	-14.22859000	3.57406500
139.49999189	0.00000000	-14.18553000	4.31840500
139.69999188	0.00000000	-13.81028000	4.69365100
139.89999187	0.00000000	-13.06594000	4.69365100
140.09999186	0.00000000	-12.69070000	4.31840500
140.29999185	0.00000000	-12.64764000	3.53100400
140.49999184	0.00000000	-12.64764000	2.78051200
140.69999182	0.00000000	-12.64764000	1.99311000
140.89999181	0.00000000	-12.69070000	1.61786400
141.09999180	0.00000000	-13.06594000	1.57480300
141.29999179	0.00000000	-13.81028000	1.57480300
141.49999178	0.00000000	-14.18553000	1.61786400
141.69999176	0.00000000	-14.22859000	2.04232300
141.89999175	0.00000000	-14.18553000	3.15575800
142.09999174	0.00000000	-13.81028000	4.26919300
142.29999173	0.00000000	-13.06594000	4.69365100
142.49999172	0.00000000	-12.69070000	4.73671200
142.69999170	0.00000000	-12.64764000	4.69365100
142.89999169	0.00000000	-12.64764000	4.26919300
143.09999168	0.00000000	-12.64764000	3.15575800
143.29999167	0.00000000	-12.64764000	2.04232300
143.49999166	0.00000000	-12.69070000	1.57480300
143.69999165	0.00000000	-13.02288000	1.19955700
143.89999163	0.00000000	-13.39198000	0.83661410
144.09999162	0.00000000	-13.02288000	1.24877000
144.29999161	0.00000000	-12.69070000	1.95004900
144.49999160	0.00000000	-12.64764000	2.73745100
144.69999159	0.00000000	-12.64764000	3.15575800
144.89999157	0.00000000	-12.64764000	3.57406500
145.09999156	0.00000000	-12.64764000	4.26919300
145.29999155	0.00000000	-12.69070000	4.26919300
145.49999154	0.00000000	-13.02288000	3.57406500
145.69999153	0.00000000	-13.43504000	3.15575800
145.89999151	0.00000000	-13.44119000	2.73745100
146.09999150	0.00000000	-13.81028000	1.99311000
146.29999149	0.00000000	-13.76107000	1.61786400
146.49999148	0.00000000	-13.06594000	1.57480300
146.69999147	0.00000000	-12.69070000	1.57480300
146.89999146	0.00000000	-12.64764000	1.57480300
147.09999144	0.00000000	-12.64764000	1.61786400
147.29999143	0.00000000	-12.64764000	2.04232300
147.49999142	0.00000000	-12.64764000	3.15575800
147.69999141	0.00000000	-12.64764000	4.22613100
147.89999140	0.00000000	-12.69070000	4.26919300
148.09999138	0.00000000	-13.06594000	3.57406500
148.29999137	0.00000000	-13.81028000	3.19881900
148.49999136	0.00000000	-14.18553000	3.15575800
148.69999135	0.00000000	-14.22859000	3.15575800
148.89999134	0.00000000	-14.18553000	3.11269700
149.09999132	0.00000000	-13.81028000	2.73745100
149.29999131	0.00000000	-13.06594000	1.99311000
149.49999130	0.00000000	-12.69070000	1.61786400
149.69999129	0.00000000	-12.64764000	1.61786400
149.89999128	0.00000000	-12.64764000	1.99311000
150.09999127	0.00000000	-12.64764000	2.73745100
150.29999125	0.00000000	-12.64764000	3.11269700
150.49999124	0.00000000	-12.64764000	3.15575800
150.69999123	0.00000000	-12.69070000	3.15575800
150.89999122	0.00000000	-13.02288000	3.15575800
151.09999121	0.00000000	-13.43504000	3.15575800
151.29999119	0.00000000	-13.44119000	3.15575800
151.49999118	0.00000000	-13.81028000	3.15575800
151.69999117	0.00000000	-13.76107000	3.15575800
151.89999116	0.00000000	-13.06594000	3.15575800
152.09999115	0.00000000	-12.69070000	3.15575800
152.29999113	0.00000000	-12.64764000	3.15575800
152.49999112	0.00000000	-12.64764000	3.11269700
152.69999111	0.00000000	-12.64764000	2.78051200
152.89999110	0.00000000	-12.64764000	2.41141700
153.09999109	0.00000000	-12.64764000	2.78051200
153.29999108	0.00000000	-12.64764000	3.11269700
153.49999106	0.00000000	-12.64764000	3.15575800
153.69999105	0.00000000	-12.69070000	3.15575800
153.89999104	0.00000000	-13.06594000	3.15575800
154.09999103	0.00000000	-13.81028000	3.15575800
154.29999102	0.00000000	-14.18553000	3.15575800
154.49999100	0.00000000	-14.22859000	3.15575800
154.69999099	0.00000000	-14.18553000	3.15575800
154.89999098	0.00000000	-13.81028000	3.15575800
155.09999097	0.00000000	-13.06594000	3.15575800
155.29999096	0.00000000	-12.64764000	3.15575800
155.49999094	0.00000000	-12.27239000	3.11269700
155.69999093	0.00000000	-11.90330000	2.78051200
155.89999092	0.00000000	-12.27239000	2.41141700
156.09999091	0.00000000	-12.60458000	2.78051200
156.29999090	0.00000000	-12.64764000	3.11269700
156.49999089	0.00000000	-12.64764000	3.15575800
156.69999087	0.00000000	-12.69070000	3.15575800
156.89999086	0.00000000	-13.06594000	3.19881900
157.09999085	0.00000000	-13.81028000	3.57406500
157.29999084	0.00000000	-14.18553000	4.26919300
157.49999083	0.00000000	-14.22859000	4.26919300
157.69999081	0.00000000	-14.18553000	3.57406500
157.89999080	0.00000000	-13.81028000	3.19881900
158.09999079	0.00000000	-13.06594000	3.15575800
158.29999078	0.00000000	-12.69070000	3.11269700
158.49999077	0.00000000	-12.60458000	2.73745100
158.69999075	0.00000000	-12.27239000	2.04232300
158.89999074	0.00000000	-11.90330000	2.04232300
159.09999073	0.00000000	-12.27239000	2.73745100
159.29999072	0.00000000	-12.60458000	3.11269700
159.49999071	0.00000000	-12.64764000	3.15575800
159.69999070	0.00000000	-12.64764000	3.19881900
159.89999068	0.00000000	-12.69070000	3.57406500
160.09999067	0.00000000	-13.02288000	4.26919300
160.29999066	0.00000000	-13.43504000	4.26919300
160.49999065	0.00000000	-13.44119000	3.57406500
160.69999064	0.00000000	-13.81028000	3.15575800
160.89999062	0.00000000	-13.76107000	2.73745100
161.09999061	0.00000000	-13.06594000	1.99311000
161.29999060	0.00000000	-12.69070000	1.61786400
161.49999059	0.00000000	-12.64764000	1.57480300
161.69999058	0.00000000	-12.64764000	1.61786400
161.89999056	0.00000000	-12.64764000	1.99311000
162.09999055	0.00000000	-12.64764000	2.73745100
162.29999054	0.00000000	-12.64764000	3.11269700
162.49999053	0.00000000	-12.64764000	3.15575800
162.69999052	0.00000000	-12.64764000	3.15575800
162.89999051	0.00000000	-12.69070000	3.15575800
163.09999049	0.00000000	-13.06594000	3.15575800
163.29999048	0.00000000	-13.81028000	3.15575800
163.49999047	0.00000000	-14.18553000	3.15575800
163.69999046	0.00000000	-14.22859000	3.15575800
163.89999045	0.00000000	-14.18553000	3.15575800
164.09999043	0.00000000	-13.81028000	3.15575800
164.29999042	0.00000000	-13.06594000	3.15575800
164.49999041	0.00000000	-12.69070000	3.15575800
164.69999040	0.00000000	-12.64764000	3.15575800
164.89999039	0.00000000	-12.64764000	3.15575800
165.09999037	0.00000000	-12.64764000	3.15575800
165.29999036	0.00000000	-12.60458000	3.15575800
165.49999035	0.00000000	-12.27239000	3.15575800
165.69999034	0.00000000	-11.90330000	3.15575800
165.89999033	0.00000000	-12.27239000	3.15575800
166.09999032	0.00000000	-12.64764000	3.15575800
166.29999030	0.00000000	-13.06594000	3.15575800
166.49999029	0.00000000	-13.81028000	3.15575800
166.69999028	0.00000000	-14.13632000	3.15575800
166.89999027	0.00000000	-13.81028000	3.15575800
167.09999026	0.00000000	-13.11516000	3.15575800
167.29999024	0.00000000	-13.06594000	3.15575800
167.49999023	0.00000000	-13.39198000	3.15575800
167.69999022	0.00000000	-13.02288000	3.15575800
167.89999021	0.00000000	-12.69070000	3.15575800
168.09999020	0.00000000	-12.64764000	3.15575800
168.29999018	0.00000000	-12.64764000	3.15575800
168.49999017	0.00000000	-12.64764000	3.15575800
168.69999016	0.00000000	-12.64764000	3.15575800
168.89999015	0.00000000	-12.64764000	3.15575800
169.09999014	0.00000000	-12.64764000	3.15575800
169.29999013	0.00000000	-12.64764000	3.15575800
169.49999011	0.00000000	-12.64764000	3.15575800
169.69999010	0.00000000	-12.64764000	3.15575800
169.89999009	0.00000000	-12.64764000	3.15575800
170.09999008	0.00000000	-12.69070000	3.15575800
170.29999007	0.00000000	-13.02288000	3.15575800
170.49999005	0.00000000	-13.39198000	3.15575800
170.69999004	0.00000000	-13.02288000	3.15575800
170.89999003	0.00000000	-12.69070000	3.15575800
171.09999002	0.00000000	-12.64764000	3.15575800
171.29999001	0.00000000	-12.64764000	3.11269700
171.49998999	0.00000000	-12.64764000	2.78051200
171.69998998	0.00000000	-12.64764000	2.36835600
171.89998997	0.00000000	-12.64764000	2.36220500
172.09998996	0.00000000	-12.64764000	1.99311000
172.29998995	0.00000000	-12.64764000	2.04232300
172.49998994	0.00000000	-12.64764000	2.73745100
172.69998992	0.00000000	-12.64764000	3.11269700
172.89998991	0.00000000	-12.64764000	3.15575800
173.09998990	0.00000000	-12.64764000	3.15575800
173.29998989	0.00000000	-12.64764000	3.15575800
173.49998988	0.00000000	-12.64764000	3.15575800
173.69998986	0.00000000	-12.64764000	3.15575800
173.89998985	0.00000000	-12.64764000	3.15575800
174.09998984	0.00000000	-12.64764000	3.15575800
174.29998983	0.00000000	-12.64764000	3.15575800
174.49998982	0.00000000	-12.64764000	3.15575800
174.69998980	0.00000000	-12.64764000	3.15575800
174.89998979	0.00000000	-12.64764000	3.15575800
175.09998978	0.00000000	-12.64764000	3.15575800
175.29998977	0.00000000	-12.64764000	3.15575800
175.49998976	0.00000000	-12.64764000	3.15575800
175.69998975	0.00000000	-12.64764000	3.15575800
175.89998973	0.00000000	-12.64764000	3.15575800
176.09998972	0.00000000	-12.64764000	3.15575800
176.29998971	0.00000000	-12.64764000	3.15575800
176.49998970	0.00000000	-12.64764000	3.15575800
176.69998969	0.00000000	-12.64764000	3.15575800
176.89998967	0.00000000	-12.64764000	3.15575800
177.09998966	0.00000000	-12.64764000	3.15575800
177.29998965	0.00000000	-12.64764000	3.15575800
177.49998964	0.00000000	-12.64764000	3.15575800
177.69998963	0.00000000	-12.64764000	3.15575800
177.89998961	0.00000000	-12.64764000	3.15575800
178.09998960	0.00000000	-12.64764000	3.15575800
178.29998959	0.00000000	-12.64764000	3.15575800
178.49998958	0.00000000	-12.64764000	3.15575800
178.69998957	0.00000000	-12.64764000	3.15575800
178.89998956	0.00000000	-12.64764000	3.15575800
179.09998954	0.00000000	-12.64764000	3.15575800
179.29998953	0.00000000	-12.64764000	3.15575800
179.49998952	0.00000000	-12.64764000	3.15575800
179.69998951	0.00000000	-12.64764000	3.15575800
179.89998950	0.00000000	-12.64764000	3.15575800
180.09998948	0.00000000	-12.64764000	3.15575800
180.29998947	0.00000000	-12.64764000	3.15575800
180.49998946	0.00000000	-12.64764000	3.15575800
180.69998945	0.00000000	-12.64764000	3.15575800
180.89998944	0.00000000	-12.64764000	3.15575800
181.09998942	0.00000000	-12.64764000	3.15575800
181.29998941	0.00000000	-12.64764000	3.15575800
181.49998940	0.00000000	-12.64764000	3.15575800
181.69998939	0.00000000	-12.64764000	3.15575800
181.89998938	0.00000000	-12.64764000	3.15575800
182.09998937	0.00000000	-12.64764000	3.15575800
182.29998935	0.00000000	-12.64764000	3.15575800
182.49998934	0.00000000	-12.64764000	3.15575800
182.69998933	0.00000000	-12.69070000	3.11269700
182.89998932	0.00000000	-13.02288000	2.78051200
183.09998931	0.00000000	-13.39198000	2.41141700
183.29998929	0.00000000	-13.02288000	2.73745100
183.49998928	0.00000000	-12.69070000	2.73745100
183.69998927	0.00000000	-12.64764000	2.41141700
183.89998926	0.00000000	-12.64764000	2.78051200
184.09998925	0.00000000	-12.64764000	3.11269700
184.29998923	0.00000000	-12.64764000	3.15575800
184.49998922	0.00000000	-12.64764000	3.15575800
184.69998921	0.00000000	-12.64764000	3.19881900
184.89998920	0.00000000	-12.64764000	3.57406500
185.09998919	0.00000000	-12.64764000	4.26919300
185.29998918	0.00000000	-12.64764000	4.26919300
185.49998916	0.00000000	-12.64764000	3.57406500
185.69998915	0.00000000	-12.64764000	3.15575800
185.89998914	0.00000000	-12.64764000	2.73745100
186.09998913	0.00000000	-12.64764000	2.04232300
186.29998912	0.00000000	-12.64764000	1.99311000
186.49998910	0.00000000	-12.64764000	2.36220500
186.69998909	0.00000000	-12.64764000	2.36835600
186.89998908	0.00000000	-12.64764000	2.78051200
187.09998907	0.00000000	-12.64764000	3.11269700
187.29998906	0.00000000	-12.64764000	3.15575800
187.49998904	0.00000000	-12.64764000	3.19881900
187.69998903	0.00000000	-12.64764000	3.53100400
187.89998902	0.00000000	-12.64764000	3.90009800
188.09998901	0.00000000	-12.64764000	3.53100400
188.29998900	0.00000000	-12.64764000	3.19881900
188.49998899	0.00000000	-12.64764000	3.15575800
188.69998897	0.00000000	-12.64764000	3.15575800
188.89998896	0.00000000	-12.60458000	3.11269700
189.09998895	0.00000000	-12.27239000	2.73745100
189.29998894	0.00000000	-11.90330000	1.99311000
189.49998893	0.00000000	-12.27239000	1.61786400
189.69998891	0.00000000	-12.60458000	1.61786400
189.89998890	0.00000000	-12.64764000	1.99311000
190.09998889	0.00000000	-12.69070000	2.73745100
190.29998888	0.00000000	-13.02288000	3.11269700
190.49998887	0.00000000	-13.39198000	3.15575800
190.69998885	0.00000000	-13.02288000	3.15575800
190.89998884	0.00000000	-12.69070000	3.15575800
191.09998883	0.00000000	-12.64764000	3.15575800
191.29998882	0.00000000	-12.64764000	3.15575800
191.49998881	0.00000000	-12.60458000	3.15575800
191.69998880	0.00000000	-12.27239000	3.15575800
191.89998878	0.00000000	-11.86024000	3.15575800
192.09998877	0.00000000	-11.89715000	3.15575800
192.29998876	0.00000000	-11.86024000	3.15575800
192.49998875	0.00000000	-12.27239000	3.15575800
192.69998874	0.00000000	-12.60458000	3.15575800
192.89998872	0.00000000	-12.64764000	3.15575800
193.09998871	0.00000000	-12.64764000	3.15575800
193.29998870	0.00000000	-12.64764000	3.15575800
193.49998869	0.00000000	-12.64764000	3.15575800
193.69998868	0.00000000	-12.64764000	3.15575800
193.89998866	0.00000000	-12.64764000	3.15575800
194.09998865	0.00000000	-12.64764000	3.15575800
194.29998864	0.00000000	-12.64764000	3.15575800
194.49998863	0.00000000	-12.64764000	3.15575800
194.69998862	0.00000000	-12.64764000	3.15575800
194.89998861	0.00000000	-12.64764000	3.15575800
195.09998859	0.00000000	-12.64764000	3.15575800
195.29998858	0.00000000	-12.64764000	3.15575800
195.49998857	0.00000000	-12.64764000	3.15575800
195.69998856	0.00000000	-12.64764000	3.15575800
195.89998855	0.00000000	-12.64764000	3.15575800
196.09998853	0.00000000	-12.64764000	3.15575800
