Time	Channel A	Channel B	Channel C
(us)	(V)	(mV)	(mV)

-4.49999956	0.00000000	-12.64764000	-7.89247000
-4.29999957	0.00000000	-12.64764000	-7.89247000
-4.09999958	0.00000000	-12.64764000	-7.89247000
-3.89999959	0.00000000	-12.64764000	-7.89247000
-3.69999960	0.00000000	-12.64764000	-7.89247000
-3.49999962	0.00000000	-12.69070000	-7.89247000
-3.29999963	0.00000000	-13.02288000	-7.93553100
-3.09999964	0.00000000	-13.39198000	-8.26771600
-2.89999965	0.00000000	-13.02288000	-8.63681000
-2.69999966	0.00000000	-12.69070000	-8.26771600
-2.49999968	0.00000000	-12.64764000	-7.98474400
-2.29999969	0.00000000	-12.64764000	-8.26771600
-2.09999970	0.00000000	-12.64764000	-8.63681000
-1.89999971	0.00000000	-12.64764000	-8.26771600
-1.69999972	0.00000000	-12.64764000	-7.93553100
-1.49999973	0.00000000	-12.64764000	-7.89247000
-1.29999975	0.00000000	-12.64764000	-7.89247000
-1.09999976	0.00000000	-12.64764000	-7.89247000
-0.89999977	0.00000000	-12.64764000	-7.89247000
-0.69999978	0.00000000	-12.64764000	-7.89247000
-0.49999979	0.00000000	-12.64764000	-7.89247000
-0.29999981	0.31803640	-12.64764000	-7.93553100
-0.09999982	0.63668800	-12.64764000	-8.26771600
0.10000017	0.95533960	-12.69070000	-8.63681000
0.30000016	1.11466500	-13.02288000	-8.31077700
0.50000015	0.95533960	-13.39198000	-8.35998900
0.70000013	0.47736220	-13.02288000	-9.05511800
0.90000012	-0.31803640	-12.69070000	-9.43036400
1.10000011	-1.27399100	-12.64764000	-9.43036400
1.30000010	-2.22994600	-12.64764000	-9.05511800
1.50000009	-2.70792300	-12.64764000	-8.31077700
1.70000008	-2.54859700	-12.64764000	-7.93553100
1.90000006	-1.59264300	-12.64764000	-7.89247000
2.10000005	0.31803640	-12.64764000	-7.89247000
2.30000004	2.38927200	-12.64764000	-7.89247000
2.50000003	4.30056600	-12.64764000	-7.93553100
2.70000002	5.25652100	-12.69070000	-8.31077700
2.90000000	5.09719500	-13.06594000	-9.05511800
3.09999999	3.34522600	-13.81028000	-9.47342500
3.29999998	0.31803640	-14.13632000	-9.84867000
3.49999997	-3.02657500	-13.81028000	-10.16855000
3.69999996	-6.05315000	-13.06594000	-9.42421200
3.89999994	-7.80511800	-12.69070000	-8.35998900
4.09999993	-7.64579200	-12.64764000	-7.93553100
4.29999992	-5.41584600	-12.64764000	-7.89247000
4.49999991	-1.75196900	-12.64764000	-7.89247000
4.69999990	2.70792300	-12.64764000	-7.89247000
4.89999989	6.69045300	-12.64764000	-7.93553100
5.09999987	9.07972400	-12.64764000	-8.31077700
5.29999986	9.23905000	-12.69070000	-9.05511800
5.49999985	7.00848900	-13.06594000	-9.43036400
5.69999984	3.02657500	-13.76107000	-9.47342500
5.89999983	-1.59264300	-13.76107000	-9.47342500
6.09999981	-6.05315000	-13.06594000	-9.43036400
6.29999980	-8.92039900	-12.69070000	-9.05511800
6.49999979	-9.39837600	-12.64764000	-8.31077700
6.69999978	-7.64579200	-12.64764000	-7.93553100
6.89999977	-3.98191400	-12.64764000	-7.89247000
7.09999975	0.31803640	-12.64764000	-7.89247000
7.29999974	4.30056600	-12.64764000	-7.89247000
7.49999973	7.00848900	-12.64764000	-7.93553100
7.69999972	7.80511800	-12.64764000	-8.31077700
7.89999971	6.53112700	-12.64764000	-9.05511800
8.09999970	3.82258900	-12.64764000	-9.43036400
8.29999968	0.63668800	-12.69070000	-9.47342500
8.49999967	-2.38927200	-13.02288000	-9.43036400
8.69999966	-4.45989200	-13.39198000	-9.05511800
8.89999965	-5.25652100	-13.02288000	-8.35998900
9.09999964	-4.61921700	-12.69070000	-8.31077700
9.29999962	-3.02657500	-12.64764000	-8.63681000
9.49999961	-0.95533960	-12.64764000	-8.26771600
9.69999960	0.79601380	-12.64764000	-7.93553100
9.89999959	2.07062000	-12.64764000	-7.89247000
10.09999958	2.54859700	-12.64764000	-7.89247000
10.29999956	2.22994600	-12.64764000	-7.89247000
10.49999955	1.59264300	-12.64764000	-7.89247000
10.69999954	0.63668800	-12.64764000	-7.93553100
10.89999953	-0.15871060	-12.64764000	-8.31077700
11.09999952	-0.63668800	-12.64764000	-9.05511800
11.29999951	-0.95533960	-12.69070000	-9.43036400
11.49999949	-0.95533960	-13.02288000	-9.47342500
11.69999948	-0.79601380	-13.43504000	-9.47342500
11.89999947	-0.47736220	-13.39813000	-9.43036400
12.09999946	-0.15871060	-13.43504000	-9.09817800
12.29999945	-0.15871060	-13.02288000	-8.72908400
12.49999943	0.00000000	-12.69070000	-9.09817800
12.69999942	0.00000000	-12.64764000	-9.43036400
12.89999941	0.00000000	-12.64764000	-9.43036400
13.09999940	0.00000000	-12.64764000	-9.09817800
13.29999939	0.00000000	-12.69070000	-8.68602300
13.49999937	0.00000000	-13.02288000	-8.67987200
13.69999936	0.00000000	-13.39198000	-8.26771600
13.89999935	0.00000000	-13.02288000	-7.93553100
14.09999934	-0.15871060	-12.69070000	-7.93553100
14.29999933	-0.15871060	-12.69070000	-8.31077700
14.49999932	-0.15871060	-13.02288000	-9.00590400
14.69999930	0.00000000	-13.39198000	-9.00590400
14.89999929	0.00000000	-13.06594000	-8.31077700
15.09999928	0.00000000	-13.06594000	-7.98474400
15.29999927	0.00000000	-13.43504000	-8.26771600
15.49999926	0.00000000	-13.44119000	-8.67987200
15.69999924	0.00000000	-13.81028000	-8.68602300
15.89999923	0.00000000	-13.76107000	-9.09817800
16.09999922	0.00000000	-13.06594000	-9.43036400
16.29999921	0.00000000	-12.69070000	-9.43036400
16.49999920	-0.15871060	-12.64764000	-9.05511800
16.69999919	-0.15871060	-12.64764000	-8.31077700
16.89999917	0.00000000	-12.64764000	-7.93553100
17.09999916	0.00000000	-12.60458000	-7.89247000
17.29999915	0.00000000	-12.22933000	-7.89247000
17.49999914	0.00000000	-11.53420000	-7.93553100
17.69999913	0.00000000	-11.48499000	-8.26771600
17.89999911	0.00000000	-11.89715000	-8.63681000
18.09999910	0.00000000	-12.32775000	-8.26771600
18.29999909	0.00000000	-13.89641000	-7.93553100
18.49999908	0.00000000	-15.76649000	-7.89247000
18.69999907	0.00000000	-17.34744000	-7.93553100
18.89999905	0.00000000	-18.46087000	-8.31077700
19.09999904	0.00000000	-18.46087000	-9.05511800
19.29999903	0.00000000	-17.29823000	-9.43036400
19.49999902	0.00000000	-15.29897000	-9.47342500
19.69999901	0.00000000	-12.18012000	-9.43036400
19.89999900	0.00000000	-8.32308000	-9.05511800
20.09999898	0.00000000	-4.87819900	-8.31077700
20.29999897	0.00000000	-2.55290300	-7.98474400
20.49999896	0.00000000	-2.26993100	-8.31077700
20.69999895	0.00000000	-4.64443900	-9.00590400
20.89999894	0.00000000	-10.08243000	-9.05511800
21.09999892	0.00000000	-17.39050000	-8.68602300
21.29999891	0.00000000	-24.78469000	-8.72293300
21.49999890	0.00000000	-30.93012000	-8.68602300
21.69999889	0.00000000	-34.28272000	-9.09817800
21.89999888	0.00000000	-32.65871000	-9.43036400
22.09999886	0.00000000	-25.67667000	-9.47342500
22.29999885	0.00000000	-14.83760000	-9.47342500
22.49999884	0.00000000	-2.09153500	-9.43036400
22.69999883	0.00000000	9.44881800	-9.05511800
22.89999882	0.00000000	16.75074000	-8.31077700
23.09999881	0.00000000	17.87033000	-7.93553100
23.29999879	0.00000000	11.96481000	-7.89247000
23.49999878	0.00000000	-0.45521650	-7.84940900
23.69999877	0.00000000	-17.48277000	-7.47416300
23.89999876	0.00000000	-35.16855000	-6.77903500
24.09999875	0.00000000	-49.07726000	-6.77903500
24.29999873	0.00000000	-55.54872000	-7.47416300
24.49999872	0.00000000	-52.79897000	-7.93553100
24.69999871	0.00000000	-40.33587000	-8.77214500
24.89999870	0.00000000	-20.65084000	-10.67298000
25.09999869	0.00000000	2.09768700	-12.53691000
25.29999867	0.00000000	22.15182000	-13.74262000
25.49999866	0.00000000	34.52879000	-14.07480000
25.69999865	0.00000000	36.76181000	-13.28125000
25.89999864	0.00000000	27.45448000	-10.91289000
26.09999863	0.00000000	8.15083600	-7.47416300
26.29999862	0.00000000	-16.18479000	-3.57406500
26.49999860	0.00000000	-40.51427000	-0.09227362
26.69999859	0.00000000	-58.98745000	2.55905500
26.89999858	0.00000000	-66.76304000	3.25418300
27.09999857	0.00000000	-62.52460000	0.89197830
27.29999856	0.00000000	-47.44709000	-4.17691900
27.49999854	0.00000000	-24.65551000	-11.51575000
27.69999853	0.00000000	0.42445860	-19.59892000
27.89999852	0.00000000	22.05955000	-26.10728000
28.09999851	0.00000000	35.22392000	-29.58907000
28.29999850	0.00000000	37.22933000	-28.75861000
28.49999848	0.00000000	28.38337000	-23.64665000
28.69999847	0.00000000	10.98671000	-14.30241000
28.89999846	0.00000000	-11.02362000	-1.99311000
29.09999845	0.00000000	-32.65871000	9.94709500
29.29999844	0.00000000	-48.94193000	18.81767000
29.49999843	0.00000000	-56.75443000	22.58243000
29.69999841	0.00000000	-55.26574000	19.42667000
29.89999840	0.00000000	-45.21407000	9.38730200
30.09999839	0.00000000	-28.97392000	-5.29035400
30.29999838	0.00000000	-10.03937000	-21.50590000
30.49999837	0.00000000	7.35728300	-35.76525000
30.69999835	0.00000000	19.35900000	-44.64198000
30.89999834	0.00000000	23.68356000	-46.17987000
31.09999833	0.00000000	19.86959000	-39.95448000
31.29999832	0.00000000	9.49187900	-26.75935000
31.49999831	0.00000000	-4.83513700	-9.01205700
31.69999829	0.00000000	-19.95571000	9.47957600
31.89999828	0.00000000	-33.07701000	24.16338000
32.09999827	0.00000000	-41.21555000	31.92052000
32.29999826	0.00000000	-42.47662000	31.50221000
32.49999825	0.00000000	-37.86294000	22.58243000
32.69999824	0.00000000	-28.55561000	6.78518600
32.89999822	0.00000000	-16.22785000	-12.11860000
33.09999821	0.00000000	-4.26919300	-29.91511000
33.29999820	0.00000000	4.66289300	-43.15329000
33.49999819	0.00000000	8.93823700	-49.61860000
33.69999818	0.00000000	7.82480200	-47.65625000
33.89999816	0.00000000	2.05462600	-36.51574000
34.09999815	0.00000000	-6.83439900	-20.06029000
34.29999814	0.00000000	-16.83686000	-2.55290300
34.49999813	0.00000000	-25.25836000	12.92446000
34.69999812	0.00000000	-29.53371000	23.74508000
34.89999810	0.00000000	-28.88164000	27.18381000
35.09999809	0.00000000	-24.64936000	22.63164000
35.29999808	0.00000000	-18.08563000	11.43578000
35.49999807	0.00000000	-10.41462000	-3.57406500
35.69999806	0.00000000	-4.26919300	-19.00221000
35.89999805	0.00000000	-1.15649600	-30.98548000
36.09999803	0.00000000	-1.53174200	-37.21087000
36.29999802	0.00000000	-5.33956700	-36.84178000
36.49999801	0.00000000	-11.10974000	-29.91511000
36.69999800	0.00000000	-17.25517000	-18.39321000
36.89999799	0.00000000	-22.23179000	-5.33341500
37.09999797	0.00000000	-24.18799000	5.81323800
37.29999796	0.00000000	-23.06841000	12.03863000
37.49999795	0.00000000	-19.62352000	12.45694000
37.69999794	0.00000000	-14.60384000	7.43725300
37.89999793	0.00000000	-9.62106200	-2.08538400
38.09999791	0.00000000	-5.71481200	-12.77067000
38.29999790	0.00000000	-3.80782500	-20.85999000
38.49999789	0.00000000	-4.18307100	-24.76009000
38.69999788	0.00000000	-6.87746000	-23.55438000
38.89999787	0.00000000	-11.06668000	-17.46432000
39.09999786	0.00000000	-15.34203000	-8.26771600
39.29999784	0.00000000	-18.83612000	0.84276570
39.49999783	0.00000000	-21.20448000	7.01894700
39.69999782	0.00000000	-21.95497000	8.13853400
39.89999781	0.00000000	-21.20448000	4.32455700
40.09999780	0.00000000	-18.87918000	-3.75861200
40.29999778	0.00000000	-15.80955000	-13.69956000
40.49999777	0.00000000	-12.64764000	-22.53322000
40.69999776	0.00000000	-9.52879000	-27.87278000
40.89999775	0.00000000	-6.83439900	-27.82972000
41.09999774	0.00000000	-5.29650500	-22.10876000
41.29999772	0.00000000	-5.29650500	-12.53691000
41.49999771	0.00000000	-6.79133800	-2.17765700
41.69999770	0.00000000	-9.11048200	6.32381900
41.89999769	0.00000000	-11.48499000	10.92520000
42.09999768	0.00000000	-14.22859000	10.54995000
42.29999767	0.00000000	-16.92298000	5.20423200
42.49999765	0.00000000	-18.87918000	-3.24803100
42.69999764	0.00000000	-20.04183000	-12.49385000
42.89999763	0.00000000	-20.04183000	-20.62008000
43.09999762	0.00000000	-18.87918000	-25.59670000
43.29999761	0.00000000	-16.97219000	-26.38410000
43.49999759	0.00000000	-14.64690000	-22.57628000
43.69999758	0.00000000	-12.69070000	-15.69882000
43.89999757	0.00000000	-11.10974000	-8.02780400
44.09999756	0.00000000	-9.90403500	-1.43946800
44.29999755	0.00000000	-9.15354300	2.46678100
44.49999753	0.00000000	-8.69832600	3.67249000
44.69999752	0.00000000	-8.73523500	2.14074800
44.89999751	0.00000000	-8.69832600	-1.66707700
45.09999750	0.00000000	-9.20275500	-6.31151500
45.29999749	0.00000000	-10.32234000	-10.95595000
45.49999748	0.00000000	-12.31545000	-14.81299000
45.69999746	0.00000000	-14.64690000	-16.76919000
45.89999745	0.00000000	-17.43356000	-16.81225000
46.09999744	0.00000000	-20.50935000	-15.23130000
46.29999743	0.00000000	-23.16068000	-12.21087000
46.49999742	0.00000000	-24.27411000	-8.72908400
46.69999740	0.00000000	-23.06841000	-5.98548200
46.89999739	0.00000000	-19.58046000	-3.66633800
47.09999738	0.00000000	-14.13632000	-2.54675200
47.29999737	0.00000000	-7.94783400	-3.24803100
47.49999736	0.00000000	-2.13459600	-4.77977300
47.69999734	0.00000000	2.05462600	-6.77903500
47.89999733	0.00000000	3.16806100	-9.47342500
48.09999732	0.00000000	0.42445860	-12.16781000
48.29999731	0.00000000	-5.76402500	-14.07480000
48.49999730	0.00000000	-14.27165000	-14.85605000
48.69999729	0.00000000	-23.11762000	-14.03174000
48.89999727	0.00000000	-30.04429000	-11.74951000
49.09999726	0.00000000	-33.12008000	-8.26771600
49.29999725	0.00000000	-31.58218000	-4.82283400
49.49999724	0.00000000	-25.81201000	-2.12844500
49.69999723	0.00000000	-17.25517000	-0.97194880
49.89999721	0.00000000	-7.62180000	-1.75319900
50.09999720	0.00000000	1.21186000	-4.08464600
50.29999719	0.00000000	6.15157400	-7.93553100
50.49999718	0.00000000	5.81938900	-12.11860000
50.69999717	0.00000000	0.47367120	-15.23130000
50.89999715	0.00000000	-7.99704600	-16.81225000
51.09999714	0.00000000	-17.25517000	-16.81225000
51.29999713	0.00000000	-25.34449000	-15.23130000
51.49999712	0.00000000	-29.95817000	-12.11860000
51.69999711	0.00000000	-30.00123000	-7.89247000
51.89999710	0.00000000	-25.76895000	-3.70939900
52.09999708	0.00000000	-18.50394000	-1.01501000
52.29999707	0.00000000	-10.41462000	-0.59670270
52.49999706	0.00000000	-3.85088600	-2.08538400
52.69999705	0.00000000	-0.03690945	-4.82283400
52.89999704	0.00000000	-0.41215550	-8.31077700
53.09999702	0.00000000	-4.92125900	-12.11860000
53.29999701	0.00000000	-11.06668000	-14.76993000
53.49999700	0.00000000	-17.29823000	-15.23130000
53.69999699	0.00000000	-22.65010000	-14.07480000
53.89999698	0.00000000	-25.30143000	-11.74951000
54.09999696	0.00000000	-24.13878000	-8.35998900
54.29999695	0.00000000	-19.62352000	-5.75172200
54.49999694	0.00000000	-13.48425000	-5.24729300
54.69999693	0.00000000	-8.08316900	-5.98548200
54.89999692	0.00000000	-4.22613100	-7.14812900
55.09999691	0.00000000	-3.11269700	-9.09817800
55.29999689	0.00000000	-5.38877900	-10.91289000
55.49999688	0.00000000	-9.99630800	-11.70029000
55.69999687	0.00000000	-15.71727000	-10.91289000
55.89999686	0.00000000	-20.69390000	-9.00590400
56.09999685	0.00000000	-23.02534000	-6.31151500
56.29999683	0.00000000	-22.69316000	-3.70939900
56.49999682	0.00000000	-19.99877000	-2.54675200
56.69999681	0.00000000	-15.76649000	-3.33415300
56.89999680	0.00000000	-11.15896000	-5.66560000
57.09999679	0.00000000	-7.29576700	-9.56569900
57.29999677	0.00000000	-5.33956700	-14.11786000
57.49999676	0.00000000	-5.33956700	-17.93184000
57.69999675	0.00000000	-7.25270600	-19.42052000
57.89999674	0.00000000	-10.69144000	-17.88263000
58.09999673	0.00000000	-14.13632000	-13.65650000
58.29999672	0.00000000	-16.92298000	-7.84940900
58.49999670	0.00000000	-18.83612000	-1.71013800
58.69999669	0.00000000	-19.58046000	3.25418300
58.89999668	0.00000000	-18.41781000	5.16117100
59.09999667	0.00000000	-15.80955000	3.62942900
59.29999666	0.00000000	-13.11516000	-1.01501000
59.49999664	0.00000000	-11.15896000	-7.93553100
59.69999663	0.00000000	-9.99630800	-15.23130000
59.89999662	0.00000000	-9.99630800	-20.99532000
60.09999661	0.00000000	-11.10974000	-23.68971000
60.29999660	0.00000000	-12.64764000	-22.53322000
60.49999658	0.00000000	-14.18553000	-17.88263000
60.69999657	0.00000000	-15.29897000	-10.58686000
60.89999656	0.00000000	-15.29897000	-2.50369100
61.09999655	0.00000000	-14.22859000	4.00467500
61.29999654	0.00000000	-13.06594000	7.48031400
61.49999653	0.00000000	-12.27239000	6.69291300
61.69999651	0.00000000	-11.48499000	2.09153500
61.89999650	0.00000000	-11.15896000	-5.20423200
62.09999649	0.00000000	-11.57726000	-13.28125000
62.29999648	0.00000000	-13.11516000	-19.88189000
62.49999647	0.00000000	-15.34203000	-24.10802000
62.69999645	0.00000000	-16.87992000	-24.85236000
62.89999644	0.00000000	-17.29823000	-21.41363000
63.09999643	0.00000000	-16.92298000	-15.27436000
63.29999642	0.00000000	-15.71727000	-7.93553100
63.49999641	0.00000000	-13.81028000	-1.01501000
63.69999639	0.00000000	-11.48499000	3.62942900
63.89999638	0.00000000	-9.57800100	5.20423200
64.09999637	0.00000000	-8.41535400	3.67249000
64.29999636	0.00000000	-8.45841400	-0.55364170
64.49999635	0.00000000	-9.99630800	-6.36072800
64.69999634	0.00000000	-12.64764000	-12.49385000
64.89999632	0.00000000	-15.29897000	-17.50738000
65.09999631	0.00000000	-16.92298000	-19.88189000
65.29999630	0.00000000	-17.72268000	-19.97416000
65.49999629	0.00000000	-18.04257000	-18.39321000
65.69999628	0.00000000	-16.83686000	-15.27436000
65.89999626	0.00000000	-14.27165000	-11.04823000
66.09999625	0.00000000	-11.95251000	-6.82209600
66.29999624	0.00000000	-10.78371000	-3.66633800
66.49999623	0.00000000	-10.37155000	-1.66707700
66.69999622	0.00000000	-11.15896000	-0.51058070
66.89999620	0.00000000	-12.69070000	-0.51058070
67.09999619	0.00000000	-14.60384000	-1.66707700
67.29999618	0.00000000	-16.46161000	-3.61712600
67.49999617	0.00000000	-16.83686000	-6.36072800
67.69999616	0.00000000	-15.71727000	-9.47342500
67.89999615	0.00000000	-13.81028000	-12.58612000
68.09999613	0.00000000	-11.44193000	-15.32357000
68.29999612	0.00000000	-9.20275500	-17.27362000
68.49999611	0.00000000	-7.67101300	-18.39321000
68.69999610	0.00000000	-8.08316900	-17.92569000
68.89999609	0.00000000	-10.03937000	-15.23130000
69.09999607	0.00000000	-13.53346000	-11.00517000
69.29999606	0.00000000	-18.13484000	-6.31151500
69.49999605	0.00000000	-21.90576000	-1.71013800
69.69999604	0.00000000	-23.85581000	1.76550200
69.89999603	0.00000000	-23.06841000	2.93430100
70.09999601	0.00000000	-19.99877000	2.14074800
70.29999600	0.00000000	-15.29897000	-1.01501000
70.49999599	0.00000000	-9.52879000	-6.36072800
70.69999598	0.00000000	-4.18307100	-12.16166000
70.89999597	0.00000000	-1.10728300	-17.18750000
71.09999596	0.00000000	-1.06422200	-20.62008000
71.29999594	0.00000000	-3.80782500	-20.99532000
71.49999593	0.00000000	-8.83366100	-18.35015000
71.69999592	0.00000000	-15.39124000	-13.74262000
71.89999591	0.00000000	-21.57972000	-8.35998900
72.09999590	0.00000000	-26.23031000	-3.75246000
72.29999588	0.00000000	-28.46333000	-0.97194880
72.49999587	0.00000000	-26.92544000	-0.22145670
72.69999586	0.00000000	-21.99803000	-1.34719500
72.89999585	0.00000000	-15.76649000	-4.40452700
73.09999584	0.00000000	-9.20275500	-7.80019600
73.29999582	0.00000000	-3.43873000	-10.53765000
73.49999581	0.00000000	-0.73203740	-12.07554000
73.69999580	0.00000000	-1.02116100	-12.11860000
73.89999579	0.00000000	-3.75861200	-11.00517000
74.09999578	0.00000000	-8.41535400	-9.51648500
74.29999577	0.00000000	-14.18553000	-8.35998900
74.49999575	0.00000000	-19.58046000	-7.98474400
74.69999574	0.00000000	-23.06841000	-8.40305000
74.89999573	0.00000000	-24.27411000	-9.93479300
75.09999572	0.00000000	-23.11762000	-12.16781000
75.29999571	0.00000000	-20.04183000	-13.65650000
75.49999569	0.00000000	-15.80955000	-13.65650000
75.69999568	0.00000000	-11.57726000	-12.11860000
75.89999567	0.00000000	-8.45841400	-9.38115100
76.09999566	0.00000000	-6.87746000	-5.89320800
76.29999565	0.00000000	-6.87746000	-2.08538400
76.49999563	0.00000000	-8.37229300	0.51673230
76.69999562	0.00000000	-10.69144000	0.55979330
76.89999561	0.00000000	-12.97982000	-1.75935000
77.09999560	0.00000000	-14.92372000	-5.66560000
77.29999559	0.00000000	-15.71727000	-11.09744000
77.49999558	0.00000000	-15.76649000	-16.81225000
77.69999556	0.00000000	-15.39124000	-20.99532000
77.89999555	0.00000000	-14.64690000	-22.15797000
78.09999554	0.00000000	-14.32087000	-19.88189000
78.29999553	0.00000000	-14.64690000	-15.28051000
78.49999552	0.00000000	-15.39124000	-9.38115100
78.69999550	0.00000000	-15.71727000	-2.91584600
78.89999549	0.00000000	-15.34203000	2.50369100
79.09999548	0.00000000	-14.18553000	4.79822800
79.29999547	0.00000000	-12.69070000	4.50295200
79.49999546	0.00000000	-11.44193000	1.31028500
79.69999544	0.00000000	-10.27313000	-3.99237200
79.89999543	0.00000000	-8.79060000	-10.16855000
80.09999542	0.00000000	-8.50147600	-15.18824000
80.29999541	0.00000000	-9.95324800	-18.35015000
80.49999540	0.00000000	-12.27239000	-19.55585000
80.69999539	0.00000000	-14.60384000	-18.76845000
80.89999537	0.00000000	-16.97219000	-16.43701000
81.09999536	0.00000000	-18.83612000	-12.58612000
81.29999535	0.00000000	-19.62352000	-8.35998900
81.49999534	0.00000000	-18.79306000	-4.82283400
81.69999533	0.00000000	-16.50467000	-2.08538400
81.89999531	0.00000000	-13.06594000	-0.55364170
82.09999530	0.00000000	-10.03937000	-0.51058070
82.29999529	0.00000000	-8.41535400	-1.66707700
82.49999528	0.00000000	-7.99704600	-3.61712600
82.69999527	0.00000000	-8.41535400	-6.36072800
82.89999525	0.00000000	-9.99630800	-9.47342500
83.09999524	0.00000000	-12.64764000	-12.58612000
83.29999523	0.00000000	-15.29897000	-15.27436000
83.49999522	0.00000000	-16.87992000	-16.85531000
83.69999521	0.00000000	-17.29823000	-17.23056000
83.89999520	0.00000000	-16.92298000	-16.43701000
84.09999518	0.00000000	-15.76649000	-14.07480000
84.29999517	0.00000000	-14.27165000	-10.58686000
84.49999516	0.00000000	-13.06594000	-6.31151500
84.69999515	0.00000000	-12.31545000	-2.12844500
84.89999514	0.00000000	-11.90330000	0.60285430
85.09999512	0.00000000	-12.31545000	1.39640700
85.29999511	0.00000000	-12.97982000	0.60285430
85.49999510	0.00000000	-13.39198000	-2.17765700
85.69999509	0.00000000	-12.97982000	-6.77903500
85.89999508	0.00000000	-12.31545000	-12.16166000
86.09999506	0.00000000	-11.90330000	-16.76919000
86.29999505	0.00000000	-12.27239000	-19.46358000
86.49999504	0.00000000	-12.64764000	-19.50664000
86.69999503	0.00000000	-13.11516000	-17.18750000
86.89999502	0.00000000	-14.22859000	-13.32431000
87.09999501	0.00000000	-15.39124000	-8.26771600
87.29999499	0.00000000	-16.18479000	-3.33415300
87.49999498	0.00000000	-16.92298000	0.14148620
87.69999497	0.00000000	-16.87992000	0.93503930
87.89999496	0.00000000	-15.71727000	-0.55364170
88.09999495	0.00000000	-13.85334000	-3.70939900
88.29999493	0.00000000	-11.90330000	-8.31077700
88.49999492	0.00000000	-10.73450000	-13.28125000
88.69999491	0.00000000	-9.95324800	-16.72613000
88.89999490	0.00000000	-9.99630800	-17.92569000
89.09999489	0.00000000	-11.15896000	-16.76919000
89.29999487	0.00000000	-13.02288000	-13.69956000
89.49999486	0.00000000	-14.97293000	-9.43036400
89.69999485	0.00000000	-16.14173000	-4.87204700
89.89999484	0.00000000	-16.92298000	-1.43946800
90.09999483	0.00000000	-16.87992000	-0.63976370
90.29999482	0.00000000	-15.76649000	-2.12844500
90.49999480	0.00000000	-14.27165000	-5.24729300
90.69999479	0.00000000	-13.06594000	-9.47342500
90.89999478	0.00000000	-12.27239000	-13.65650000
91.09999477	0.00000000	-11.53420000	-16.35089000
91.29999476	0.00000000	-11.53420000	-16.71998000
91.49999474	0.00000000	-12.22933000	-14.81299000
91.69999473	0.00000000	-12.60458000	-10.95595000
91.89999472	0.00000000	-12.69070000	-6.40378900
92.09999471	0.00000000	-13.06594000	-2.54675200
92.29999470	0.00000000	-13.81028000	-0.63976370
92.49999468	0.00000000	-14.18553000	-0.97194880
92.69999467	0.00000000	-14.22859000	-3.29109200
92.89999466	0.00000000	-14.27165000	-6.77903500
93.09999465	0.00000000	-14.64690000	-11.04823000
93.29999464	0.00000000	-15.39124000	-15.18824000
93.49999463	0.00000000	-15.76649000	-17.46432000
93.69999461	0.00000000	-15.76649000	-16.76919000
93.89999460	0.00000000	-15.34203000	-14.07480000
94.09999459	0.00000000	-14.18553000	-10.21161000
94.29999458	0.00000000	-12.64764000	-5.61638700
94.49999457	0.00000000	-11.06668000	-2.22071800
94.69999455	0.00000000	-9.52879000	-1.01501000
94.89999454	0.00000000	-8.41535400	-2.17765700
95.09999453	0.00000000	-8.45841400	-5.19808000
95.29999452	0.00000000	-9.99630800	-9.05511800
95.49999451	0.00000000	-12.69070000	-12.53691000
95.69999449	0.00000000	-15.76649000	-15.23130000
95.89999448	0.00000000	-18.50394000	-16.34473000
96.09999447	0.00000000	-20.41708000	-15.18824000
96.29999446	0.00000000	-21.16142000	-12.16166000
96.49999445	0.00000000	-19.99877000	-8.35998900
96.69999444	0.00000000	-17.29823000	-5.24729300
96.89999442	0.00000000	-13.81028000	-3.29109200
97.09999441	0.00000000	-9.95324800	-2.54675200
97.29999440	0.00000000	-6.83439900	-3.66633800
97.49999439	0.00000000	-4.92125900	-5.93626900
97.69999438	0.00000000	-4.55831700	-8.31077700
97.89999436	0.00000000	-6.50221400	-10.96211000
98.09999435	0.00000000	-9.95324800	-12.86294000
98.29999434	0.00000000	-14.22859000	-12.91215000
98.49999433	0.00000000	-18.46087000	-12.21087000
98.69999432	0.00000000	-21.53666000	-11.00517000
98.89999430	0.00000000	-22.74237000	-9.47342500
99.09999429	0.00000000	-21.95497000	-7.93553100
99.29999428	0.00000000	-19.66658000	-6.77903500
99.49999427	0.00000000	-16.18479000	-6.40378900
99.69999426	0.00000000	-12.69070000	-6.68676100
99.89999425	0.00000000	-9.52879000	-7.09891700
100.09999423	0.00000000	-6.87746000	-7.10506800
100.29999422	0.00000000	-5.71481200	-7.47416300
100.49999421	0.00000000	-6.45915300	-7.42495000
100.69999420	0.00000000	-8.37229300	-6.77903500
100.89999419	0.00000000	-11.10974000	-6.82209600
101.09999417	0.00000000	-14.18553000	-7.93553100
101.29999416	0.00000000	-16.92298000	-9.47342500
101.49999415	0.00000000	-18.83612000	-11.00517000
101.69999414	0.00000000	-19.62352000	-12.21087000
101.89999413	0.00000000	-18.87918000	-12.96137000
102.09999411	0.00000000	-17.34744000	-13.28125000
102.29999410	0.00000000	-15.39124000	-12.07554000
102.49999409	0.00000000	-13.06594000	-9.42421200
102.69999408	0.00000000	-11.10974000	-6.36072800
102.89999407	0.00000000	-9.57800100	-3.66633800
103.09999406	0.00000000	-8.79060000	-2.12844500
103.29999404	0.00000000	-9.20275500	-2.12844500
103.49999403	0.00000000	-10.32234000	-3.66633800
103.69999402	0.00000000	-12.27239000	-6.40378900
103.89999401	0.00000000	-14.18553000	-9.84867000
104.09999400	0.00000000	-15.76649000	-13.28125000
104.29999398	0.00000000	-16.92298000	-15.18824000
104.49999397	0.00000000	-17.34744000	-15.27436000
104.69999396	0.00000000	-17.29823000	-14.07480000
104.89999395	0.00000000	-16.50467000	-11.79257000
105.09999394	0.00000000	-14.64690000	-8.72908400
105.29999392	0.00000000	-13.11516000	-6.40378900
105.49999391	0.00000000	-12.27239000	-4.82283400
105.69999390	0.00000000	-11.48499000	-4.08464600
105.89999389	0.00000000	-11.20202000	-4.87204700
106.09999388	0.00000000	-11.90330000	-6.72982200
106.29999387	0.00000000	-13.39198000	-9.05511800
106.49999385	0.00000000	-14.18553000	-10.96211000
106.69999384	0.00000000	-14.60384000	-12.16166000
106.89999383	0.00000000	-14.97293000	-12.49385000
107.09999382	0.00000000	-14.56078000	-11.74951000
107.29999381	0.00000000	-13.85334000	-9.84867000
107.49999379	0.00000000	-13.06594000	-7.98474400
107.69999378	0.00000000	-12.69070000	-6.77903500
107.89999377	0.00000000	-12.64764000	-6.40378900
108.09999376	0.00000000	-12.69070000	-6.77903500
108.29999375	0.00000000	-13.11516000	-7.93553100
108.49999374	0.00000000	-14.22859000	-9.47342500
108.69999372	0.00000000	-15.39124000	-10.96211000
108.89999371	0.00000000	-16.14173000	-11.74336000
109.09999370	0.00000000	-16.50467000	-11.33120000
109.29999369	0.00000000	-15.71727000	-10.25467000
109.49999368	0.00000000	-14.22859000	-8.68602300
109.69999366	0.00000000	-12.69070000	-7.56028500
109.89999365	0.00000000	-11.53420000	-6.72982200
110.09999364	0.00000000	-11.10974000	-6.35457700
110.29999363	0.00000000	-11.10974000	-6.35457700
110.49999362	0.00000000	-11.53420000	-6.77903500
110.69999360	0.00000000	-12.69070000	-7.93553100
110.89999359	0.00000000	-14.18553000	-9.42421200
111.09999358	0.00000000	-15.34203000	-10.58686000
111.29999357	0.00000000	-15.76649000	-11.00517000
111.49999356	0.00000000	-15.76649000	-11.04823000
111.69999355	0.00000000	-15.39124000	-11.00517000
111.89999353	0.00000000	-14.60384000	-10.58686000
112.09999352	0.00000000	-13.85334000	-9.47342500
112.29999351	0.00000000	-13.06594000	-8.35998900
112.49999350	0.00000000	-12.69070000	-7.93553100
112.69999349	0.00000000	-12.64764000	-7.89247000
112.89999347	0.00000000	-12.64764000	-7.89247000
113.09999346	0.00000000	-12.69070000	-7.89247000
113.29999345	0.00000000	-13.06594000	-7.89247000
113.49999344	0.00000000	-13.81028000	-7.93553100
113.69999343	0.00000000	-14.22859000	-8.31077700
113.89999341	0.00000000	-14.60384000	-9.05511800
114.09999340	0.00000000	-14.97293000	-9.43036400
114.29999339	0.00000000	-14.60384000	-9.47342500
114.49999338	0.00000000	-14.22859000	-9.51648500
114.69999337	0.00000000	-13.85334000	-9.89173200
114.89999336	0.00000000	-13.44119000	-10.62992000
115.09999334	0.00000000	-13.43504000	-11.00517000
115.29999333	0.00000000	-13.02288000	-11.00517000
115.49999332	0.00000000	-12.69070000	-10.62992000
115.69999331	0.00000000	-12.69070000	-9.84867000
115.89999330	0.00000000	-13.06594000	-9.09817800
116.09999328	0.00000000	-13.81028000	-8.26771600
116.29999327	0.00000000	-14.18553000	-7.51722400
116.49999326	0.00000000	-14.27165000	-6.72982200
116.69999325	0.00000000	-14.60384000	-6.40378900
116.89999324	0.00000000	-14.97293000	-6.72982200
117.09999322	0.00000000	-14.56078000	-7.51722400
117.29999321	0.00000000	-13.85334000	-8.26771600
117.49999320	0.00000000	-13.06594000	-9.09817800
117.69999319	0.00000000	-12.64764000	-9.84867000
117.89999318	0.00000000	-12.22933000	-10.62992000
118.09999317	0.00000000	-11.53420000	-10.95595000
118.29999315	0.00000000	-11.53420000	-10.62992000
118.49999314	0.00000000	-12.27239000	-9.84867000
118.69999313	0.00000000	-13.06594000	-9.09817800
118.89999312	0.00000000	-14.22859000	-8.31077700
119.09999311	0.00000000	-15.39124000	-7.93553100
119.29999309	0.00000000	-16.14173000	-7.84940900
119.49999308	0.00000000	-16.55389000	-7.51722400
119.69999307	0.00000000	-16.14173000	-7.14812900
119.89999306	0.00000000	-15.39124000	-7.51722400
120.09999305	0.00000000	-14.18553000	-7.84940900
120.29999303	0.00000000	-12.69070000	-7.93553100
120.49999302	0.00000000	-11.53420000	-8.31077700
120.69999301	0.00000000	-11.10974000	-9.05511800
120.89999300	0.00000000	-11.10974000	-9.43036400
121.09999299	0.00000000	-11.53420000	-9.47342500
121.29999298	0.00000000	-12.64764000	-9.47342500
121.49999296	0.00000000	-13.81028000	-9.47342500
121.69999295	0.00000000	-14.60384000	-9.47342500
121.89999294	0.00000000	-15.39124000	-9.47342500
122.09999293	0.00000000	-15.76649000	-9.43036400
122.29999292	0.00000000	-15.76649000	-9.05511800
122.49999290	0.00000000	-15.39124000	-8.31077700
122.69999289	0.00000000	-14.60384000	-7.93553100
122.89999288	0.00000000	-13.85334000	-7.89247000
123.09999287	0.00000000	-13.06594000	-7.89247000
123.29999286	0.00000000	-12.64764000	-7.89247000
123.49999284	0.00000000	-12.22933000	-7.93553100
123.69999283	0.00000000	-11.53420000	-8.31077700
123.89999282	0.00000000	-11.57726000	-9.09817800
124.09999281	0.00000000	-12.64764000	-9.79945900
124.29999280	0.00000000	-13.76107000	-10.21161000
124.49999279	0.00000000	-14.18553000	-9.89173200
124.69999277	0.00000000	-14.27165000	-9.89173200
124.89999276	0.00000000	-14.64690000	-10.21161000
125.09999275	0.00000000	-15.39124000	-9.79945900
125.29999274	0.00000000	-15.76649000	-9.09817800
125.49999273	0.00000000	-15.76649000	-8.31077700
125.69999271	0.00000000	-15.39124000	-7.93553100
125.89999270	0.00000000	-14.60384000	-7.89247000
126.09999269	0.00000000	-13.85334000	-7.89247000
126.29999268	0.00000000	-13.02288000	-7.89247000
126.49999267	0.00000000	-12.31545000	-7.89247000
126.69999265	0.00000000	-11.90330000	-7.93553100
126.89999264	0.00000000	-12.27239000	-8.31077700
127.09999263	0.00000000	-12.64764000	-9.05511800
127.29999262	0.00000000	-13.11516000	-9.43036400
127.49999261	0.00000000	-14.22859000	-9.47342500
127.69999260	0.00000000	-15.34203000	-9.47342500
127.89999258	0.00000000	-15.76649000	-9.43036400
128.09999257	0.00000000	-15.76649000	-9.05511800
128.29999256	0.00000000	-15.34203000	-8.31077700
128.49999255	0.00000000	-14.22859000	-7.93553100
128.69999254	0.00000000	-13.06594000	-7.89247000
128.89999252	0.00000000	-12.27239000	-7.93553100
129.09999251	0.00000000	-11.48499000	-8.31077700
129.29999250	0.00000000	-11.15896000	-9.05511800
129.49999249	0.00000000	-11.53420000	-9.43036400
129.69999248	0.00000000	-12.69070000	-9.47342500
129.89999246	0.00000000	-14.18553000	-9.47342500
130.09999245	0.00000000	-15.34203000	-9.47342500
130.29999244	0.00000000	-15.76649000	-9.47342500
130.49999243	0.00000000	-15.76649000	-9.43036400
130.69999242	0.00000000	-15.34203000	-9.05511800
130.89999241	0.00000000	-14.22859000	-8.31077700
131.09999239	0.00000000	-13.06594000	-7.93553100
131.29999238	0.00000000	-12.27239000	-7.93553100
131.49999237	0.00000000	-11.53420000	-8.31077700
131.69999236	0.00000000	-11.53420000	-9.05511800
131.89999235	0.00000000	-12.27239000	-9.47342500
132.09999233	0.00000000	-13.02288000	-9.89173200
132.29999232	0.00000000	-13.81028000	-10.58686000
132.49999231	0.00000000	-14.22859000	-10.58686000
132.69999230	0.00000000	-14.60384000	-9.89173200
132.89999229	0.00000000	-14.97293000	-9.47342500
133.09999227	0.00000000	-14.60384000	-9.05511800
133.29999226	0.00000000	-14.22859000	-8.26771600
133.49999225	0.00000000	-13.81028000	-7.56028500
133.69999224	0.00000000	-13.06594000	-7.14812900
133.89999223	0.00000000	-12.73991000	-7.51722400
134.09999222	0.00000000	-13.06594000	-7.89247000
134.29999220	0.00000000	-13.81028000	-8.31077700
134.49999219	0.00000000	-14.18553000	-9.09817800
134.69999218	0.00000000	-14.22859000	-9.84867000
134.89999217	0.00000000	-14.22859000	-10.62992000
135.09999216	0.00000000	-14.18553000	-10.95595000
135.29999214	0.00000000	-13.85334000	-10.62992000
135.49999213	0.00000000	-13.44119000	-9.89173200
135.69999212	0.00000000	-13.47810000	-9.47342500
135.89999211	0.00000000	-13.44119000	-9.05511800
136.09999210	0.00000000	-13.85334000	-8.31077700
136.29999208	0.00000000	-14.18553000	-7.93553100
136.49999207	0.00000000	-14.27165000	-7.89247000
136.69999206	0.00000000	-14.60384000	-7.89247000
136.89999205	0.00000000	-14.97293000	-7.93553100
137.09999204	0.00000000	-14.60384000	-8.31077700
137.29999203	0.00000000	-14.22859000	-9.05511800
137.49999201	0.00000000	-13.81028000	-9.43036400
137.69999200	0.00000000	-13.06594000	-9.47342500
137.89999199	0.00000000	-12.69070000	-9.47342500
138.09999198	0.00000000	-12.64764000	-9.47342500
138.29999197	0.00000000	-12.69070000	-9.47342500
138.49999195	0.00000000	-13.06594000	-9.47342500
138.69999194	0.00000000	-13.81028000	-9.47342500
138.89999193	0.00000000	-14.22859000	-9.43036400
139.09999192	0.00000000	-14.64690000	-9.09817800
139.29999191	0.00000000	-15.34203000	-8.68602300
139.49999189	0.00000000	-15.34203000	-8.63681000
139.69999188	0.00000000	-14.60384000	-7.89247000
139.89999187	0.00000000	-13.85334000	-7.19734200
140.09999186	0.00000000	-13.06594000	-7.51722400
140.29999185	0.00000000	-12.69070000	-7.89247000
140.49999184	0.00000000	-12.64764000	-8.31077700
140.69999182	0.00000000	-12.64764000	-9.09817800
140.89999181	0.00000000	-12.69070000	-9.84867000
141.09999180	0.00000000	-13.06594000	-10.62992000
141.29999179	0.00000000	-13.85334000	-10.95595000
141.49999178	0.00000000	-14.56078000	-10.62992000
141.69999176	0.00000000	-14.97293000	-9.84867000
141.89999175	0.00000000	-14.60384000	-9.05511800
142.09999174	0.00000000	-14.22859000	-7.89247000
142.29999173	0.00000000	-13.81028000	-6.77903500
142.49999172	0.00000000	-13.06594000	-6.35457700
142.69999170	0.00000000	-12.69070000	-6.35457700
142.89999169	0.00000000	-12.69070000	-6.77903500
143.09999168	0.00000000	-13.06594000	-7.89247000
143.29999167	0.00000000	-13.81028000	-9.05511800
143.49999166	0.00000000	-14.18553000	-9.84867000
143.69999165	0.00000000	-14.22859000	-10.62992000
143.89999163	0.00000000	-14.22859000	-10.95595000
144.09999162	0.00000000	-14.22859000	-10.62992000
144.29999161	0.00000000	-14.22859000	-9.84867000
144.49999160	0.00000000	-14.18553000	-9.09817800
144.69999159	0.00000000	-13.81028000	-8.31077700
144.89999157	0.00000000	-13.06594000	-7.93553100
145.09999156	0.00000000	-12.69070000	-7.89247000
145.29999155	0.00000000	-12.69070000	-7.89247000
145.49999154	0.00000000	-13.06594000	-7.93553100
145.69999153	0.00000000	-13.85334000	-8.31077700
145.89999151	0.00000000	-14.56078000	-9.05511800
146.09999150	0.00000000	-14.97293000	-9.43036400
146.29999149	0.00000000	-14.60384000	-9.47342500
146.49999148	0.00000000	-14.22859000	-9.47342500
146.69999147	0.00000000	-13.81028000	-9.47342500
146.89999146	0.00000000	-13.06594000	-9.47342500
147.09999144	0.00000000	-12.69070000	-9.47342500
147.29999143	0.00000000	-12.64764000	-9.43036400
147.49999142	0.00000000	-12.69070000	-9.05511800
147.69999141	0.00000000	-13.06594000	-8.31077700
147.89999140	0.00000000	-13.81028000	-7.93553100
148.09999138	0.00000000	-14.18553000	-7.89247000
148.29999137	0.00000000	-14.22859000	-7.89247000
148.49999136	0.00000000	-14.22859000	-7.93553100
148.69999135	0.00000000	-14.22859000	-8.31077700
148.89999134	0.00000000	-14.22859000	-9.05511800
149.09999132	0.00000000	-14.18553000	-9.43036400
149.29999131	0.00000000	-13.81028000	-9.47342500
149.49999130	0.00000000	-13.06594000	-9.47342500
149.69999129	0.00000000	-12.69070000	-9.47342500
149.89999128	0.00000000	-12.64764000	-9.47342500
150.09999127	0.00000000	-12.64764000	-9.43036400
150.29999125	0.00000000	-12.69070000	-9.05511800
150.49999124	0.00000000	-13.06594000	-8.31077700
150.69999123	0.00000000	-13.81028000	-7.93553100
150.89999122	0.00000000	-14.18553000	-7.89247000
151.09999121	0.00000000	-14.22859000	-7.89247000
151.29999119	0.00000000	-14.22859000	-7.89247000
151.49999118	0.00000000	-14.22859000	-7.89247000
151.69999117	0.00000000	-14.22859000	-7.93553100
151.89999116	0.00000000	-14.22859000	-8.31077700
152.09999115	0.00000000	-14.18553000	-9.05511800
152.29999113	0.00000000	-13.85334000	-9.43036400
152.49999112	0.00000000	-13.44119000	-9.47342500
152.69999111	0.00000000	-13.43504000	-9.47342500
152.89999110	0.00000000	-13.02288000	-9.47342500
153.09999109	0.00000000	-12.73991000	-9.43036400
153.29999108	0.00000000	-13.06594000	-9.05511800
153.49999106	0.00000000	-13.81028000	-8.31077700
153.69999105	0.00000000	-14.18553000	-7.93553100
153.89999104	0.00000000	-14.22859000	-7.89247000
154.09999103	0.00000000	-14.27165000	-7.84940900
154.29999102	0.00000000	-14.60384000	-7.51722400
154.49999100	0.00000000	-14.97293000	-7.19734200
154.69999099	0.00000000	-14.60384000	-7.93553100
154.89999098	0.00000000	-14.27165000	-9.00590400
155.09999097	0.00000000	-14.18553000	-9.43036400
155.29999096	0.00000000	-13.81028000	-9.47342500
155.49999094	0.00000000	-13.06594000	-9.47342500
155.69999093	0.00000000	-12.69070000	-9.47342500
155.89999092	0.00000000	-12.64764000	-9.47342500
156.09999091	0.00000000	-12.69070000	-9.47342500
156.29999090	0.00000000	-13.06594000	-9.47342500
156.49999089	0.00000000	-13.81028000	-9.43036400
156.69999087	0.00000000	-14.22859000	-9.05511800
156.89999086	0.00000000	-14.60384000	-8.31077700
157.09999085	0.00000000	-14.97293000	-7.93553100
157.29999084	0.00000000	-14.60384000	-7.89247000
157.49999083	0.00000000	-14.27165000	-7.89247000
157.69999081	0.00000000	-14.22859000	-7.93553100
157.89999080	0.00000000	-14.22859000	-8.31077700
158.09999079	0.00000000	-14.22859000	-9.05511800
158.29999078	0.00000000	-14.18553000	-9.43036400
158.49999077	0.00000000	-13.81028000	-9.47342500
158.69999075	0.00000000	-13.06594000	-9.47342500
158.89999074	0.00000000	-12.73991000	-9.47342500
159.09999073	0.00000000	-13.06594000	-9.47342500
159.29999072	0.00000000	-13.81028000	-9.43036400
159.49999071	0.00000000	-14.18553000	-9.05511800
159.69999070	0.00000000	-14.22859000	-8.31077700
159.89999068	0.00000000	-14.22859000	-7.93553100
160.09999067	0.00000000	-14.27165000	-7.93553100
160.29999066	0.00000000	-14.60384000	-8.26771600
160.49999065	0.00000000	-14.97293000	-8.63681000
160.69999064	0.00000000	-14.60384000	-8.31077700
160.89999062	0.00000000	-14.27165000	-8.35998900
161.09999061	0.00000000	-14.22859000	-9.05511800
161.29999060	0.00000000	-14.22859000	-9.43036400
161.49999059	0.00000000	-14.22859000	-9.47342500
161.69999058	0.00000000	-14.22859000	-9.47342500
161.89999056	0.00000000	-14.22859000	-9.47342500
162.09999055	0.00000000	-14.22859000	-9.47342500
162.29999054	0.00000000	-14.22859000	-9.43036400
162.49999053	0.00000000	-14.22859000	-9.09817800
162.69999052	0.00000000	-14.22859000	-8.68602300
162.89999051	0.00000000	-14.22859000	-8.67987200
163.09999049	0.00000000	-14.22859000	-8.31077700
163.29999048	0.00000000	-14.22859000	-8.35998900
163.49999047	0.00000000	-14.22859000	-9.05511800
163.69999046	0.00000000	-14.22859000	-9.43036400
163.89999045	0.00000000	-14.27165000	-9.47342500
164.09999043	0.00000000	-14.60384000	-9.47342500
164.29999042	0.00000000	-14.97293000	-9.47342500
164.49999041	0.00000000	-14.60384000	-9.47342500
164.69999040	0.00000000	-14.27165000	-9.47342500
164.89999039	0.00000000	-14.18553000	-9.47342500
165.09999037	0.00000000	-13.81028000	-9.47342500
165.29999036	0.00000000	-13.11516000	-9.47342500
165.49999035	0.00000000	-13.11516000	-9.47342500
165.69999034	0.00000000	-13.81028000	-9.43036400
165.89999033	0.00000000	-14.18553000	-9.09817800
166.09999032	0.00000000	-14.22859000	-8.68602300
166.29999030	0.00000000	-14.22859000	-8.72293300
166.49999029	0.00000000	-14.22859000	-8.64296200
166.69999028	0.00000000	-14.22859000	-8.72293300
166.89999027	0.00000000	-14.22859000	-8.68602300
167.09999026	0.00000000	-14.22859000	-9.09817800
167.29999024	0.00000000	-14.22859000	-9.43036400
167.49999023	0.00000000	-14.22859000	-9.47342500
167.69999022	0.00000000	-14.18553000	-9.47342500
167.89999021	0.00000000	-13.85334000	-9.47342500
168.09999020	0.00000000	-13.44119000	-9.47342500
168.29999018	0.00000000	-13.47810000	-9.47342500
168.49999017	0.00000000	-13.39813000	-9.43036400
168.69999016	0.00000000	-13.47810000	-9.09817800
168.89999015	0.00000000	-13.44119000	-8.72908400
169.09999014	0.00000000	-13.85334000	-9.09817800
169.29999013	0.00000000	-14.18553000	-9.43036400
169.49999011	0.00000000	-14.22859000	-9.47342500
169.69999010	0.00000000	-14.22859000	-9.43036400
169.89999009	0.00000000	-14.22859000	-9.09817800
170.09999008	0.00000000	-14.22859000	-8.72908400
170.29999007	0.00000000	-14.22859000	-9.09817800
170.49999005	0.00000000	-14.22859000	-9.43036400
170.69999004	0.00000000	-14.22859000	-9.47342500
170.89999003	0.00000000	-14.18553000	-9.47342500
171.09999002	0.00000000	-13.85334000	-9.47342500
171.29999001	0.00000000	-13.44119000	-9.47342500
171.49998999	0.00000000	-13.47810000	-9.47342500
171.69998998	0.00000000	-13.44119000	-9.47342500
171.89998997	0.00000000	-13.85334000	-9.47342500
172.09998996	0.00000000	-14.18553000	-9.47342500
172.29998995	0.00000000	-14.22859000	-9.47342500
172.49998994	0.00000000	-14.22859000	-9.47342500
172.69998992	0.00000000	-14.22859000	-9.47342500
172.89998991	0.00000000	-14.22859000	-9.43036400
173.09998990	0.00000000	-14.22859000	-9.05511800
173.29998989	0.00000000	-14.22859000	-8.31077700
173.49998988	0.00000000	-14.22859000	-7.93553100
173.69998986	0.00000000	-14.22859000	-7.89247000
173.89998985	0.00000000	-14.22859000	-7.93553100
174.09998984	0.00000000	-14.22859000	-8.31077700
174.29998983	0.00000000	-14.22859000	-9.05511800
174.49998982	0.00000000	-14.22859000	-9.43036400
174.69998980	0.00000000	-14.22859000	-9.47342500
174.89998979	0.00000000	-14.22859000	-9.47342500
175.09998978	0.00000000	-14.22859000	-9.43036400
175.29998977	0.00000000	-14.22859000	-9.09817800
175.49998976	0.00000000	-14.27165000	-8.72908400
175.69998975	0.00000000	-14.60384000	-9.09817800
175.89998973	0.00000000	-14.97293000	-9.43036400
176.09998972	0.00000000	-14.60384000	-9.47342500
176.29998971	0.00000000	-14.27165000	-9.47342500
176.49998970	0.00000000	-14.22859000	-9.47342500
176.69998969	0.00000000	-14.22859000	-9.47342500
176.89998967	0.00000000	-14.22859000	-9.47342500
177.09998966	0.00000000	-14.22859000	-9.47342500
177.29998965	0.00000000	-14.22859000	-9.47342500
177.49998964	0.00000000	-14.22859000	-9.47342500
177.69998963	0.00000000	-14.27165000	-9.47342500
177.89998961	0.00000000	-14.60384000	-9.47342500
178.09998960	0.00000000	-14.97293000	-9.47342500
178.29998959	0.00000000	-14.60384000	-9.47342500
178.49998958	0.00000000	-14.22859000	-9.47342500
178.69998957	0.00000000	-13.85334000	-9.47342500
178.89998956	0.00000000	-13.48425000	-9.47342500
179.09998954	0.00000000	-13.85334000	-9.47342500
179.29998953	0.00000000	-14.18553000	-9.47342500
179.49998952	0.00000000	-14.22859000	-9.47342500
179.69998951	0.00000000	-14.22859000	-9.47342500
179.89998950	0.00000000	-14.27165000	-9.47342500
180.09998948	0.00000000	-14.60384000	-9.47342500
180.29998947	0.00000000	-14.97293000	-9.47342500
180.49998946	0.00000000	-14.60384000	-9.47342500
180.69998945	0.00000000	-14.27165000	-9.47342500
180.89998944	0.00000000	-14.22859000	-9.47342500
181.09998942	0.00000000	-14.18553000	-9.43036400
181.29998941	0.00000000	-13.85334000	-9.09817800
181.49998940	0.00000000	-13.48425000	-8.68602300
181.69998939	0.00000000	-13.85334000	-8.67987200
181.89998938	0.00000000	-14.18553000	-8.26771600
182.09998937	0.00000000	-14.22859000	-7.98474400
182.29998935	0.00000000	-14.22859000	-8.26771600
182.49998934	0.00000000	-14.18553000	-8.67987200
182.69998933	0.00000000	-13.85334000	-8.68602300
182.89998932	0.00000000	-13.48425000	-9.09817800
183.09998931	0.00000000	-13.85334000	-9.43036400
183.29998929	0.00000000	-14.18553000	-9.47342500
183.49998928	0.00000000	-14.22859000	-9.47342500
183.69998927	0.00000000	-14.22859000	-9.47342500
183.89998926	0.00000000	-14.22859000	-9.47342500
184.09998925	0.00000000	-14.22859000	-9.47342500
184.29998923	0.00000000	-14.22859000	-9.43036400
184.49998922	0.00000000	-14.22859000	-9.05511800
184.69998921	0.00000000	-14.22859000	-8.31077700
184.89998920	0.00000000	-14.22859000	-7.93553100
185.09998919	0.00000000	-14.22859000	-7.89247000
185.29998918	0.00000000	-14.22859000	-7.93553100
185.49998916	0.00000000	-14.18553000	-8.31077700
185.69998915	0.00000000	-13.85334000	-9.05511800
185.89998914	0.00000000	-13.48425000	-9.43036400
186.09998913	0.00000000	-13.85334000	-9.47342500
186.29998912	0.00000000	-14.18553000	-9.47342500
186.49998910	0.00000000	-14.22859000	-9.47342500
186.69998909	0.00000000	-14.22859000	-9.47342500
186.89998908	0.00000000	-14.22859000	-9.47342500
187.09998907	0.00000000	-14.22859000	-9.43036400
187.29998906	0.00000000	-14.22859000	-9.05511800
187.49998904	0.00000000	-14.22859000	-8.35998900
187.69998903	0.00000000	-14.22859000	-8.31077700
187.89998902	0.00000000	-14.22859000	-8.63681000
188.09998901	0.00000000	-14.22859000	-8.26771600
188.29998900	0.00000000	-14.22859000	-7.98474400
188.49998899	0.00000000	-14.18553000	-8.31077700
188.69998897	0.00000000	-13.81028000	-9.05511800
188.89998896	0.00000000	-13.06594000	-9.43036400
189.09998895	0.00000000	-12.73991000	-9.47342500
189.29998894	0.00000000	-13.06594000	-9.47342500
189.49998893	0.00000000	-13.81028000	-9.47342500
189.69998891	0.00000000	-14.18553000	-9.47342500
189.89998890	0.00000000	-14.22859000	-9.47342500
190.09998889	0.00000000	-14.22859000	-9.47342500
190.29998888	0.00000000	-14.22859000	-9.43036400
190.49998887	0.00000000	-14.22859000	-9.05511800
190.69998885	0.00000000	-14.22859000	-8.35998900
190.89998884	0.00000000	-14.22859000	-8.31077700
191.09998883	0.00000000	-14.22859000	-8.63681000
191.29998882	0.00000000	-14.22859000	-8.31077700
191.49998881	0.00000000	-14.18553000	-8.35998900
191.69998880	0.00000000	-13.85334000	-9.05511800
191.89998878	0.00000000	-13.48425000	-9.43036400
192.09998877	0.00000000	-13.85334000	-9.47342500
192.29998876	0.00000000	-14.18553000	-9.47342500
192.49998875	0.00000000	-14.22859000	-9.47342500
192.69998874	0.00000000	-14.22859000	-9.47342500
192.89998872	0.00000000	-14.22859000	-9.47342500
193.09998871	0.00000000	-14.22859000	-9.47342500
193.29998870	0.00000000	-14.22859000	-9.47342500
193.49998869	0.00000000	-14.22859000	-9.47342500
193.69998868	0.00000000	-14.22859000	-9.43036400
193.89998866	0.00000000	-14.22859000	-9.05511800
194.09998865	0.00000000	-14.22859000	-8.31077700
194.29998864	0.00000000	-14.22859000	-7.98474400
194.49998863	0.00000000	-14.22859000	-8.26771600
194.69998862	0.00000000	-14.18553000	-8.63681000
194.89998861	0.00000000	-13.85334000	-8.31077700
195.09998859	0.00000000	-13.48425000	-8.35998900
195.29998858	0.00000000	-13.85334000	-9.05511800
195.49998857	0.00000000	-14.18553000	-9.43036400
195.69998856	0.00000000	-14.22859000	-9.47342500
195.89998855	0.00000000	-14.22859000	-9.47342500
196.09998853	0.00000000	-14.22859000	-9.47342500
