Time	Channel A	Channel B	Channel C
(us)	(V)	(mV)	(mV)

-4.49999956	0.00000000	35.62377000	11.88484000
-4.29999957	0.00000000	35.99286000	12.25394000
-4.09999958	0.00000000	36.32505000	12.58612000
-3.89999959	0.00000000	36.36811000	12.62918000
-3.69999960	0.00000000	36.32505000	12.62918000
-3.49999962	0.00000000	35.99286000	12.62918000
-3.29999963	0.00000000	35.58071000	12.62918000
-3.09999964	0.00000000	35.61762000	12.62918000
-2.89999965	0.00000000	35.58071000	12.62918000
-2.69999966	0.00000000	35.99286000	12.62918000
-2.49999968	0.00000000	36.32505000	12.62918000
-2.29999969	0.00000000	36.36811000	12.62918000
-2.09999970	0.00000000	36.36811000	12.62918000
-1.89999971	0.00000000	36.36811000	12.62918000
-1.69999972	0.00000000	36.36811000	12.62918000
-1.49999973	0.00000000	36.36811000	12.62918000
-1.29999975	0.00000000	36.36811000	12.62918000
-1.09999976	0.00000000	36.36811000	12.62918000
-0.89999977	0.00000000	36.36811000	12.62918000
-0.69999978	0.00000000	36.36811000	12.62918000
-0.49999979	0.00000000	36.36811000	12.62918000
-0.29999981	0.31803640	36.36811000	12.62918000
-0.09999982	0.63668800	36.36811000	12.62918000
0.10000017	0.95533960	36.36811000	12.62918000
0.30000016	0.95533960	36.36811000	12.62918000
0.50000015	0.79601380	36.36811000	12.62918000
0.70000013	0.15871060	36.36811000	12.62918000
0.90000012	-0.63668800	36.36811000	12.62918000
1.10000011	-1.59264300	36.36811000	12.62918000
1.30000010	-2.54859700	36.36811000	12.67224000
1.50000009	-2.86724900	36.36811000	12.96137000
1.70000008	-2.38927200	36.36811000	12.99828000
1.90000006	-0.95533960	36.36811000	12.30930000
2.10000005	0.79601380	36.36811000	12.67224000
2.30000004	3.02657500	36.36811000	13.32431000
2.50000003	4.61921700	36.36811000	13.00443000
2.70000002	5.41584600	36.32505000	12.62918000
2.90000000	4.61921700	35.94980000	12.25394000
3.09999999	2.54859700	35.20546000	11.88484000
3.29999998	-0.63668800	34.87943000	12.25394000
3.49999997	-3.98191400	35.20546000	12.58612000
3.69999996	-6.84916400	35.94980000	12.62918000
3.89999994	-7.96444400	36.32505000	12.62918000
4.09999993	-7.16781500	36.36811000	12.62918000
4.29999992	-4.45989200	36.36811000	12.67224000
4.49999991	-0.47736220	36.32505000	13.00443000
4.69999990	3.98191400	35.94980000	13.37352000
4.89999989	7.64579200	35.20546000	12.96137000
5.09999987	9.39837600	34.83022000	12.29700000
5.29999986	8.92039900	34.78716000	11.84178000
5.49999985	6.05315000	34.78716000	11.87869000
5.69999984	1.59264300	34.83022000	11.84178000
5.89999983	-3.18590100	35.16240000	12.25394000
6.09999981	-7.16781500	35.57455000	12.58612000
6.29999980	-9.23905000	35.53765000	12.62918000
6.49999979	-9.07972400	35.61762000	12.67224000
6.69999978	-6.69045300	35.58071000	13.00443000
6.89999977	-2.70792300	35.99286000	13.37352000
7.09999975	1.59264300	36.32505000	13.00443000
7.29999974	5.25652100	36.32505000	12.67224000
7.49999973	7.48646600	35.99286000	12.62918000
7.69999972	7.64579200	35.58071000	12.62918000
7.89999971	5.89382400	35.57455000	12.62918000
8.09999970	2.86724900	35.20546000	12.62918000
8.29999968	-0.31803640	35.20546000	12.62918000
8.49999967	-3.18590100	35.57455000	12.62918000
8.69999966	-4.93786900	35.58071000	12.62918000
8.89999965	-5.09719500	35.94980000	12.62918000
9.09999964	-4.14124000	35.90059000	12.62918000
9.29999962	-2.38927200	35.25467000	12.62918000
9.49999961	-0.31803640	35.25467000	12.62918000
9.69999960	1.27399100	35.94980000	12.62918000
9.89999959	2.22994600	36.27584000	12.62918000
10.09999958	2.54859700	35.94980000	12.62918000
10.29999956	2.07062000	35.20546000	12.62918000
10.49999955	1.27399100	34.87943000	12.62918000
10.69999954	0.47736220	35.20546000	12.62918000
10.89999953	-0.31803640	35.94980000	12.62918000
11.09999952	-0.79601380	36.27584000	12.62918000
11.29999951	-0.95533960	35.94980000	12.62918000
11.49999949	-0.95533960	35.20546000	12.62918000
11.69999948	-0.63668800	34.87943000	12.62918000
11.89999947	-0.31803640	35.20546000	12.62918000
12.09999946	-0.15871060	35.94980000	12.62918000
12.29999945	-0.15871060	36.27584000	12.62918000
12.49999943	0.00000000	35.94980000	12.62918000
12.69999942	0.00000000	35.25467000	12.62918000
12.89999941	0.00000000	35.25467000	12.62918000
13.09999940	0.00000000	35.94980000	12.62918000
13.29999939	0.00000000	36.27584000	12.62918000
13.49999937	0.00000000	35.99286000	12.62918000
13.69999936	0.00000000	35.58071000	12.62918000
13.89999935	0.00000000	35.57455000	12.62918000
14.09999934	-0.15871060	35.20546000	12.62918000
14.29999933	-0.15871060	35.25467000	12.62918000
14.49999932	-0.15871060	35.90059000	12.62918000
14.69999930	0.00000000	35.90059000	12.62918000
14.89999929	0.00000000	35.20546000	12.62918000
15.09999928	0.00000000	34.87943000	12.62918000
15.29999927	0.00000000	35.16240000	12.62918000
15.49999926	0.00000000	35.53149000	12.58612000
15.69999924	0.00000000	35.16240000	12.25394000
15.89999923	0.00000000	34.83022000	11.88484000
16.09999922	0.00000000	34.78716000	12.21087000
16.29999921	0.00000000	34.78716000	12.21087000
16.49999920	-0.15871060	34.83022000	11.88484000
16.69999919	-0.15871060	35.20546000	12.25394000
16.89999917	0.00000000	35.94980000	12.53691000
17.09999916	0.00000000	36.32505000	12.21087000
17.29999915	0.00000000	36.41117000	11.51575000
17.49999914	0.00000000	36.74335000	11.51575000
17.69999913	0.00000000	37.11245000	12.21087000
17.89999911	0.00000000	36.70029000	12.58612000
18.09999910	0.00000000	35.94980000	12.62918000
18.29999909	0.00000000	34.73794000	12.62918000
18.49999908	0.00000000	33.20005000	12.58612000
18.69999907	-0.15871060	31.66215000	12.25394000
18.89999905	0.00000000	30.54872000	11.88484000
19.09999904	0.00000000	30.54872000	12.25394000
19.29999903	0.00000000	31.75443000	12.58612000
19.49999902	0.00000000	34.12894000	12.62918000
19.69999901	0.00000000	37.94907000	12.58612000
19.89999900	0.00000000	41.80610000	12.25394000
20.09999898	0.00000000	44.55585000	11.88484000
20.29999897	0.00000000	46.41363000	12.25394000
20.49999896	0.00000000	45.90305000	12.53691000
20.69999895	0.00000000	42.04601000	12.25394000
20.89999894	0.00000000	35.85752000	11.88484000
21.09999892	0.00000000	28.45718000	12.25394000
21.29999891	0.00000000	21.14911000	12.58612000
21.49999890	0.00000000	15.80339000	12.58612000
21.69999889	0.00000000	14.35777000	12.25394000
21.89999888	0.00000000	17.84572000	11.88484000
22.09999886	0.00000000	26.03346000	12.25394000
22.29999885	0.00000000	37.24778000	12.58612000
22.49999884	0.00000000	49.66781000	12.62918000
22.69999883	0.00000000	60.42076000	12.62918000
22.89999882	0.00000000	66.89222000	12.62918000
23.09999881	0.00000000	66.38164000	12.67224000
23.29999879	0.00000000	57.86786000	13.04749000
23.49999878	0.00000000	43.20866000	13.83489000
23.69999877	0.00000000	25.76279000	14.53617000
23.89999876	0.00000000	9.14739100	14.94833000
24.09999875	0.00000000	-3.13115100	14.53617000
24.29999873	0.00000000	-7.27731300	13.79183000
24.49999872	0.00000000	-1.41486200	12.58612000
24.69999871	0.00000000	13.66265000	11.04823000
24.89999870	0.00000000	34.92249000	9.47342500
25.09999869	0.00000000	57.25885000	7.93553100
25.29999867	0.00000000	75.44906000	6.82209600
25.49999866	0.00000000	85.03937000	6.82209600
25.69999865	0.00000000	83.82751000	8.02780400
25.89999864	0.00000000	71.03223000	10.40231000
26.09999863	0.00000000	49.44020000	14.25320000
26.29999862	0.00000000	24.36024000	18.47933000
26.49999860	0.00000000	1.51943900	21.96727000
26.69999859	0.00000000	-13.88410000	24.24335000
26.89999858	0.00000000	-18.52854000	24.15723000
27.09999857	0.00000000	-10.76525000	21.03838000
27.29999856	0.00000000	7.33882900	15.23130000
27.49999854	0.00000000	31.66830000	7.84940900
27.69999853	0.00000000	56.37303000	0.17839570
27.89999852	0.00000000	75.73203000	-5.94857300
28.09999851	0.00000000	85.82677000	-8.23080600
28.29999850	0.00000000	84.66412000	-6.27460600
28.49999848	0.00000000	72.70546000	-0.00615157
28.69999847	0.00000000	52.65133000	10.07013000
28.89999846	0.00000000	29.52141000	22.01649000
29.09999845	0.00000000	8.96284400	33.16314000
29.29999844	0.00000000	-4.99507900	40.45890000
29.49999843	0.00000000	-10.06398000	41.99680000
29.69999841	0.00000000	-5.08735200	37.26009000
29.89999840	0.00000000	7.98474400	26.38410000
30.09999839	0.00000000	25.76279000	10.96211000
30.29999838	0.00000000	44.37131000	-5.21038300
30.49999837	0.00000000	59.91018000	-18.31324000
30.69999835	0.00000000	69.96185000	-25.27682000
30.89999834	0.00000000	72.28716000	-24.44636000
31.09999833	0.00000000	66.19094000	-15.88952000
31.29999832	0.00000000	54.27534000	-0.46751960
31.49999831	0.00000000	39.53002000	18.01796000
31.69999829	0.00000000	24.77854000	35.07013000
31.89999828	0.00000000	12.81988000	47.84694000
32.09999827	0.00000000	6.21924200	53.56791000
32.29999826	0.00000000	6.53912400	50.49828000
32.49999825	0.00000000	12.68455000	39.30241000
32.69999824	0.00000000	23.15453000	22.66855000
32.89999822	0.00000000	35.85752000	3.75861200
33.09999821	0.00000000	47.44094000	-13.24434000
33.29999820	0.00000000	55.21038000	-24.44636000
33.49999819	0.00000000	57.95398000	-27.97121000
33.69999818	0.00000000	55.25959000	-22.91462000
33.89999816	0.00000000	47.99458000	-10.59301000
34.09999815	0.00000000	38.36737000	6.40378900
34.29999814	0.00000000	29.10310000	24.15723000
34.49999813	0.00000000	22.12721000	38.84104000
34.69999812	0.00000000	19.00837000	47.38558000
34.89999810	0.00000000	20.17101000	48.17913000
35.09999809	0.00000000	25.15379000	41.62155000
35.29999808	0.00000000	32.82480000	28.89395000
35.49999807	0.00000000	40.46506000	13.13976000
35.69999806	0.00000000	45.90305000	-1.53789400
35.89999805	0.00000000	47.85925000	-12.03863000
36.09999803	0.00000000	46.32751000	-16.68307000
36.29999802	0.00000000	41.71998000	-14.73302000
36.49999801	0.00000000	35.24852000	-6.27460600
36.69999800	0.00000000	29.47835000	6.36072800
36.89999799	0.00000000	25.94119000	19.42052000
37.09999797	0.00000000	24.77854000	29.45374000
37.29999796	0.00000000	26.35950000	34.09818000
37.49999795	0.00000000	30.54872000	32.60949000
37.69999794	0.00000000	35.94980000	25.68897000
37.89999793	0.00000000	40.93258000	15.36663000
38.09999791	0.00000000	44.41437000	4.68134800
38.29999790	0.00000000	45.20792000	-2.60826800
38.49999789	0.00000000	43.71924000	-4.60752900
38.69999788	0.00000000	40.60039000	-1.53789400
38.89999787	0.00000000	36.36811000	5.75172200
39.09999786	0.00000000	32.08661000	15.28051000
39.29999784	0.00000000	28.59252000	23.68971000
39.49999783	0.00000000	26.26722000	28.29724000
39.69999782	0.00000000	25.89198000	27.92200000
39.89999781	0.00000000	27.38681000	22.53322000
40.09999780	0.00000000	30.08120000	13.69956000
40.29999778	0.00000000	33.20005000	3.75861200
40.49999777	0.00000000	36.31890000	-4.27534400
40.69999776	0.00000000	39.06250000	-7.72022600
40.89999775	0.00000000	41.01870000	-5.81323800
41.09999774	0.00000000	42.18134000	1.10728300
41.29999772	0.00000000	42.18134000	11.04823000
41.49999771	0.00000000	41.01870000	21.08760000
41.69999770	0.00000000	39.06250000	28.75861000
41.89999769	0.00000000	36.31890000	32.23425000
42.09999768	0.00000000	33.24926000	30.29035000
42.29999767	0.00000000	30.50566000	23.82505000
42.49999765	0.00000000	28.59252000	14.58538000
42.69999764	0.00000000	27.80512000	5.38262700
42.89999763	0.00000000	28.54946000	-1.63016700
43.09999762	0.00000000	30.08120000	-5.06889700
43.29999761	0.00000000	32.03740000	-4.32455700
43.49999759	0.00000000	34.36884000	0.64591530
43.69999758	0.00000000	36.27584000	7.89247000
43.89999757	0.00000000	37.57381000	15.23130000
44.09999756	0.00000000	38.69955000	21.03838000
44.29999755	0.00000000	39.84990000	24.20029000
44.49999753	0.00000000	39.86220000	24.57554000
44.69999752	0.00000000	39.57308000	22.29331000
44.89999751	0.00000000	39.48696000	17.69808000
45.09999750	0.00000000	39.06250000	12.76452000
45.29999749	0.00000000	37.81373000	8.77214500
45.49999748	0.00000000	35.52534000	6.07160400
45.69999746	0.00000000	32.41265000	4.54601300
45.89999745	0.00000000	29.66289000	5.33341500
46.09999744	0.00000000	26.91929000	7.89247000
46.29999743	0.00000000	24.68627000	10.62992000
46.49999742	0.00000000	24.36024000	13.00443000
46.69999740	0.00000000	26.31643000	15.36663000
46.89999739	0.00000000	30.59178000	17.23056000
47.09999738	0.00000000	36.41117000	18.01796000
47.29999737	0.00000000	42.59965000	17.23056000
47.49999736	0.00000000	47.99458000	15.32357000
47.69999734	0.00000000	51.02116000	12.62918000
47.89999733	0.00000000	50.64591000	9.93479300
48.09999732	0.00000000	46.74582000	7.93553100
48.29999731	0.00000000	40.13287000	6.44685000
48.49999730	0.00000000	31.61909000	6.08390700
48.69999729	0.00000000	23.15453000	7.60949800
48.89999727	0.00000000	17.05217000	9.93479300
49.09999726	0.00000000	15.10827000	13.09670000
49.29999725	0.00000000	18.21481000	16.85531000
49.49999724	0.00000000	25.11073000	19.50664000
49.69999723	0.00000000	34.41191000	19.93110000
49.89999721	0.00000000	43.62696000	18.43627000
50.09999720	0.00000000	50.64591000	15.69882000
50.29999719	0.00000000	54.04773000	12.21087000
50.49999718	0.00000000	52.87894000	8.31077700
50.69999717	0.00000000	46.74582000	4.91510800
50.89999715	0.00000000	37.94907000	3.01427100
51.09999714	0.00000000	29.01082000	3.79552100
51.29999713	0.00000000	21.70891000	6.77903500
51.49999712	0.00000000	17.89493000	10.67298000
51.69999711	0.00000000	19.00837000	14.53617000
51.89999710	0.00000000	24.36024000	18.01796000
52.09999708	0.00000000	32.03740000	19.93110000
52.29999707	0.00000000	40.13287000	19.97416000
52.49999706	0.00000000	46.23523000	18.39321000
52.69999705	0.00000000	48.60359000	15.32357000
52.89999704	0.00000000	46.74582000	11.46653000
53.09999702	0.00000000	42.13828000	8.02780400
53.29999701	0.00000000	35.94980000	5.70866100
53.49999700	0.00000000	29.43528000	5.33341500
53.69999699	0.00000000	24.87082000	6.82209600
53.89999698	0.00000000	23.66511000	9.51648500
54.09999696	0.00000000	25.94119000	12.53691000
54.29999695	0.00000000	30.54872000	14.85605000
54.49999694	0.00000000	36.31890000	15.60654000
54.69999693	0.00000000	41.67076000	14.90526000
54.89999692	0.00000000	44.74655000	13.00443000
55.09999691	0.00000000	44.74655000	11.09744000
55.29999689	0.00000000	41.67076000	9.55954600
55.49999688	0.00000000	36.31890000	8.86441900
55.69999687	0.00000000	30.59178000	10.02707000
55.89999686	0.00000000	26.35950000	12.62918000
56.09999685	0.00000000	24.77854000	15.32357000
56.29999683	0.00000000	25.89198000	17.23056000
56.49999682	0.00000000	28.96776000	17.97490000
56.69999681	0.00000000	33.24926000	16.76919000
56.89999680	0.00000000	37.85679000	13.69956000
57.09999679	0.00000000	41.67076000	9.47342500
57.29999677	0.00000000	43.25172000	5.29035400
57.49999676	0.00000000	42.51353000	2.59596400
57.69999675	0.00000000	40.22515000	2.22071800
57.89999674	0.00000000	36.69414000	4.21998000
58.09999673	0.00000000	32.91707000	8.86441900
58.29999672	0.00000000	29.80438000	15.36663000
58.49999670	0.00000000	28.63558000	21.45669000
58.69999669	0.00000000	28.96776000	25.31373000
58.89999668	0.00000000	30.54872000	25.68897000
59.09999667	0.00000000	33.20005000	22.66240000
59.29999666	0.00000000	35.90059000	17.18750000
59.49999664	0.00000000	37.81373000	10.25467000
59.69999663	0.00000000	38.60113000	2.97121000
59.89999662	0.00000000	37.85679000	-1.96235200
60.09999661	0.00000000	36.36811000	-3.21112200
60.29999660	0.00000000	34.83022000	-0.84276570
60.49999658	0.00000000	33.66756000	4.55216500
60.69999657	0.00000000	33.29232000	12.25394000
60.89999656	0.00000000	33.61835000	19.88189000
61.09999655	0.00000000	34.41191000	25.35679000
61.29999654	0.00000000	35.16240000	27.63902000
61.49999653	0.00000000	35.99286000	26.42716000
61.69999651	0.00000000	36.70029000	21.03838000
61.89999650	0.00000000	37.06324000	13.04749000
62.09999649	0.00000000	36.23277000	5.33341500
62.29999648	0.00000000	34.36884000	-0.51673230
62.49999647	0.00000000	32.08661000	-3.58021600
62.69999645	0.00000000	30.54872000	-3.16190900
62.89999644	0.00000000	30.13041000	1.06422200
63.09999643	0.00000000	30.54872000	7.93553100
63.29999642	0.00000000	32.12967000	15.27436000
63.49999641	0.00000000	34.78716000	21.45669000
63.69999639	0.00000000	37.43848000	25.35679000
63.89999638	0.00000000	39.01944000	26.10728000
64.09999637	0.00000000	39.43774000	23.82505000
64.29999636	0.00000000	39.01944000	18.81152000
64.49999635	0.00000000	37.43848000	12.62918000
64.69999634	0.00000000	34.78716000	6.48991100
64.89999632	0.00000000	32.12967000	1.85777500
65.09999631	0.00000000	30.54872000	0.27066930
65.29999630	0.00000000	30.13041000	0.92888770
65.49999629	0.00000000	30.54872000	3.29109200
65.69999628	0.00000000	32.08661000	6.77903500
65.89999626	0.00000000	34.36884000	11.04823000
66.09999625	0.00000000	36.27584000	15.27436000
66.29999624	0.00000000	37.43848000	18.39321000
66.49999623	0.00000000	37.43848000	20.01722000
66.69999622	0.00000000	36.27584000	20.43553000
66.89999620	0.00000000	34.36884000	20.01722000
67.09999619	0.00000000	32.08661000	18.47933000
67.29999618	0.00000000	30.59178000	16.16018000
67.49999617	0.00000000	30.59178000	13.79183000
67.69999616	0.00000000	32.12967000	11.00517000
67.89999615	0.00000000	34.83022000	7.93553100
68.09999613	0.00000000	37.85679000	5.19808000
68.29999612	0.00000000	40.18209000	3.29109200
68.49999611	0.00000000	40.93258000	2.54675200
68.69999610	0.00000000	40.13902000	3.75246000
68.89999609	0.00000000	37.39542000	6.82209600
69.09999607	0.00000000	33.20005000	11.09129000
69.29999606	0.00000000	28.96776000	15.74188000
69.49999605	0.00000000	25.84892000	20.01722000
69.69999604	0.00000000	24.36024000	23.08686000
69.89999603	0.00000000	25.19685000	24.20029000
70.09999601	0.00000000	29.06004000	22.61934000
70.29999600	0.00000000	34.78716000	18.39321000
70.49999599	0.00000000	40.55733000	12.62918000
70.69999598	0.00000000	44.83267000	6.86515700
70.89999597	0.00000000	46.78888000	2.59596400
71.09999596	0.00000000	46.37057000	0.63976370
71.29999594	0.00000000	43.20866000	1.01501000
71.49999593	0.00000000	37.43848000	3.75246000
71.69999592	0.00000000	30.50566000	8.35998900
71.89999591	0.00000000	24.36024000	13.74262000
72.09999590	0.00000000	20.50320000	18.30093000
72.29999588	0.00000000	20.07874000	20.66929000
72.49999587	0.00000000	22.77928000	20.34941000
72.69999586	0.00000000	27.80512000	18.47933000
72.89999585	0.00000000	34.41191000	15.74188000
73.09999584	0.00000000	40.93258000	12.67224000
73.29999582	0.00000000	45.95226000	9.98400600
73.49999581	0.00000000	47.90846000	8.48917200
73.69999580	0.00000000	46.78888000	8.82135800
73.89999579	0.00000000	43.30093000	10.67298000
74.09999578	0.00000000	37.89985000	12.49385000
74.29999577	0.00000000	32.08661000	13.32431000
74.49999575	0.00000000	27.10384000	12.91215000
74.69999574	0.00000000	23.94808000	11.79257000
74.89999573	0.00000000	23.56668000	9.84867000
75.09999572	0.00000000	25.11073000	7.98474400
75.29999571	0.00000000	28.96776000	6.82209600
75.49999569	0.00000000	33.90133000	6.86515700
75.69999568	0.00000000	37.77067000	8.44611200
75.89999567	0.00000000	40.18209000	11.55881000
76.09999566	0.00000000	40.97564000	15.74188000
76.29999565	0.00000000	40.60039000	19.54970000
76.49999563	0.00000000	39.06250000	21.46284000
76.69999562	0.00000000	36.74335000	21.03838000
76.89999561	0.00000000	34.45497000	17.97490000
77.09999560	0.00000000	32.50492000	12.96137000
77.29999559	0.00000000	31.75443000	7.56028500
77.49999558	0.00000000	32.03740000	2.55290300
77.69999556	0.00000000	32.78174000	-0.46751960
77.89999555	0.00000000	33.15699000	-0.51673230
78.09999554	0.00000000	33.20005000	2.22071800
78.29999553	0.00000000	33.20005000	7.24040300
78.49999552	0.00000000	33.20005000	13.79183000
78.69999550	0.00000000	33.20005000	19.93110000
78.89999549	0.00000000	33.24311000	24.20029000
79.09999548	0.00000000	33.66756000	25.73203000
79.29999547	0.00000000	34.87328000	24.24335000
79.49999546	0.00000000	36.74335000	20.39247000
79.69999544	0.00000000	38.64419000	15.32357000
79.89999543	0.00000000	39.39468000	9.51648500
80.09999542	0.00000000	39.01944000	4.17691900
80.29999541	0.00000000	37.48154000	1.06422200
80.49999540	0.00000000	35.16240000	0.63976370
80.69999539	0.00000000	32.82480000	2.54675200
80.89999537	0.00000000	30.50566000	6.35457700
81.09999536	0.00000000	29.01082000	10.58686000
81.29999535	0.00000000	29.01082000	14.16092000
81.49999534	0.00000000	30.54872000	17.32283000
81.69999533	0.00000000	33.20005000	19.97416000
81.89999531	0.00000000	35.90059000	21.13066000
82.09999530	0.00000000	37.90600000	20.39247000
82.29999529	0.00000000	39.39468000	18.52854000
82.49999528	0.00000000	39.76377000	16.16018000
82.69999527	0.00000000	38.23203000	13.74262000
82.89999525	0.00000000	35.99286000	10.62992000
83.09999524	0.00000000	33.66756000	7.19734200
83.29999523	0.00000000	32.08661000	4.87204700
83.49999522	0.00000000	31.28691000	3.66633800
83.69999521	0.00000000	30.92396000	3.70939900
83.89999520	0.00000000	31.66215000	5.24729300
84.09999518	0.00000000	32.78174000	7.98474400
84.29999517	0.00000000	33.61835000	11.46653000
84.49999516	0.00000000	34.73794000	15.36663000
84.69999515	0.00000000	35.48228000	18.81152000
84.89999514	0.00000000	35.16240000	21.13066000
85.09999512	0.00000000	34.83022000	21.46284000
85.29999511	0.00000000	34.78716000	19.54970000
85.49999510	0.00000000	34.78716000	15.69882000
85.69999509	0.00000000	34.83022000	11.04823000
85.89999508	0.00000000	35.16240000	6.40378900
86.09999506	0.00000000	35.53149000	2.54675200
86.29999505	0.00000000	35.16240000	0.63976370
86.49999504	0.00000000	34.78716000	1.01501000
86.69999503	0.00000000	34.31963000	3.75246000
86.89999502	0.00000000	33.15699000	8.35998900
87.09999501	0.00000000	31.66215000	13.74262000
87.29999499	0.00000000	30.54872000	18.35015000
87.49999498	0.00000000	30.54872000	21.08760000
87.69999497	0.00000000	31.66215000	21.46284000
87.89999496	0.00000000	33.20005000	19.54970000
88.09999495	0.00000000	34.78716000	15.69882000
88.29999493	0.00000000	36.27584000	11.04823000
88.49999492	0.00000000	37.11245000	6.44685000
88.69999491	0.00000000	37.11860000	3.01427100
88.89999490	0.00000000	37.06324000	2.26377900
89.09999489	0.00000000	35.85752000	4.12770700
89.29999487	0.00000000	33.66756000	7.98474400
89.49999486	0.00000000	32.08661000	12.58612000
89.69999485	0.00000000	31.28691000	16.85531000
89.89999484	0.00000000	30.87475000	19.88189000
90.09999483	0.00000000	31.28691000	20.62008000
90.29999482	0.00000000	32.03740000	18.35015000
90.49999480	0.00000000	33.24926000	14.16708000
90.69999479	0.00000000	34.73794000	9.56569900
90.89999478	0.00000000	35.90059000	5.70866100
91.09999477	0.00000000	36.32505000	3.80167300
91.29999476	0.00000000	36.32505000	4.12770700
91.49999474	0.00000000	35.94980000	6.48991100
91.69999473	0.00000000	35.16240000	10.31004000
91.89999472	0.00000000	34.45497000	14.90526000
92.09999471	0.00000000	34.04282000	18.35015000
92.29999470	0.00000000	34.36884000	19.93110000
92.49999468	0.00000000	34.31963000	19.50664000
92.69999467	0.00000000	33.61835000	16.81225000
92.89999466	0.00000000	33.20005000	12.62918000
93.09999465	0.00000000	32.78174000	8.40305000
93.29999464	0.00000000	32.03740000	5.29035400
93.49999463	0.00000000	31.71137000	3.80167300
93.69999461	0.00000000	32.03740000	4.54601300
93.89999460	0.00000000	32.82480000	7.60949800
94.09999459	0.00000000	33.66756000	11.46653000
94.29999458	0.00000000	35.20546000	15.69882000
94.49999457	0.00000000	37.11245000	19.08834000
94.69999455	0.00000000	38.28125000	19.88189000
94.89999454	0.00000000	39.06250000	18.39321000
95.09999453	0.00000000	38.97638000	15.27436000
95.29999452	0.00000000	37.43848000	11.09129000
95.49999451	0.00000000	34.73794000	7.24040300
95.69999449	0.00000000	31.66830000	4.95816900
95.89999448	0.00000000	28.92470000	4.54601300
96.09999447	0.00000000	27.05462000	6.44685000
96.29999446	0.00000000	26.69168000	9.51648500
96.49999445	0.00000000	28.59252000	13.00443000
96.69999444	0.00000000	31.66830000	16.43701000
96.89999442	0.00000000	35.16240000	18.30093000
97.09999441	0.00000000	38.64419000	18.01796000
97.29999440	0.00000000	40.97564000	16.11712000
97.49999439	0.00000000	42.13828000	13.79183000
97.69999438	0.00000000	41.71998000	11.04823000
97.89999436	0.00000000	39.39468000	8.40305000
98.09999435	0.00000000	35.94980000	6.86515700
98.29999434	0.00000000	32.03740000	6.82209600
98.49999433	0.00000000	28.59252000	7.98474400
98.69999432	0.00000000	26.22416000	9.89173200
98.89999430	0.00000000	25.47367000	12.16781000
99.09999429	0.00000000	26.26722000	13.65650000
99.29999428	0.00000000	28.96776000	13.74262000
99.49999427	0.00000000	32.78174000	13.04749000
99.69999426	0.00000000	36.27584000	12.67224000
99.89999425	0.00000000	39.01944000	12.62918000
100.09999423	0.00000000	40.60039000	12.67224000
100.29999422	0.00000000	40.97564000	13.04749000
100.49999421	0.00000000	40.18209000	13.74262000
100.69999420	0.00000000	37.85679000	13.74262000
100.89999419	0.00000000	34.78716000	13.00443000
101.09999417	0.00000000	31.66830000	12.21087000
101.29999416	0.00000000	29.01082000	11.00517000
101.49999415	0.00000000	27.80512000	9.47342500
101.69999414	0.00000000	28.12500000	7.98474400
101.89999413	0.00000000	28.92470000	7.24040300
102.09999411	0.00000000	30.50566000	8.02780400
102.29999410	0.00000000	32.78174000	9.89173200
102.49999409	0.00000000	34.73794000	12.25394000
102.69999408	0.00000000	36.36811000	14.58538000
102.89999407	0.00000000	37.85679000	16.85531000
103.09999406	0.00000000	38.64419000	18.01796000
103.29999404	0.00000000	38.23203000	17.60581000
103.49999403	0.00000000	37.11245000	16.06176000
103.69999402	0.00000000	35.16240000	12.96137000
103.89999401	0.00000000	33.24926000	9.55954600
104.09999400	0.00000000	31.66215000	6.82209600
104.29999398	0.00000000	30.50566000	5.33341500
104.49999397	0.00000000	30.13041000	5.66560000
104.69999396	0.00000000	30.50566000	7.56643700
104.89999395	0.00000000	31.66215000	9.89173200
105.09999394	0.00000000	33.20005000	12.62918000
105.29999392	0.00000000	34.73794000	15.27436000
105.49999391	0.00000000	35.90059000	16.81225000
105.69999390	0.00000000	36.27584000	16.81225000
105.89999389	0.00000000	35.90059000	15.32357000
106.09999388	0.00000000	34.78716000	13.04749000
106.29999387	0.00000000	33.66756000	11.09744000
106.49999385	0.00000000	33.20005000	9.51648500
106.69999384	0.00000000	32.82480000	8.40305000
106.89999383	0.00000000	32.45571000	8.40305000
107.09999382	0.00000000	32.86786000	9.51648500
107.29999381	0.00000000	33.61835000	11.04823000
107.49999379	0.00000000	34.78716000	12.58612000
107.69999378	0.00000000	35.85752000	13.74262000
107.89999377	0.00000000	35.85752000	14.11786000
108.09999376	0.00000000	34.78716000	13.74262000
108.29999375	0.00000000	33.61835000	12.58612000
108.49999374	0.00000000	32.82480000	11.09744000
108.69999372	0.00000000	32.03740000	9.93479300
108.89999371	0.00000000	31.66215000	9.51648500
109.09999370	0.00000000	31.66215000	9.51648500
109.29999369	0.00000000	32.08661000	9.93479300
109.49999368	0.00000000	33.24926000	11.09744000
109.69999366	0.00000000	34.73794000	12.58612000
109.89999365	0.00000000	35.90059000	13.74262000
110.09999364	0.00000000	36.32505000	14.16708000
110.29999363	0.00000000	36.32505000	14.16708000
110.49999362	0.00000000	35.90059000	13.74262000
110.69999360	0.00000000	34.73794000	12.58612000
110.89999359	0.00000000	33.24926000	11.04823000
111.09999358	0.00000000	32.08661000	9.55954600
111.29999357	0.00000000	31.66215000	8.77829600
111.49999356	0.00000000	31.66215000	9.09817800
111.69999355	0.00000000	32.08661000	9.47342500
111.89999353	0.00000000	33.20005000	9.93479300
112.09999352	0.00000000	34.36884000	11.04823000
112.29999351	0.00000000	35.16240000	12.16166000
112.49999350	0.00000000	35.94980000	12.58612000
112.69999349	0.00000000	36.27584000	12.62918000
112.89999347	0.00000000	35.90059000	12.62918000
113.09999346	0.00000000	34.78716000	12.62918000
113.29999345	0.00000000	33.66756000	12.58612000
113.49999344	0.00000000	33.24311000	12.21087000
113.69999343	0.00000000	33.15699000	11.46653000
113.89999341	0.00000000	32.82480000	11.09129000
114.09999340	0.00000000	32.45571000	11.04823000
114.29999339	0.00000000	32.82480000	11.04823000
114.49999338	0.00000000	33.15699000	11.04823000
114.69999337	0.00000000	33.29232000	11.00517000
114.89999336	0.00000000	33.99360000	10.62992000
115.09999334	0.00000000	35.10704000	9.89173200
115.29999333	0.00000000	35.11934000	9.56569900
115.49999332	0.00000000	34.78716000	9.89173200
115.69999331	0.00000000	34.36884000	10.67298000
115.89999330	0.00000000	33.61835000	11.46653000
116.09999328	0.00000000	33.24311000	12.62918000
116.29999327	0.00000000	33.20005000	13.74262000
116.49999326	0.00000000	33.20005000	14.16708000
116.69999325	0.00000000	33.20005000	14.16708000
116.89999324	0.00000000	33.20005000	13.79183000
117.09999322	0.00000000	33.24311000	13.00443000
117.29999321	0.00000000	33.61835000	12.21087000
117.49999320	0.00000000	34.36884000	11.04823000
117.69999319	0.00000000	34.78716000	9.93479300
117.89999318	0.00000000	35.20546000	9.51648500
118.09999317	0.00000000	35.90059000	9.47342500
118.29999315	0.00000000	35.85752000	9.51648500
118.49999314	0.00000000	34.78716000	9.89173200
118.69999313	0.00000000	33.61835000	10.62992000
118.89999312	0.00000000	32.78174000	11.04823000
119.09999311	0.00000000	31.66215000	11.51575000
119.29999309	0.00000000	30.92396000	12.62918000
119.49999308	0.00000000	31.28691000	13.69956000
119.69999307	0.00000000	31.99434000	13.69956000
119.89999306	0.00000000	32.82480000	12.62918000
120.09999305	0.00000000	33.61835000	11.51575000
120.29999303	0.00000000	34.78716000	11.09129000
120.49999302	0.00000000	35.90059000	11.04823000
120.69999301	0.00000000	36.32505000	11.04823000
120.89999300	0.00000000	36.32505000	11.04823000
121.09999299	0.00000000	35.90059000	11.00517000
121.29999298	0.00000000	34.78716000	10.62992000
121.49999296	0.00000000	33.61835000	9.93479300
121.69999295	0.00000000	32.82480000	9.93479300
121.89999294	0.00000000	31.99434000	10.62992000
122.09999293	0.00000000	31.28691000	11.04823000
122.29999292	0.00000000	30.92396000	11.46653000
122.49999290	0.00000000	31.66215000	12.25394000
122.69999289	0.00000000	32.78174000	13.00443000
122.89999288	0.00000000	33.57529000	13.74262000
123.09999287	0.00000000	34.36884000	13.74262000
123.29999286	0.00000000	34.83022000	13.09670000
123.49999284	0.00000000	35.58071000	13.04749000
123.69999283	0.00000000	36.64493000	13.32431000
123.89999282	0.00000000	36.27584000	12.58612000
124.09999281	0.00000000	35.20546000	11.51575000
124.29999280	0.00000000	34.41191000	11.09129000
124.49999279	0.00000000	33.61835000	11.04823000
124.69999277	0.00000000	33.20005000	11.04823000
124.89999276	0.00000000	32.78174000	11.04823000
125.09999275	0.00000000	31.99434000	11.09129000
125.29999274	0.00000000	31.28691000	11.46653000
125.49999273	0.00000000	30.92396000	12.21087000
125.69999271	0.00000000	31.71137000	12.58612000
125.89999270	0.00000000	33.15699000	12.62918000
126.09999269	0.00000000	34.36884000	12.62918000
126.29999268	0.00000000	35.16240000	12.62918000
126.49999267	0.00000000	35.94980000	12.62918000
126.69999265	0.00000000	36.27584000	12.58612000
126.89999264	0.00000000	35.90059000	12.21087000
127.09999263	0.00000000	34.78716000	11.46653000
127.29999262	0.00000000	33.61835000	11.09129000
127.49999261	0.00000000	32.82480000	11.04823000
127.69999260	0.00000000	32.03740000	11.04823000
127.89999258	0.00000000	31.66215000	11.04823000
128.09999257	0.00000000	31.66215000	11.04823000
128.29999256	0.00000000	32.08661000	11.09129000
128.49999255	0.00000000	33.20005000	11.46653000
128.69999254	0.00000000	34.36884000	12.21087000
128.89999252	0.00000000	35.16240000	12.53691000
129.09999251	0.00000000	35.90059000	12.21087000
129.29999250	0.00000000	35.85752000	11.46653000
129.49999249	0.00000000	34.78716000	11.09129000
129.69999248	0.00000000	33.61835000	11.04823000
129.89999246	0.00000000	32.82480000	11.04823000
130.09999245	0.00000000	32.03740000	11.04823000
130.29999244	0.00000000	31.66215000	11.04823000
130.49999243	0.00000000	31.66215000	11.09129000
130.69999242	0.00000000	32.08661000	11.46653000
130.89999241	0.00000000	33.20005000	12.21087000
131.09999239	0.00000000	34.31963000	12.53691000
131.29999238	0.00000000	34.74409000	12.21087000
131.49999237	0.00000000	34.78716000	11.46653000
131.69999236	0.00000000	34.78716000	11.04823000
131.89999235	0.00000000	34.74409000	10.62992000
132.09999233	0.00000000	34.36884000	9.89173200
132.29999232	0.00000000	33.57529000	9.51648500
132.49999231	0.00000000	32.82480000	9.51648500
132.69999230	0.00000000	32.03740000	9.89173200
132.89999229	0.00000000	31.71137000	10.67298000
133.09999227	0.00000000	32.03740000	11.42347000
133.29999226	0.00000000	32.78174000	12.25394000
133.49999225	0.00000000	33.20005000	12.96137000
133.69999224	0.00000000	33.61835000	13.37352000
133.89999223	0.00000000	34.31963000	13.00443000
134.09999222	0.00000000	34.31963000	12.62918000
134.29999220	0.00000000	33.61835000	12.16166000
134.49999219	0.00000000	33.24311000	11.04823000
134.69999218	0.00000000	33.20005000	9.93479300
134.89999217	0.00000000	33.20005000	9.51648500
135.09999216	0.00000000	33.20005000	9.47342500
135.29999214	0.00000000	33.24311000	9.51648500
135.49999213	0.00000000	33.61835000	9.93479300
135.69999212	0.00000000	34.31963000	11.04823000
135.89999211	0.00000000	34.31963000	12.16166000
136.09999210	0.00000000	33.61835000	12.58612000
136.29999208	0.00000000	33.20005000	12.62918000
136.49999207	0.00000000	32.78174000	12.62918000
136.69999206	0.00000000	32.08661000	12.62918000
136.89999205	0.00000000	32.08661000	12.58612000
137.09999204	0.00000000	32.78174000	12.21087000
137.29999203	0.00000000	33.20005000	11.46653000
137.49999201	0.00000000	33.61835000	11.09129000
137.69999200	0.00000000	34.36884000	11.00517000
137.89999199	0.00000000	34.69488000	10.62992000
138.09999198	0.00000000	34.41191000	9.93479300
138.29999197	0.00000000	33.99975000	9.93479300
138.49999195	0.00000000	33.98745000	10.62992000
138.69999194	0.00000000	33.53223000	11.00517000
138.89999193	0.00000000	32.82480000	11.04823000
139.09999192	0.00000000	32.03740000	11.09129000
139.29999191	0.00000000	31.71137000	11.46653000
139.49999189	0.00000000	32.03740000	12.21087000
139.69999188	0.00000000	32.82480000	12.58612000
139.89999187	0.00000000	33.53223000	12.62918000
140.09999186	0.00000000	33.98745000	12.58612000
140.29999185	0.00000000	33.99975000	12.21087000
140.49999184	0.00000000	34.36884000	11.42347000
140.69999182	0.00000000	34.31963000	10.67298000
140.89999181	0.00000000	33.61835000	9.89173200
141.09999180	0.00000000	33.20005000	9.51648500
141.29999179	0.00000000	32.78174000	9.47342500
141.49999178	0.00000000	32.08661000	9.51648500
141.69999176	0.00000000	32.08661000	9.93479300
141.89999175	0.00000000	32.78174000	11.04823000
142.09999174	0.00000000	33.20005000	12.21087000
142.29999173	0.00000000	33.61835000	13.00443000
142.49999172	0.00000000	34.31963000	13.74262000
142.69999170	0.00000000	34.31963000	13.74262000
142.89999169	0.00000000	33.61835000	13.00443000
143.09999168	0.00000000	33.24311000	12.21087000
143.29999167	0.00000000	33.20005000	11.04823000
143.49999166	0.00000000	33.20005000	9.93479300
143.69999165	0.00000000	33.20005000	9.51648500
143.89999163	0.00000000	33.20005000	9.47342500
144.09999162	0.00000000	33.20005000	9.51648500
144.29999161	0.00000000	33.20005000	9.93479300
144.49999160	0.00000000	33.20005000	11.04823000
144.69999159	0.00000000	33.24311000	12.16166000
144.89999157	0.00000000	33.57529000	12.58612000
145.09999156	0.00000000	33.94439000	12.62918000
145.29999155	0.00000000	33.57529000	12.58612000
145.49999154	0.00000000	33.20005000	12.21087000
145.69999153	0.00000000	32.82480000	11.46653000
145.89999151	0.00000000	32.45571000	11.09129000
146.09999150	0.00000000	32.82480000	11.00517000
146.29999149	0.00000000	33.15699000	10.67298000
146.49999148	0.00000000	33.20005000	10.31004000
146.69999147	0.00000000	33.24311000	10.67298000
146.89999146	0.00000000	33.61835000	11.00517000
147.09999144	0.00000000	34.36884000	11.09129000
147.29999143	0.00000000	34.69488000	11.46653000
147.49999142	0.00000000	34.36884000	12.21087000
147.69999141	0.00000000	33.61835000	12.58612000
147.89999140	0.00000000	33.24311000	12.62918000
148.09999138	0.00000000	33.15699000	12.58612000
148.29999137	0.00000000	32.78174000	12.21087000
148.49999136	0.00000000	32.08661000	11.51575000
148.69999135	0.00000000	32.08661000	11.46653000
148.89999134	0.00000000	32.78174000	11.79257000
149.09999132	0.00000000	33.15699000	11.42347000
149.29999131	0.00000000	33.24311000	11.09129000
149.49999130	0.00000000	33.57529000	11.04823000
149.69999129	0.00000000	33.98745000	11.04823000
149.89999128	0.00000000	33.95054000	11.04823000
150.09999127	0.00000000	33.98745000	11.09129000
150.29999125	0.00000000	33.57529000	11.46653000
150.49999124	0.00000000	33.24311000	12.16166000
150.69999123	0.00000000	33.15699000	12.21087000
150.89999122	0.00000000	32.82480000	11.88484000
151.09999121	0.00000000	32.45571000	12.25394000
151.29999119	0.00000000	32.82480000	12.53691000
151.49999118	0.00000000	33.15699000	12.21087000
151.69999117	0.00000000	33.20005000	11.46653000
151.89999116	0.00000000	33.20005000	11.09129000
152.09999115	0.00000000	33.20005000	11.04823000
152.29999113	0.00000000	33.20005000	11.04823000
152.49999112	0.00000000	33.20005000	11.04823000
152.69999111	0.00000000	33.24311000	11.04823000
152.89999110	0.00000000	33.57529000	11.04823000
153.09999109	0.00000000	33.94439000	11.04823000
153.29999108	0.00000000	33.57529000	11.04823000
153.49999106	0.00000000	33.20005000	11.04823000
153.69999105	0.00000000	32.78174000	11.09129000
153.89999104	0.00000000	32.03740000	11.46653000
154.09999103	0.00000000	31.66215000	12.21087000
154.29999102	0.00000000	31.61909000	12.53691000
154.49999100	0.00000000	31.66215000	12.21087000
154.69999099	0.00000000	32.03740000	11.46653000
154.89999098	0.00000000	32.78174000	11.09129000
155.09999097	0.00000000	33.15699000	11.04823000
155.29999096	0.00000000	33.20005000	11.04823000
155.49999094	0.00000000	33.20005000	11.04823000
155.69999093	0.00000000	33.24311000	11.04823000
155.89999092	0.00000000	33.57529000	11.04823000
156.09999091	0.00000000	33.94439000	11.04823000
156.29999090	0.00000000	33.57529000	11.09129000
156.49999089	0.00000000	33.20005000	11.46653000
156.69999087	0.00000000	32.78174000	12.21087000
156.89999086	0.00000000	32.03740000	12.58612000
157.09999085	0.00000000	31.66215000	12.62918000
157.29999084	0.00000000	31.66215000	12.62918000
157.49999083	0.00000000	32.03740000	12.58612000
157.69999081	0.00000000	32.78174000	12.21087000
157.89999080	0.00000000	33.15699000	11.46653000
158.09999079	0.00000000	33.20005000	11.09129000
158.29999078	0.00000000	33.20005000	11.00517000
158.49999077	0.00000000	33.20005000	10.62992000
158.69999075	0.00000000	33.24311000	9.93479300
158.89999074	0.00000000	33.57529000	9.93479300
159.09999073	0.00000000	33.94439000	10.62992000
159.29999072	0.00000000	33.57529000	11.04823000
159.49999071	0.00000000	33.24311000	11.46653000
159.69999070	0.00000000	33.20005000	12.21087000
159.89999068	0.00000000	33.20005000	12.58612000
160.09999067	0.00000000	33.20005000	12.62918000
160.29999066	0.00000000	33.15699000	12.62918000
160.49999065	0.00000000	32.82480000	12.58612000
160.69999064	0.00000000	32.45571000	12.21087000
160.89999062	0.00000000	32.82480000	11.46653000
161.09999061	0.00000000	33.15699000	11.09129000
161.29999060	0.00000000	33.20005000	11.04823000
161.49999059	0.00000000	33.20005000	11.04823000
161.69999058	0.00000000	33.20005000	11.04823000
161.89999056	0.00000000	33.20005000	11.04823000
162.09999055	0.00000000	33.20005000	11.04823000
162.29999054	0.00000000	33.20005000	11.09129000
162.49999053	0.00000000	33.20005000	11.42347000
162.69999052	0.00000000	33.20005000	11.83563000
162.89999051	0.00000000	33.20005000	11.79872000
163.09999049	0.00000000	33.20005000	11.83563000
163.29999048	0.00000000	33.20005000	11.46653000
163.49999047	0.00000000	33.15699000	11.46653000
163.69999046	0.00000000	32.78174000	11.79257000
163.89999045	0.00000000	32.08661000	11.42347000
164.09999043	0.00000000	32.08661000	11.09129000
164.29999042	0.00000000	32.78174000	11.04823000
164.49999041	0.00000000	33.15699000	11.04823000
164.69999040	0.00000000	33.20005000	11.04823000
164.89999039	0.00000000	33.20005000	11.04823000
165.09999037	0.00000000	33.20005000	11.04823000
165.29999036	0.00000000	33.20005000	11.04823000
165.49999035	0.00000000	33.20005000	11.04823000
165.69999034	0.00000000	33.20005000	11.04823000
165.89999033	0.00000000	33.20005000	11.04823000
166.09999032	0.00000000	33.15699000	11.04823000
166.29999030	0.00000000	32.78174000	11.04823000
166.49999029	0.00000000	32.08661000	11.04823000
166.69999028	0.00000000	32.08661000	11.04823000
166.89999027	0.00000000	32.73252000	11.04823000
167.09999026	0.00000000	32.78174000	11.04823000
167.29999024	0.00000000	32.45571000	11.04823000
167.49999023	0.00000000	32.82480000	11.04823000
167.69999022	0.00000000	33.15699000	11.04823000
167.89999021	0.00000000	33.20005000	11.04823000
168.09999020	0.00000000	33.20005000	11.04823000
168.29999018	0.00000000	33.20005000	11.04823000
168.49999017	0.00000000	33.20005000	11.04823000
168.69999016	0.00000000	33.20005000	11.04823000
168.89999015	0.00000000	33.20005000	11.04823000
169.09999014	0.00000000	33.15699000	11.04823000
169.29999013	0.00000000	32.82480000	11.04823000
169.49999011	0.00000000	32.45571000	11.04823000
169.69999010	0.00000000	32.78174000	11.04823000
169.89999009	0.00000000	32.78174000	11.04823000
170.09999008	0.00000000	32.45571000	11.04823000
170.29999007	0.00000000	32.82480000	11.04823000
170.49999005	0.00000000	33.15699000	11.04823000
170.69999004	0.00000000	33.20005000	11.04823000
170.89999003	0.00000000	33.20005000	11.04823000
171.09999002	0.00000000	33.20005000	11.04823000
171.29999001	0.00000000	33.20005000	11.04823000
171.49998999	0.00000000	33.20005000	11.04823000
171.69998998	0.00000000	33.20005000	11.04823000
171.89998997	0.00000000	33.20005000	11.04823000
172.09998996	0.00000000	33.20005000	11.04823000
172.29998995	0.00000000	33.15699000	11.04823000
172.49998994	0.00000000	32.78174000	11.04823000
172.69998992	0.00000000	32.03740000	11.04823000
172.89998991	0.00000000	31.71137000	11.04823000
173.09998990	0.00000000	32.03740000	11.04823000
173.29998989	0.00000000	32.78174000	11.04823000
173.49998988	0.00000000	33.15699000	11.04823000
173.69998986	0.00000000	33.20005000	11.04823000
173.89998985	0.00000000	33.20005000	11.04823000
174.09998984	0.00000000	33.20005000	11.04823000
174.29998983	0.00000000	33.20005000	11.04823000
174.49998982	0.00000000	33.20005000	11.04823000
174.69998980	0.00000000	33.20005000	11.04823000
174.89998979	0.00000000	33.20005000	11.04823000
175.09998978	0.00000000	33.15699000	11.04823000
175.29998977	0.00000000	32.82480000	11.04823000
175.49998976	0.00000000	32.45571000	11.04823000
175.69998975	0.00000000	32.82480000	11.04823000
175.89998973	0.00000000	33.15699000	11.04823000
176.09998972	0.00000000	33.20005000	11.04823000
176.29998971	0.00000000	33.20005000	11.04823000
176.49998970	0.00000000	33.20005000	11.04823000
176.69998969	0.00000000	33.20005000	11.04823000
176.89998967	0.00000000	33.20005000	11.04823000
177.09998966	0.00000000	33.15699000	11.04823000
177.29998965	0.00000000	32.82480000	11.04823000
177.49998964	0.00000000	32.45571000	11.04823000
177.69998963	0.00000000	32.78174000	11.04823000
177.89998961	0.00000000	32.78174000	11.04823000
178.09998960	0.00000000	32.45571000	11.04823000
178.29998959	0.00000000	32.82480000	11.04823000
178.49998958	0.00000000	33.10777000	11.04823000
178.69998957	0.00000000	32.82480000	11.04823000
178.89998956	0.00000000	32.45571000	11.04823000
179.09998954	0.00000000	32.78174000	11.04823000
179.29998953	0.00000000	32.78174000	11.04823000
179.49998952	0.00000000	32.45571000	11.04823000
179.69998951	0.00000000	32.78174000	11.04823000
179.89998950	0.00000000	32.73252000	11.04823000
180.09998948	0.00000000	32.08661000	11.04823000
180.29998947	0.00000000	32.08661000	11.04823000
180.49998946	0.00000000	32.78174000	11.04823000
180.69998945	0.00000000	33.15699000	11.04823000
180.89998944	0.00000000	33.20005000	11.04823000
181.09998942	0.00000000	33.15699000	11.04823000
181.29998941	0.00000000	32.82480000	11.09129000
181.49998940	0.00000000	32.45571000	11.42347000
181.69998939	0.00000000	32.78174000	11.79257000
181.89998938	0.00000000	32.73252000	11.42347000
182.09998937	0.00000000	32.08661000	11.09129000
182.29998935	0.00000000	32.08661000	11.04823000
182.49998934	0.00000000	32.78174000	11.04823000
182.69998933	0.00000000	33.10777000	11.04823000
182.89998932	0.00000000	32.82480000	11.00517000
183.09998931	0.00000000	32.41265000	10.62992000
183.29998929	0.00000000	32.44956000	9.93479300
183.49998928	0.00000000	32.41265000	9.89173200
183.69998927	0.00000000	32.78174000	10.25467000
183.89998926	0.00000000	32.73252000	10.26698000
184.09998925	0.00000000	32.03740000	10.67298000
184.29998923	0.00000000	31.66215000	11.00517000
184.49998922	0.00000000	31.61909000	11.09129000
184.69998921	0.00000000	31.66215000	11.46653000
184.89998920	0.00000000	31.99434000	12.16166000
185.09998919	0.00000000	32.40649000	12.16166000
185.29998918	0.00000000	32.41265000	11.46653000
185.49998916	0.00000000	32.82480000	11.09129000
185.69998915	0.00000000	33.15699000	11.04823000
185.89998914	0.00000000	33.20005000	11.00517000
186.09998913	0.00000000	33.20005000	10.67298000
186.29998912	0.00000000	33.20005000	10.31004000
186.49998910	0.00000000	33.20005000	10.67298000
186.69998909	0.00000000	33.20005000	11.00517000
186.89998908	0.00000000	33.15699000	11.04823000
187.09998907	0.00000000	32.78174000	11.09129000
187.29998906	0.00000000	32.08661000	11.46653000
187.49998904	0.00000000	32.08661000	12.21087000
187.69998903	0.00000000	32.78174000	12.58612000
187.89998902	0.00000000	33.10777000	12.62918000
188.09998901	0.00000000	32.82480000	12.58612000
188.29998900	0.00000000	32.45571000	12.21087000
188.49998899	0.00000000	32.82480000	11.46653000
188.69998897	0.00000000	33.15699000	11.09129000
188.89998896	0.00000000	33.15699000	11.04823000
189.09998895	0.00000000	32.82480000	11.04823000
189.29998894	0.00000000	32.45571000	11.04823000
189.49998893	0.00000000	32.78174000	11.04823000
189.69998891	0.00000000	32.78174000	11.04823000
189.89998890	0.00000000	32.41265000	11.04823000
190.09998889	0.00000000	32.44956000	11.04823000
190.29998888	0.00000000	32.36959000	11.04823000
190.49998887	0.00000000	32.40649000	11.04823000
190.69998885	0.00000000	32.03740000	11.09129000
190.89998884	0.00000000	32.08661000	11.42347000
191.09998883	0.00000000	32.78174000	11.79257000
191.29998882	0.00000000	33.15699000	11.42347000
191.49998881	0.00000000	33.15699000	11.09129000
191.69998880	0.00000000	32.82480000	11.04823000
191.89998878	0.00000000	32.45571000	11.00517000
192.09998877	0.00000000	32.78174000	10.62992000
192.29998876	0.00000000	32.78174000	9.89173200
192.49998875	0.00000000	32.41265000	9.51648500
192.69998874	0.00000000	32.40649000	9.51648500
192.89998872	0.00000000	31.99434000	9.89173200
193.09998871	0.00000000	31.66215000	10.62992000
193.29998870	0.00000000	31.61909000	10.95595000
193.49998869	0.00000000	31.61909000	10.67298000
193.69998868	0.00000000	31.61909000	10.31004000
193.89998866	0.00000000	31.61909000	10.67298000
194.09998865	0.00000000	31.61909000	11.00517000
194.29998864	0.00000000	31.66215000	11.04823000
194.49998863	0.00000000	31.99434000	11.04823000
194.69998862	0.00000000	32.40649000	11.04823000
194.89998861	0.00000000	32.41265000	11.04823000
195.09998859	0.00000000	32.78174000	11.04823000
195.29998858	0.00000000	32.73252000	11.04823000
195.49998857	0.00000000	32.03740000	11.04823000
195.69998856	0.00000000	31.66215000	11.00517000
195.89998855	0.00000000	31.61909000	10.67298000
196.09998853	0.00000000	31.61909000	10.31004000
