Time	Channel A	Channel B	Channel C
(us)	(V)	(mV)	(mV)

-4.49999956	0.00000000	6.32381900	6.31151500
-4.29999957	0.00000000	6.32381900	6.31151500
-4.09999958	0.00000000	6.32381900	6.31151500
-3.89999959	0.00000000	6.32381900	6.26845500
-3.69999960	0.00000000	6.32381900	5.93626900
-3.49999962	0.00000000	6.32381900	5.57332700
-3.29999963	0.00000000	6.32381900	5.93626900
-3.09999964	0.00000000	6.32381900	6.21924200
-2.89999965	0.00000000	6.32381900	5.93626900
-2.69999966	0.00000000	6.32381900	5.57332700
-2.49999968	0.00000000	6.32381900	5.93626900
-2.29999969	0.00000000	6.32381900	6.26845500
-2.09999970	0.00000000	6.32381900	6.31151500
-1.89999971	0.00000000	6.28075700	6.26845500
-1.69999972	0.00000000	5.94857300	5.93626900
-1.49999973	0.00000000	5.57947800	5.57332700
-1.29999975	0.00000000	5.94857300	5.93626900
-1.09999976	0.00000000	6.28075700	6.26845500
-0.89999977	0.00000000	6.32381900	6.26845500
-0.69999978	0.00000000	6.28075700	5.93626900
-0.49999979	0.00000000	5.94857300	5.57332700
-0.29999981	0.31803640	5.57947800	5.93626900
-0.09999982	0.63668800	5.94857300	6.26845500
0.10000017	0.95533960	6.28075700	6.26845500
0.30000016	0.95533960	6.32381900	5.93626900
0.50000015	0.95533960	6.32381900	5.53026500
0.70000013	0.31803640	6.28075700	5.56717500
0.90000012	-0.47736220	5.94857300	5.48105300
1.10000011	-1.43331700	5.57947800	5.56717500
1.30000010	-2.38927200	5.94857300	5.53026500
1.50000009	-2.86724900	6.28075700	5.93626900
1.70000008	-2.54859700	6.32381900	6.26845500
1.90000006	-1.43331700	6.32381900	6.31151500
2.10000005	0.47736220	6.32381900	6.31151500
2.30000004	2.54859700	6.32381900	6.31151500
2.50000003	4.45989200	6.32381900	6.26845500
2.70000002	5.25652100	6.32381900	5.89320800
2.90000000	4.93786900	6.32381900	5.15501900
3.09999999	3.02657500	6.32381900	4.77977300
3.29999998	0.15871060	6.32381900	4.73671200
3.49999997	-3.34522600	6.32381900	4.77977300
3.69999996	-6.21247500	6.32381900	5.15501900
3.89999994	-7.96444400	6.32381900	5.89320800
4.09999993	-7.48646600	6.32381900	6.26845500
4.29999992	-5.25652100	6.32381900	6.31151500
4.49999991	-1.43331700	6.32381900	6.31151500
4.69999990	3.02657500	6.32381900	6.31151500
4.89999989	7.00848900	6.32381900	6.26845500
5.09999987	9.23905000	6.28075700	5.89320800
5.29999986	9.23905000	5.94857300	5.15501900
5.49999985	6.84916400	5.57947800	4.77977300
5.69999984	2.70792300	5.90551100	4.73671200
5.89999983	-2.22994600	5.90551100	4.73671200
6.09999981	-6.37180100	5.57947800	4.77977300
6.29999980	-9.07972400	5.94857300	5.15501900
6.49999979	-9.39837600	6.28075700	5.89320800
6.69999978	-7.32714100	6.32381900	6.26845500
6.89999977	-3.66326300	6.32381900	6.31151500
7.09999975	0.79601380	6.32381900	6.31151500
7.29999974	4.77854300	6.32381900	6.31151500
7.49999973	7.16781500	6.32381900	6.26845500
7.69999972	7.64579200	6.32381900	5.89320800
7.89999971	6.37180100	6.28075700	5.15501900
8.09999970	3.50393700	5.94857300	4.77977300
8.29999968	0.31803640	5.57947800	4.73671200
8.49999967	-2.70792300	5.94857300	4.77977300
8.69999966	-4.61921700	6.28075700	5.15501900
8.89999965	-5.25652100	6.32381900	5.89320800
9.09999964	-4.45989200	6.32381900	6.26845500
9.29999962	-2.70792300	6.32381900	6.31151500
9.49999961	-0.79601380	6.32381900	6.31151500
9.69999960	0.95533960	6.32381900	6.26845500
9.89999959	2.07062000	6.32381900	5.93626900
10.09999958	2.54859700	6.32381900	5.57332700
10.29999956	2.22994600	6.32381900	5.93626900
10.49999955	1.43331700	6.32381900	6.26845500
10.69999954	0.63668800	6.28075700	6.31151500
10.89999953	-0.15871060	5.94857300	6.31151500
11.09999952	-0.79601380	5.57947800	6.31151500
11.29999951	-0.95533960	5.94857300	6.31151500
11.49999949	-0.95533960	6.28075700	6.31151500
11.69999948	-0.79601380	6.32381900	6.31151500
11.89999947	-0.47736220	6.32381900	6.31151500
12.09999946	-0.15871060	6.32381900	6.31151500
12.29999945	-0.15871060	6.32381900	6.31151500
12.49999943	0.00000000	6.32381900	6.31151500
12.69999942	0.00000000	6.32381900	6.31151500
12.89999941	0.00000000	6.32381900	6.31151500
13.09999940	0.00000000	6.32381900	6.31151500
13.29999939	0.00000000	6.32381900	6.31151500
13.49999937	0.00000000	6.32381900	6.26845500
13.69999936	0.00000000	6.32381900	5.93626900
13.89999935	0.00000000	6.32381900	5.57332700
14.09999934	0.00000000	6.32381900	5.93626900
14.29999933	-0.15871060	6.32381900	6.21924200
14.49999932	-0.15871060	6.32381900	5.93626900
14.69999930	-0.15871060	6.32381900	5.57332700
14.89999929	0.00000000	6.32381900	5.89320800
15.09999928	0.00000000	6.32381900	5.89320800
15.29999927	0.00000000	6.32381900	5.57332700
15.49999926	0.00000000	6.32381900	5.93626900
15.69999924	0.00000000	6.32381900	6.26845500
15.89999923	0.00000000	6.32381900	6.31151500
16.09999922	0.00000000	6.32381900	6.31151500
16.29999921	0.00000000	6.32381900	6.31151500
16.49999920	-0.15871060	6.32381900	6.31151500
16.69999919	-0.15871060	6.32381900	6.31151500
16.89999917	0.00000000	6.36687900	6.31151500
17.09999916	0.00000000	6.74212600	6.31151500
17.29999915	0.00000000	7.48646600	6.31151500
17.49999914	0.00000000	7.86171200	6.31151500
17.69999913	0.00000000	7.86171200	6.31151500
17.89999911	0.00000000	7.48646600	6.31151500
18.09999910	0.00000000	6.65600300	6.31151500
18.29999909	0.00000000	5.48720400	6.31151500
18.49999908	0.00000000	3.53715500	6.31151500
18.69999907	0.00000000	1.67322800	6.31151500
18.89999905	0.00000000	0.51058070	6.31151500
19.09999904	0.00000000	0.51058070	6.31151500
19.29999903	0.00000000	1.71628900	6.31151500
19.49999902	0.00000000	4.09079700	6.31151500
19.69999901	0.00000000	7.94783400	6.31151500
19.89999900	0.00000000	12.13706000	6.31151500
20.09999898	0.00000000	15.25591000	6.31151500
20.29999897	0.00000000	16.79380000	6.26845500
20.49999896	0.00000000	16.36934000	5.89320800
20.69999895	0.00000000	13.53962000	5.15501900
20.89999894	0.00000000	8.13853400	4.82898600
21.09999892	0.00000000	0.79355310	5.15501900
21.29999891	0.00000000	-6.14542300	5.89320800
21.49999890	0.00000000	-11.58341000	6.26845500
21.69999889	0.00000000	-14.14862000	6.26845500
21.89999888	0.00000000	-12.14321000	5.89320800
22.09999886	0.00000000	-5.16732200	5.15501900
22.29999885	0.00000000	5.33956700	4.77977300
22.49999884	0.00000000	17.72268000	4.77977300
22.69999883	0.00000000	29.58292000	5.15501900
22.89999882	0.00000000	36.84793000	5.89320800
23.09999881	0.00000000	37.22318000	6.26845500
23.29999879	0.00000000	30.56102000	6.35457700
23.49999878	0.00000000	17.35359000	6.72982200
23.69999877	0.00000000	-0.04306102	7.47416300
23.89999876	0.00000000	-17.72884000	7.84940900
24.09999875	0.00000000	-31.21924000	7.84940900
24.29999873	0.00000000	-36.57726000	7.42495000
24.49999872	0.00000000	-32.66486000	6.26845500
24.69999871	0.00000000	-19.45128000	4.73671200
24.89999870	0.00000000	0.64591530	3.15575800
25.09999869	0.00000000	23.02534000	1.62401600
25.29999867	0.00000000	42.70423000	0.46136810
25.49999866	0.00000000	54.61983000	0.13533460
25.69999865	0.00000000	55.73326000	0.92888770
25.89999864	0.00000000	45.26944000	3.29109200
26.09999863	0.00000000	25.21530000	6.77903500
26.29999862	0.00000000	0.46751960	11.00517000
26.49999860	0.00000000	-23.45595000	14.85605000
26.69999859	0.00000000	-41.17864000	17.13829000
26.89999858	0.00000000	-47.74237000	17.50738000
27.09999857	0.00000000	-42.01525000	15.09596000
27.29999856	0.00000000	-25.77510000	10.03322000
27.49999854	0.00000000	-2.60826800	2.69439000
27.69999853	0.00000000	22.09646000	-5.38262700
27.89999852	0.00000000	42.61196000	-11.89715000
28.09999851	0.00000000	54.61983000	-15.37278000
28.29999850	0.00000000	55.82554000	-14.49926000
28.49999848	0.00000000	46.14911000	-9.01205700
28.69999847	0.00000000	28.04503000	1.06422200
28.89999846	0.00000000	5.62869100	13.74262000
29.09999845	0.00000000	-15.63730000	25.68897000
29.29999844	0.00000000	-31.54527000	34.14124000
29.49999843	0.00000000	-38.94562000	36.79257000
29.69999841	0.00000000	-36.66338000	32.52337000
29.89999840	0.00000000	-25.81816000	22.11491000
30.09999839	0.00000000	-8.51377900	7.75713500
30.29999838	0.00000000	10.83292000	-7.71407400
30.49999837	0.00000000	27.49754000	-21.60433000
30.69999835	0.00000000	39.16707000	-30.43184000
30.89999834	0.00000000	43.03642000	-31.92052000
31.09999833	0.00000000	38.89025000	-25.27682000
31.29999832	0.00000000	28.42027000	-11.01132000
31.49999831	0.00000000	13.76107000	7.47416300
31.69999829	0.00000000	-1.67938000	25.63976000
31.89999828	0.00000000	-14.09941000	39.95448000
32.09999827	0.00000000	-21.49360000	47.25024000
32.29999826	0.00000000	-22.65625000	45.71235000
32.49999825	0.00000000	-17.31053000	35.67913000
32.69999824	0.00000000	-7.30807100	19.46358000
32.89999822	0.00000000	4.69980300	0.55364170
33.09999821	0.00000000	16.28322000	-16.86762000
33.29999820	0.00000000	24.79084000	-29.22613000
33.49999819	0.00000000	28.32800000	-34.28272000
33.69999818	0.00000000	26.79626000	-30.80709000
33.89999816	0.00000000	20.65084000	-20.02337000
34.09999815	0.00000000	11.39887000	-4.14000900
34.29999814	0.00000000	1.80856300	13.61343000
34.49999813	0.00000000	-5.95472400	29.40452000
34.69999812	0.00000000	-9.82406400	39.48696000
34.89999810	0.00000000	-9.49187900	41.86147000
35.09999809	0.00000000	-5.25959600	36.84178000
35.29999808	0.00000000	1.67322800	25.27067000
35.49999807	0.00000000	9.30733200	9.84867000
35.69999806	0.00000000	15.48966000	-5.53641700
35.89999805	0.00000000	18.14714000	-17.56274000
36.09999803	0.00000000	17.11368000	-23.33292000
36.29999802	0.00000000	12.88755000	-22.25640000
36.49999801	0.00000000	7.52952700	-14.54232000
36.69999800	0.00000000	2.04847400	-2.64517700
36.89999799	0.00000000	-2.51599400	10.45152000
37.09999797	0.00000000	-4.79207600	21.55512000
37.29999796	0.00000000	-3.67864200	27.36835000
37.49999795	0.00000000	0.13533460	26.66708000
37.69999794	0.00000000	5.16117100	20.57702000
37.89999793	0.00000000	10.55610000	10.96211000
38.09999791	0.00000000	14.74532000	0.59670270
38.29999790	0.00000000	16.32628000	-7.81250000
38.49999789	0.00000000	15.21284000	-11.62032000
38.69999788	0.00000000	12.18012000	-9.34424200
38.89999787	0.00000000	8.28001900	-2.14074800
39.09999786	0.00000000	4.36761800	7.43110200
39.29999784	0.00000000	0.51058070	16.25861000
39.49999783	0.00000000	-2.14074800	22.02264000
39.69999782	0.00000000	-2.60826800	23.13607000
39.89999781	0.00000000	-1.48868100	18.86688000
40.09999780	0.00000000	0.46751960	10.07628000
40.29999778	0.00000000	3.20497000	-0.60285430
40.49999777	0.00000000	6.32381900	-9.38730200
40.69999776	0.00000000	9.44266700	-13.66265000
40.89999775	0.00000000	12.13706000	-12.54921000
41.09999774	0.00000000	13.67495000	-6.78518600
41.29999772	0.00000000	13.71801000	2.12844500
41.49999771	0.00000000	12.55536000	12.49385000
41.69999770	0.00000000	10.59916000	21.64739000
41.89999769	0.00000000	7.90477300	26.29183000
42.09999768	0.00000000	5.21038300	25.55364000
42.29999767	0.00000000	3.16190900	20.15871000
42.49999765	0.00000000	1.24877000	10.96211000
42.69999764	0.00000000	-0.27682080	1.01501000
42.89999763	0.00000000	-0.23991140	-6.74212600
43.09999762	0.00000000	0.83661410	-11.01132000
43.29999761	0.00000000	2.78666300	-11.05438000
43.49999759	0.00000000	4.69980300	-7.24655500
43.69999758	0.00000000	6.32381900	-1.07037400
43.89999757	0.00000000	7.90477300	6.26845500
44.09999756	0.00000000	9.44266700	13.14591000
44.29999755	0.00000000	10.59916000	17.42126000
44.49999753	0.00000000	11.02362000	18.25787000
44.69999752	0.00000000	11.02362000	16.35089000
44.89999751	0.00000000	10.64838000	12.16166000
45.09999750	0.00000000	9.86097400	7.14812900
45.29999749	0.00000000	9.01820900	2.87278500
45.49999748	0.00000000	7.39419200	-0.60285430
45.69999746	0.00000000	4.69980300	-2.13459600
45.89999745	0.00000000	1.58095500	-1.48868100
46.09999744	0.00000000	-1.48868100	0.09227362
46.29999743	0.00000000	-3.81397600	2.46063000
46.49999742	0.00000000	-4.51525500	5.89320800
46.69999740	0.00000000	-3.30339500	8.96284400
46.89999739	0.00000000	0.59670270	10.91289000
47.09999738	0.00000000	6.36687900	11.74336000
47.29999737	0.00000000	12.60458000	11.33120000
47.49999736	0.00000000	18.37475000	10.16855000
47.69999734	0.00000000	22.18258000	7.80019600
47.89999733	0.00000000	22.51476000	4.77977300
48.09999732	0.00000000	19.06988000	2.04232300
48.29999731	0.00000000	12.46924000	0.13533460
48.49999730	0.00000000	4.32455700	-0.60285430
48.69999729	0.00000000	-4.18922200	0.55364170
48.89999727	0.00000000	-11.02977000	3.19881900
49.09999726	0.00000000	-13.72416000	6.31151500
49.29999725	0.00000000	-11.44808000	9.42421200
49.49999724	0.00000000	-5.25959600	12.11860000
49.69999723	0.00000000	3.62942900	13.61343000
49.89999721	0.00000000	13.25664000	13.23819000
50.09999720	0.00000000	20.97687000	10.91289000
50.29999719	0.00000000	25.21530000	7.47416300
50.49999718	0.00000000	24.79084000	3.57406500
50.69999717	0.00000000	19.44513000	0.17839570
50.89999715	0.00000000	10.97441000	-1.76550200
51.09999714	0.00000000	1.71628900	-1.39640700
51.29999713	0.00000000	-6.37303100	0.51058070
51.49999712	0.00000000	-10.93750000	3.62327700
51.69999711	0.00000000	-10.61147000	7.47416300
51.89999710	0.00000000	-5.67790300	10.91289000
52.09999708	0.00000000	1.62401600	13.23819000
52.29999707	0.00000000	9.35039300	13.61343000
52.49999706	0.00000000	15.90797000	12.07554000
52.69999705	0.00000000	19.30979000	9.00590400
52.89999704	0.00000000	18.60236000	5.15501900
53.09999702	0.00000000	14.05020000	1.71013800
53.29999701	0.00000000	7.90477300	-0.60285430
53.49999700	0.00000000	1.71628900	-0.97810030
53.69999699	0.00000000	-3.26033400	0.51058070
53.89999698	0.00000000	-5.16732200	3.19881900
54.09999696	0.00000000	-3.67864200	6.22539300
54.29999695	0.00000000	0.55364170	8.54453700
54.49999694	0.00000000	6.32381900	9.33809000
54.69999693	0.00000000	12.05093000	8.96284400
54.89999692	0.00000000	15.85876000	7.43110200
55.09999691	0.00000000	16.28322000	5.15501900
55.29999689	0.00000000	13.63189000	3.29109200
55.49999688	0.00000000	9.01820900	2.50369100
55.69999687	0.00000000	3.62942900	3.29109200
55.89999686	0.00000000	-0.98425190	5.19808000
56.09999685	0.00000000	-3.67864200	7.89247000
56.29999683	0.00000000	-3.67864200	10.53765000
56.49999682	0.00000000	-0.98425190	12.03248000
56.69999681	0.00000000	3.58021600	11.61417000
56.89999680	0.00000000	8.59990100	8.91978400
57.09999679	0.00000000	12.46924000	4.73671200
57.29999677	0.00000000	14.78838000	0.51058070
57.49999676	0.00000000	14.74532000	-2.55905500
57.69999675	0.00000000	12.13706000	-3.67249000
57.89999674	0.00000000	8.32308000	-2.09768700
58.09999673	0.00000000	4.83513700	2.12844500
58.29999672	0.00000000	2.09153500	7.89247000
58.49999670	0.00000000	0.59670270	13.65650000
58.69999669	0.00000000	0.92888770	17.88263000
58.89999668	0.00000000	2.78666300	19.37131000
59.09999667	0.00000000	4.74286400	17.46432000
59.29999666	0.00000000	6.69906400	12.40773000
59.49999664	0.00000000	8.59990100	5.51796200
59.69999663	0.00000000	9.39345400	-1.80856300
59.89999662	0.00000000	9.39345400	-7.16043300
60.09999661	0.00000000	8.59990100	-9.52263600
60.29999660	0.00000000	6.74212600	-8.27386800
60.49999658	0.00000000	5.25344500	-3.29724400
60.69999657	0.00000000	4.78592500	4.40452700
60.89999656	0.00000000	4.78592500	12.45079000
61.09999655	0.00000000	5.21038300	19.00221000
61.29999654	0.00000000	6.32381900	22.06570000
61.49999653	0.00000000	7.48646600	20.90305000
61.69999651	0.00000000	8.28001900	15.92642000
61.89999650	0.00000000	8.97514600	8.22465500
62.09999649	0.00000000	8.55684000	0.17839570
62.29999648	0.00000000	6.69906400	-6.40994000
62.49999647	0.00000000	4.78592500	-9.89788300
62.69999645	0.00000000	3.25418300	-9.89788300
62.89999644	0.00000000	2.46678100	-6.40994000
63.09999643	0.00000000	2.87893700	0.13533460
63.29999642	0.00000000	3.99852300	7.80019600
63.49999641	0.00000000	5.99163300	14.76993000
63.69999639	0.00000000	8.23695900	19.37131000
63.89999638	0.00000000	10.18086000	20.57702000
64.09999637	0.00000000	10.93135000	18.30093000
64.29999636	0.00000000	10.59916000	13.69956000
64.49999635	0.00000000	9.39345400	7.89247000
64.69999634	0.00000000	7.43725300	2.08538400
64.89999632	0.00000000	4.78592500	-2.55905500
65.09999631	0.00000000	2.50984200	-5.24729300
65.29999630	0.00000000	1.71628900	-5.29650500
65.49999629	0.00000000	2.09153500	-3.02042300
65.69999628	0.00000000	3.62942900	0.41830710
65.89999626	0.00000000	5.90551100	4.31840500
66.09999625	0.00000000	7.81250000	7.84940900
66.29999624	0.00000000	8.97514600	10.96211000
66.49999623	0.00000000	8.97514600	13.28125000
66.69999622	0.00000000	7.86171200	14.07480000
66.89999620	0.00000000	6.32381900	13.74262000
67.09999619	0.00000000	4.74286400	12.53691000
67.29999618	0.00000000	3.25418300	10.58686000
67.49999617	0.00000000	2.55290300	7.84940900
67.69999616	0.00000000	3.71555100	4.73671200
67.89999615	0.00000000	6.32381900	1.62401600
68.09999613	0.00000000	9.01820900	-1.11343500
68.29999612	0.00000000	10.97441000	-3.02042300
68.49999611	0.00000000	12.09400000	-3.80782500
68.69999610	0.00000000	11.62648000	-2.97736200
68.89999609	0.00000000	8.97514600	-0.60285430
69.09999607	0.00000000	5.11811000	3.66633800
69.29999606	0.00000000	1.24877000	9.00590400
69.49999605	0.00000000	-2.18996000	13.65650000
69.69999604	0.00000000	-3.67864200	16.76919000
69.89999603	0.00000000	-2.56520700	17.88263000
70.09999601	0.00000000	0.55364170	16.35089000
70.29999600	0.00000000	5.25344500	12.49385000
70.49999599	0.00000000	11.02362000	7.47416300
70.69999598	0.00000000	16.36934000	2.04232300
70.89999597	0.00000000	19.44513000	-2.55905500
71.09999596	0.00000000	19.44513000	-5.24729300
71.29999594	0.00000000	16.32628000	-5.24729300
71.49999593	0.00000000	10.55610000	-2.60211600
71.69999592	0.00000000	3.62942900	1.62401600
71.89999591	0.00000000	-2.56520700	6.26845500
72.09999590	0.00000000	-6.84055100	10.53765000
72.29999588	0.00000000	-8.37844500	13.60728000
72.49999587	0.00000000	-6.79749000	14.76993000
72.69999586	0.00000000	-2.14074800	13.60728000
72.89999585	0.00000000	4.74286400	10.58686000
73.09999584	0.00000000	11.67569000	6.77903500
73.29999582	0.00000000	16.74459000	3.75246000
73.49999581	0.00000000	19.48819000	2.50369100
73.69999580	0.00000000	19.44513000	2.87278500
73.89999579	0.00000000	16.36934000	3.99237200
74.09999578	0.00000000	10.97441000	5.89320800
74.29999577	0.00000000	4.83513700	7.33882900
74.49999575	0.00000000	-0.60900590	7.38188900
74.69999574	0.00000000	-4.05388800	6.26845500
74.89999573	0.00000000	-4.88435000	4.73671200
75.09999572	0.00000000	-2.98351400	3.15575800
75.29999571	0.00000000	0.46751960	1.66707700
75.49999569	0.00000000	4.74286400	0.97194880
75.69999568	0.00000000	8.97514600	2.17765700
75.89999567	0.00000000	12.05093000	5.24729300
76.09999566	0.00000000	13.25664000	9.43036400
76.29999565	0.00000000	12.51230000	13.23819000
76.49999563	0.00000000	10.64838000	15.14518000
76.69999562	0.00000000	8.32308000	14.76993000
76.89999561	0.00000000	6.41609200	12.07554000
77.09999560	0.00000000	5.21038300	7.80019600
77.29999559	0.00000000	4.78592500	2.73745100
77.49999558	0.00000000	4.78592500	-2.60211600
77.69999556	0.00000000	5.16117100	-6.40994000
77.89999555	0.00000000	5.85629900	-7.16043300
78.09999554	0.00000000	5.85629900	-4.87819900
78.29999553	0.00000000	5.16117100	0.13533460
78.49999552	0.00000000	4.78592500	6.26845500
78.69999550	0.00000000	4.74286400	12.11860000
78.89999549	0.00000000	4.78592500	16.72613000
79.09999548	0.00000000	5.25344500	19.04527000
79.29999547	0.00000000	6.74212600	18.25787000
79.49999546	0.00000000	8.64911400	14.81299000
79.69999544	0.00000000	9.81791200	9.42421200
79.89999543	0.00000000	10.59916000	3.66633800
80.09999542	0.00000000	10.55610000	-1.02116100
80.29999541	0.00000000	9.39345400	-4.13385800
80.49999540	0.00000000	7.43725300	-5.29650500
80.69999539	0.00000000	4.74286400	-4.13385800
80.89999537	0.00000000	2.09153500	-1.11343500
81.09999536	0.00000000	0.55364170	2.78051200
81.29999535	0.00000000	0.55364170	6.68676100
81.49999534	0.00000000	2.04847400	10.53765000
81.69999533	0.00000000	4.36761800	13.23819000
81.89999531	0.00000000	6.69906400	14.07480000
82.09999530	0.00000000	9.06742000	13.74262000
82.29999529	0.00000000	10.93135000	12.53691000
82.49999528	0.00000000	11.71875000	10.58686000
82.69999527	0.00000000	10.93135000	7.84940900
82.89999525	0.00000000	9.06742000	4.77977300
83.09999524	0.00000000	6.74212600	1.99311000
83.29999523	0.00000000	4.83513700	-0.33218500
83.49999522	0.00000000	3.62942900	-2.27608300
83.69999521	0.00000000	3.25418300	-2.97736200
83.89999520	0.00000000	3.58021600	-2.18380900
84.09999518	0.00000000	4.36761800	0.55364170
84.29999517	0.00000000	5.16117100	4.73671200
84.49999516	0.00000000	6.32381900	9.00590400
84.69999515	0.00000000	7.39419200	12.49385000
84.89999514	0.00000000	7.48646600	14.85605000
85.09999512	0.00000000	7.11737200	15.60654000
85.29999511	0.00000000	7.11122000	14.76993000
85.49999510	0.00000000	6.74212600	11.65723000
85.69999509	0.00000000	6.79133800	6.68676100
85.89999508	0.00000000	7.48646600	1.71013800
86.09999506	0.00000000	7.81250000	-2.18380900
86.29999505	0.00000000	7.48646600	-4.14000900
86.49999504	0.00000000	6.69906400	-4.14000900
86.69999503	0.00000000	5.90551100	-2.14074800
86.89999502	0.00000000	4.74286400	2.08538400
87.09999501	0.00000000	3.62942900	7.42495000
87.29999499	0.00000000	3.20497000	12.07554000
87.49999498	0.00000000	3.20497000	15.18824000
87.69999497	0.00000000	3.62942900	16.30167000
87.89999496	0.00000000	4.78592500	14.76993000
88.09999495	0.00000000	6.32381900	10.95595000
88.29999493	0.00000000	7.90477300	6.31151500
88.49999492	0.00000000	9.39345400	1.71013800
88.69999491	0.00000000	10.18086000	-1.76550200
88.89999490	0.00000000	9.76870100	-2.88508800
89.09999489	0.00000000	8.64911400	-1.76550200
89.29999487	0.00000000	6.69906400	1.71013800
89.49999486	0.00000000	4.78592500	6.26845500
89.69999485	0.00000000	3.25418300	10.53765000
89.89999484	0.00000000	2.50984200	13.60728000
90.09999483	0.00000000	3.20497000	14.72687000
90.29999482	0.00000000	4.32455700	13.18898000
90.49999480	0.00000000	5.16117100	9.38115100
90.69999479	0.00000000	6.32381900	4.77977300
90.89999478	0.00000000	7.43725300	0.55364170
91.09999477	0.00000000	7.86171200	-2.09153500
91.29999476	0.00000000	7.90477300	-2.14074800
91.49999474	0.00000000	7.86171200	0.13533460
91.69999473	0.00000000	7.48646600	3.62327700
91.89999472	0.00000000	6.74212600	7.84940900
92.09999471	0.00000000	6.36687900	11.65723000
92.29999470	0.00000000	6.32381900	13.61343000
92.49999468	0.00000000	6.32381900	13.61343000
92.69999467	0.00000000	6.28075700	11.65723000
92.89999466	0.00000000	5.90551100	7.80019600
93.09999465	0.00000000	5.16117100	3.24803100
93.29999464	0.00000000	4.74286400	-0.60285430
93.49999463	0.00000000	4.32455700	-2.50984200
93.69999461	0.00000000	3.67249000	-2.14074800
93.89999460	0.00000000	4.04773600	0.55364170
94.09999459	0.00000000	5.57332700	4.73671200
94.29999458	0.00000000	7.11737200	8.96284400
94.49999457	0.00000000	9.06742000	12.03248000
94.69999455	0.00000000	10.59916000	13.18898000
94.89999454	0.00000000	11.34966000	12.07554000
95.09999453	0.00000000	11.34350000	9.38115100
95.29999452	0.00000000	9.72563900	5.89320800
95.49999451	0.00000000	7.11122000	2.04232300
95.69999449	0.00000000	3.99852300	-0.97810030
95.89999448	0.00000000	1.67322800	-2.09153500
96.09999447	0.00000000	0.09227362	-0.60285430
96.29999446	0.00000000	-0.60900590	2.78051200
96.49999445	0.00000000	0.55364170	6.31151500
96.69999444	0.00000000	3.25418300	9.75639700
96.89999442	0.00000000	6.74212600	12.39542000
97.09999441	0.00000000	10.59916000	12.40773000
97.29999440	0.00000000	13.67495000	10.58686000
97.49999439	0.00000000	15.21284000	7.89247000
97.69999438	0.00000000	14.83760000	5.19808000
97.89999436	0.00000000	12.51230000	3.24803100
98.09999435	0.00000000	9.06742000	2.04232300
98.29999434	0.00000000	5.16117100	1.71013800
98.49999433	0.00000000	1.67322800	2.46063000
98.69999432	0.00000000	-1.02731300	4.31840500
98.89999430	0.00000000	-2.18996000	5.85014700
99.09999429	0.00000000	-1.40255900	6.68676100
99.29999428	0.00000000	0.88582670	7.47416300
99.49999427	0.00000000	4.36761800	7.80019600
99.69999426	0.00000000	7.86171200	7.47416300
99.89999425	0.00000000	10.97441000	6.77903500
100.09999423	0.00000000	13.29970000	6.77903500
100.29999422	0.00000000	14.05020000	7.47416300
100.49999421	0.00000000	13.29970000	7.84940900
100.69999420	0.00000000	10.97441000	7.84940900
100.89999419	0.00000000	7.90477300	7.42495000
101.09999417	0.00000000	4.78592500	6.26845500
101.29999416	0.00000000	2.09153500	4.73671200
101.49999415	0.00000000	0.51058070	3.19881900
101.69999414	0.00000000	0.09227362	2.04232300
101.89999413	0.00000000	0.51058070	1.66707700
102.09999411	0.00000000	2.09153500	2.08538400
102.29999410	0.00000000	4.74286400	3.61712600
102.49999409	0.00000000	7.43725300	5.93626900
102.69999408	0.00000000	9.39345400	8.26771600
102.89999407	0.00000000	10.59916000	10.58686000
103.09999406	0.00000000	10.97441000	12.07554000
103.29999404	0.00000000	10.59916000	12.07554000
103.49999403	0.00000000	9.44266700	10.53765000
103.69999402	0.00000000	7.90477300	7.84940900
103.89999401	0.00000000	6.32381900	4.77977300
104.09999400	0.00000000	4.74286400	2.04232300
104.29999398	0.00000000	3.25418300	0.13533460
104.49999397	0.00000000	2.46678100	-0.60285430
104.69999396	0.00000000	2.82972400	0.55364170
104.89999395	0.00000000	3.62942900	3.19881900
105.09999394	0.00000000	5.16117100	6.26845500
105.29999392	0.00000000	7.06815900	8.96284400
105.49999391	0.00000000	8.18774500	10.53765000
105.69999390	0.00000000	8.64911400	10.91289000
105.89999389	0.00000000	8.23695900	10.16855000
106.09999388	0.00000000	7.48646600	8.21850300
106.29999387	0.00000000	6.32381900	5.93626900
106.49999385	0.00000000	5.21038300	3.66633800
106.69999384	0.00000000	4.78592500	2.50369100
106.89999383	0.00000000	4.78592500	2.82357300
107.09999382	0.00000000	5.21038300	3.57406500
107.29999381	0.00000000	6.28075700	4.77977300
107.49999379	0.00000000	7.06815900	6.31151500
107.69999378	0.00000000	7.11737200	7.80019600
107.89999377	0.00000000	7.48646600	8.58759800
108.09999376	0.00000000	7.39419200	8.22465500
108.29999375	0.00000000	6.32381900	7.47416300
108.49999374	0.00000000	5.21038300	6.26845500
108.69999372	0.00000000	4.74286400	4.77977300
108.89999371	0.00000000	4.36761800	3.66633800
109.09999370	0.00000000	4.04773600	3.62327700
109.29999369	0.00000000	4.83513700	4.36146600
109.49999368	0.00000000	6.28075700	5.15501900
109.69999366	0.00000000	7.48646600	6.36072800
109.89999365	0.00000000	8.28001900	7.84940900
110.09999364	0.00000000	9.01820900	8.96284400
110.29999363	0.00000000	9.01820900	8.96284400
110.49999362	0.00000000	8.28001900	7.84940900
110.69999360	0.00000000	7.48646600	6.31151500
110.89999359	0.00000000	6.28075700	4.77977300
111.09999358	0.00000000	4.78592500	3.62327700
111.29999357	0.00000000	3.67249000	3.19881900
111.49999356	0.00000000	3.62942900	3.19881900
111.69999355	0.00000000	4.36761800	3.57406500
111.89999353	0.00000000	5.16117100	4.36146600
112.09999352	0.00000000	6.32381900	5.11195900
112.29999351	0.00000000	7.43725300	5.93626900
112.49999350	0.00000000	7.86171200	6.68676100
112.69999349	0.00000000	7.90477300	7.42495000
112.89999347	0.00000000	7.86171200	7.42495000
113.09999346	0.00000000	7.43725300	6.68676100
113.29999345	0.00000000	6.36687900	5.98548200
113.49999344	0.00000000	5.57947800	5.57332700
113.69999343	0.00000000	5.53026500	5.93626900
113.89999341	0.00000000	5.11811000	6.21924200
114.09999340	0.00000000	4.83513700	5.89320800
114.29999339	0.00000000	5.16117100	5.15501900
114.49999338	0.00000000	5.90551100	4.77977300
114.69999337	0.00000000	6.28075700	4.73671200
114.89999336	0.00000000	6.36687900	4.73671200
115.09999334	0.00000000	6.74212600	4.73671200
115.29999333	0.00000000	7.43725300	4.73671200
115.49999332	0.00000000	7.43725300	4.77977300
115.69999331	0.00000000	6.74212600	5.15501900
115.89999330	0.00000000	6.36687900	5.93626900
116.09999328	0.00000000	6.28075700	6.68676100
116.29999327	0.00000000	5.90551100	7.47416300
116.49999326	0.00000000	5.16117100	7.84940900
116.69999325	0.00000000	4.83513700	7.84940900
116.89999324	0.00000000	5.11811000	7.47416300
117.09999322	0.00000000	5.53026500	6.68676100
117.29999321	0.00000000	5.57947800	5.93626900
117.49999320	0.00000000	6.36687900	5.11195900
117.69999319	0.00000000	7.48646600	4.36146600
117.89999318	0.00000000	8.28001900	3.62327700
118.09999317	0.00000000	9.01820900	3.62327700
118.29999315	0.00000000	8.97514600	4.31840500
118.49999314	0.00000000	7.86171200	4.73671200
118.69999313	0.00000000	6.36687900	5.15501900
118.89999312	0.00000000	5.16117100	5.93626900
119.09999311	0.00000000	4.41067900	6.68676100
119.29999309	0.00000000	3.99852300	7.47416300
119.49999308	0.00000000	4.36761800	7.80019600
119.69999307	0.00000000	4.74286400	7.47416300
119.89999306	0.00000000	5.21038300	6.72982200
120.09999305	0.00000000	6.32381900	6.35457700
120.29999303	0.00000000	7.48646600	6.31151500
120.49999302	0.00000000	8.28001900	6.26845500
120.69999301	0.00000000	9.06742000	5.89320800
120.89999300	0.00000000	9.39345400	5.15501900
121.09999299	0.00000000	9.01820900	4.77977300
121.29999298	0.00000000	7.86171200	4.73671200
121.49999296	0.00000000	6.36687900	4.73671200
121.69999295	0.00000000	5.16117100	4.77977300
121.89999294	0.00000000	4.41067900	5.15501900
122.09999293	0.00000000	3.99852300	5.89320800
122.29999292	0.00000000	4.36761800	6.31151500
122.49999290	0.00000000	4.74286400	6.72982200
122.69999289	0.00000000	5.21038300	7.47416300
122.89999288	0.00000000	6.32381900	7.84940900
123.09999287	0.00000000	7.43725300	7.89247000
123.29999286	0.00000000	7.86171200	7.84940900
123.49999284	0.00000000	7.90477300	7.42495000
123.69999283	0.00000000	7.90477300	6.31151500
123.89999282	0.00000000	7.86171200	5.19808000
124.09999281	0.00000000	7.48646600	4.77977300
124.29999280	0.00000000	6.74212600	4.73671200
124.49999279	0.00000000	6.36687900	4.73671200
124.69999277	0.00000000	6.28075700	4.73671200
124.89999276	0.00000000	5.85629900	4.77977300
125.09999275	0.00000000	4.78592500	5.15501900
125.29999274	0.00000000	4.04773600	5.89320800
125.49999273	0.00000000	4.41067900	6.26845500
125.69999271	0.00000000	5.11811000	6.31151500
125.89999270	0.00000000	5.90551100	6.31151500
126.09999269	0.00000000	6.36687900	6.31151500
126.29999268	0.00000000	7.11737200	6.31151500
126.49999267	0.00000000	8.22465500	6.31151500
126.69999265	0.00000000	8.23695900	6.31151500
126.89999264	0.00000000	7.90477300	6.26845500
127.09999263	0.00000000	7.48646600	5.89320800
127.29999262	0.00000000	6.69906400	5.15501900
127.49999261	0.00000000	5.90551100	4.77977300
127.69999260	0.00000000	4.74286400	4.73671200
127.89999258	0.00000000	3.67249000	4.77977300
128.09999257	0.00000000	3.67249000	5.15501900
128.29999256	0.00000000	4.74286400	5.89320800
128.49999255	0.00000000	5.90551100	6.26845500
128.69999254	0.00000000	6.74212600	6.31151500
128.89999252	0.00000000	7.90477300	6.31151500
129.09999251	0.00000000	8.97514600	6.31151500
129.29999250	0.00000000	8.97514600	6.26845500
129.49999249	0.00000000	7.90477300	5.89320800
129.69999248	0.00000000	6.69906400	5.19808000
129.89999246	0.00000000	5.53026500	5.15501900
130.09999245	0.00000000	4.04773600	5.51796200
130.29999244	0.00000000	3.67249000	5.53026500
130.49999243	0.00000000	4.36761800	5.93626900
130.69999242	0.00000000	5.11811000	6.26845500
130.89999241	0.00000000	5.94857300	6.31151500
131.09999239	0.00000000	6.74212600	6.31151500
131.29999238	0.00000000	7.86171200	6.26845500
131.49999237	0.00000000	8.59990100	5.89320800
131.69999236	0.00000000	8.28001900	5.15501900
131.89999235	0.00000000	7.90477300	4.73671200
132.09999233	0.00000000	7.48646600	4.36146600
132.29999232	0.00000000	6.69906400	3.99237200
132.49999231	0.00000000	5.94857300	4.40452700
132.69999230	0.00000000	5.21038300	5.11195900
132.89999229	0.00000000	5.21038300	5.89320800
133.09999227	0.00000000	5.90551100	6.31151500
133.29999226	0.00000000	6.28075700	6.72982200
133.49999225	0.00000000	6.36687900	7.47416300
133.69999224	0.00000000	6.74212600	7.84940900
133.89999223	0.00000000	7.43725300	7.84940900
134.09999222	0.00000000	7.43725300	7.42495000
134.29999220	0.00000000	6.74212600	6.31151500
134.49999219	0.00000000	6.36687900	5.19808000
134.69999218	0.00000000	6.32381900	4.77977300
134.89999217	0.00000000	6.32381900	4.69365100
135.09999216	0.00000000	6.36687900	4.36146600
135.29999214	0.00000000	6.69906400	3.99237200
135.49999213	0.00000000	7.11122000	4.40452700
135.69999212	0.00000000	7.11737200	5.11195900
135.89999211	0.00000000	7.48646600	5.93626900
136.09999210	0.00000000	7.43725300	6.68676100
136.29999208	0.00000000	6.69906400	7.47416300
136.49999207	0.00000000	5.94857300	7.80019600
136.69999206	0.00000000	5.21038300	7.47416300
136.89999205	0.00000000	5.16117100	6.72982200
137.09999204	0.00000000	5.53026500	6.35457700
137.29999203	0.00000000	5.57947800	6.26845500
137.49999201	0.00000000	6.36687900	5.89320800
137.69999200	0.00000000	7.43725300	5.15501900
137.89999199	0.00000000	7.86171200	4.77977300
138.09999198	0.00000000	7.90477300	4.73671200
138.29999197	0.00000000	7.86171200	4.73671200
138.49999195	0.00000000	7.43725300	4.73671200
138.69999194	0.00000000	6.32381900	4.77977300
138.89999193	0.00000000	5.21038300	5.15501900
139.09999192	0.00000000	4.78592500	5.89320800
139.29999191	0.00000000	4.74286400	6.31151500
139.49999189	0.00000000	4.78592500	6.72982200
139.69999188	0.00000000	5.16117100	7.47416300
139.89999187	0.00000000	5.94857300	7.80019600
140.09999186	0.00000000	6.69906400	7.47416300
140.29999185	0.00000000	7.48646600	6.68676100
140.49999184	0.00000000	7.81250000	5.93626900
140.69999182	0.00000000	7.48646600	5.11195900
140.89999181	0.00000000	6.74212600	4.40452700
141.09999180	0.00000000	6.36687900	3.99237200
141.29999179	0.00000000	6.32381900	4.36146600
141.49999178	0.00000000	6.32381900	4.73671200
141.69999176	0.00000000	6.32381900	5.19808000
141.89999175	0.00000000	6.32381900	6.31151500
142.09999174	0.00000000	6.32381900	7.42495000
142.29999173	0.00000000	6.36687900	7.84940900
142.49999172	0.00000000	6.74212600	7.89247000
142.69999170	0.00000000	7.48646600	7.84940900
142.89999169	0.00000000	7.81250000	7.47416300
143.09999168	0.00000000	7.48646600	6.68676100
143.29999167	0.00000000	6.74212600	5.93626900
143.49999166	0.00000000	6.36687900	5.15501900
143.69999165	0.00000000	6.32381900	4.77977300
143.89999163	0.00000000	6.32381900	4.73671200
144.09999162	0.00000000	6.32381900	4.77977300
144.29999161	0.00000000	6.32381900	5.15501900
144.49999160	0.00000000	6.36687900	5.93626900
144.69999159	0.00000000	6.74212600	6.68676100
144.89999157	0.00000000	7.43725300	7.47416300
145.09999156	0.00000000	7.43725300	7.84940900
145.29999155	0.00000000	6.79133800	7.89247000
145.49999154	0.00000000	6.74212600	7.84940900
145.69999153	0.00000000	7.01894700	7.42495000
145.89999151	0.00000000	6.32381900	6.31151500
146.09999150	0.00000000	5.62869100	5.19808000
146.29999149	0.00000000	5.94857300	4.77977300
146.49999148	0.00000000	6.28075700	4.73671200
146.69999147	0.00000000	6.32381900	4.73671200
146.89999146	0.00000000	6.36687900	4.77977300
147.09999144	0.00000000	6.74212600	5.15501900
147.29999143	0.00000000	7.43725300	5.89320800
147.49999142	0.00000000	7.43725300	6.26845500
147.69999141	0.00000000	6.74212600	6.31151500
147.89999140	0.00000000	6.36687900	6.31151500
148.09999138	0.00000000	6.28075700	6.31151500
148.29999137	0.00000000	5.94857300	6.31151500
148.49999136	0.00000000	5.57947800	6.26845500
148.69999135	0.00000000	5.94857300	5.93626900
148.89999134	0.00000000	6.28075700	5.57332700
149.09999132	0.00000000	6.32381900	5.93626900
149.29999131	0.00000000	6.36687900	6.21924200
149.49999130	0.00000000	6.74212600	5.89320800
149.69999129	0.00000000	7.48646600	5.19808000
149.89999128	0.00000000	7.86171200	5.19808000
150.09999127	0.00000000	7.86171200	5.89320800
150.29999125	0.00000000	7.48646600	6.26845500
150.49999124	0.00000000	6.74212600	6.31151500
150.69999123	0.00000000	6.36687900	6.31151500
150.89999122	0.00000000	6.32381900	6.31151500
151.09999121	0.00000000	6.32381900	6.31151500
151.29999119	0.00000000	6.32381900	6.31151500
151.49999118	0.00000000	6.32381900	6.31151500
151.69999117	0.00000000	6.32381900	6.31151500
151.89999116	0.00000000	6.32381900	6.26845500
152.09999115	0.00000000	6.32381900	5.93626900
152.29999113	0.00000000	6.36687900	5.53026500
152.49999112	0.00000000	6.74212600	5.56717500
152.69999111	0.00000000	7.48646600	5.53026500
152.89999110	0.00000000	7.86171200	5.93626900
153.09999109	0.00000000	7.86171200	6.26845500
153.29999108	0.00000000	7.48646600	6.31151500
153.49999106	0.00000000	6.74212600	6.31151500
153.69999105	0.00000000	6.36687900	6.31151500
153.89999104	0.00000000	6.32381900	6.31151500
154.09999103	0.00000000	6.28075700	6.31151500
154.29999102	0.00000000	5.94857300	6.31151500
154.49999100	0.00000000	5.57947800	6.31151500
154.69999099	0.00000000	5.94857300	6.31151500
154.89999098	0.00000000	6.28075700	6.31151500
155.09999097	0.00000000	6.36687900	6.31151500
155.29999096	0.00000000	6.74212600	6.31151500
155.49999094	0.00000000	7.48646600	6.26845500
155.69999093	0.00000000	7.86171200	5.89320800
155.89999092	0.00000000	7.86171200	5.19808000
156.09999091	0.00000000	7.48646600	5.19808000
156.29999090	0.00000000	6.74212600	5.89320800
156.49999089	0.00000000	6.36687900	6.26845500
156.69999087	0.00000000	6.32381900	6.35457700
156.89999086	0.00000000	6.28075700	6.68676100
157.09999085	0.00000000	5.90551100	7.09891700
157.29999084	0.00000000	5.21038300	7.06200700
157.49999083	0.00000000	5.21038300	7.09891700
157.69999081	0.00000000	5.90551100	6.68676100
157.89999080	0.00000000	6.28075700	6.35457700
158.09999079	0.00000000	6.32381900	6.26845500
158.29999078	0.00000000	6.36687900	5.89320800
158.49999077	0.00000000	6.74212600	5.15501900
158.69999075	0.00000000	7.48646600	4.82898600
158.89999074	0.00000000	7.86171200	5.15501900
159.09999073	0.00000000	7.86171200	5.89320800
159.29999072	0.00000000	7.48646600	6.26845500
159.49999071	0.00000000	6.74212600	6.31151500
159.69999070	0.00000000	6.36687900	6.31151500
159.89999068	0.00000000	6.32381900	6.35457700
160.09999067	0.00000000	6.32381900	6.68676100
160.29999066	0.00000000	6.32381900	7.05585600
160.49999065	0.00000000	6.32381900	6.68676100
160.69999064	0.00000000	6.32381900	6.35457700
160.89999062	0.00000000	6.32381900	6.26845500
161.09999061	0.00000000	6.32381900	5.89320800
161.29999060	0.00000000	6.36687900	5.15501900
161.49999059	0.00000000	6.69906400	4.82898600
161.69999058	0.00000000	7.11122000	5.15501900
161.89999056	0.00000000	7.11737200	5.89320800
162.09999055	0.00000000	7.52952700	6.26845500
162.29999054	0.00000000	7.81250000	6.31151500
162.49999053	0.00000000	7.48646600	6.31151500
162.69999052	0.00000000	6.74212600	6.31151500
162.89999051	0.00000000	6.36687900	6.31151500
163.09999049	0.00000000	6.32381900	6.31151500
163.29999048	0.00000000	6.32381900	6.31151500
163.49999047	0.00000000	6.32381900	6.31151500
163.69999046	0.00000000	6.32381900	6.31151500
163.89999045	0.00000000	6.32381900	6.31151500
164.09999043	0.00000000	6.32381900	6.31151500
164.29999042	0.00000000	6.32381900	6.31151500
164.49999041	0.00000000	6.32381900	6.31151500
164.69999040	0.00000000	6.32381900	6.31151500
164.89999039	0.00000000	6.36687900	6.31151500
165.09999037	0.00000000	6.74212600	6.31151500
165.29999036	0.00000000	7.48646600	6.31151500
165.49999035	0.00000000	7.81250000	6.31151500
165.69999034	0.00000000	7.48646600	6.31151500
165.89999033	0.00000000	6.69906400	6.31151500
166.09999032	0.00000000	5.99163300	6.31151500
166.29999030	0.00000000	5.57947800	6.31151500
166.49999029	0.00000000	5.94857300	6.31151500
166.69999028	0.00000000	6.28075700	6.31151500
166.89999027	0.00000000	6.32381900	6.31151500
167.09999026	0.00000000	6.32381900	6.31151500
167.29999024	0.00000000	6.32381900	6.31151500
167.49999023	0.00000000	6.36687900	6.31151500
167.69999022	0.00000000	6.69906400	6.31151500
167.89999021	0.00000000	7.06815900	6.31151500
168.09999020	0.00000000	6.74212600	6.31151500
168.29999018	0.00000000	6.79133800	6.31151500
168.49999017	0.00000000	7.43725300	6.31151500
168.69999016	0.00000000	7.43725300	6.31151500
168.89999015	0.00000000	6.74212600	6.31151500
169.09999014	0.00000000	6.36687900	6.31151500
169.29999013	0.00000000	6.32381900	6.26845500
169.49999011	0.00000000	6.32381900	5.93626900
169.69999010	0.00000000	6.32381900	5.57332700
169.89999009	0.00000000	6.32381900	5.93626900
170.09999008	0.00000000	6.32381900	6.26845500
170.29999007	0.00000000	6.32381900	6.31151500
170.49999005	0.00000000	6.32381900	6.31151500
170.69999004	0.00000000	6.32381900	6.31151500
170.89999003	0.00000000	6.32381900	6.31151500
171.09999002	0.00000000	6.32381900	6.26845500
171.29999001	0.00000000	6.32381900	5.93626900
171.49998999	0.00000000	6.36687900	5.57332700
171.69998998	0.00000000	6.74212600	5.93626900
171.89998997	0.00000000	7.43725300	6.26845500
172.09998996	0.00000000	7.43725300	6.31151500
172.29998995	0.00000000	6.74212600	6.31151500
172.49998994	0.00000000	6.36687900	6.31151500
172.69998992	0.00000000	6.32381900	6.31151500
172.89998991	0.00000000	6.32381900	6.31151500
173.09998990	0.00000000	6.32381900	6.31151500
173.29998989	0.00000000	6.32381900	6.31151500
173.49998988	0.00000000	6.32381900	6.31151500
173.69998986	0.00000000	6.32381900	6.31151500
173.89998985	0.00000000	6.32381900	6.31151500
174.09998984	0.00000000	6.32381900	6.31151500
174.29998983	0.00000000	6.36687900	6.31151500
174.49998982	0.00000000	6.69906400	6.31151500
174.69998980	0.00000000	7.06815900	6.31151500
174.89998979	0.00000000	6.69906400	6.26845500
175.09998978	0.00000000	6.36687900	5.93626900
175.29998977	0.00000000	6.32381900	5.57332700
175.49998976	0.00000000	6.32381900	5.93626900
175.69998975	0.00000000	6.32381900	6.26845500
175.89998973	0.00000000	6.36687900	6.31151500
176.09998972	0.00000000	6.69906400	6.31151500
176.29998971	0.00000000	7.11122000	6.31151500
176.49998970	0.00000000	7.11737200	6.31151500
176.69998969	0.00000000	7.48646600	6.31151500
176.89998967	0.00000000	7.43725300	6.31151500
177.09998966	0.00000000	6.74212600	6.26845500
177.29998965	0.00000000	6.36687900	5.93626900
177.49998964	0.00000000	6.32381900	5.57332700
177.69998963	0.00000000	6.32381900	5.93626900
177.89998961	0.00000000	6.36687900	6.26845500
178.09998960	0.00000000	6.69906400	6.31151500
178.29998959	0.00000000	7.06815900	6.31151500
178.49998958	0.00000000	6.69906400	6.31151500
178.69998957	0.00000000	6.36687900	6.31151500
178.89998956	0.00000000	6.32381900	6.31151500
179.09998954	0.00000000	6.32381900	6.31151500
179.29998953	0.00000000	6.32381900	6.31151500
179.49998952	0.00000000	6.32381900	6.31151500
179.69998951	0.00000000	6.36687900	6.31151500
179.89998950	0.00000000	6.69906400	6.31151500
180.09998948	0.00000000	7.06815900	6.31151500
180.29998947	0.00000000	6.69906400	6.31151500
180.49998946	0.00000000	6.36687900	6.31151500
180.69998945	0.00000000	6.32381900	6.31151500
180.89998944	0.00000000	6.32381900	6.26845500
181.09998942	0.00000000	6.32381900	5.93626900
181.29998941	0.00000000	6.32381900	5.57332700
181.49998940	0.00000000	6.32381900	5.93626900
181.69998939	0.00000000	6.32381900	6.26845500
181.89998938	0.00000000	6.36687900	6.31151500
182.09998937	0.00000000	6.69906400	6.31151500
182.29998935	0.00000000	7.06815900	6.31151500
182.49998934	0.00000000	6.69906400	6.31151500
182.69998933	0.00000000	6.36687900	6.31151500
182.89998932	0.00000000	6.32381900	6.31151500
183.09998931	0.00000000	6.32381900	6.26845500
183.29998929	0.00000000	6.32381900	5.89320800
183.49998928	0.00000000	6.32381900	5.19808000
183.69998927	0.00000000	6.28075700	5.19808000
183.89998926	0.00000000	5.94857300	5.89320800
184.09998925	0.00000000	5.57947800	6.26845500
184.29998923	0.00000000	5.94857300	6.31151500
184.49998922	0.00000000	6.28075700	6.31151500
184.69998921	0.00000000	6.32381900	6.31151500
184.89998920	0.00000000	6.32381900	6.31151500
185.09998919	0.00000000	6.32381900	6.31151500
185.29998918	0.00000000	6.32381900	6.31151500
185.49998916	0.00000000	6.32381900	6.31151500
185.69998915	0.00000000	6.32381900	6.26845500
185.89998914	0.00000000	6.32381900	5.89320800
186.09998913	0.00000000	6.32381900	5.15501900
186.29998912	0.00000000	6.32381900	4.77977300
186.49998910	0.00000000	6.32381900	4.73671200
186.69998909	0.00000000	6.32381900	4.73671200
186.89998908	0.00000000	6.32381900	4.77977300
187.09998907	0.00000000	6.32381900	5.15501900
187.29998906	0.00000000	6.32381900	5.93626900
187.49998904	0.00000000	6.32381900	6.64370100
187.69998903	0.00000000	6.32381900	7.09891700
187.89998902	0.00000000	6.32381900	7.06200700
188.09998901	0.00000000	6.32381900	7.09891700
188.29998900	0.00000000	6.32381900	6.68676100
188.49998899	0.00000000	6.32381900	6.31151500
188.69998897	0.00000000	6.36687900	5.89320800
188.89998896	0.00000000	6.69906400	5.15501900
189.09998895	0.00000000	7.11122000	4.77977300
189.29998894	0.00000000	7.07431000	4.77977300
189.49998893	0.00000000	7.11122000	5.15501900
189.69998891	0.00000000	6.69906400	5.85014700
189.89998890	0.00000000	6.41609200	5.89320800
190.09998889	0.00000000	6.69906400	5.53026500
190.29998888	0.00000000	7.06815900	5.56717500
190.49998887	0.00000000	6.69906400	5.53026500
190.69998885	0.00000000	6.36687900	5.93626900
190.89998884	0.00000000	6.32381900	6.26845500
191.09998883	0.00000000	6.32381900	6.31151500
191.29998882	0.00000000	6.32381900	6.31151500
191.49998881	0.00000000	6.36687900	6.31151500
191.69998880	0.00000000	6.74212600	6.31151500
191.89998878	0.00000000	7.48646600	6.31151500
192.09998877	0.00000000	7.81250000	6.31151500
192.29998876	0.00000000	7.52952700	6.31151500
192.49998875	0.00000000	7.11737200	6.31151500
192.69998874	0.00000000	7.15428100	6.31151500
192.89998872	0.00000000	7.07431000	6.31151500
193.09998871	0.00000000	7.11122000	6.31151500
193.29998870	0.00000000	6.69906400	6.31151500
193.49998869	0.00000000	6.36687900	6.31151500
193.69998868	0.00000000	6.32381900	6.31151500
193.89998866	0.00000000	6.32381900	6.31151500
194.09998865	0.00000000	6.32381900	6.31151500
194.29998864	0.00000000	6.36687900	6.31151500
194.49998863	0.00000000	6.74212600	6.31151500
194.69998862	0.00000000	7.43725300	6.31151500
194.89998861	0.00000000	7.48646600	6.31151500
195.09998859	0.00000000	7.11737200	6.31151500
195.29998858	0.00000000	7.11122000	6.31151500
195.49998857	0.00000000	6.69906400	6.31151500
195.69998856	0.00000000	6.36687900	6.31151500
195.89998855	0.00000000	6.32381900	6.31151500
196.09998853	0.00000000	6.32381900	6.31151500
