Time	Channel A	Channel B	Channel C
(us)	(V)	(mV)	(mV)

-4.49999956	0.00000000	-54.13385000	-20.90305000
-4.29999957	0.00000000	-53.80167000	-20.57087000
-4.09999958	0.00000000	-53.75861000	-20.52780000
-3.89999959	0.00000000	-53.75861000	-20.52780000
-3.69999960	0.00000000	-53.75861000	-20.52780000
-3.49999962	0.00000000	-53.75861000	-20.52780000
-3.29999963	0.00000000	-53.75861000	-20.52780000
-3.09999964	0.00000000	-53.75861000	-20.52780000
-2.89999965	0.00000000	-53.75861000	-20.52780000
-2.69999966	0.00000000	-53.75861000	-20.52780000
-2.49999968	0.00000000	-53.75861000	-20.52780000
-2.29999969	0.00000000	-53.75861000	-20.52780000
-2.09999970	0.00000000	-53.75861000	-20.52780000
-1.89999971	0.00000000	-53.75861000	-20.52780000
-1.69999972	0.00000000	-53.71555000	-20.52780000
-1.49999973	0.00000000	-53.38336000	-20.52780000
-1.29999975	0.00000000	-53.01427000	-20.52780000
-1.09999976	0.00000000	-53.38336000	-20.52780000
-0.89999977	0.00000000	-53.71555000	-20.52780000
-0.69999978	0.00000000	-53.75861000	-20.48474000
-0.49999979	0.00000000	-53.75861000	-20.15256000
-0.29999981	0.31803640	-53.75861000	-19.78346000
-0.09999982	0.63668800	-53.75861000	-20.15256000
0.10000017	0.95533960	-53.75861000	-20.48474000
0.30000016	0.95533960	-53.75861000	-20.52780000
0.50000015	0.79601380	-53.75861000	-20.52780000
0.70000013	0.31803640	-53.75861000	-20.52780000
0.90000012	-0.63668800	-53.75861000	-20.52780000
1.10000011	-1.59264300	-53.75861000	-20.52780000
1.30000010	-2.38927200	-53.75861000	-20.48474000
1.50000009	-2.86724900	-53.75861000	-20.15256000
1.70000008	-2.38927200	-53.75861000	-19.78346000
1.90000006	-1.11466500	-53.75861000	-20.10950000
2.10000005	0.63668800	-53.75861000	-20.10950000
2.30000004	2.86724900	-53.75861000	-19.78346000
2.50000003	4.61921700	-53.75861000	-20.15256000
2.70000002	5.25652100	-53.75861000	-20.48474000
2.90000000	4.77854300	-53.75861000	-20.52780000
3.09999999	2.70792300	-53.75861000	-20.57087000
3.29999998	-0.31803640	-53.75861000	-20.90305000
3.49999997	-3.82258900	-53.75861000	-21.26599000
3.69999996	-6.53112700	-53.80167000	-20.90305000
3.89999994	-7.96444400	-54.13385000	-20.57087000
4.09999993	-7.32714100	-54.50295000	-20.48474000
4.29999992	-4.77854300	-54.13385000	-20.15256000
4.49999991	-0.79601380	-53.80167000	-19.78346000
4.69999990	3.66326300	-53.75861000	-20.15256000
4.89999989	7.32714100	-53.75861000	-20.48474000
5.09999987	9.23905000	-53.75861000	-20.52780000
5.29999986	8.92039900	-53.75861000	-20.57087000
5.49999985	6.37180100	-53.75861000	-20.94611000
5.69999984	2.07062000	-53.75861000	-21.64124000
5.89999983	-2.70792300	-53.75861000	-21.64124000
6.09999981	-6.84916400	-53.75861000	-20.94611000
6.29999980	-9.23905000	-53.75861000	-20.57087000
6.49999979	-9.23905000	-53.75861000	-20.52780000
6.69999978	-7.00848900	-53.75861000	-20.48474000
6.89999977	-3.02657500	-53.75861000	-20.15256000
7.09999975	1.27399100	-53.75861000	-19.78346000
7.29999974	5.09719500	-53.75861000	-20.15256000
7.49999973	7.32714100	-53.75861000	-20.48474000
7.69999972	7.64579200	-53.75861000	-20.57087000
7.89999971	6.05315000	-53.75861000	-20.90305000
8.09999970	3.18590100	-53.75861000	-21.26599000
8.29999968	-0.15871060	-53.75861000	-20.90305000
8.49999967	-3.02657500	-53.75861000	-20.57087000
8.69999966	-4.77854300	-53.75861000	-20.52780000
8.89999965	-5.09719500	-53.75861000	-20.52780000
9.09999964	-4.30056600	-53.75861000	-20.52780000
9.29999962	-2.54859700	-53.75861000	-20.48474000
9.49999961	-0.47736220	-53.75861000	-20.15256000
9.69999960	1.11466500	-53.71555000	-19.78346000
9.89999959	2.22994600	-53.34030000	-20.10950000
10.09999958	2.54859700	-52.64517000	-20.10950000
10.29999956	2.07062000	-52.64517000	-19.74040000
10.49999955	1.43331700	-53.34030000	-19.77731000
10.69999954	0.47736220	-53.71555000	-19.74040000
10.89999953	-0.31803640	-53.75861000	-20.15256000
11.09999952	-0.79601380	-53.75861000	-20.48474000
11.29999951	-0.95533960	-53.75861000	-20.48474000
11.49999949	-0.95533960	-53.75861000	-20.15256000
11.69999948	-0.79601380	-53.75861000	-19.78346000
11.89999947	-0.31803640	-53.75861000	-20.10950000
12.09999946	-0.15871060	-53.75861000	-20.06029000
12.29999945	-0.15871060	-53.75861000	-19.41437000
12.49999943	0.00000000	-53.75861000	-19.41437000
12.69999942	0.00000000	-53.71555000	-20.10950000
12.89999941	0.00000000	-53.38336000	-20.48474000
13.09999940	0.00000000	-52.97121000	-20.52780000
13.29999939	0.15871060	-53.00812000	-20.52780000
13.49999937	0.00000000	-52.92815000	-20.48474000
13.69999936	0.00000000	-53.00812000	-20.15256000
13.89999935	0.00000000	-52.97121000	-19.78346000
14.09999934	-0.15871060	-53.38336000	-20.15256000
14.29999933	-0.15871060	-53.71555000	-20.48474000
14.49999932	-0.15871060	-53.71555000	-20.52780000
14.69999930	0.00000000	-53.38336000	-20.52780000
14.89999929	0.00000000	-53.01427000	-20.52780000
15.09999928	0.00000000	-53.38336000	-20.52780000
15.29999927	0.00000000	-53.71555000	-20.52780000
15.49999926	0.00000000	-53.75861000	-20.52780000
15.69999924	0.00000000	-53.75861000	-20.52780000
15.89999923	0.00000000	-53.75861000	-20.52780000
16.09999922	0.00000000	-53.75861000	-20.52780000
16.29999921	0.00000000	-53.75861000	-20.52780000
16.49999920	0.00000000	-53.71555000	-20.52780000
16.69999919	-0.15871060	-53.34030000	-20.52780000
16.89999917	0.00000000	-52.55290000	-20.52780000
17.09999916	0.00000000	-51.80241000	-20.52780000
17.29999915	0.00000000	-51.01501000	-20.52780000
17.49999914	0.00000000	-50.68897000	-20.52780000
17.69999913	0.00000000	-51.01501000	-20.52780000
17.89999911	0.00000000	-51.84547000	-20.57087000
18.09999910	0.00000000	-52.97121000	-20.90305000
18.29999909	0.00000000	-54.54601000	-21.26599000
18.49999908	0.00000000	-55.71481000	-20.90305000
18.69999907	0.00000000	-56.92052000	-20.57087000
18.89999905	0.00000000	-57.99089000	-20.52780000
19.09999904	0.00000000	-57.99089000	-20.52780000
19.29999903	0.00000000	-56.78519000	-20.48474000
19.49999902	0.00000000	-54.45374000	-20.15256000
19.69999901	0.00000000	-50.97194000	-19.78346000
19.89999900	0.00000000	-47.47785000	-20.15256000
20.09999898	0.00000000	-44.36515000	-20.48474000
20.29999897	0.00000000	-42.13213000	-20.52780000
20.49999896	0.00000000	-42.21825000	-20.52780000
20.69999895	0.00000000	-45.33710000	-20.52780000
20.89999894	0.00000000	-51.15034000	-20.52780000
21.09999892	0.00000000	-58.50147000	-20.52780000
21.29999891	0.00000000	-65.85260000	-20.52780000
21.49999890	0.00000000	-71.57972000	-20.52780000
21.69999889	0.00000000	-73.81274000	-20.52780000
21.89999888	0.00000000	-71.02608000	-20.52780000
22.09999886	0.00000000	-63.29971000	-20.52780000
22.29999885	0.00000000	-52.04232000	-20.52780000
22.49999884	0.00000000	-39.66535000	-20.52780000
22.69999883	0.00000000	-28.49409000	-20.52780000
22.89999882	0.00000000	-21.65354000	-20.48474000
23.09999881	0.00000000	-21.74582000	-20.10950000
23.29999879	0.00000000	-29.51525000	-19.36516000
23.49999878	0.00000000	-43.84227000	-18.94685000
23.69999877	0.00000000	-61.57726000	-18.52854000
23.89999876	0.00000000	-78.59866000	-17.83341000
24.09999875	0.00000000	-90.88952000	-17.83341000
24.29999873	0.00000000	-95.44782000	-18.57160000
24.49999872	0.00000000	-89.96062000	-19.36516000
24.69999871	0.00000000	-75.30142000	-20.57087000
24.89999870	0.00000000	-54.74286000	-22.10261000
25.09999869	0.00000000	-32.35728000	-23.64050000
25.29999867	0.00000000	-13.14591000	-24.79700000
25.49999866	0.00000000	-2.76820900	-25.12918000
25.69999865	0.00000000	-3.88164400	-24.33563000
25.89999864	0.00000000	-15.88952000	-21.96727000
26.09999863	0.00000000	-36.40502000	-18.47933000
26.29999862	0.00000000	-61.15280000	-14.25320000
26.49999860	0.00000000	-84.70103000	-10.44537000
26.69999859	0.00000000	-101.59320000	-8.48917200
26.89999858	0.00000000	-107.03740000	-8.53838500
27.09999857	0.00000000	-99.73547000	-10.95595000
27.29999856	0.00000000	-82.36958000	-16.38779000
27.49999854	0.00000000	-58.36614000	-23.72662000
27.69999853	0.00000000	-33.32923000	-31.44069000
27.89999852	0.00000000	-13.23204000	-37.94907000
28.09999851	0.00000000	-2.71899600	-40.96949000
28.29999850	0.00000000	-3.41412400	-39.39468000
28.49999848	0.00000000	-14.25935000	-33.16314000
28.69999847	0.00000000	-33.19390000	-23.08686000
28.89999846	0.00000000	-55.94857000	-11.09744000
29.09999845	0.00000000	-76.83932000	0.42445860
29.29999844	0.00000000	-91.59080000	8.45841400
29.49999843	0.00000000	-97.44709000	10.37155000
29.69999841	0.00000000	-93.63312000	5.67790300
29.89999840	0.00000000	-81.67445000	-5.14886800
30.09999839	0.00000000	-64.22859000	-20.19562000
30.29999838	0.00000000	-44.96186000	-35.67298000
30.49999837	0.00000000	-28.30955000	-48.81889000
30.69999835	0.00000000	-18.20866000	-56.85900000
30.89999834	0.00000000	-15.79724000	-57.18504000
31.09999833	0.00000000	-21.19217000	-49.42790000
31.29999832	0.00000000	-32.73252000	-34.74409000
31.49999831	0.00000000	-47.47785000	-16.25246000
31.69999829	0.00000000	-62.55536000	1.53789400
31.89999828	0.00000000	-74.93233000	15.05905000
32.09999827	0.00000000	-81.53912000	21.61048000
32.29999826	0.00000000	-81.63139000	19.24212000
32.49999825	0.00000000	-75.81200000	8.45841400
32.69999824	0.00000000	-65.39124000	-8.49532500
32.89999822	0.00000000	-52.68823000	-27.44832000
33.09999821	0.00000000	-41.10482000	-44.45743000
33.29999820	0.00000000	-33.32923000	-56.44070000
33.49999819	0.00000000	-30.58563000	-60.29773000
33.69999818	0.00000000	-33.23696000	-55.74557000
33.89999816	0.00000000	-40.12672000	-44.13140000
34.09999815	0.00000000	-49.01575000	-27.90969000
34.29999814	0.00000000	-57.94783000	-10.49459000
34.49999813	0.00000000	-65.25590000	4.56446800
34.69999812	0.00000000	-69.06988000	14.22244000
34.89999810	0.00000000	-67.95644000	16.12943000
35.09999809	0.00000000	-62.64764000	10.03937000
35.29999808	0.00000000	-55.33957000	-2.31299200
35.49999807	0.00000000	-48.03149000	-17.74114000
35.69999806	0.00000000	-42.64272000	-33.12008000
35.89999805	0.00000000	-40.63730000	-44.31594000
36.09999803	0.00000000	-41.79995000	-48.64050000
36.29999802	0.00000000	-45.66929000	-46.40133000
36.49999801	0.00000000	-51.80241000	-38.27509000
36.69999800	0.00000000	-57.90477000	-26.37795000
36.89999799	0.00000000	-62.13705000	-13.64419000
37.09999797	0.00000000	-63.34276000	-3.28494100
37.29999796	0.00000000	-61.43578000	2.10383800
37.49999795	0.00000000	-57.61565000	0.98425190
37.69999794	0.00000000	-52.55290000	-5.84399600
37.89999793	0.00000000	-47.57013000	-15.83415000
38.09999791	0.00000000	-43.71309000	-26.19340000
38.29999790	0.00000000	-42.17519000	-34.23351000
38.49999789	0.00000000	-43.28863000	-37.26009000
38.69999788	0.00000000	-46.36442000	-34.27657000
38.89999787	0.00000000	-50.59670000	-26.61786000
39.09999786	0.00000000	-54.87204000	-17.08292000
39.29999784	0.00000000	-58.36614000	-8.25541300
39.49999783	0.00000000	-60.69144000	-3.32800200
39.69999782	0.00000000	-61.06668000	-3.65403500
39.89999781	0.00000000	-59.61491000	-9.04281500
40.09999780	0.00000000	-57.25270000	-17.87647000
40.29999778	0.00000000	-54.50295000	-27.82357000
40.49999777	0.00000000	-51.01501000	-35.85752000
40.69999776	0.00000000	-47.94537000	-39.34547000
40.89999775	0.00000000	-45.94611000	-37.81373000
41.09999774	0.00000000	-44.78346000	-31.63140000
41.29999772	0.00000000	-44.78346000	-22.01033000
41.49999771	0.00000000	-45.94611000	-11.69414000
41.69999770	0.00000000	-47.90231000	-3.61097400
41.89999769	0.00000000	-50.63976000	-0.12918310
42.09999768	0.00000000	-53.71555000	-1.61786400
42.29999767	0.00000000	-56.40993000	-7.41879900
42.49999765	0.00000000	-58.03395000	-16.25246000
42.69999764	0.00000000	-58.83366000	-25.86737000
42.89999763	0.00000000	-59.15354000	-33.53838000
43.09999762	0.00000000	-57.99089000	-37.43848000
43.29999761	0.00000000	-55.75787000	-36.69414000
43.49999759	0.00000000	-53.80167000	-32.14198000
43.69999758	0.00000000	-52.17765000	-25.21530000
43.89999757	0.00000000	-50.59670000	-17.87647000
44.09999756	0.00000000	-49.05881000	-11.69414000
44.29999755	0.00000000	-47.90231000	-7.83710600
44.49999753	0.00000000	-47.47785000	-7.41879900
44.69999752	0.00000000	-47.47785000	-10.02707000
44.89999751	0.00000000	-47.85310000	-14.25320000
45.09999750	0.00000000	-48.68356000	-18.90379000
45.29999749	0.00000000	-49.85236000	-23.17298000
45.49999748	0.00000000	-51.84547000	-26.28568000
45.69999746	0.00000000	-54.17691000	-27.82357000
45.89999745	0.00000000	-56.96358000	-27.44832000
46.09999744	0.00000000	-59.99015000	-25.17224000
46.29999743	0.00000000	-62.27239000	-22.10261000
46.49999742	0.00000000	-62.64764000	-18.98991000
46.69999740	0.00000000	-61.06668000	-16.25246000
46.89999739	0.00000000	-57.48031000	-14.34547000
47.09999738	0.00000000	-51.71013000	-13.55807000
47.29999737	0.00000000	-45.15871000	-14.34547000
47.49999736	0.00000000	-39.80069000	-16.25246000
47.69999734	0.00000000	-36.68799000	-18.94685000
47.89999733	0.00000000	-37.10014000	-21.68430000
48.09999732	0.00000000	-40.59424000	-24.00960000
48.29999731	0.00000000	-46.82579000	-25.91043000
48.49999730	0.00000000	-54.96432000	-26.24262000
48.69999729	0.00000000	-63.02288000	-24.75394000
48.89999727	0.00000000	-69.20522000	-22.05955000
49.09999726	0.00000000	-71.44439000	-18.94685000
49.29999725	0.00000000	-69.16215000	-15.83415000
49.49999724	0.00000000	-62.55536000	-13.18282000
49.69999723	0.00000000	-53.38336000	-12.06939000
49.89999721	0.00000000	-44.03912000	-13.18282000
50.09999720	0.00000000	-36.72490000	-15.87721000
50.29999719	0.00000000	-32.54183000	-19.40822000
50.49999718	0.00000000	-33.70448000	-23.59129000
50.69999717	0.00000000	-39.80069000	-27.03002000
50.89999715	0.00000000	-48.27140000	-28.24188000
51.09999714	0.00000000	-57.57259000	-27.86663000
51.29999713	0.00000000	-65.20669000	-25.86737000
51.49999712	0.00000000	-69.06988000	-22.05955000
51.69999711	0.00000000	-67.90723000	-17.83341000
51.89999710	0.00000000	-62.22933000	-14.34547000
52.09999708	0.00000000	-54.17691000	-12.02018000
52.29999707	0.00000000	-46.49975000	-11.69414000
52.49999706	0.00000000	-41.01255000	-13.55807000
52.69999705	0.00000000	-38.73031000	-17.03986000
52.89999704	0.00000000	-39.84990000	-20.85384000
53.09999702	0.00000000	-44.50049000	-24.33563000
53.29999701	0.00000000	-51.01501000	-26.24262000
53.49999700	0.00000000	-57.90477000	-26.28568000
53.69999699	0.00000000	-62.87524000	-24.75394000
53.89999698	0.00000000	-64.04404000	-22.05955000
54.09999696	0.00000000	-61.84793000	-19.03297000
54.29999695	0.00000000	-57.16043000	-16.71383000
54.49999694	0.00000000	-51.42716000	-15.96334000
54.69999693	0.00000000	-45.66929000	-16.67077000
54.89999692	0.00000000	-42.26747000	-18.61466000
55.09999691	0.00000000	-42.17519000	-20.85384000
55.29999689	0.00000000	-44.86958000	-22.75467000
55.49999688	0.00000000	-49.48326000	-23.12992000
55.69999687	0.00000000	-54.87204000	-21.96727000
55.89999686	0.00000000	-59.43651000	-19.68504000
56.09999685	0.00000000	-61.76181000	-16.62770000
56.29999683	0.00000000	-61.06668000	-14.38853000
56.49999682	0.00000000	-58.36614000	-13.60113000
56.69999681	0.00000000	-54.45374000	-14.80684000
56.89999680	0.00000000	-49.48326000	-17.87647000
57.09999679	0.00000000	-45.29404000	-22.10261000
57.29999677	0.00000000	-43.33784000	-26.28568000
57.49999676	0.00000000	-43.66388000	-28.98007000
57.69999675	0.00000000	-45.98917000	-29.35531000
57.89999674	0.00000000	-49.43405000	-27.40526000
58.09999673	0.00000000	-53.29109000	-23.12992000
58.29999672	0.00000000	-56.36687000	-17.36589000
58.49999670	0.00000000	-57.94783000	-11.60187000
58.69999669	0.00000000	-57.90477000	-7.37573800
58.89999668	0.00000000	-56.08390000	-5.88705700
59.09999667	0.00000000	-53.38951000	-7.83710600
59.29999666	0.00000000	-51.42716000	-13.22589000
59.49999664	0.00000000	-49.48326000	-20.52780000
59.69999663	0.00000000	-48.40674000	-27.82357000
59.89999662	0.00000000	-49.05881000	-33.21235000
60.09999661	0.00000000	-50.22145000	-35.11934000
60.29999660	0.00000000	-51.39025000	-33.21235000
60.49999658	0.00000000	-52.92200000	-27.78051000
60.69999657	0.00000000	-53.66634000	-20.10950000
60.89999656	0.00000000	-53.71555000	-12.02633000
61.09999655	0.00000000	-53.29109000	-5.88705700
61.29999654	0.00000000	-52.13459000	-3.19266700
61.49999653	0.00000000	-50.63976000	-4.73056000
61.69999651	0.00000000	-49.52633000	-10.07013000
61.89999650	0.00000000	-49.52633000	-17.41511000
62.09999649	0.00000000	-50.63976000	-25.17224000
62.29999648	0.00000000	-52.17765000	-32.04970000
62.49999647	0.00000000	-53.75861000	-35.85752000
62.69999645	0.00000000	-55.29650000	-35.16240000
62.89999644	0.00000000	-56.40993000	-30.97933000
63.09999643	0.00000000	-56.36687000	-24.75394000
63.29999642	0.00000000	-54.82898000	-17.41511000
63.49999641	0.00000000	-52.17765000	-10.53765000
63.69999639	0.00000000	-49.48326000	-6.30536400
63.89999638	0.00000000	-47.57013000	-5.84399600
64.09999637	0.00000000	-46.78272000	-8.48917200
64.29999636	0.00000000	-47.57013000	-13.13976000
64.49999635	0.00000000	-49.43405000	-18.94685000
64.69999634	0.00000000	-51.80241000	-24.75394000
64.89999632	0.00000000	-54.09079000	-29.35531000
65.09999631	0.00000000	-56.03469000	-31.67446000
65.29999630	0.00000000	-56.78519000	-30.97933000
65.49999629	0.00000000	-56.40993000	-28.32800000
65.69999628	0.00000000	-54.87204000	-24.84621000
65.89999626	0.00000000	-52.59596000	-20.94611000
66.09999625	0.00000000	-50.68897000	-17.45817000
66.29999624	0.00000000	-49.52633000	-14.67150000
66.49999623	0.00000000	-49.48326000	-12.72146000
66.69999622	0.00000000	-50.26451000	-11.55881000
66.89999620	0.00000000	-51.43332000	-11.55881000
67.09999619	0.00000000	-53.34030000	-12.72146000
67.29999618	0.00000000	-54.78592000	-14.67150000
67.49999617	0.00000000	-54.82898000	-17.41511000
67.69999616	0.00000000	-53.66634000	-20.52780000
67.89999615	0.00000000	-51.71013000	-23.64050000
68.09999613	0.00000000	-49.01575000	-26.32874000
68.29999612	0.00000000	-46.40748000	-27.90969000
68.49999611	0.00000000	-45.29404000	-28.28494000
68.69999610	0.00000000	-46.45054000	-27.44832000
68.89999609	0.00000000	-49.48326000	-24.71087000
69.09999607	0.00000000	-53.38336000	-20.47859000
69.29999606	0.00000000	-57.25270000	-15.83415000
69.49999605	0.00000000	-60.69144000	-11.55881000
69.69999604	0.00000000	-62.18011000	-8.48917200
69.89999603	0.00000000	-61.01746000	-7.37573800
70.09999601	0.00000000	-57.52953000	-8.90747900
70.29999600	0.00000000	-52.13459000	-12.80758000
70.49999599	0.00000000	-46.36442000	-18.20251000
70.69999598	0.00000000	-41.70767000	-24.33563000
70.89999597	0.00000000	-39.01329000	-28.93701000
71.09999596	0.00000000	-39.05635000	-30.93627000
71.29999594	0.00000000	-42.17519000	-30.56102000
71.49999593	0.00000000	-47.94537000	-27.82357000
71.69999592	0.00000000	-54.87204000	-23.21604000
71.89999591	0.00000000	-61.06668000	-17.87647000
72.09999590	0.00000000	-65.29897000	-13.60113000
72.29999588	0.00000000	-66.46161000	-11.27584000
72.49999587	0.00000000	-64.13631000	-10.86368000
72.69999586	0.00000000	-59.15354000	-12.76452000
72.89999585	0.00000000	-52.55290000	-15.78494000
73.09999584	0.00000000	-46.03223000	-18.89764000
73.29999582	0.00000000	-40.96949000	-21.59203000
73.49999581	0.00000000	-38.63804000	-23.12992000
73.69999580	0.00000000	-39.01329000	-23.17298000
73.89999579	0.00000000	-42.13213000	-22.05955000
74.09999578	0.00000000	-47.52707000	-20.52780000
74.29999577	0.00000000	-53.66634000	-19.03912000
74.49999575	0.00000000	-59.06127000	-18.29478000
74.69999574	0.00000000	-62.18011000	-19.08218000
74.89999573	0.00000000	-62.59842000	-20.94611000
75.09999572	0.00000000	-60.69144000	-23.22219000
75.29999571	0.00000000	-56.87746000	-24.71087000
75.49999569	0.00000000	-52.64517000	-24.71087000
75.69999568	0.00000000	-49.10802000	-23.12992000
75.89999567	0.00000000	-46.40748000	-20.06029000
76.09999566	0.00000000	-45.24483000	-16.20325000
76.29999565	0.00000000	-45.98917000	-12.76452000
76.49999563	0.00000000	-47.85310000	-10.48843000
76.69999562	0.00000000	-50.17839000	-10.53765000
76.89999561	0.00000000	-52.08538000	-13.22589000
77.09999560	0.00000000	-53.29109000	-17.87647000
77.29999559	0.00000000	-53.71555000	-23.64050000
77.49999558	0.00000000	-53.71555000	-29.02928000
77.69999556	0.00000000	-53.34030000	-32.42495000
77.89999555	0.00000000	-52.59596000	-32.83710000
78.09999554	0.00000000	-52.26993000	-29.77362000
78.29999553	0.00000000	-52.59596000	-24.79700000
78.49999552	0.00000000	-53.34030000	-18.94685000
78.69999550	0.00000000	-53.66634000	-13.13976000
78.89999549	0.00000000	-53.34030000	-8.53838500
79.09999548	0.00000000	-52.50984000	-6.26230300
79.29999547	0.00000000	-51.34104000	-7.37573800
79.49999546	0.00000000	-49.39099000	-11.18356000
79.69999544	0.00000000	-47.52707000	-16.20325000
79.89999543	0.00000000	-46.36442000	-21.63509000
80.09999542	0.00000000	-46.40748000	-26.28568000
80.29999541	0.00000000	-47.94537000	-29.39837000
80.49999540	0.00000000	-50.63976000	-30.56102000
80.69999539	0.00000000	-53.66634000	-29.39837000
80.89999537	0.00000000	-56.03469000	-26.32874000
81.09999536	0.00000000	-57.20349000	-22.10261000
81.29999535	0.00000000	-57.57259000	-17.83341000
81.49999534	0.00000000	-56.36687000	-14.34547000
81.69999533	0.00000000	-53.66634000	-11.93405000
81.89999531	0.00000000	-50.31373000	-10.80832000
82.09999530	0.00000000	-47.57627000	-10.77141000
82.29999529	0.00000000	-46.72736000	-12.34621000
82.49999528	0.00000000	-46.36442000	-14.62844000
82.69999527	0.00000000	-47.20103000	-17.41511000
82.89999525	0.00000000	-49.80315000	-20.52780000
83.09999524	0.00000000	-52.08538000	-23.64050000
83.29999523	0.00000000	-53.71555000	-26.32874000
83.49999522	0.00000000	-54.87204000	-27.86663000
83.69999521	0.00000000	-55.24729000	-27.90969000
83.89999520	0.00000000	-54.87204000	-26.70398000
84.09999518	0.00000000	-53.71555000	-24.33563000
84.29999517	0.00000000	-52.22071000	-20.47859000
84.49999516	0.00000000	-51.06422000	-16.25246000
84.69999515	0.00000000	-50.63976000	-12.72146000
84.89999514	0.00000000	-50.59670000	-10.07013000
85.09999512	0.00000000	-50.59670000	-9.33193800
85.29999511	0.00000000	-50.59670000	-11.22662000
85.49999510	0.00000000	-50.59670000	-14.67150000
85.69999509	0.00000000	-50.59670000	-18.98991000
85.89999508	0.00000000	-50.55364000	-23.64050000
86.09999506	0.00000000	-50.22145000	-27.86663000
86.29999505	0.00000000	-49.85236000	-30.51181000
86.49999504	0.00000000	-50.26451000	-30.51181000
86.69999503	0.00000000	-51.01501000	-27.82357000
86.89999502	0.00000000	-52.22071000	-23.21604000
87.09999501	0.00000000	-53.71555000	-17.83341000
87.29999499	0.00000000	-54.87204000	-13.22589000
87.49999498	0.00000000	-55.20423000	-10.48843000
87.69999497	0.00000000	-54.45374000	-10.07013000
87.89999496	0.00000000	-52.55290000	-11.65108000
88.09999495	0.00000000	-50.63976000	-15.13902000
88.29999493	0.00000000	-49.05881000	-20.10950000
88.49999492	0.00000000	-47.90231000	-24.71087000
88.69999491	0.00000000	-47.52707000	-27.78051000
88.89999490	0.00000000	-47.94537000	-28.56176000
89.09999489	0.00000000	-49.48326000	-26.66092000
89.29999487	0.00000000	-51.75935000	-23.21604000
89.49999486	0.00000000	-53.66634000	-18.94685000
89.69999485	0.00000000	-54.87204000	-14.72072000
89.89999484	0.00000000	-55.24729000	-11.69414000
90.09999483	0.00000000	-54.87204000	-10.90674000
90.29999482	0.00000000	-53.71555000	-12.80758000
90.49999480	0.00000000	-52.17765000	-16.25246000
90.69999479	0.00000000	-50.63976000	-20.52780000
90.89999478	0.00000000	-49.48326000	-24.71087000
91.09999477	0.00000000	-49.05881000	-27.35605000
91.29999476	0.00000000	-49.05881000	-27.40526000
91.49999474	0.00000000	-49.43405000	-25.08612000
91.69999473	0.00000000	-50.17839000	-21.26599000
91.89999472	0.00000000	-50.59670000	-16.67077000
92.09999471	0.00000000	-51.01501000	-13.22589000
92.29999470	0.00000000	-51.75935000	-11.64493000
92.49999468	0.00000000	-52.13459000	-12.06939000
92.69999467	0.00000000	-52.17765000	-14.72072000
92.89999466	0.00000000	-52.17765000	-18.57160000
93.09999465	0.00000000	-52.22071000	-22.43479000
93.29999464	0.00000000	-52.59596000	-25.91043000
93.49999463	0.00000000	-53.34030000	-27.73130000
93.69999461	0.00000000	-53.66634000	-26.98080000
93.89999460	0.00000000	-53.29109000	-23.54823000
94.09999459	0.00000000	-52.08538000	-18.98991000
94.29999458	0.00000000	-50.17839000	-14.76378000
94.49999457	0.00000000	-47.90231000	-12.06939000
94.69999455	0.00000000	-46.36442000	-11.64493000
94.89999454	0.00000000	-45.94611000	-13.18282000
95.09999453	0.00000000	-46.36442000	-16.25246000
95.29999452	0.00000000	-47.94537000	-20.10950000
95.49999451	0.00000000	-50.63976000	-23.54823000
95.69999449	0.00000000	-53.71555000	-25.86737000
95.89999448	0.00000000	-56.45300000	-26.24262000
96.09999447	0.00000000	-58.32308000	-24.75394000
96.29999446	0.00000000	-58.73523000	-22.05955000
96.49999445	0.00000000	-57.16043000	-18.94685000
96.69999444	0.00000000	-54.50295000	-15.87721000
96.89999442	0.00000000	-50.97194000	-13.60113000
97.09999441	0.00000000	-47.52707000	-13.22589000
97.29999440	0.00000000	-44.78346000	-14.72072000
97.49999439	0.00000000	-43.24557000	-17.36589000
97.69999438	0.00000000	-43.28863000	-20.06029000
97.89999436	0.00000000	-45.20177000	-22.01649000
98.09999435	0.00000000	-48.68356000	-23.17298000
98.29999434	0.00000000	-52.55290000	-23.17298000
98.49999433	0.00000000	-56.40993000	-22.05955000
98.69999432	0.00000000	-59.06127000	-20.52780000
98.89999430	0.00000000	-59.52879000	-18.98991000
99.09999429	0.00000000	-58.40920000	-17.83341000
99.29999428	0.00000000	-56.40993000	-17.40895000
99.49999427	0.00000000	-53.29109000	-17.36589000
99.69999426	0.00000000	-49.43405000	-17.36589000
99.89999425	0.00000000	-45.98917000	-17.36589000
100.09999423	0.00000000	-43.66388000	-17.36589000
100.29999422	0.00000000	-43.24557000	-17.36589000
100.49999421	0.00000000	-44.36515000	-17.36589000
100.69999420	0.00000000	-46.36442000	-17.40895000
100.89999419	0.00000000	-49.43405000	-17.78420000
101.09999417	0.00000000	-52.87278000	-18.61466000
101.29999416	0.00000000	-55.20423000	-19.78346000
101.49999415	0.00000000	-56.45300000	-21.68430000
101.69999414	0.00000000	-56.82825000	-23.17298000
101.89999413	0.00000000	-56.40993000	-23.59129000
102.09999411	0.00000000	-54.87204000	-23.17298000
102.29999410	0.00000000	-52.55290000	-21.59203000
102.49999409	0.00000000	-50.22145000	-18.94685000
102.69999408	0.00000000	-47.90231000	-16.25246000
102.89999407	0.00000000	-46.40748000	-14.29626000
103.09999406	0.00000000	-46.32135000	-13.13976000
103.29999404	0.00000000	-47.05954000	-13.18282000
103.49999403	0.00000000	-47.90231000	-14.72072000
103.69999402	0.00000000	-49.48326000	-17.41511000
103.89999401	0.00000000	-51.75935000	-20.47859000
104.09999400	0.00000000	-53.66634000	-23.22219000
104.29999398	0.00000000	-54.87204000	-25.08612000
104.49999397	0.00000000	-55.24729000	-25.49212000
104.69999396	0.00000000	-54.82898000	-23.96653000
104.89999395	0.00000000	-53.34030000	-21.68430000
105.09999394	0.00000000	-51.43332000	-18.94685000
105.29999392	0.00000000	-50.26451000	-16.29552000
105.49999391	0.00000000	-49.43405000	-14.72072000
105.69999390	0.00000000	-49.05881000	-14.34547000
105.89999389	0.00000000	-49.05881000	-15.08981000
106.09999388	0.00000000	-49.48326000	-17.03986000
106.29999387	0.00000000	-50.59670000	-19.27288000
106.49999385	0.00000000	-51.71013000	-21.26599000
106.69999384	0.00000000	-52.13459000	-22.38558000
106.89999383	0.00000000	-52.17765000	-22.79773000
107.09999382	0.00000000	-52.13459000	-22.01649000
107.29999381	0.00000000	-51.71013000	-20.52780000
107.49999379	0.00000000	-50.59670000	-18.94685000
107.69999378	0.00000000	-49.52633000	-17.45817000
107.89999377	0.00000000	-49.48326000	-16.67077000
108.09999376	0.00000000	-50.22145000	-17.03371000
108.29999375	0.00000000	-51.01501000	-17.78420000
108.49999374	0.00000000	-52.17765000	-18.98991000
108.69999372	0.00000000	-53.24803000	-20.47859000
108.89999371	0.00000000	-53.29109000	-21.59203000
109.09999370	0.00000000	-52.59596000	-21.59203000
109.29999369	0.00000000	-52.17765000	-20.47859000
109.49999368	0.00000000	-51.71013000	-18.94685000
109.69999366	0.00000000	-50.59670000	-17.40895000
109.89999365	0.00000000	-49.43405000	-16.25246000
110.09999364	0.00000000	-48.68356000	-15.87721000
110.29999363	0.00000000	-48.32062000	-16.25246000
110.49999362	0.00000000	-49.10802000	-17.40895000
110.69999360	0.00000000	-50.55364000	-18.94685000
110.89999359	0.00000000	-51.75935000	-20.47859000
111.09999358	0.00000000	-52.55290000	-21.64124000
111.29999357	0.00000000	-53.34030000	-22.05955000
111.49999356	0.00000000	-53.66634000	-22.10261000
111.69999355	0.00000000	-53.29109000	-22.01033000
111.89999353	0.00000000	-52.13459000	-21.26599000
112.09999352	0.00000000	-50.63976000	-19.74040000
112.29999351	0.00000000	-49.48326000	-18.61466000
112.49999350	0.00000000	-49.05881000	-17.78420000
112.69999349	0.00000000	-49.01575000	-17.45817000
112.89999347	0.00000000	-49.05881000	-17.78420000
113.09999346	0.00000000	-49.43405000	-18.52854000
113.29999345	0.00000000	-50.22145000	-18.90379000
113.49999344	0.00000000	-50.97194000	-18.98991000
113.69999343	0.00000000	-51.75935000	-19.32210000
113.89999341	0.00000000	-52.13459000	-19.69119000
114.09999340	0.00000000	-52.17765000	-19.36516000
114.29999339	0.00000000	-52.13459000	-19.41437000
114.49999338	0.00000000	-51.71013000	-20.10950000
114.69999337	0.00000000	-50.63976000	-20.48474000
114.89999336	0.00000000	-49.85236000	-20.52780000
115.09999334	0.00000000	-49.84621000	-20.52780000
115.29999333	0.00000000	-49.80930000	-20.52780000
115.49999332	0.00000000	-50.22145000	-20.48474000
115.69999331	0.00000000	-50.55364000	-20.10950000
115.89999330	0.00000000	-50.59670000	-19.32210000
116.09999328	0.00000000	-50.63976000	-18.57160000
116.29999327	0.00000000	-51.01501000	-17.78420000
116.49999326	0.00000000	-51.75935000	-17.40895000
116.69999325	0.00000000	-52.13459000	-17.36589000
116.89999324	0.00000000	-52.13459000	-17.40895000
117.09999322	0.00000000	-51.75935000	-17.83341000
117.29999321	0.00000000	-50.97194000	-18.98991000
117.49999320	0.00000000	-50.22145000	-20.43553000
117.69999319	0.00000000	-49.43405000	-21.26599000
117.89999318	0.00000000	-49.05881000	-21.27214000
118.09999317	0.00000000	-49.01575000	-21.30905000
118.29999315	0.00000000	-49.05881000	-20.85384000
118.49999314	0.00000000	-49.43405000	-20.15256000
118.69999313	0.00000000	-50.22145000	-19.32210000
118.89999312	0.00000000	-51.01501000	-18.57160000
119.09999311	0.00000000	-52.17765000	-17.78420000
119.29999309	0.00000000	-53.24803000	-17.40895000
119.49999308	0.00000000	-53.24803000	-17.36589000
119.69999307	0.00000000	-52.17765000	-17.40895000
119.89999306	0.00000000	-51.01501000	-17.78420000
120.09999305	0.00000000	-50.17839000	-18.52854000
120.29999303	0.00000000	-49.01575000	-18.90379000
120.49999302	0.00000000	-47.90231000	-18.98991000
120.69999301	0.00000000	-47.52707000	-19.36516000
120.89999300	0.00000000	-47.85310000	-20.10950000
121.09999299	0.00000000	-48.64050000	-20.48474000
121.29999298	0.00000000	-49.43405000	-20.52780000
121.49999296	0.00000000	-50.63976000	-20.52780000
121.69999295	0.00000000	-52.13459000	-20.48474000
121.89999294	0.00000000	-53.29109000	-20.10950000
122.09999293	0.00000000	-53.66634000	-19.36516000
122.29999292	0.00000000	-53.34030000	-18.94685000
122.49999290	0.00000000	-52.55290000	-18.52854000
122.69999289	0.00000000	-51.75935000	-17.78420000
122.89999288	0.00000000	-50.63976000	-17.40895000
123.09999287	0.00000000	-49.85236000	-17.36589000
123.29999286	0.00000000	-49.76009000	-17.40895000
123.49999284	0.00000000	-49.01575000	-17.78420000
123.69999283	0.00000000	-48.32062000	-18.57160000
123.89999282	0.00000000	-48.68356000	-19.32210000
124.09999281	0.00000000	-49.39099000	-20.10950000
124.29999280	0.00000000	-50.17839000	-20.48474000
124.49999279	0.00000000	-50.59670000	-20.52780000
124.69999277	0.00000000	-51.01501000	-20.48474000
124.89999276	0.00000000	-51.75935000	-20.10950000
125.09999275	0.00000000	-52.13459000	-19.36516000
125.29999274	0.00000000	-52.17765000	-18.98991000
125.49999273	0.00000000	-52.13459000	-18.90379000
125.69999271	0.00000000	-51.75935000	-18.52854000
125.89999270	0.00000000	-50.97194000	-17.78420000
126.09999269	0.00000000	-50.17839000	-17.40895000
126.29999268	0.00000000	-49.01575000	-17.40895000
126.49999267	0.00000000	-47.94537000	-17.78420000
126.69999265	0.00000000	-47.90231000	-18.52854000
126.89999264	0.00000000	-48.64050000	-18.90379000
127.09999263	0.00000000	-49.43405000	-18.98991000
127.29999262	0.00000000	-50.59670000	-19.36516000
127.49999261	0.00000000	-51.71013000	-20.10950000
127.69999260	0.00000000	-52.17765000	-20.48474000
127.89999258	0.00000000	-52.55290000	-20.48474000
128.09999257	0.00000000	-52.87278000	-20.10950000
128.29999256	0.00000000	-52.08538000	-19.32210000
128.49999255	0.00000000	-50.63976000	-18.61466000
128.69999254	0.00000000	-49.43405000	-18.20251000
128.89999252	0.00000000	-48.64050000	-18.57160000
129.09999251	0.00000000	-47.90231000	-18.90379000
129.29999250	0.00000000	-47.94537000	-18.94685000
129.49999249	0.00000000	-49.01575000	-18.94685000
129.69999248	0.00000000	-50.17839000	-18.94685000
129.89999246	0.00000000	-50.97194000	-18.94685000
130.09999245	0.00000000	-51.80241000	-18.94685000
130.29999244	0.00000000	-52.50984000	-18.94685000
130.49999243	0.00000000	-52.92200000	-18.94685000
130.69999242	0.00000000	-52.50984000	-18.94685000
130.89999241	0.00000000	-51.75935000	-18.94685000
131.09999239	0.00000000	-50.59670000	-18.94685000
131.29999238	0.00000000	-49.48326000	-18.94685000
131.49999237	0.00000000	-49.05881000	-18.98991000
131.69999236	0.00000000	-49.01575000	-19.36516000
131.89999235	0.00000000	-49.05881000	-20.10950000
132.09999233	0.00000000	-49.48326000	-20.48474000
132.29999232	0.00000000	-50.59670000	-20.52780000
132.49999231	0.00000000	-51.71013000	-20.48474000
132.69999230	0.00000000	-52.13459000	-20.10950000
132.89999229	0.00000000	-52.13459000	-19.32210000
133.09999227	0.00000000	-51.75935000	-18.57160000
133.29999226	0.00000000	-50.97194000	-17.78420000
133.49999225	0.00000000	-50.22145000	-17.40895000
133.69999224	0.00000000	-49.48326000	-17.36589000
133.89999223	0.00000000	-49.48326000	-17.40895000
134.09999222	0.00000000	-50.17839000	-17.78420000
134.29999220	0.00000000	-50.55364000	-18.57160000
134.49999219	0.00000000	-50.59670000	-19.32210000
134.69999218	0.00000000	-50.59670000	-20.10950000
134.89999217	0.00000000	-50.59670000	-20.48474000
135.09999216	0.00000000	-50.55364000	-20.52780000
135.29999214	0.00000000	-50.17839000	-20.48474000
135.49999213	0.00000000	-49.43405000	-20.06029000
135.69999212	0.00000000	-49.05881000	-18.94685000
135.89999211	0.00000000	-49.05881000	-17.78420000
136.09999210	0.00000000	-49.43405000	-17.03371000
136.29999208	0.00000000	-50.22145000	-16.62155000
136.49999207	0.00000000	-50.97194000	-16.99065000
136.69999206	0.00000000	-51.71013000	-17.32283000
136.89999205	0.00000000	-51.71013000	-17.40895000
137.09999204	0.00000000	-51.01501000	-17.83341000
137.29999203	0.00000000	-50.59670000	-18.94685000
137.49999201	0.00000000	-50.17839000	-20.06029000
137.69999200	0.00000000	-49.43405000	-20.48474000
137.89999199	0.00000000	-49.05881000	-20.52780000
138.09999198	0.00000000	-49.01575000	-20.52780000
138.29999197	0.00000000	-49.05881000	-20.52780000
138.49999195	0.00000000	-49.43405000	-20.52780000
138.69999194	0.00000000	-50.22145000	-20.48474000
138.89999193	0.00000000	-50.97194000	-20.10950000
139.09999192	0.00000000	-51.75935000	-19.32210000
139.29999191	0.00000000	-52.08538000	-18.57160000
139.49999189	0.00000000	-51.75935000	-17.78420000
139.69999188	0.00000000	-51.01501000	-17.40895000
139.89999187	0.00000000	-50.59670000	-17.36589000
140.09999186	0.00000000	-50.17839000	-17.40895000
140.29999185	0.00000000	-49.43405000	-17.78420000
140.49999184	0.00000000	-49.05881000	-18.57160000
140.69999182	0.00000000	-49.05881000	-19.32210000
140.89999181	0.00000000	-49.43405000	-20.10950000
141.09999180	0.00000000	-50.17839000	-20.48474000
141.29999179	0.00000000	-50.55364000	-20.48474000
141.49999178	0.00000000	-50.59670000	-20.10950000
141.69999176	0.00000000	-50.59670000	-19.32210000
141.89999175	0.00000000	-50.59670000	-18.52854000
142.09999174	0.00000000	-50.55364000	-17.36589000
142.29999173	0.00000000	-50.17839000	-16.25246000
142.49999172	0.00000000	-49.43405000	-15.87721000
142.69999170	0.00000000	-49.05881000	-16.20325000
142.89999169	0.00000000	-49.05881000	-16.99065000
143.09999168	0.00000000	-49.43405000	-17.78420000
143.29999167	0.00000000	-50.17839000	-18.94685000
143.49999166	0.00000000	-50.55364000	-20.06029000
143.69999165	0.00000000	-50.59670000	-20.48474000
143.89999163	0.00000000	-50.59670000	-20.52780000
144.09999162	0.00000000	-50.55364000	-20.48474000
144.29999161	0.00000000	-50.17839000	-20.06029000
144.49999160	0.00000000	-49.43405000	-18.94685000
144.69999159	0.00000000	-49.05881000	-17.83341000
144.89999157	0.00000000	-49.05881000	-17.40895000
145.09999156	0.00000000	-49.43405000	-17.36589000
145.29999155	0.00000000	-50.17839000	-17.40895000
145.49999154	0.00000000	-50.55364000	-17.78420000
145.69999153	0.00000000	-50.59670000	-18.52854000
145.89999151	0.00000000	-50.63976000	-18.94685000
146.09999150	0.00000000	-50.97194000	-19.36516000
146.29999149	0.00000000	-51.34104000	-20.10950000
146.49999148	0.00000000	-50.97194000	-20.48474000
146.69999147	0.00000000	-50.59670000	-20.52780000
146.89999146	0.00000000	-50.17839000	-20.48474000
147.09999144	0.00000000	-49.43405000	-20.10950000
147.29999143	0.00000000	-49.05881000	-19.36516000
147.49999142	0.00000000	-49.05881000	-18.98991000
147.69999141	0.00000000	-49.43405000	-18.94685000
147.89999140	0.00000000	-50.17839000	-18.94685000
148.09999138	0.00000000	-50.55364000	-18.94685000
148.29999137	0.00000000	-50.59670000	-18.94685000
148.49999136	0.00000000	-50.59670000	-18.94685000
148.69999135	0.00000000	-50.59670000	-18.94685000
148.89999134	0.00000000	-50.55364000	-18.94685000
149.09999132	0.00000000	-50.17839000	-18.98991000
149.29999131	0.00000000	-49.43405000	-19.32210000
149.49999130	0.00000000	-49.05881000	-19.69119000
149.69999129	0.00000000	-49.01575000	-19.32210000
149.89999128	0.00000000	-49.01575000	-18.98991000
150.09999127	0.00000000	-49.05881000	-18.98991000
150.29999125	0.00000000	-49.43405000	-19.27903000
150.49999124	0.00000000	-50.17839000	-19.26673000
150.69999123	0.00000000	-50.55364000	-18.15945000
150.89999122	0.00000000	-50.59670000	-17.45817000
151.09999121	0.00000000	-50.59670000	-17.40895000
151.29999119	0.00000000	-50.59670000	-17.78420000
151.49999118	0.00000000	-50.59670000	-18.52854000
151.69999117	0.00000000	-50.59670000	-18.90379000
151.89999116	0.00000000	-50.55364000	-18.94685000
152.09999115	0.00000000	-50.17839000	-18.98991000
152.29999113	0.00000000	-49.43405000	-19.32210000
152.49999112	0.00000000	-49.05881000	-19.69119000
152.69999111	0.00000000	-49.01575000	-19.32210000
152.89999110	0.00000000	-49.01575000	-18.98991000
153.09999109	0.00000000	-49.01575000	-18.94685000
153.29999108	0.00000000	-49.05881000	-18.90379000
153.49999106	0.00000000	-49.43405000	-18.52854000
153.69999105	0.00000000	-50.17839000	-17.78420000
153.89999104	0.00000000	-50.55364000	-17.40895000
154.09999103	0.00000000	-50.59670000	-17.40895000
154.29999102	0.00000000	-50.59670000	-17.78420000
154.49999100	0.00000000	-50.59670000	-18.52854000
154.69999099	0.00000000	-50.55364000	-18.90379000
154.89999098	0.00000000	-50.17839000	-18.94685000
155.09999097	0.00000000	-49.48326000	-18.94685000
155.29999096	0.00000000	-49.43405000	-18.94685000
155.49999094	0.00000000	-49.76009000	-18.94685000
155.69999093	0.00000000	-49.39099000	-18.94685000
155.89999092	0.00000000	-49.05881000	-18.94685000
156.09999091	0.00000000	-49.01575000	-18.94685000
156.29999090	0.00000000	-49.05881000	-18.94685000
156.49999089	0.00000000	-49.43405000	-18.90379000
156.69999087	0.00000000	-50.17839000	-18.52854000
156.89999086	0.00000000	-50.55364000	-17.78420000
157.09999085	0.00000000	-50.59670000	-17.40895000
157.29999084	0.00000000	-50.59670000	-17.36589000
157.49999083	0.00000000	-50.59670000	-17.40895000
157.69999081	0.00000000	-50.55364000	-17.78420000
157.89999080	0.00000000	-50.17839000	-18.52854000
158.09999079	0.00000000	-49.43405000	-18.90379000
158.29999078	0.00000000	-49.05881000	-18.98991000
158.49999077	0.00000000	-49.01575000	-19.32210000
158.69999075	0.00000000	-49.01575000	-19.69119000
158.89999074	0.00000000	-49.01575000	-19.32210000
159.09999073	0.00000000	-49.05881000	-18.98991000
159.29999072	0.00000000	-49.43405000	-18.94685000
159.49999071	0.00000000	-50.17839000	-18.90379000
159.69999070	0.00000000	-50.55364000	-18.52854000
159.89999068	0.00000000	-50.59670000	-17.78420000
160.09999067	0.00000000	-50.59670000	-17.40895000
160.29999066	0.00000000	-50.59670000	-17.40895000
160.49999065	0.00000000	-50.59670000	-17.78420000
160.69999064	0.00000000	-50.55364000	-18.52854000
160.89999062	0.00000000	-50.22145000	-18.90379000
161.09999061	0.00000000	-49.80930000	-18.94685000
161.29999060	0.00000000	-49.80315000	-18.94685000
161.49999059	0.00000000	-49.39099000	-18.94685000
161.69999058	0.00000000	-49.05881000	-18.94685000
161.89999056	0.00000000	-49.01575000	-18.94685000
162.09999055	0.00000000	-49.01575000	-18.94685000
162.29999054	0.00000000	-49.01575000	-18.94685000
162.49999053	0.00000000	-49.01575000	-18.90379000
162.69999052	0.00000000	-49.05881000	-18.52854000
162.89999051	0.00000000	-49.43405000	-17.83341000
163.09999049	0.00000000	-50.17839000	-17.78420000
163.29999048	0.00000000	-50.55364000	-18.15330000
163.49999047	0.00000000	-50.59670000	-18.15945000
163.69999046	0.00000000	-50.59670000	-18.57160000
163.89999045	0.00000000	-50.59670000	-18.90379000
164.09999043	0.00000000	-50.55364000	-18.94685000
164.29999042	0.00000000	-50.17839000	-18.94685000
164.49999041	0.00000000	-49.43405000	-18.94685000
164.69999040	0.00000000	-49.05881000	-18.94685000
164.89999039	0.00000000	-49.01575000	-18.94685000
165.09999037	0.00000000	-49.01575000	-18.94685000
165.29999036	0.00000000	-49.01575000	-18.94685000
165.49999035	0.00000000	-49.01575000	-18.90379000
165.69999034	0.00000000	-49.01575000	-18.57160000
165.89999033	0.00000000	-49.05881000	-18.20251000
166.09999032	0.00000000	-49.43405000	-18.57160000
166.29999030	0.00000000	-50.17839000	-18.90379000
166.49999029	0.00000000	-50.55364000	-18.94685000
166.69999028	0.00000000	-50.63976000	-18.98991000
166.89999027	0.00000000	-50.92888000	-19.32210000
167.09999026	0.00000000	-50.91658000	-19.69119000
167.29999024	0.00000000	-49.80930000	-19.32210000
167.49999023	0.00000000	-49.10802000	-18.98991000
167.69999022	0.00000000	-49.01575000	-18.94685000
167.89999021	0.00000000	-49.01575000	-18.94685000
168.09999020	0.00000000	-49.01575000	-18.94685000
168.29999018	0.00000000	-49.01575000	-18.94685000
168.49999017	0.00000000	-49.01575000	-18.94685000
168.69999016	0.00000000	-49.01575000	-18.94685000
168.89999015	0.00000000	-49.01575000	-18.94685000
169.09999014	0.00000000	-49.01575000	-18.94685000
169.29999013	0.00000000	-49.05881000	-18.94685000
169.49999011	0.00000000	-49.39099000	-18.94685000
169.69999010	0.00000000	-49.76009000	-18.94685000
169.89999009	0.00000000	-49.39099000	-18.94685000
170.09999008	0.00000000	-49.10802000	-18.94685000
170.29999007	0.00000000	-49.39099000	-18.94685000
170.49999005	0.00000000	-49.76009000	-18.94685000
170.69999004	0.00000000	-49.39099000	-18.94685000
170.89999003	0.00000000	-49.05881000	-18.94685000
171.09999002	0.00000000	-49.01575000	-18.94685000
171.29999001	0.00000000	-49.01575000	-18.94685000
171.49998999	0.00000000	-49.01575000	-18.94685000
171.69998998	0.00000000	-49.01575000	-18.94685000
171.89998997	0.00000000	-49.01575000	-18.94685000
172.09998996	0.00000000	-49.01575000	-18.94685000
172.29998995	0.00000000	-49.01575000	-18.94685000
172.49998994	0.00000000	-49.05881000	-18.94685000
172.69998992	0.00000000	-49.43405000	-18.94685000
172.89998991	0.00000000	-50.12918000	-18.94685000
173.09998990	0.00000000	-50.12918000	-18.94685000
173.29998989	0.00000000	-49.43405000	-18.94685000
173.49998988	0.00000000	-49.05881000	-18.94685000
173.69998986	0.00000000	-49.01575000	-18.94685000
173.89998985	0.00000000	-49.01575000	-18.94685000
174.09998984	0.00000000	-49.01575000	-18.94685000
174.29998983	0.00000000	-49.01575000	-18.94685000
174.49998982	0.00000000	-49.01575000	-18.94685000
174.69998980	0.00000000	-49.01575000	-18.94685000
174.89998979	0.00000000	-49.01575000	-18.94685000
175.09998978	0.00000000	-49.01575000	-18.94685000
175.29998977	0.00000000	-48.97269000	-18.94685000
175.49998976	0.00000000	-48.64050000	-18.94685000
175.69998975	0.00000000	-48.27140000	-18.94685000
175.89998973	0.00000000	-48.64050000	-18.94685000
176.09998972	0.00000000	-48.97269000	-18.94685000
176.29998971	0.00000000	-49.01575000	-18.94685000
176.49998970	0.00000000	-49.01575000	-18.94685000
176.69998969	0.00000000	-49.01575000	-18.94685000
176.89998967	0.00000000	-49.01575000	-18.94685000
177.09998966	0.00000000	-49.01575000	-18.94685000
177.29998965	0.00000000	-49.01575000	-18.94685000
177.49998964	0.00000000	-49.01575000	-18.94685000
177.69998963	0.00000000	-49.01575000	-18.94685000
177.89998961	0.00000000	-49.01575000	-18.94685000
178.09998960	0.00000000	-49.05881000	-18.94685000
178.29998959	0.00000000	-49.39099000	-18.94685000
178.49998958	0.00000000	-49.76009000	-18.90379000
178.69998957	0.00000000	-49.39099000	-18.52854000
178.89998956	0.00000000	-49.05881000	-17.83341000
179.09998954	0.00000000	-49.01575000	-17.78420000
179.29998953	0.00000000	-49.01575000	-18.15330000
179.49998952	0.00000000	-49.01575000	-18.15945000
179.69998951	0.00000000	-49.01575000	-18.57160000
179.89998950	0.00000000	-49.01575000	-18.90379000
180.09998948	0.00000000	-49.01575000	-18.94685000
180.29998947	0.00000000	-49.01575000	-18.94685000
180.49998946	0.00000000	-49.01575000	-18.94685000
180.69998945	0.00000000	-49.01575000	-18.94685000
180.89998944	0.00000000	-49.01575000	-18.94685000
181.09998942	0.00000000	-49.01575000	-18.90379000
181.29998941	0.00000000	-49.01575000	-18.52854000
181.49998940	0.00000000	-49.01575000	-17.78420000
181.69998939	0.00000000	-49.01575000	-17.40895000
181.89998938	0.00000000	-49.01575000	-17.36589000
182.09998937	0.00000000	-49.01575000	-17.40895000
182.29998935	0.00000000	-49.01575000	-17.78420000
182.49998934	0.00000000	-49.01575000	-18.52854000
182.69998933	0.00000000	-49.01575000	-18.90379000
182.89998932	0.00000000	-49.01575000	-18.94685000
183.09998931	0.00000000	-49.01575000	-18.94685000
183.29998929	0.00000000	-49.05881000	-18.94685000
183.49998928	0.00000000	-49.39099000	-18.94685000
183.69998927	0.00000000	-49.80315000	-18.94685000
183.89998926	0.00000000	-49.76624000	-18.94685000
184.09998925	0.00000000	-49.80315000	-18.90379000
184.29998923	0.00000000	-49.39099000	-18.52854000
184.49998922	0.00000000	-49.10802000	-17.78420000
184.69998921	0.00000000	-49.39099000	-17.40895000
184.89998920	0.00000000	-49.76009000	-17.36589000
185.09998919	0.00000000	-49.39099000	-17.36589000
185.29998918	0.00000000	-49.05881000	-17.40895000
185.49998916	0.00000000	-49.01575000	-17.78420000
185.69998915	0.00000000	-49.01575000	-18.52854000
185.89998914	0.00000000	-49.01575000	-18.90379000
186.09998913	0.00000000	-49.01575000	-18.94685000
186.29998912	0.00000000	-49.01575000	-18.94685000
186.49998910	0.00000000	-49.01575000	-18.94685000
186.69998909	0.00000000	-49.01575000	-18.90379000
186.89998908	0.00000000	-49.01575000	-18.57160000
187.09998907	0.00000000	-49.01575000	-18.20251000
187.29998906	0.00000000	-49.01575000	-18.52854000
187.49998904	0.00000000	-49.05881000	-18.52854000
187.69998903	0.00000000	-49.39099000	-18.15945000
187.89998902	0.00000000	-49.76009000	-18.15330000
188.09998901	0.00000000	-49.39099000	-17.78420000
188.29998900	0.00000000	-49.05881000	-17.83341000
188.49998899	0.00000000	-49.01575000	-18.52854000
188.69998897	0.00000000	-49.01575000	-18.94685000
188.89998896	0.00000000	-49.01575000	-19.32210000
189.09998895	0.00000000	-49.01575000	-19.69119000
189.29998894	0.00000000	-49.01575000	-19.32210000
189.49998893	0.00000000	-49.01575000	-18.98991000
189.69998891	0.00000000	-49.01575000	-18.94685000
189.89998890	0.00000000	-49.01575000	-18.94685000
190.09998889	0.00000000	-49.05881000	-18.90379000
190.29998888	0.00000000	-49.39099000	-18.52854000
190.49998887	0.00000000	-49.76009000	-17.78420000
190.69998885	0.00000000	-49.39099000	-17.40895000
190.89998884	0.00000000	-49.05881000	-17.36589000
191.09998883	0.00000000	-49.01575000	-17.36589000
191.29998882	0.00000000	-49.01575000	-17.36589000
191.49998881	0.00000000	-49.01575000	-17.36589000
191.69998880	0.00000000	-49.01575000	-17.40895000
191.89998878	0.00000000	-49.01575000	-17.78420000
192.09998877	0.00000000	-49.01575000	-18.52854000
192.29998876	0.00000000	-49.01575000	-18.90379000
192.49998875	0.00000000	-49.01575000	-18.94685000
192.69998874	0.00000000	-49.01575000	-18.94685000
192.89998872	0.00000000	-49.01575000	-18.94685000
193.09998871	0.00000000	-49.05881000	-18.94685000
193.29998870	0.00000000	-49.39099000	-18.90379000
193.49998869	0.00000000	-49.76009000	-18.52854000
193.69998868	0.00000000	-49.39099000	-17.78420000
193.89998866	0.00000000	-49.05881000	-17.40895000
194.09998865	0.00000000	-49.01575000	-17.36589000
194.29998864	0.00000000	-48.97269000	-17.36589000
194.49998863	0.00000000	-48.59744000	-17.36589000
194.69998862	0.00000000	-47.90231000	-17.36589000
194.89998861	0.00000000	-47.85310000	-17.36589000
195.09998859	0.00000000	-48.22219000	-17.36589000
195.29998858	0.00000000	-48.22834000	-17.40895000
195.49998857	0.00000000	-48.64050000	-17.74114000
195.69998856	0.00000000	-48.97269000	-18.15330000
195.89998855	0.00000000	-49.01575000	-18.15945000
196.09998853	0.00000000	-49.01575000	-18.57160000
