Time	Channel A	Channel B	Channel C
(us)	(V)	(mV)	(mV)

-4.49999956	0.00000000	-7.90477300	-8.31077700
-4.29999957	0.00000000	-7.90477300	-9.00590400
-4.09999958	0.00000000	-7.90477300	-9.05511800
-3.89999959	0.00000000	-7.90477300	-8.72908400
-3.69999960	0.00000000	-7.90477300	-9.09817800
-3.49999962	0.00000000	-7.90477300	-9.38115100
-3.29999963	0.00000000	-7.94783400	-9.09817800
-3.09999964	0.00000000	-8.28001900	-8.72908400
-2.89999965	0.00000000	-8.64911400	-9.09817800
-2.69999966	0.00000000	-8.28001900	-9.43036400
-2.49999968	0.00000000	-7.94783400	-9.47342500
-2.29999969	0.00000000	-7.90477300	-9.47342500
-2.09999970	0.00000000	-7.90477300	-9.47342500
-1.89999971	0.00000000	-7.90477300	-9.47342500
-1.69999972	0.00000000	-7.90477300	-9.47342500
-1.49999973	0.00000000	-7.90477300	-9.47342500
-1.29999975	0.00000000	-7.90477300	-9.47342500
-1.09999976	0.00000000	-7.90477300	-9.43036400
-0.89999977	0.00000000	-7.90477300	-9.05511800
-0.69999978	0.00000000	-7.90477300	-8.31077700
-0.49999979	0.00000000	-7.90477300	-7.98474400
-0.29999981	0.31803640	-7.90477300	-8.31077700
-0.09999982	0.63668800	-7.90477300	-9.05511800
0.10000017	0.95533960	-7.90477300	-9.43036400
0.30000016	1.11466500	-7.90477300	-9.47342500
0.50000015	0.79601380	-7.90477300	-9.47342500
0.70000013	0.15871060	-7.90477300	-9.47342500
0.90000012	-0.63668800	-7.90477300	-9.47342500
1.10000011	-1.59264300	-7.90477300	-9.47342500
1.30000010	-2.54859700	-7.90477300	-9.43036400
1.50000009	-2.70792300	-7.90477300	-9.05511800
1.70000008	-2.22994600	-7.90477300	-8.31077700
1.90000006	-0.95533960	-7.90477300	-7.93553100
2.10000005	0.95533960	-7.90477300	-7.89247000
2.30000004	3.02657500	-7.90477300	-7.93553100
2.50000003	4.77854300	-7.90477300	-8.31077700
2.70000002	5.41584600	-7.90477300	-9.05511800
2.90000000	4.61921700	-7.90477300	-9.43036400
3.09999999	2.38927200	-7.90477300	-9.47342500
3.29999998	-0.79601380	-7.90477300	-9.47342500
3.49999997	-4.14124000	-7.90477300	-9.47342500
3.69999996	-6.84916400	-7.90477300	-9.43036400
3.89999994	-7.96444400	-7.90477300	-9.05511800
4.09999993	-7.16781500	-7.90477300	-8.31077700
4.29999992	-4.30056600	-7.90477300	-7.93553100
4.49999991	-0.15871060	-7.90477300	-7.89247000
4.69999990	4.14124000	-7.90477300	-7.93553100
4.89999989	7.64579200	-7.90477300	-8.31077700
5.09999987	9.39837600	-7.94783400	-9.05511800
5.29999986	8.76107300	-8.28001900	-9.43036400
5.49999985	5.89382400	-8.69217500	-9.51648500
5.69999984	1.43331700	-8.65526600	-9.84867000
5.89999983	-3.18590100	-8.69217500	-10.21161000
6.09999981	-7.16781500	-8.28001900	-9.79945900
6.29999980	-9.23905000	-7.94783400	-9.09817800
6.49999979	-9.07972400	-7.90477300	-8.31077700
6.69999978	-6.53112700	-7.90477300	-7.93553100
6.89999977	-2.70792300	-7.90477300	-7.93553100
7.09999975	1.75196900	-7.90477300	-8.31077700
7.29999974	5.41584600	-7.90477300	-9.05511800
7.49999973	7.48646600	-7.90477300	-9.43036400
7.69999972	7.48646600	-7.90477300	-9.47342500
7.89999971	5.89382400	-7.90477300	-9.47342500
8.09999970	2.86724900	-7.90477300	-9.47342500
8.29999968	-0.47736220	-7.90477300	-9.47342500
8.49999967	-3.34522600	-7.90477300	-9.47342500
8.69999966	-4.93786900	-7.90477300	-9.47342500
8.89999965	-5.09719500	-7.90477300	-9.43036400
9.09999964	-4.14124000	-7.90477300	-9.05511800
9.29999962	-2.38927200	-7.90477300	-8.35998900
9.49999961	-0.31803640	-7.90477300	-8.35998900
9.69999960	1.27399100	-7.90477300	-9.05511800
9.89999959	2.38927200	-7.94783400	-9.43036400
10.09999958	2.54859700	-8.28001900	-9.47342500
10.29999956	2.07062000	-8.64911400	-9.47342500
10.49999955	1.27399100	-8.28001900	-9.47342500
10.69999954	0.31803640	-7.94783400	-9.47342500
10.89999953	-0.31803640	-7.90477300	-9.47342500
11.09999952	-0.79601380	-7.94783400	-9.47342500
11.29999951	-0.95533960	-8.28001900	-9.43036400
11.49999949	-0.95533960	-8.64911400	-9.05511800
11.69999948	-0.63668800	-8.28001900	-8.35998900
11.89999947	-0.31803640	-7.94783400	-8.35998900
12.09999946	-0.15871060	-7.90477300	-9.05511800
12.29999945	-0.15871060	-7.90477300	-9.38115100
12.49999943	0.00000000	-7.90477300	-9.05511800
12.69999942	0.00000000	-7.90477300	-8.35998900
12.89999941	0.00000000	-7.90477300	-8.35998900
13.09999940	0.15871060	-7.90477300	-9.05511800
13.29999939	0.00000000	-7.90477300	-9.43036400
13.49999937	0.00000000	-7.90477300	-9.43036400
13.69999936	0.00000000	-7.90477300	-9.09817800
13.89999935	0.00000000	-7.90477300	-8.68602300
14.09999934	-0.15871060	-7.90477300	-8.72293300
14.29999933	-0.15871060	-7.90477300	-8.68602300
14.49999932	-0.15871060	-7.90477300	-9.09817800
14.69999930	0.00000000	-7.90477300	-9.43036400
14.89999929	0.00000000	-7.90477300	-9.47342500
15.09999928	0.00000000	-7.90477300	-9.47342500
15.29999927	0.00000000	-7.90477300	-9.47342500
15.49999926	0.00000000	-7.94783400	-9.47342500
15.69999924	0.00000000	-8.28001900	-9.43036400
15.89999923	0.00000000	-8.64911400	-9.05511800
16.09999922	0.00000000	-8.32308000	-8.35998900
16.29999921	-0.15871060	-8.32308000	-8.31077700
16.49999920	-0.15871060	-8.64911400	-8.67987200
16.69999919	0.00000000	-8.23695900	-8.68602300
16.89999917	0.00000000	-7.57258800	-9.09817800
17.09999916	0.00000000	-7.11737200	-9.43036400
17.29999915	0.00000000	-7.11122000	-9.47342500
17.49999914	0.00000000	-6.69906400	-9.47342500
17.69999913	0.00000000	-6.41609200	-9.47342500
17.89999911	0.00000000	-6.79133800	-9.47342500
18.09999910	0.00000000	-7.94783400	-9.47342500
18.29999909	0.00000000	-9.48572700	-9.47342500
18.49999908	0.00000000	-11.06668000	-9.47342500
18.69999907	0.00000000	-12.60458000	-9.47342500
18.89999905	0.00000000	-13.67495000	-9.47342500
19.09999904	0.00000000	-13.29970000	-9.47342500
19.29999903	0.00000000	-11.34966000	-9.43036400
19.49999902	0.00000000	-8.64911400	-9.09817800
19.69999901	0.00000000	-5.07504900	-8.72908400
19.89999900	0.00000000	-1.24877000	-9.09817800
20.09999898	0.00000000	2.18996000	-9.43036400
20.29999897	0.00000000	3.63558100	-9.47342500
20.49999896	0.00000000	2.09768700	-9.47342500
20.69999895	0.00000000	-2.17765700	-9.47342500
20.89999894	0.00000000	-8.41535400	-9.47342500
21.09999892	0.00000000	-15.80955000	-9.47342500
21.29999891	0.00000000	-23.11762000	-9.47342500
21.49999890	0.00000000	-28.42027000	-9.47342500
21.69999889	0.00000000	-29.49065000	-9.47342500
21.89999888	0.00000000	-25.21530000	-9.47342500
22.09999886	0.00000000	-16.28322000	-9.43036400
22.29999885	0.00000000	-4.27534400	-9.09817800
22.49999884	0.00000000	8.46456700	-8.68602300
22.69999883	0.00000000	18.79921000	-8.67987200
22.89999882	0.00000000	23.77584000	-8.26771600
23.09999881	0.00000000	21.40748000	-7.89247000
23.29999879	0.00000000	12.05709000	-7.47416300
23.49999878	0.00000000	-3.06348400	-6.77903500
23.69999877	0.00000000	-21.20448000	-6.77903500
23.89999876	0.00000000	-37.72761000	-7.47416300
24.09999875	0.00000000	-48.51747000	-7.84940900
24.29999873	0.00000000	-50.38755000	-7.93553100
24.49999872	0.00000000	-42.61196000	-8.40305000
24.69999871	0.00000000	-26.32874000	-9.93479300
24.89999870	0.00000000	-4.69980300	-12.16781000
25.09999869	0.00000000	17.26747000	-13.69956000
25.29999867	0.00000000	34.24581000	-14.11786000
25.49999866	0.00000000	41.92913000	-13.74262000
25.69999865	0.00000000	38.43504000	-12.49385000
25.89999864	0.00000000	24.10802000	-10.16855000
26.09999863	0.00000000	2.09768700	-6.64370100
26.29999862	0.00000000	-22.60704000	-2.82972400
26.49999860	0.00000000	-44.24212000	0.64591530
26.69999859	0.00000000	-57.78174000	2.50984200
26.89999858	0.00000000	-60.43307000	2.04847400
27.09999857	0.00000000	-51.16880000	-1.43946800
27.29999856	0.00000000	-31.91437000	-7.65255800
27.49999854	0.00000000	-7.99704600	-14.96063000
27.69999853	0.00000000	15.26206000	-22.33637000
27.89999852	0.00000000	33.04010000	-27.63902000
28.09999851	0.00000000	41.50467000	-29.53986000
28.29999850	0.00000000	38.47810000	-26.75935000
28.49999848	0.00000000	25.03691000	-19.37131000
28.69999847	0.00000000	5.35187000	-8.54453700
28.89999846	0.00000000	-16.32628000	3.76476400
29.09999845	0.00000000	-35.26698000	14.16708000
29.29999844	0.00000000	-47.31176000	20.34941000
29.49999843	0.00000000	-50.47367000	21.05069000
29.69999841	0.00000000	-44.75270000	15.15133000
29.89999840	0.00000000	-32.00049000	3.21112200
30.09999839	0.00000000	-15.34203000	-12.21087000
30.29999838	0.00000000	2.05462600	-27.31299000
30.49999837	0.00000000	16.37549000	-39.25935000
30.69999835	0.00000000	24.52018000	-45.38631000
30.89999834	0.00000000	25.39985000	-43.39321000
31.09999833	0.00000000	19.21752000	-33.77214000
31.29999832	0.00000000	8.04626000	-18.30093000
31.49999831	0.00000000	-5.90551100	-0.55364170
31.69999829	0.00000000	-19.39591000	15.70497000
31.89999828	0.00000000	-29.53986000	27.27608000
32.09999827	0.00000000	-34.61491000	31.50221000
32.29999826	0.00000000	-34.23966000	27.23302000
32.49999825	0.00000000	-28.46333000	15.28666000
32.69999824	0.00000000	-18.83612000	-1.71013800
32.89999822	0.00000000	-7.99704600	-19.88189000
33.09999821	0.00000000	2.09768700	-35.72219000
33.29999820	0.00000000	9.44881800	-45.76156000
33.49999819	0.00000000	12.51845000	-47.76082000
33.69999818	0.00000000	10.65453000	-41.94759000
33.89999816	0.00000000	4.47219400	-29.58907000
34.09999815	0.00000000	-3.95546200	-13.00443000
34.29999814	0.00000000	-12.83218000	3.62942900
34.49999813	0.00000000	-19.39591000	17.19365000
34.69999812	0.00000000	-22.55782000	25.27682000
34.89999810	0.00000000	-22.18258000	25.65207000
35.09999809	0.00000000	-18.32554000	18.35630000
35.29999808	0.00000000	-12.22933000	5.29650500
35.49999807	0.00000000	-5.67175200	-10.12549000
35.69999806	0.00000000	-0.64591530	-24.06496000
35.89999805	0.00000000	2.09768700	-34.09818000
36.09999803	0.00000000	2.05462600	-37.95522000
36.29999802	0.00000000	-1.02116100	-34.51648000
36.49999801	0.00000000	-6.36687900	-25.35679000
36.69999800	0.00000000	-12.09400000	-13.00443000
36.89999799	0.00000000	-16.32628000	-0.78124990
37.09999797	0.00000000	-17.90723000	8.17544300
37.29999796	0.00000000	-16.79380000	11.66954000
37.49999795	0.00000000	-13.71801000	10.13164000
37.69999794	0.00000000	-9.44266700	3.16190900
37.89999793	0.00000000	-4.83513700	-7.47416300
38.09999791	0.00000000	-0.97194880	-17.79035000
38.29999790	0.00000000	0.93503930	-24.71703000
38.49999789	0.00000000	0.60900590	-26.24877000
38.69999788	0.00000000	-1.71628900	-22.10876000
38.89999787	0.00000000	-5.21038300	-14.07480000
39.09999786	0.00000000	-9.48572700	-4.87204700
39.29999784	0.00000000	-13.67495000	3.21112200
39.49999783	0.00000000	-16.41855000	7.76943800
39.69999782	0.00000000	-17.25517000	7.34498000
39.89999781	0.00000000	-16.83686000	1.58710600
40.09999780	0.00000000	-14.88066000	-7.94168200
40.29999778	0.00000000	-11.39887000	-17.88263000
40.49999777	0.00000000	-7.52952700	-25.22145000
40.69999776	0.00000000	-3.62942900	-28.29109000
40.89999775	0.00000000	-0.55364170	-26.34104000
41.09999774	0.00000000	1.02731300	-19.42052000
41.29999772	0.00000000	1.02731300	-9.47342500
41.49999771	0.00000000	-0.55364170	0.51673230
41.69999770	0.00000000	-3.67249000	7.81250000
41.89999769	0.00000000	-7.86171200	10.54995000
42.09999768	0.00000000	-11.76181000	8.23080600
42.29999767	0.00000000	-14.46850000	1.76550200
42.49999765	0.00000000	-16.08637000	-7.09891700
42.69999764	0.00000000	-16.04946000	-15.56348000
42.89999763	0.00000000	-14.92372000	-22.15797000
43.09999762	0.00000000	-12.55536000	-25.17839000
43.29999761	0.00000000	-9.52879000	-23.73892000
43.49999759	0.00000000	-6.83439900	-18.76845000
43.69999758	0.00000000	-5.21038300	-12.25394000
43.89999757	0.00000000	-4.41067900	-5.66560000
44.09999756	0.00000000	-3.99852300	-0.68897630
44.29999755	0.00000000	-4.36761800	1.71628900
44.49999753	0.00000000	-4.69980300	1.35334600
44.69999752	0.00000000	-4.78592500	-0.92888770
44.89999751	0.00000000	-5.16117100	-4.77977300
45.09999750	0.00000000	-5.94857300	-9.00590400
45.29999749	0.00000000	-6.79133800	-12.49385000
45.49999748	0.00000000	-8.37229300	-14.81299000
45.69999746	0.00000000	-10.69144000	-15.23130000
45.89999745	0.00000000	-13.06594000	-14.11786000
46.09999744	0.00000000	-15.76649000	-12.21087000
46.29999743	0.00000000	-17.99951000	-9.84867000
46.49999742	0.00000000	-18.32554000	-7.56643700
46.69999740	0.00000000	-16.36934000	-5.57332700
46.89999739	0.00000000	-12.09400000	-4.45374000
47.09999738	0.00000000	-6.32381900	-4.04158400
47.29999737	0.00000000	-0.51058070	-4.87204700
47.49999736	0.00000000	4.14616100	-6.72982200
47.69999734	0.00000000	6.79749000	-9.09817800
47.89999733	0.00000000	6.32997000	-11.38041000
48.09999732	0.00000000	2.05462600	-13.32431000
48.29999731	0.00000000	-5.25344500	-14.07480000
48.49999730	0.00000000	-13.76107000	-13.69956000
48.69999729	0.00000000	-21.44439000	-12.11860000
48.89999727	0.00000000	-26.46407000	-9.42421200
49.09999726	0.00000000	-27.16535000	-6.36072800
49.29999725	0.00000000	-23.34522000	-3.66633800
49.49999724	0.00000000	-15.63115000	-2.12844500
49.69999723	0.00000000	-6.36687900	-2.12844500
49.89999721	0.00000000	2.51599400	-3.66633800
50.09999720	0.00000000	9.03051100	-6.40378900
50.29999719	0.00000000	10.93750000	-9.89173200
50.49999718	0.00000000	7.91092400	-13.74262000
50.69999717	0.00000000	0.98425190	-16.76919000
50.89999715	0.00000000	-7.86171200	-17.92569000
51.09999714	0.00000000	-16.41855000	-16.76919000
51.29999713	0.00000000	-22.93307000	-13.69956000
51.49999712	0.00000000	-25.95349000	-9.47342500
51.69999711	0.00000000	-23.67741000	-5.19808000
51.89999710	0.00000000	-17.25517000	-1.75935000
52.09999708	0.00000000	-9.52879000	0.18454720
52.29999707	0.00000000	-2.17765700	-0.22145670
52.49999706	0.00000000	3.21112200	-2.50369100
52.69999705	0.00000000	5.12426100	-6.35457700
52.89999704	0.00000000	3.21112200	-10.53765000
53.09999702	0.00000000	-2.13459600	-13.69956000
53.29999701	0.00000000	-9.01820900	-15.60654000
53.49999700	0.00000000	-15.16363000	-15.97564000
53.69999699	0.00000000	-19.06988000	-14.07480000
53.89999698	0.00000000	-19.82037000	-11.04823000
54.09999696	0.00000000	-17.53199000	-7.98474400
54.29999695	0.00000000	-12.51230000	-5.66560000
54.49999694	0.00000000	-6.41609200	-4.87204700
54.69999693	0.00000000	-1.02116100	-5.24729300
54.89999692	0.00000000	2.05462600	-6.77903500
55.09999691	0.00000000	2.05462600	-9.05511800
55.29999689	0.00000000	-0.97194880	-10.91289000
55.49999688	0.00000000	-5.94857300	-11.70029000
55.69999687	0.00000000	-10.97441000	-10.91289000
55.89999686	0.00000000	-15.21284000	-9.05511800
56.09999685	0.00000000	-17.48893000	-6.72982200
56.29999683	0.00000000	-16.79380000	-4.87204700
56.49999682	0.00000000	-14.13632000	-4.12770700
56.69999681	0.00000000	-10.59916000	-5.29035400
56.89999680	0.00000000	-6.36687900	-7.98474400
57.09999679	0.00000000	-2.55290300	-11.46653000
57.29999677	0.00000000	-0.64591530	-15.27436000
57.49999676	0.00000000	-0.97194880	-17.88263000
57.69999675	0.00000000	-3.25418300	-17.88263000
57.89999674	0.00000000	-6.32381900	-15.18824000
58.09999673	0.00000000	-9.44266700	-10.53765000
58.29999672	0.00000000	-12.13706000	-4.77977300
58.49999670	0.00000000	-13.67495000	0.55979330
58.69999669	0.00000000	-13.67495000	3.62942900
58.89999668	0.00000000	-12.18012000	3.62942900
59.09999667	0.00000000	-9.90403500	0.55979330
59.29999666	0.00000000	-7.94783400	-4.91510800
59.49999664	0.00000000	-6.41609200	-11.84178000
59.69999663	0.00000000	-5.67175200	-19.08834000
59.89999662	0.00000000	-6.36687900	-23.64665000
60.09999661	0.00000000	-7.48646600	-24.10802000
60.29999660	0.00000000	-8.28001900	-20.99532000
60.49999658	0.00000000	-9.01820900	-14.81299000
60.69999657	0.00000000	-9.01820900	-6.72982200
60.89999656	0.00000000	-8.32308000	0.93503930
61.09999655	0.00000000	-7.90477300	6.32381900
61.29999654	0.00000000	-7.48646600	7.85556000
61.49999653	0.00000000	-6.74212600	5.20423200
61.69999651	0.00000000	-6.41609200	-0.59670270
61.89999650	0.00000000	-6.79133800	-8.31077700
62.09999649	0.00000000	-7.94783400	-16.39395000
62.29999648	0.00000000	-9.48572700	-22.57628000
62.49999647	0.00000000	-11.02362000	-25.63976000
62.69999645	0.00000000	-12.13706000	-24.85236000
62.89999644	0.00000000	-12.13706000	-19.88189000
63.09999643	0.00000000	-10.97441000	-12.58612000
63.29999642	0.00000000	-9.06742000	-4.82898600
63.49999641	0.00000000	-6.74212600	2.09153500
63.69999639	0.00000000	-4.83513700	6.32381900
63.89999638	0.00000000	-3.67249000	6.74212600
64.09999637	0.00000000	-3.67249000	3.67249000
64.29999636	0.00000000	-4.83513700	-2.08538400
64.49999635	0.00000000	-6.74212600	-9.00590400
64.69999634	0.00000000	-9.11048200	-15.23130000
64.89999632	0.00000000	-11.34966000	-19.88189000
65.09999631	0.00000000	-12.92446000	-22.15797000
65.29999630	0.00000000	-12.88755000	-21.08760000
65.49999629	0.00000000	-11.81102000	-17.69808000
65.69999628	0.00000000	-9.86097400	-13.79183000
65.89999626	0.00000000	-7.94783400	-9.47342500
66.09999625	0.00000000	-6.36687900	-5.19808000
66.29999624	0.00000000	-5.29650500	-1.75935000
66.49999623	0.00000000	-5.67175200	0.23375980
66.69999622	0.00000000	-7.52952700	0.23991140
66.89999620	0.00000000	-9.39345400	-0.83661410
67.09999619	0.00000000	-10.64838000	-2.82972400
67.29999618	0.00000000	-11.39887000	-5.19808000
67.49999617	0.00000000	-11.71875000	-8.35998900
67.69999616	0.00000000	-10.51304000	-12.16166000
67.89999615	0.00000000	-7.90477300	-15.27436000
68.09999613	0.00000000	-5.21038300	-17.27362000
68.29999612	0.00000000	-3.29724400	-18.43627000
68.49999611	0.00000000	-2.55290300	-18.35015000
68.69999610	0.00000000	-3.75861200	-16.39395000
68.89999609	0.00000000	-6.79133800	-12.58612000
69.09999607	0.00000000	-10.64838000	-8.31077700
69.29999606	0.00000000	-14.13632000	-4.36146600
69.49999605	0.00000000	-16.83686000	-0.51058070
69.69999604	0.00000000	-17.90723000	2.09153500
69.89999603	0.00000000	-16.36934000	2.14074800
70.09999601	0.00000000	-12.51230000	-0.17839570
70.29999600	0.00000000	-7.48646600	-4.04158400
70.49999599	0.00000000	-2.09153500	-9.09817800
70.69999598	0.00000000	2.14074800	-14.07480000
70.89999597	0.00000000	4.05388800	-17.97490000
71.09999596	0.00000000	3.26033400	-19.88189000
71.29999594	0.00000000	-0.59670270	-19.50664000
71.49999593	0.00000000	-6.36687900	-16.76919000
71.69999592	0.00000000	-12.55536000	-12.21087000
71.89999591	0.00000000	-17.95029000	-7.19734200
72.09999590	0.00000000	-21.06914000	-3.29109200
72.29999588	0.00000000	-21.44439000	-0.59670270
72.49999587	0.00000000	-19.11294000	0.14148620
72.69999586	0.00000000	-14.09326000	-1.71013800
72.89999585	0.00000000	-7.94783400	-4.73671200
73.09999584	0.00000000	-2.13459600	-7.84940900
73.29999582	0.00000000	2.09768700	-10.53765000
73.49999581	0.00000000	3.63558100	-12.11860000
73.69999580	0.00000000	2.14074800	-12.53691000
73.89999579	0.00000000	-1.71628900	-12.16166000
74.09999578	0.00000000	-6.65600300	-11.00517000
74.29999577	0.00000000	-11.38656000	-9.55954600
74.49999575	0.00000000	-14.88681000	-8.82135800
74.69999574	0.00000000	-17.57505000	-9.51648500
74.89999573	0.00000000	-17.90723000	-10.62992000
75.09999572	0.00000000	-15.71727000	-11.42347000
75.29999571	0.00000000	-12.64764000	-12.16166000
75.49999569	0.00000000	-9.48572700	-12.07554000
75.69999568	0.00000000	-6.41609200	-10.53765000
75.89999567	0.00000000	-4.09079700	-7.84940900
76.09999566	0.00000000	-3.29724400	-4.77977300
76.29999565	0.00000000	-3.67249000	-2.08538400
76.49999563	0.00000000	-5.16117100	-0.59670270
76.69999562	0.00000000	-7.06815900	-1.01501000
76.89999561	0.00000000	-8.23695900	-3.75246000
77.09999560	0.00000000	-9.06742000	-8.35998900
77.29999559	0.00000000	-9.44266700	-13.69956000
77.49999558	0.00000000	-9.48572700	-17.97490000
77.69999556	0.00000000	-9.48572700	-20.30020000
77.89999555	0.00000000	-9.52879000	-20.66929000
78.09999554	0.00000000	-9.90403500	-18.30093000
78.29999553	0.00000000	-10.64838000	-13.69956000
78.49999552	0.00000000	-11.02362000	-7.89247000
78.69999550	0.00000000	-11.02362000	-2.12844500
78.89999549	0.00000000	-10.59916000	2.09768700
79.09999548	0.00000000	-9.39345400	3.67249000
79.29999547	0.00000000	-7.52952700	2.46678100
79.49999546	0.00000000	-5.57947800	-1.34719500
79.69999544	0.00000000	-4.41067900	-7.09891700
79.89999543	0.00000000	-3.62942900	-12.49385000
80.09999542	0.00000000	-3.71555100	-16.81225000
80.29999541	0.00000000	-5.25344500	-19.50664000
80.49999540	0.00000000	-7.90477300	-19.93110000
80.69999539	0.00000000	-10.59916000	-18.39321000
80.89999537	0.00000000	-12.55536000	-15.27436000
81.09999536	0.00000000	-13.71801000	-11.04823000
81.29999535	0.00000000	-13.71801000	-6.82209600
81.49999534	0.00000000	-12.55536000	-3.66633800
81.69999533	0.00000000	-10.59916000	-1.66707700
81.89999531	0.00000000	-7.90477300	-0.51058070
82.09999530	0.00000000	-5.25344500	-0.55364170
82.29999529	0.00000000	-3.71555100	-2.08538400
82.49999528	0.00000000	-3.67249000	-4.77977300
82.69999527	0.00000000	-4.83513700	-7.89247000
82.89999525	0.00000000	-6.74212600	-11.00517000
83.09999524	0.00000000	-9.01820900	-13.74262000
83.29999523	0.00000000	-10.59916000	-15.69882000
83.49999522	0.00000000	-11.39887000	-16.85531000
83.69999521	0.00000000	-11.81102000	-16.81225000
83.89999520	0.00000000	-11.39887000	-15.23130000
84.09999518	0.00000000	-10.64838000	-12.16166000
84.29999517	0.00000000	-9.48572700	-8.31077700
84.49999516	0.00000000	-8.37229300	-4.77977300
84.69999515	0.00000000	-7.94783400	-1.66707700
84.89999514	0.00000000	-7.90477300	0.55979330
85.09999512	0.00000000	-7.90477300	0.55979330
85.29999511	0.00000000	-7.90477300	-1.71013800
85.49999510	0.00000000	-7.86171200	-5.19808000
85.69999509	0.00000000	-7.48646600	-9.51648500
85.89999508	0.00000000	-6.74212600	-14.11786000
86.09999506	0.00000000	-6.41609200	-17.93184000
86.29999505	0.00000000	-6.79133800	-19.46358000
86.49999504	0.00000000	-7.94783400	-18.39321000
86.69999503	0.00000000	-9.44266700	-15.64960000
86.89999502	0.00000000	-10.64838000	-11.74336000
87.09999501	0.00000000	-11.44193000	-6.72982200
87.29999499	0.00000000	-12.18012000	-2.17765700
87.49999498	0.00000000	-12.13706000	0.55979330
87.69999497	0.00000000	-11.02362000	0.93503930
87.89999496	0.00000000	-9.48572700	-1.02116100
88.09999495	0.00000000	-7.90477300	-5.19808000
88.29999493	0.00000000	-6.36687900	-10.21161000
88.49999492	0.00000000	-5.25344500	-14.45005000
88.69999491	0.00000000	-5.25344500	-17.55659000
88.89999490	0.00000000	-6.36687900	-18.25787000
89.09999489	0.00000000	-7.90477300	-16.39395000
89.29999487	0.00000000	-9.48572700	-12.53691000
89.49999486	0.00000000	-11.02362000	-7.93553100
89.69999485	0.00000000	-12.13706000	-3.70939900
89.89999484	0.00000000	-12.13706000	-1.01501000
90.09999483	0.00000000	-11.06668000	-0.59670270
90.29999482	0.00000000	-9.90403500	-2.17765700
90.49999480	0.00000000	-9.06742000	-5.66560000
90.69999479	0.00000000	-7.90477300	-10.58686000
90.89999478	0.00000000	-6.79133800	-14.76993000
91.09999477	0.00000000	-6.41609200	-16.76919000
91.29999476	0.00000000	-6.74212600	-16.76919000
91.49999474	0.00000000	-7.48646600	-14.81299000
91.69999473	0.00000000	-7.86171200	-10.95595000
91.89999472	0.00000000	-7.90477300	-6.40378900
92.09999471	0.00000000	-7.94783400	-2.54675200
92.29999470	0.00000000	-8.28001900	-0.63976370
92.49999468	0.00000000	-8.69217500	-0.97194880
92.69999467	0.00000000	-8.74138700	-3.33415300
92.89999466	0.00000000	-9.52879000	-7.19734200
93.09999465	0.00000000	-10.59916000	-12.16166000
93.29999464	0.00000000	-11.02362000	-16.30167000
93.49999463	0.00000000	-11.02362000	-17.88263000
93.69999461	0.00000000	-10.64838000	-16.81225000
93.89999460	0.00000000	-9.86097400	-14.07480000
94.09999459	0.00000000	-9.01820900	-10.21161000
94.29999458	0.00000000	-7.43725300	-5.61638700
94.49999457	0.00000000	-5.21038300	-2.22071800
94.69999455	0.00000000	-3.67249000	-1.01501000
94.89999454	0.00000000	-3.29724400	-2.17765700
95.09999453	0.00000000	-4.04773600	-5.24729300
95.29999452	0.00000000	-5.99163300	-9.43036400
95.49999451	0.00000000	-8.32308000	-13.28125000
95.69999449	0.00000000	-11.06668000	-15.60654000
95.89999448	0.00000000	-13.71801000	-16.34473000
96.09999447	0.00000000	-15.25591000	-14.81299000
96.29999446	0.00000000	-15.25591000	-11.42347000
96.49999445	0.00000000	-13.71801000	-7.98474400
96.69999444	0.00000000	-10.97441000	-5.24729300
96.89999442	0.00000000	-7.48646600	-3.70939900
97.09999441	0.00000000	-3.62942900	-3.70939900
97.29999440	0.00000000	-0.59670270	-5.19808000
97.49999439	0.00000000	0.55979330	-7.51722400
97.69999438	0.00000000	-0.55364170	-9.79945900
97.89999436	0.00000000	-3.25418300	-11.74951000
98.09999435	0.00000000	-6.74212600	-12.53691000
98.29999434	0.00000000	-10.64838000	-12.58612000
98.49999433	0.00000000	-14.09326000	-12.11860000
98.69999432	0.00000000	-16.46161000	-10.62992000
98.89999430	0.00000000	-17.16289000	-8.77214500
99.09999429	0.00000000	-16.04331000	-7.98474400
99.29999428	0.00000000	-12.97982000	-7.89247000
99.49999427	0.00000000	-9.52879000	-7.89247000
99.69999426	0.00000000	-6.32381900	-7.89247000
99.89999425	0.00000000	-3.25418300	-7.89247000
100.09999423	0.00000000	-0.97194880	-7.84940900
100.29999422	0.00000000	-0.59670270	-7.47416300
100.49999421	0.00000000	-2.09153500	-6.72982200
100.69999420	0.00000000	-4.78592500	-6.40378900
100.89999419	0.00000000	-7.90477300	-6.77903500
101.09999417	0.00000000	-10.97441000	-7.93553100
101.29999416	0.00000000	-13.34276000	-9.47342500
101.49999415	0.00000000	-14.51156000	-11.04823000
101.69999414	0.00000000	-14.92372000	-12.53691000
101.89999413	0.00000000	-14.09326000	-13.28125000
102.09999411	0.00000000	-12.22933000	-12.49385000
102.29999410	0.00000000	-9.86097400	-10.62992000
102.49999409	0.00000000	-7.57258800	-8.26771600
102.69999408	0.00000000	-5.57947800	-5.93626900
102.89999407	0.00000000	-4.41067900	-3.61712600
103.09999406	0.00000000	-3.67249000	-2.17150600
103.29999404	0.00000000	-4.09079700	-2.54675200
103.49999403	0.00000000	-5.99163300	-4.82283400
103.69999402	0.00000000	-8.28001900	-7.89247000
103.89999401	0.00000000	-10.59916000	-11.00517000
104.09999400	0.00000000	-12.13706000	-13.69956000
104.29999398	0.00000000	-12.60458000	-15.23130000
104.49999397	0.00000000	-12.60458000	-15.23130000
104.69999396	0.00000000	-12.13706000	-13.69956000
104.89999395	0.00000000	-10.64838000	-11.00517000
105.09999394	0.00000000	-8.74138700	-7.93553100
105.29999392	0.00000000	-7.57258800	-5.24729300
105.49999391	0.00000000	-6.74212600	-3.70939900
105.69999390	0.00000000	-6.41609200	-3.66633800
105.89999389	0.00000000	-6.79133800	-4.87204700
106.09999388	0.00000000	-7.90477300	-7.14812900
106.29999387	0.00000000	-9.06742000	-10.16855000
106.49999385	0.00000000	-9.86097400	-12.07554000
106.69999384	0.00000000	-10.59916000	-12.53691000
106.89999383	0.00000000	-10.59916000	-12.16166000
107.09999382	0.00000000	-9.86097400	-11.00517000
107.29999381	0.00000000	-9.06742000	-9.51648500
107.49999379	0.00000000	-7.90477300	-8.26771600
107.69999378	0.00000000	-6.83439900	-7.14197800
107.89999377	0.00000000	-6.79133800	-6.03469500
108.09999376	0.00000000	-7.52952700	-6.44685000
108.29999375	0.00000000	-8.32308000	-7.89247000
108.49999374	0.00000000	-9.48572700	-9.47342500
108.69999372	0.00000000	-10.59916000	-11.00517000
108.89999371	0.00000000	-11.02362000	-12.11860000
109.09999370	0.00000000	-11.02362000	-12.11860000
109.29999369	0.00000000	-10.59916000	-11.00517000
109.49999368	0.00000000	-9.44266700	-9.47342500
109.69999366	0.00000000	-7.94783400	-7.89247000
109.89999365	0.00000000	-6.79133800	-6.40378900
110.09999364	0.00000000	-6.36687900	-5.61638700
110.29999363	0.00000000	-6.36687900	-5.98548200
110.49999362	0.00000000	-6.79133800	-6.72982200
110.69999360	0.00000000	-7.94783400	-7.93553100
110.89999359	0.00000000	-9.44266700	-9.47342500
111.09999358	0.00000000	-10.59916000	-11.00517000
111.29999357	0.00000000	-11.02362000	-12.11860000
111.49999356	0.00000000	-11.02362000	-12.16166000
111.69999355	0.00000000	-10.59916000	-11.42347000
111.89999353	0.00000000	-9.48572700	-10.62992000
112.09999352	0.00000000	-8.37229300	-9.47342500
112.29999351	0.00000000	-7.94783400	-8.35998900
112.49999350	0.00000000	-7.90477300	-7.89247000
112.69999349	0.00000000	-7.90477300	-7.51722400
112.89999347	0.00000000	-7.94783400	-7.14812900
113.09999346	0.00000000	-8.32308000	-7.51722400
113.29999345	0.00000000	-9.06742000	-7.89247000
113.49999344	0.00000000	-9.44266700	-8.31077700
113.69999343	0.00000000	-9.48572700	-9.05511800
113.89999341	0.00000000	-9.48572700	-9.43036400
114.09999340	0.00000000	-9.48572700	-9.47342500
114.29999339	0.00000000	-9.44266700	-9.47342500
114.49999338	0.00000000	-9.06742000	-9.51648500
114.69999337	0.00000000	-8.32308000	-9.89173200
114.89999336	0.00000000	-7.94783400	-10.58686000
115.09999334	0.00000000	-7.94783400	-10.62992000
115.29999333	0.00000000	-8.28001900	-10.26698000
115.49999332	0.00000000	-8.69217500	-10.25467000
115.69999331	0.00000000	-8.69832600	-9.79945900
115.89999330	0.00000000	-9.11048200	-9.09817800
116.09999328	0.00000000	-9.44266700	-8.26771600
116.29999327	0.00000000	-9.48572700	-7.51722400
116.49999326	0.00000000	-9.48572700	-6.77903500
116.69999325	0.00000000	-9.48572700	-6.77903500
116.89999324	0.00000000	-9.48572700	-7.51722400
117.09999322	0.00000000	-9.44266700	-8.26771600
117.29999321	0.00000000	-9.06742000	-9.09817800
117.49999320	0.00000000	-8.28001900	-9.84867000
117.69999319	0.00000000	-7.52952700	-10.62992000
117.89999318	0.00000000	-6.74212600	-11.00517000
118.09999317	0.00000000	-6.41609200	-11.04823000
118.29999315	0.00000000	-6.79133800	-11.00517000
118.49999314	0.00000000	-7.94783400	-10.58686000
118.69999313	0.00000000	-9.44266700	-9.47342500
118.89999312	0.00000000	-10.59916000	-8.35998900
119.09999311	0.00000000	-11.02362000	-7.93553100
119.29999309	0.00000000	-11.06668000	-7.84940900
119.49999308	0.00000000	-11.02362000	-7.51722400
119.69999307	0.00000000	-10.64838000	-7.14812900
119.89999306	0.00000000	-9.86097400	-7.51722400
120.09999305	0.00000000	-9.06742000	-7.89247000
120.29999303	0.00000000	-7.86171200	-8.31077700
120.49999302	0.00000000	-6.41609200	-9.05511800
120.69999301	0.00000000	-5.62869100	-9.43036400
120.89999300	0.00000000	-5.99163300	-9.51648500
121.09999299	0.00000000	-6.74212600	-9.89173200
121.29999298	0.00000000	-7.94783400	-10.62992000
121.49999296	0.00000000	-9.44266700	-10.95595000
121.69999295	0.00000000	-10.59916000	-10.62992000
121.89999294	0.00000000	-11.02362000	-9.89173200
122.09999293	0.00000000	-11.06668000	-9.47342500
122.29999292	0.00000000	-11.02362000	-9.05511800
122.49999290	0.00000000	-10.64838000	-8.31077700
122.69999289	0.00000000	-9.86097400	-7.93553100
122.89999288	0.00000000	-9.11048200	-7.89247000
123.09999287	0.00000000	-8.28001900	-7.89247000
123.29999286	0.00000000	-7.52952700	-7.93553100
123.49999284	0.00000000	-6.74212600	-8.31077700
123.69999283	0.00000000	-6.41609200	-9.05511800
123.89999282	0.00000000	-6.74212600	-9.47342500
124.09999281	0.00000000	-7.52952700	-9.84867000
124.29999280	0.00000000	-8.32308000	-10.25467000
124.49999279	0.00000000	-9.48572700	-10.21776000
124.69999277	0.00000000	-10.59916000	-10.25467000
124.89999276	0.00000000	-11.02362000	-9.79945900
125.09999275	0.00000000	-11.06668000	-9.09817800
125.29999274	0.00000000	-11.02362000	-8.31077700
125.49999273	0.00000000	-10.64838000	-7.93553100
125.69999271	0.00000000	-9.90403500	-7.89247000
125.89999270	0.00000000	-9.48572700	-7.89247000
126.09999269	0.00000000	-9.01820900	-7.89247000
126.29999268	0.00000000	-7.90477300	-7.89247000
126.49999267	0.00000000	-6.79133800	-7.93553100
126.69999265	0.00000000	-6.41609200	-8.31077700
126.89999264	0.00000000	-6.79133800	-9.05511800
127.09999263	0.00000000	-7.90477300	-9.43036400
127.29999262	0.00000000	-9.06742000	-9.47342500
127.49999261	0.00000000	-9.86097400	-9.47342500
127.69999260	0.00000000	-10.64838000	-9.47342500
127.89999258	0.00000000	-11.02362000	-9.47342500
128.09999257	0.00000000	-11.02362000	-9.43036400
128.29999256	0.00000000	-10.59916000	-9.09817800
128.49999255	0.00000000	-9.44266700	-8.72908400
128.69999254	0.00000000	-7.94783400	-9.05511800
128.89999252	0.00000000	-6.79133800	-9.05511800
129.09999251	0.00000000	-6.41609200	-8.72908400
129.29999250	0.00000000	-6.74212600	-9.09817800
129.49999249	0.00000000	-7.52952700	-9.43036400
129.69999248	0.00000000	-8.32308000	-9.47342500
129.89999246	0.00000000	-9.48572700	-9.47342500
130.09999245	0.00000000	-10.59916000	-9.47342500
130.29999244	0.00000000	-11.02362000	-9.47342500
130.49999243	0.00000000	-11.02362000	-9.43036400
130.69999242	0.00000000	-10.59916000	-9.05511800
130.89999241	0.00000000	-9.48572700	-8.31077700
131.09999239	0.00000000	-8.32308000	-7.93553100
131.29999238	0.00000000	-7.52952700	-7.89247000
131.49999237	0.00000000	-6.79133800	-7.93553100
131.69999236	0.00000000	-6.79133800	-8.31077700
131.89999235	0.00000000	-7.52952700	-9.05511800
132.09999233	0.00000000	-8.28001900	-9.43036400
132.29999232	0.00000000	-9.11048200	-9.51648500
132.49999231	0.00000000	-9.81791200	-9.84867000
132.69999230	0.00000000	-10.23007000	-10.21161000
132.89999229	0.00000000	-9.86097400	-9.79945900
133.09999227	0.00000000	-9.52879000	-9.09817800
133.29999226	0.00000000	-9.44266700	-8.31077700
133.49999225	0.00000000	-9.06742000	-7.93553100
133.69999224	0.00000000	-8.37229300	-7.89247000
133.89999223	0.00000000	-8.37229300	-7.93553100
134.09999222	0.00000000	-9.06742000	-8.31077700
134.29999220	0.00000000	-9.44266700	-9.09817800
134.49999219	0.00000000	-9.48572700	-9.84867000
134.69999218	0.00000000	-9.44266700	-10.62992000
134.89999217	0.00000000	-9.06742000	-11.00517000
135.09999216	0.00000000	-8.32308000	-11.04823000
135.29999214	0.00000000	-7.94783400	-11.04823000
135.49999213	0.00000000	-7.90477300	-11.00517000
135.69999212	0.00000000	-7.94783400	-10.58686000
135.89999211	0.00000000	-8.32308000	-9.47342500
136.09999210	0.00000000	-9.06742000	-8.35998900
136.29999208	0.00000000	-9.48572700	-7.93553100
136.49999207	0.00000000	-9.90403500	-7.89247000
136.69999206	0.00000000	-10.59916000	-7.93553100
136.89999205	0.00000000	-10.59916000	-8.31077700
137.09999204	0.00000000	-9.86097400	-9.05511800
137.29999203	0.00000000	-9.11048200	-9.47342500
137.49999201	0.00000000	-8.32308000	-9.89173200
137.69999200	0.00000000	-7.94783400	-10.62992000
137.89999199	0.00000000	-7.90477300	-10.95595000
138.09999198	0.00000000	-7.90477300	-10.62992000
138.29999197	0.00000000	-7.94783400	-9.93479300
138.49999195	0.00000000	-8.32308000	-9.89173200
138.69999194	0.00000000	-9.11048200	-10.16855000
138.89999193	0.00000000	-9.86097400	-9.42421200
139.09999192	0.00000000	-10.64838000	-8.35998900
139.29999191	0.00000000	-10.97441000	-7.93553100
139.49999189	0.00000000	-10.64838000	-7.89247000
139.69999188	0.00000000	-9.86097400	-7.89247000
139.89999187	0.00000000	-9.11048200	-7.89247000
140.09999186	0.00000000	-8.32308000	-7.93553100
140.29999185	0.00000000	-7.94783400	-8.31077700
140.49999184	0.00000000	-7.90477300	-9.09817800
140.69999182	0.00000000	-7.94783400	-9.84867000
140.89999181	0.00000000	-8.32308000	-10.62992000
141.09999180	0.00000000	-9.06742000	-11.00517000
141.29999179	0.00000000	-9.44266700	-11.00517000
141.49999178	0.00000000	-9.48572700	-10.58686000
141.69999176	0.00000000	-9.48572700	-9.47342500
141.89999175	0.00000000	-9.48572700	-8.35998900
142.09999174	0.00000000	-9.44266700	-7.89247000
142.29999173	0.00000000	-9.06742000	-7.51722400
142.49999172	0.00000000	-8.32308000	-7.14812900
142.69999170	0.00000000	-7.99704600	-7.56028500
142.89999169	0.00000000	-8.32308000	-8.26771600
143.09999168	0.00000000	-9.06742000	-9.09817800
143.29999167	0.00000000	-9.44266700	-9.84867000
143.49999166	0.00000000	-9.48572700	-10.62992000
143.69999165	0.00000000	-9.48572700	-11.00517000
143.89999163	0.00000000	-9.48572700	-11.00517000
144.09999162	0.00000000	-9.44266700	-10.62992000
144.29999161	0.00000000	-9.11048200	-9.84867000
144.49999160	0.00000000	-8.69832600	-9.09817800
144.69999159	0.00000000	-8.69217500	-8.31077700
144.89999157	0.00000000	-8.28001900	-7.93553100
145.09999156	0.00000000	-7.99704600	-7.89247000
145.29999155	0.00000000	-8.32308000	-7.89247000
145.49999154	0.00000000	-9.06742000	-7.93553100
145.69999153	0.00000000	-9.44266700	-8.31077700
145.89999151	0.00000000	-9.48572700	-9.05511800
146.09999150	0.00000000	-9.48572700	-9.47342500
146.29999149	0.00000000	-9.48572700	-9.84867000
146.49999148	0.00000000	-9.48572700	-10.21161000
146.69999147	0.00000000	-9.44266700	-9.84867000
146.89999146	0.00000000	-9.06742000	-9.51648500
147.09999144	0.00000000	-8.32308000	-9.47342500
147.29999143	0.00000000	-7.99704600	-9.43036400
147.49999142	0.00000000	-8.32308000	-9.05511800
147.69999141	0.00000000	-9.06742000	-8.31077700
147.89999140	0.00000000	-9.44266700	-7.93553100
148.09999138	0.00000000	-9.48572700	-7.89247000
148.29999137	0.00000000	-9.48572700	-7.93553100
148.49999136	0.00000000	-9.48572700	-8.31077700
148.69999135	0.00000000	-9.48572700	-9.05511800
148.89999134	0.00000000	-9.48572700	-9.43036400
149.09999132	0.00000000	-9.48572700	-9.47342500
149.29999131	0.00000000	-9.44266700	-9.51648500
149.49999130	0.00000000	-9.06742000	-9.84867000
149.69999129	0.00000000	-8.32308000	-10.16855000
149.89999128	0.00000000	-7.94783400	-9.47342500
150.09999127	0.00000000	-7.94783400	-8.72908400
150.29999125	0.00000000	-8.32308000	-8.67987200
150.49999124	0.00000000	-9.06742000	-8.26771600
150.69999123	0.00000000	-9.44266700	-7.93553100
150.89999122	0.00000000	-9.48572700	-7.89247000
151.09999121	0.00000000	-9.48572700	-7.89247000
151.29999119	0.00000000	-9.48572700	-7.93553100
151.49999118	0.00000000	-9.48572700	-8.31077700
151.69999117	0.00000000	-9.48572700	-9.05511800
151.89999116	0.00000000	-9.44266700	-9.43036400
152.09999115	0.00000000	-9.06742000	-9.47342500
152.29999113	0.00000000	-8.32308000	-9.47342500
152.49999112	0.00000000	-7.94783400	-9.47342500
152.69999111	0.00000000	-7.90477300	-9.47342500
152.89999110	0.00000000	-7.94783400	-9.47342500
153.09999109	0.00000000	-8.28001900	-9.47342500
153.29999108	0.00000000	-8.69217500	-9.43036400
153.49999106	0.00000000	-8.69832600	-9.09817800
153.69999105	0.00000000	-9.11048200	-8.68602300
153.89999104	0.00000000	-9.44266700	-8.72293300
154.09999103	0.00000000	-9.48572700	-8.68602300
154.29999102	0.00000000	-9.48572700	-9.05511800
154.49999100	0.00000000	-9.48572700	-9.05511800
154.69999099	0.00000000	-9.48572700	-8.72908400
154.89999098	0.00000000	-9.48572700	-9.09817800
155.09999097	0.00000000	-9.44266700	-9.43036400
155.29999096	0.00000000	-9.06742000	-9.47342500
155.49999094	0.00000000	-8.32308000	-9.47342500
155.69999093	0.00000000	-7.94783400	-9.47342500
155.89999092	0.00000000	-7.90477300	-9.47342500
156.09999091	0.00000000	-7.94783400	-9.47342500
156.29999090	0.00000000	-8.32308000	-9.47342500
156.49999089	0.00000000	-9.06742000	-9.43036400
156.69999087	0.00000000	-9.48572700	-9.05511800
156.89999086	0.00000000	-9.86097400	-8.31077700
157.09999085	0.00000000	-10.27313000	-7.93553100
157.29999084	0.00000000	-10.23622000	-7.89247000
157.49999083	0.00000000	-10.27313000	-7.93553100
157.69999081	0.00000000	-9.86097400	-8.31077700
157.89999080	0.00000000	-9.52879000	-9.05511800
158.09999079	0.00000000	-9.44266700	-9.43036400
158.29999078	0.00000000	-9.06742000	-9.47342500
158.49999077	0.00000000	-8.32308000	-9.47342500
158.69999075	0.00000000	-7.94783400	-9.47342500
158.89999074	0.00000000	-7.94783400	-9.47342500
159.09999073	0.00000000	-8.28001900	-9.43036400
159.29999072	0.00000000	-8.69217500	-9.05511800
159.49999071	0.00000000	-8.69832600	-8.31077700
159.69999070	0.00000000	-9.11048200	-7.93553100
159.89999068	0.00000000	-9.44266700	-7.89247000
160.09999067	0.00000000	-9.48572700	-7.89247000
160.29999066	0.00000000	-9.48572700	-7.93553100
160.49999065	0.00000000	-9.48572700	-8.31077700
160.69999064	0.00000000	-9.48572700	-9.05511800
160.89999062	0.00000000	-9.48572700	-9.43036400
161.09999061	0.00000000	-9.48572700	-9.47342500
161.29999060	0.00000000	-9.48572700	-9.47342500
161.49999059	0.00000000	-9.44266700	-9.47342500
161.69999058	0.00000000	-9.06742000	-9.47342500
161.89999056	0.00000000	-8.37229300	-9.47342500
162.09999055	0.00000000	-8.32308000	-9.43036400
162.29999054	0.00000000	-8.69217500	-9.09817800
162.49999053	0.00000000	-8.69832600	-8.68602300
162.69999052	0.00000000	-9.11048200	-8.67987200
162.89999051	0.00000000	-9.44266700	-8.31077700
163.09999049	0.00000000	-9.48572700	-8.35998900
163.29999048	0.00000000	-9.48572700	-9.05511800
163.49999047	0.00000000	-9.52879000	-9.43036400
163.69999046	0.00000000	-9.86097400	-9.47342500
163.89999045	0.00000000	-10.23007000	-9.47342500
164.09999043	0.00000000	-9.86097400	-9.47342500
164.29999042	0.00000000	-9.52879000	-9.47342500
164.49999041	0.00000000	-9.44266700	-9.47342500
164.69999040	0.00000000	-9.06742000	-9.47342500
164.89999039	0.00000000	-8.32308000	-9.47342500
165.09999037	0.00000000	-7.94783400	-9.47342500
165.29999036	0.00000000	-7.94783400	-9.47342500
165.49999035	0.00000000	-8.32308000	-9.47342500
165.69999034	0.00000000	-9.06742000	-9.47342500
165.89999033	0.00000000	-9.44266700	-9.43036400
166.09999032	0.00000000	-9.48572700	-9.05511800
166.29999030	0.00000000	-9.48572700	-8.35998900
166.49999029	0.00000000	-9.48572700	-8.35998900
166.69999028	0.00000000	-9.48572700	-9.05511800
166.89999027	0.00000000	-9.48572700	-9.43036400
167.09999026	0.00000000	-9.48572700	-9.47342500
167.29999024	0.00000000	-9.48572700	-9.47342500
167.49999023	0.00000000	-9.48572700	-9.47342500
167.69999022	0.00000000	-9.44266700	-9.43036400
167.89999021	0.00000000	-9.06742000	-9.09817800
168.09999020	0.00000000	-8.32308000	-8.72908400
168.29999018	0.00000000	-7.99704600	-9.09817800
168.49999017	0.00000000	-8.32308000	-9.43036400
168.69999016	0.00000000	-9.06742000	-9.47342500
168.89999015	0.00000000	-9.44266700	-9.47342500
169.09999014	0.00000000	-9.48572700	-9.47342500
169.29999013	0.00000000	-9.48572700	-9.47342500
169.49999011	0.00000000	-9.48572700	-9.47342500
169.69999010	0.00000000	-9.48572700	-9.47342500
169.89999009	0.00000000	-9.48572700	-9.47342500
170.09999008	0.00000000	-9.48572700	-9.47342500
170.29999007	0.00000000	-9.44266700	-9.47342500
170.49999005	0.00000000	-9.11048200	-9.47342500
170.69999004	0.00000000	-8.74138700	-9.47342500
170.89999003	0.00000000	-9.11048200	-9.47342500
171.09999002	0.00000000	-9.44266700	-9.47342500
171.29999001	0.00000000	-9.48572700	-9.47342500
171.49998999	0.00000000	-9.48572700	-9.47342500
171.69998998	0.00000000	-9.48572700	-9.47342500
171.89998997	0.00000000	-9.48572700	-9.47342500
172.09998996	0.00000000	-9.48572700	-9.47342500
172.29998995	0.00000000	-9.48572700	-9.47342500
172.49998994	0.00000000	-9.48572700	-9.47342500
172.69998992	0.00000000	-9.48572700	-9.43036400
172.89998991	0.00000000	-9.48572700	-9.09817800
173.09998990	0.00000000	-9.48572700	-8.72908400
173.29998989	0.00000000	-9.48572700	-9.05511800
173.49998988	0.00000000	-9.48572700	-9.05511800
173.69998986	0.00000000	-9.48572700	-8.72908400
173.89998985	0.00000000	-9.48572700	-9.09817800
174.09998984	0.00000000	-9.48572700	-9.43036400
174.29998983	0.00000000	-9.48572700	-9.47342500
174.49998982	0.00000000	-9.48572700	-9.47342500
174.69998980	0.00000000	-9.48572700	-9.47342500
174.89998979	0.00000000	-9.48572700	-9.47342500
175.09998978	0.00000000	-9.48572700	-9.47342500
175.29998977	0.00000000	-9.48572700	-9.47342500
175.49998976	0.00000000	-9.48572700	-9.43036400
175.69998975	0.00000000	-9.48572700	-9.09817800
175.89998973	0.00000000	-9.48572700	-8.72908400
176.09998972	0.00000000	-9.48572700	-9.09817800
176.29998971	0.00000000	-9.44266700	-9.43036400
176.49998970	0.00000000	-9.11048200	-9.47342500
176.69998969	0.00000000	-8.74138700	-9.47342500
176.89998967	0.00000000	-9.11048200	-9.47342500
177.09998966	0.00000000	-9.44266700	-9.47342500
177.29998965	0.00000000	-9.48572700	-9.47342500
177.49998964	0.00000000	-9.48572700	-9.47342500
177.69998963	0.00000000	-9.48572700	-9.47342500
177.89998961	0.00000000	-9.48572700	-9.47342500
178.09998960	0.00000000	-9.48572700	-9.47342500
178.29998959	0.00000000	-9.48572700	-9.47342500
178.49998958	0.00000000	-9.48572700	-9.47342500
178.69998957	0.00000000	-9.48572700	-9.47342500
178.89998956	0.00000000	-9.48572700	-9.47342500
179.09998954	0.00000000	-9.48572700	-9.43036400
179.29998953	0.00000000	-9.44266700	-9.09817800
179.49998952	0.00000000	-9.11048200	-8.72908400
179.69998951	0.00000000	-8.74138700	-9.09817800
179.89998950	0.00000000	-9.11048200	-9.43036400
180.09998948	0.00000000	-9.44266700	-9.47342500
180.29998947	0.00000000	-9.48572700	-9.47342500
180.49998946	0.00000000	-9.48572700	-9.47342500
180.69998945	0.00000000	-9.48572700	-9.47342500
180.89998944	0.00000000	-9.48572700	-9.47342500
181.09998942	0.00000000	-9.48572700	-9.47342500
181.29998941	0.00000000	-9.48572700	-9.47342500
181.49998940	0.00000000	-9.48572700	-9.43036400
181.69998939	0.00000000	-9.48572700	-9.05511800
181.89998938	0.00000000	-9.48572700	-8.35998900
182.09998937	0.00000000	-9.44266700	-8.31077700
182.29998935	0.00000000	-9.06742000	-8.67987200
182.49998934	0.00000000	-8.37229300	-8.68602300
182.69998933	0.00000000	-8.37229300	-9.09817800
182.89998932	0.00000000	-9.06742000	-9.43036400
183.09998931	0.00000000	-9.44266700	-9.47342500
183.29998929	0.00000000	-9.48572700	-9.47342500
183.49998928	0.00000000	-9.48572700	-9.47342500
183.69998927	0.00000000	-9.48572700	-9.47342500
183.89998926	0.00000000	-9.48572700	-9.47342500
184.09998925	0.00000000	-9.48572700	-9.47342500
184.29998923	0.00000000	-9.48572700	-9.43036400
184.49998922	0.00000000	-9.48572700	-9.05511800
184.69998921	0.00000000	-9.48572700	-8.31077700
184.89998920	0.00000000	-9.48572700	-7.93553100
185.09998919	0.00000000	-9.48572700	-7.89247000
185.29998918	0.00000000	-9.48572700	-7.93553100
185.49998916	0.00000000	-9.48572700	-8.31077700
185.69998915	0.00000000	-9.44266700	-9.05511800
185.89998914	0.00000000	-9.11048200	-9.43036400
186.09998913	0.00000000	-8.74138700	-9.47342500
186.29998912	0.00000000	-9.11048200	-9.47342500
186.49998910	0.00000000	-9.44266700	-9.47342500
186.69998909	0.00000000	-9.48572700	-9.47342500
186.89998908	0.00000000	-9.48572700	-9.47342500
187.09998907	0.00000000	-9.48572700	-9.47342500
187.29998906	0.00000000	-9.48572700	-9.43036400
187.49998904	0.00000000	-9.48572700	-9.05511800
187.69998903	0.00000000	-9.48572700	-8.31077700
187.89998902	0.00000000	-9.48572700	-7.93553100
188.09998901	0.00000000	-9.48572700	-7.89247000
188.29998900	0.00000000	-9.48572700	-7.93553100
188.49998899	0.00000000	-9.48572700	-8.31077700
188.69998897	0.00000000	-9.48572700	-9.05511800
188.89998896	0.00000000	-9.48572700	-9.43036400
189.09998895	0.00000000	-9.48572700	-9.47342500
189.29998894	0.00000000	-9.48572700	-9.47342500
189.49998893	0.00000000	-9.48572700	-9.47342500
189.69998891	0.00000000	-9.48572700	-9.47342500
189.89998890	0.00000000	-9.48572700	-9.47342500
190.09998889	0.00000000	-9.48572700	-9.47342500
190.29998888	0.00000000	-9.48572700	-9.47342500
190.49998887	0.00000000	-9.48572700	-9.47342500
190.69998885	0.00000000	-9.48572700	-9.43036400
190.89998884	0.00000000	-9.48572700	-9.09817800
191.09998883	0.00000000	-9.48572700	-8.72908400
191.29998882	0.00000000	-9.48572700	-9.09817800
191.49998881	0.00000000	-9.48572700	-9.43036400
191.69998880	0.00000000	-9.48572700	-9.47342500
191.89998878	0.00000000	-9.48572700	-9.47342500
192.09998877	0.00000000	-9.48572700	-9.47342500
192.29998876	0.00000000	-9.44266700	-9.47342500
192.49998875	0.00000000	-9.11048200	-9.47342500
192.69998874	0.00000000	-8.74138700	-9.47342500
192.89998872	0.00000000	-9.11048200	-9.47342500
193.09998871	0.00000000	-9.44266700	-9.47342500
193.29998870	0.00000000	-9.48572700	-9.47342500
193.49998869	0.00000000	-9.48572700	-9.43036400
193.69998868	0.00000000	-9.44266700	-9.05511800
193.89998866	0.00000000	-9.11048200	-8.31077700
194.09998865	0.00000000	-8.74138700	-7.93553100
194.29998864	0.00000000	-9.06742000	-7.93553100
194.49998863	0.00000000	-9.06742000	-8.31077700
194.69998862	0.00000000	-8.74138700	-9.05511800
194.89998861	0.00000000	-9.06742000	-9.43036400
195.09998859	0.00000000	-9.06742000	-9.47342500
195.29998858	0.00000000	-8.74138700	-9.47342500
195.49998857	0.00000000	-9.11048200	-9.47342500
195.69998856	0.00000000	-9.44266700	-9.47342500
195.89998855	0.00000000	-9.48572700	-9.47342500
196.09998853	0.00000000	-9.48572700	-9.47342500
