Time	Channel A	Channel B	Channel C
(us)	(V)	(mV)	(mV)

-4.49999956	0.00000000	-70.04182000	-28.42027000
-4.29999957	0.00000000	-70.04182000	-28.42027000
-4.09999958	0.00000000	-70.73695000	-28.42027000
-3.89999959	0.00000000	-71.11221000	-28.42027000
-3.69999960	0.00000000	-71.15526000	-28.42027000
-3.49999962	0.00000000	-71.11221000	-28.42027000
-3.29999963	0.00000000	-70.78001000	-28.42027000
-3.09999964	0.00000000	-70.41092000	-28.42027000
-2.89999965	0.00000000	-70.78001000	-28.42027000
-2.69999966	0.00000000	-71.11221000	-28.42027000
-2.49999968	0.00000000	-71.15526000	-28.42027000
-2.29999969	0.00000000	-71.11221000	-28.42027000
-2.09999970	0.00000000	-70.73695000	-28.42027000
-1.89999971	0.00000000	-69.99261000	-28.42027000
-1.69999972	0.00000000	-69.66658000	-28.42027000
-1.49999973	0.00000000	-69.94955000	-28.42027000
-1.29999975	0.00000000	-70.31865000	-28.42027000
-1.09999976	0.00000000	-69.94955000	-28.42027000
-0.89999977	0.00000000	-69.66658000	-28.42027000
-0.69999978	0.00000000	-69.94955000	-28.42027000
-0.49999979	0.00000000	-70.36171000	-28.42027000
-0.29999981	0.31803640	-70.36786000	-28.42027000
-0.09999982	0.63668800	-70.78001000	-28.42027000
0.10000017	0.95533960	-71.11221000	-28.42027000
0.30000016	1.11466500	-71.15526000	-28.42027000
0.50000015	0.79601380	-71.11221000	-28.42027000
0.70000013	0.15871060	-70.78001000	-28.42027000
0.90000012	-0.63668800	-70.36786000	-28.42027000
1.10000011	-1.59264300	-70.40477000	-28.42027000
1.30000010	-2.54859700	-70.32480000	-28.42027000
1.50000009	-2.70792300	-70.36171000	-28.42027000
1.70000008	-2.38927200	-69.94955000	-28.42027000
1.90000006	-1.11466500	-69.61736000	-28.42027000
2.10000005	0.79601380	-69.57431000	-28.42027000
2.30000004	3.02657500	-69.61736000	-28.42027000
2.50000003	4.61921700	-69.99261000	-28.42027000
2.70000002	5.41584600	-70.73695000	-28.42027000
2.90000000	4.61921700	-71.01993000	-28.46333000
3.09999999	2.54859700	-70.40477000	-28.83858000
3.29999998	-0.63668800	-69.62967000	-29.53371000
3.49999997	-3.98191400	-69.98646000	-29.53371000
3.69999996	-6.69045300	-69.90649000	-28.83858000
3.89999994	-7.96444400	-69.61736000	-28.46333000
4.09999993	-7.16781500	-69.57431000	-28.37721000
4.29999992	-4.45989200	-69.57431000	-28.04503000
4.49999991	-0.47736220	-69.57431000	-27.67593000
4.69999990	3.98191400	-69.61736000	-28.04503000
4.89999989	7.48646600	-69.94955000	-28.37721000
5.09999987	9.39837600	-70.36171000	-28.46333000
5.29999986	8.92039900	-70.32480000	-28.83858000
5.49999985	6.05315000	-70.40477000	-29.58292000
5.69999984	1.75196900	-70.36786000	-29.95817000
5.89999983	-3.02657500	-70.73695000	-30.00123000
6.09999981	-7.00848900	-70.68774000	-29.95817000
6.29999980	-9.23905000	-69.99261000	-29.58292000
6.49999979	-9.07972400	-69.61736000	-28.79552000
6.69999978	-6.84916400	-69.57431000	-28.08809000
6.89999977	-2.86724900	-69.57431000	-27.67593000
7.09999975	1.59264300	-69.57431000	-28.04503000
7.29999974	5.25652100	-69.57431000	-28.37721000
7.49999973	7.48646600	-69.61736000	-28.42027000
7.69999972	7.64579200	-69.94955000	-28.42027000
7.89999971	5.89382400	-70.31865000	-28.42027000
8.09999970	3.02657500	-69.94955000	-28.42027000
8.29999968	-0.31803640	-69.61736000	-28.42027000
8.49999967	-3.18590100	-69.61736000	-28.42027000
8.69999966	-4.77854300	-69.99261000	-28.42027000
8.89999965	-5.09719500	-70.68774000	-28.42027000
9.09999964	-4.14124000	-70.68774000	-28.42027000
9.29999962	-2.38927200	-69.99261000	-28.42027000
9.49999961	-0.31803640	-69.61736000	-28.42027000
9.69999960	1.27399100	-69.57431000	-28.42027000
9.89999959	2.22994600	-69.57431000	-28.42027000
10.09999958	2.54859700	-69.57431000	-28.42027000
10.29999956	2.07062000	-69.57431000	-28.42027000
10.49999955	1.27399100	-69.57431000	-28.42027000
10.69999954	0.47736220	-69.57431000	-28.42027000
10.89999953	-0.31803640	-69.57431000	-28.42027000
11.09999952	-0.79601380	-69.57431000	-28.42027000
11.29999951	-0.95533960	-69.57431000	-28.42027000
11.49999949	-0.95533960	-69.57431000	-28.42027000
11.69999948	-0.63668800	-69.57431000	-28.42027000
11.89999947	-0.31803640	-69.57431000	-28.42027000
12.09999946	-0.15871060	-69.57431000	-28.42027000
12.29999945	-0.15871060	-69.57431000	-28.42027000
12.49999943	0.00000000	-69.57431000	-28.42027000
12.69999942	0.00000000	-69.57431000	-28.42027000
12.89999941	0.00000000	-69.57431000	-28.42027000
13.09999940	0.15871060	-69.57431000	-28.42027000
13.29999939	0.00000000	-69.57431000	-28.42027000
13.49999937	0.00000000	-69.57431000	-28.42027000
13.69999936	0.00000000	-69.57431000	-28.42027000
13.89999935	0.00000000	-69.57431000	-28.42027000
14.09999934	-0.15871060	-69.57431000	-28.42027000
14.29999933	-0.15871060	-69.57431000	-28.42027000
14.49999932	-0.15871060	-69.57431000	-28.42027000
14.69999930	0.00000000	-69.57431000	-28.42027000
14.89999929	0.00000000	-69.61736000	-28.42027000
15.09999928	0.00000000	-69.94955000	-28.42027000
15.29999927	0.00000000	-70.31865000	-28.42027000
15.49999926	0.00000000	-69.99261000	-28.42027000
15.69999924	0.00000000	-69.99261000	-28.42027000
15.89999923	0.00000000	-70.36171000	-28.42027000
16.09999922	0.00000000	-70.36786000	-28.42027000
16.29999921	0.00000000	-70.73695000	-28.42027000
16.49999920	-0.15871060	-70.68774000	-28.42027000
16.69999919	0.00000000	-69.94955000	-28.42027000
16.89999917	0.00000000	-69.19906000	-28.42027000
17.09999916	0.00000000	-68.41166000	-28.42027000
17.29999915	0.00000000	-68.03641000	-28.42027000
17.49999914	0.00000000	-67.99335000	-28.42027000
17.69999913	0.00000000	-68.03641000	-28.42027000
17.89999911	0.00000000	-68.46087000	-28.42027000
18.09999910	0.00000000	-69.61736000	-28.42027000
18.29999909	0.00000000	-71.15526000	-28.42027000
18.49999908	0.00000000	-72.73621000	-28.42027000
18.69999907	0.00000000	-74.27411000	-28.42027000
18.89999905	0.00000000	-75.38755000	-28.42027000
19.09999904	0.00000000	-75.34448000	-28.42027000
19.29999903	0.00000000	-73.76353000	-28.42027000
19.49999902	0.00000000	-70.68774000	-28.42027000
19.69999901	0.00000000	-66.78149000	-28.42027000
19.89999900	0.00000000	-62.91216000	-28.42027000
20.09999898	0.00000000	-59.47342000	-28.42027000
20.29999897	0.00000000	-58.02780000	-28.42027000
20.49999896	0.00000000	-59.56569000	-28.42027000
20.69999895	0.00000000	-63.84719000	-28.42027000
20.89999894	0.00000000	-70.08488000	-28.42027000
21.09999892	0.00000000	-77.47908000	-28.42027000
21.29999891	0.00000000	-84.73794000	-28.42027000
21.49999890	0.00000000	-89.71456000	-28.42027000
21.69999889	0.00000000	-90.41584000	-28.42027000
21.89999888	0.00000000	-86.46037000	-28.42027000
22.09999886	0.00000000	-77.52829000	-28.42027000
22.29999885	0.00000000	-65.15748000	-28.42027000
22.49999884	0.00000000	-52.44832000	-28.42027000
22.69999883	0.00000000	-42.07677000	-28.42027000
22.89999882	0.00000000	-37.51230000	-28.42027000
23.09999881	0.00000000	-40.25590000	-28.37721000
23.29999879	0.00000000	-49.98154000	-28.00197000
23.49999878	0.00000000	-65.51427000	-27.25763000
23.69999877	0.00000000	-83.62450000	-26.88238000
23.89999876	0.00000000	-100.18450000	-26.83932000
24.09999875	0.00000000	-110.56220000	-26.88238000
24.29999873	0.00000000	-112.05710000	-27.30684000
24.49999872	0.00000000	-103.86320000	-28.46333000
24.69999871	0.00000000	-86.83562000	-30.00123000
24.89999870	0.00000000	-64.82529000	-31.53297000
25.09999869	0.00000000	-42.82111000	-32.68946000
25.29999867	0.00000000	-25.92889000	-33.06471000
25.49999866	0.00000000	-18.99606000	-32.68946000
25.69999865	0.00000000	-23.97268000	-31.44069000
25.89999864	0.00000000	-39.05019000	-29.07234000
26.09999863	0.00000000	-61.14665000	-25.22145000
26.29999862	0.00000000	-85.85753000	-21.03838000
26.49999860	0.00000000	-107.44340000	-17.96260000
26.69999859	0.00000000	-120.52160000	-16.80610000
26.89999858	0.00000000	-121.72740000	-18.01181000
27.09999857	0.00000000	-110.93750000	-21.54281000
27.29999856	0.00000000	-91.25246000	-27.39296000
27.49999854	0.00000000	-66.87376000	-34.73794000
27.69999853	0.00000000	-43.37475000	-42.03371000
27.89999852	0.00000000	-26.34719000	-47.37327000
28.09999851	0.00000000	-19.73425000	-48.81889000
28.29999850	0.00000000	-24.29872000	-45.33095000
28.49999848	0.00000000	-38.58267000	-37.20472000
28.69999847	0.00000000	-59.01205000	-26.37795000
28.89999846	0.00000000	-80.69020000	-14.76378000
29.09999845	0.00000000	-98.89272000	-4.77362200
29.29999844	0.00000000	-110.14390000	0.94119090
29.49999843	0.00000000	-112.10010000	0.52288380
29.69999841	0.00000000	-104.84130000	-6.44069800
29.89999840	0.00000000	-90.55733000	-18.47318000
30.09999839	0.00000000	-72.77928000	-33.53223000
30.29999838	0.00000000	-55.37647000	-48.53592000
30.49999837	0.00000000	-42.16904000	-59.36885000
30.69999835	0.00000000	-35.55610000	-64.01328000
30.89999834	0.00000000	-36.25738000	-61.59571000
31.09999833	0.00000000	-43.93454000	-51.51329000
31.29999832	0.00000000	-55.89320000	-35.71604000
31.49999831	0.00000000	-69.48203000	-17.96260000
31.69999829	0.00000000	-82.27116000	-2.12844500
31.89999828	0.00000000	-91.57848000	8.32923100
32.09999827	0.00000000	-95.85999000	11.39272000
32.29999826	0.00000000	-94.32209000	6.37303100
32.49999825	0.00000000	-87.43848000	-5.97933100
32.69999824	0.00000000	-77.42986000	-22.57013000
32.89999822	0.00000000	-66.91682000	-40.03444000
33.09999821	0.00000000	-57.60949000	-55.09350000
33.29999820	0.00000000	-51.05191000	-64.70840000
33.49999819	0.00000000	-49.14493000	-66.24015000
33.69999818	0.00000000	-52.17150000	-59.36885000
33.89999816	0.00000000	-59.05511000	-46.25984000
34.09999815	0.00000000	-67.52583000	-30.00123000
34.29999814	0.00000000	-75.30142000	-13.78568000
34.49999813	0.00000000	-81.11466000	-1.01501000
34.69999812	0.00000000	-83.76598000	5.58562900
34.89999810	0.00000000	-82.27116000	5.16732200
35.09999809	0.00000000	-77.34374000	-2.49753900
35.29999808	0.00000000	-71.19833000	-15.59424000
35.49999807	0.00000000	-65.37893000	-30.28420000
35.69999806	0.00000000	-61.14665000	-44.17446000
35.89999805	0.00000000	-59.56569000	-53.78937000
36.09999803	0.00000000	-60.72834000	-56.53912000
36.29999802	0.00000000	-64.17323000	-52.71899000
36.49999801	0.00000000	-69.15600000	-43.10408000
36.69999800	0.00000000	-73.76353000	-30.46260000
36.89999799	0.00000000	-76.88238000	-18.52239000
37.09999797	0.00000000	-78.03887000	-10.02092000
37.29999796	0.00000000	-76.83316000	-6.90821800
37.49999795	0.00000000	-73.38828000	-9.59645700
37.69999794	0.00000000	-68.41166000	-17.26747000
37.89999793	0.00000000	-63.79798000	-27.95275000
38.09999791	0.00000000	-60.67913000	-37.89985000
38.29999790	0.00000000	-59.52263000	-44.08218000
38.49999789	0.00000000	-60.67913000	-45.24483000
38.69999788	0.00000000	-63.75492000	-41.01255000
38.89999787	0.00000000	-67.99335000	-32.60334000
39.09999786	0.00000000	-72.26870000	-22.69931000
39.29999784	0.00000000	-75.76279000	-14.66535000
39.49999783	0.00000000	-78.08808000	-11.17741000
39.69999782	0.00000000	-78.46333000	-12.66609000
39.89999781	0.00000000	-76.96850000	-18.47318000
40.09999780	0.00000000	-74.22490000	-27.30684000
40.29999778	0.00000000	-70.68774000	-36.87869000
40.49999777	0.00000000	-66.45546000	-44.13140000
40.69999776	0.00000000	-62.59227000	-46.82579000
40.89999775	0.00000000	-60.26082000	-44.17446000
41.09999774	0.00000000	-59.43036000	-37.25394000
41.29999772	0.00000000	-60.26082000	-28.00197000
41.49999771	0.00000000	-62.59227000	-18.43012000
41.69999770	0.00000000	-66.45546000	-11.50960000
41.89999769	0.00000000	-70.68774000	-9.17814900
42.09999768	0.00000000	-74.18184000	-11.46038000
42.29999767	0.00000000	-76.55019000	-18.01181000
42.49999765	0.00000000	-77.34374000	-26.79626000
42.69999764	0.00000000	-76.92544000	-35.24852000
42.89999763	0.00000000	-74.96924000	-41.05561000
43.09999762	0.00000000	-71.57356000	-43.05487000
43.29999761	0.00000000	-68.50394000	-41.52312000
43.49999759	0.00000000	-66.49852000	-36.92175000
43.69999758	0.00000000	-65.29281000	-30.41954000
43.89999757	0.00000000	-64.91756000	-24.23720000
44.09999756	0.00000000	-65.24360000	-19.54355000
44.29999755	0.00000000	-65.98794000	-16.84916000
44.49999753	0.00000000	-66.36318000	-16.84916000
44.69999752	0.00000000	-66.40624000	-19.50049000
44.89999751	0.00000000	-66.40624000	-23.68356000
45.09999750	0.00000000	-66.44931000	-27.95275000
45.29999749	0.00000000	-66.91682000	-31.44069000
45.49999748	0.00000000	-68.45472000	-33.76599000
45.69999746	0.00000000	-70.82307000	-34.18430000
45.89999745	0.00000000	-73.52977000	-33.06471000
46.09999744	0.00000000	-76.59325000	-31.11466000
46.29999743	0.00000000	-78.46333000	-28.42027000
46.49999742	0.00000000	-78.46333000	-25.72589000
46.69999740	0.00000000	-76.45792000	-23.81890000
46.89999739	0.00000000	-72.18258000	-22.98843000
47.09999738	0.00000000	-66.36318000	-23.40059000
47.29999737	0.00000000	-60.21776000	-24.52018000
47.49999736	0.00000000	-55.24114000	-26.51329000
47.69999734	0.00000000	-53.33415000	-28.79552000
47.89999733	0.00000000	-54.91510000	-31.15772000
48.09999732	0.00000000	-59.94094000	-33.02165000
48.29999731	0.00000000	-67.70422000	-33.76599000
48.49999730	0.00000000	-76.18109000	-32.60334000
48.69999729	0.00000000	-83.85210000	-29.95201000
48.89999727	0.00000000	-88.04133000	-26.88853000
49.09999726	0.00000000	-87.30314000	-24.10187000
49.29999725	0.00000000	-82.27116000	-21.81964000
49.49999724	0.00000000	-73.80659000	-20.29404000
49.69999723	0.00000000	-64.17323000	-20.74926000
49.89999721	0.00000000	-56.02854000	-23.03149000
50.09999720	0.00000000	-50.63361000	-26.88238000
50.29999719	0.00000000	-49.52017000	-31.06545000
50.49999718	0.00000000	-53.37721000	-34.22736000
50.69999717	0.00000000	-61.06053000	-36.17741000
50.89999715	-0.15871060	-70.68774000	-36.87254000
51.09999714	0.00000000	-79.53371000	-35.29773000
51.29999713	0.00000000	-85.25467000	-31.53297000
51.49999712	0.00000000	-86.08514000	-27.30684000
51.69999711	0.00000000	-81.90821000	-23.77584000
51.89999710	0.00000000	-75.01230000	-21.03838000
52.09999708	0.00000000	-66.87376000	-19.54355000
52.29999707	0.00000000	-59.56569000	-19.96186000
52.49999706	0.00000000	-54.95816000	-22.61319000
52.69999705	0.00000000	-54.21383000	-26.46407000
52.89999704	0.00000000	-58.02780000	-30.32726000
53.09999702	0.00000000	-64.91756000	-33.76599000
53.29999701	0.00000000	-72.60088000	-35.29773000
53.49999700	0.00000000	-79.10925000	-34.60261000
53.69999699	0.00000000	-82.18504000	-32.69562000
53.89999698	0.00000000	-81.11466000	-29.95201000
54.09999696	0.00000000	-76.88238000	-26.93159000
54.29999695	0.00000000	-70.73695000	-24.61245000
54.49999694	0.00000000	-64.22243000	-23.81890000
54.69999693	0.00000000	-59.56569000	-24.19414000
54.89999692	0.00000000	-57.60949000	-25.72589000
55.09999691	0.00000000	-58.40305000	-27.95891000
55.29999689	0.00000000	-62.26624000	-29.49065000
55.49999688	0.00000000	-67.99335000	-29.90895000
55.69999687	0.00000000	-73.76353000	-29.53371000
55.89999686	0.00000000	-77.99581000	-28.37721000
56.09999685	0.00000000	-79.53371000	-26.83932000
56.29999683	0.00000000	-78.03887000	-25.35064000
56.49999682	0.00000000	-74.22490000	-24.61245000
56.69999681	0.00000000	-69.57431000	-25.44291000
56.89999680	0.00000000	-64.96062000	-27.72515000
57.09999679	0.00000000	-61.47884000	-31.15772000
57.29999677	0.00000000	-60.35310000	-34.13509000
57.49999676	0.00000000	-61.42962000	-35.34079000
57.69999675	0.00000000	-64.49925000	-34.55955000
57.89999674	0.00000000	-67.94415000	-32.18504000
58.09999673	0.00000000	-71.06299000	-27.90969000
58.29999672	0.00000000	-73.38828000	-22.61319000
58.49999670	0.00000000	-74.18184000	-18.38090000
58.69999669	0.00000000	-73.80659000	-16.43085000
58.89999668	0.00000000	-72.22563000	-16.84916000
59.09999667	0.00000000	-69.57431000	-20.01107000
59.29999666	0.00000000	-66.91682000	-25.77510000
59.49999664	0.00000000	-65.33588000	-32.64640000
59.69999663	0.00000000	-64.91756000	-38.41043000
59.89999662	0.00000000	-65.29281000	-41.48006000
60.09999661	0.00000000	-66.45546000	-41.10482000
60.29999660	0.00000000	-67.94415000	-37.24778000
60.49999658	0.00000000	-69.10678000	-31.06545000
60.69999657	0.00000000	-69.53124000	-23.72662000
60.89999656	0.00000000	-69.53124000	-16.80610000
61.09999655	0.00000000	-69.15600000	-12.24778000
61.29999654	0.00000000	-68.41166000	-11.46038000
61.49999653	0.00000000	-68.03641000	-14.94217000
61.69999651	0.00000000	-67.99335000	-21.45669000
61.89999650	0.00000000	-68.03641000	-29.58292000
62.09999649	0.00000000	-68.41166000	-37.25394000
62.29999648	0.00000000	-69.19906000	-42.63656000
62.49999647	0.00000000	-69.94955000	-44.21752000
62.69999645	0.00000000	-70.68774000	-41.94144000
62.89999644	0.00000000	-70.64468000	-36.87869000
63.09999643	0.00000000	-69.57431000	-29.53371000
63.29999642	0.00000000	-68.41166000	-21.49975000
63.49999641	0.00000000	-67.61810000	-15.31742000
63.69999639	0.00000000	-66.82455000	-12.20472000
63.89999638	0.00000000	-66.44931000	-12.57382000
64.09999637	0.00000000	-66.44931000	-16.38164000
64.29999636	0.00000000	-66.87376000	-22.14567000
64.49999635	0.00000000	-68.03641000	-28.37721000
64.69999634	0.00000000	-69.53124000	-34.18430000
64.89999632	0.00000000	-70.68774000	-38.41043000
65.09999631	0.00000000	-71.06299000	-39.99138000
65.29999630	0.00000000	-70.68774000	-38.87795000
65.49999629	0.00000000	-69.57431000	-35.80217000
65.69999628	0.00000000	-68.41166000	-31.53297000
65.89999626	0.00000000	-67.61810000	-26.88238000
66.09999625	0.00000000	-66.87376000	-22.61319000
66.29999624	0.00000000	-66.91682000	-19.50049000
66.49999623	0.00000000	-68.03641000	-17.96260000
66.69999622	0.00000000	-69.53124000	-18.29478000
66.89999620	0.00000000	-70.68774000	-20.19562000
67.09999619	0.00000000	-71.06299000	-22.57013000
67.29999618	0.00000000	-70.68774000	-25.68282000
67.49999617	0.00000000	-69.53124000	-29.16461000
67.69999616	0.00000000	-67.94415000	-31.90822000
67.89999615	0.00000000	-65.98794000	-34.31963000
68.09999613	0.00000000	-63.75492000	-36.17741000
68.29999612	0.00000000	-62.63533000	-36.92175000
68.49999611	0.00000000	-63.42274000	-35.75910000
68.69999610	0.00000000	-65.75418000	-33.06471000
68.89999609	0.00000000	-69.61736000	-29.53371000
69.09999607	0.00000000	-73.80659000	-25.26452000
69.29999606	0.00000000	-76.88238000	-21.03838000
69.49999605	0.00000000	-78.03887000	-17.91953000
69.69999604	0.00000000	-76.88238000	-16.38164000
69.89999603	0.00000000	-73.80659000	-16.80610000
70.09999601	0.00000000	-69.48203000	-19.54355000
70.29999600	0.00000000	-64.45004000	-24.15108000
70.49999599	0.00000000	-59.47342000	-29.53371000
70.69999598	0.00000000	-56.44685000	-34.18430000
70.89999597	0.00000000	-56.40379000	-37.29700000
71.09999596	0.00000000	-59.09818000	-38.45349000
71.29999594	0.00000000	-63.75492000	-37.29700000
71.49999593	0.00000000	-69.57431000	-34.18430000
71.69999592	0.00000000	-75.34448000	-29.58292000
71.89999591	0.00000000	-79.57676000	-24.56939000
72.09999590	0.00000000	-81.15772000	-20.70620000
72.29999588	0.00000000	-79.99508000	-18.38706000
72.49999587	0.00000000	-76.50713000	-18.38706000
72.69999586	0.00000000	-71.10605000	-20.61393000
72.89999585	0.00000000	-65.33588000	-23.68356000
73.09999584	0.00000000	-60.63607000	-26.79626000
73.29999582	0.00000000	-57.56643000	-29.49065000
73.49999581	0.00000000	-56.82209000	-31.02239000
73.69999580	0.00000000	-59.09818000	-31.06545000
73.89999579	0.00000000	-63.29355000	-29.95201000
74.09999578	0.00000000	-67.94415000	-28.46333000
74.29999577	0.00000000	-72.22563000	-27.30684000
74.49999575	0.00000000	-75.30142000	-26.93159000
74.69999574	0.00000000	-76.50713000	-27.25763000
74.89999573	0.00000000	-75.71973000	-28.04503000
75.09999572	0.00000000	-73.43134000	-28.79552000
75.29999571	0.00000000	-69.99261000	-29.53371000
75.49999569	0.00000000	-66.91682000	-29.49065000
75.69999568	0.00000000	-64.91756000	-28.28494000
75.89999567	0.00000000	-63.71186000	-26.00270000
76.09999566	0.00000000	-63.37967000	-22.98843000
76.29999565	0.00000000	-64.08095000	-21.08145000
76.49999563	0.00000000	-65.61269000	-20.66314000
76.69999562	0.00000000	-66.78149000	-21.49975000
76.89999561	0.00000000	-67.99335000	-24.23720000
77.09999560	0.00000000	-69.06373000	-28.42027000
77.29999559	0.00000000	-69.10678000	-32.64640000
77.49999558	0.00000000	-68.41166000	-35.75910000
77.69999556	0.00000000	-68.08563000	-37.29700000
77.89999555	0.00000000	-68.41166000	-36.87869000
78.09999554	0.00000000	-69.19906000	-34.14124000
78.29999553	0.00000000	-69.94955000	-29.53371000
78.49999552	0.00000000	-70.68774000	-24.15108000
78.69999550	0.00000000	-70.64468000	-19.54355000
78.89999549	0.00000000	-69.53124000	-16.80610000
79.09999548	0.00000000	-67.99335000	-16.43085000
79.29999547	0.00000000	-66.40624000	-18.33784000
79.49999546	0.00000000	-64.82529000	-22.19488000
79.69999544	0.00000000	-63.33661000	-26.83932000
79.89999543	0.00000000	-62.59227000	-31.48376000
80.09999542	0.00000000	-63.37967000	-35.29773000
80.29999541	0.00000000	-65.29281000	-36.87254000
80.49999540	0.00000000	-67.99335000	-36.17741000
80.69999539	0.00000000	-70.68774000	-34.22736000
80.89999537	0.00000000	-72.60088000	-31.11466000
81.09999536	0.00000000	-73.38828000	-27.30684000
81.29999535	0.00000000	-72.60088000	-24.14493000
81.49999534	0.00000000	-70.68774000	-21.77658000
81.69999533	0.00000000	-67.99335000	-19.87574000
81.89999531	0.00000000	-65.29281000	-19.50049000
82.09999530	0.00000000	-63.37967000	-20.61393000
82.29999529	0.00000000	-62.59227000	-22.57013000
82.49999528	0.00000000	-63.37967000	-25.26452000
82.69999527	0.00000000	-65.24360000	-28.00197000
82.89999525	0.00000000	-67.52583000	-30.32726000
83.09999524	0.00000000	-69.10678000	-32.32037000
83.29999523	0.00000000	-69.94955000	-33.48917000
83.49999522	0.00000000	-70.68774000	-34.27042000
83.69999521	0.00000000	-70.68774000	-34.18430000
83.89999520	0.00000000	-69.94955000	-32.60334000
84.09999518	0.00000000	-69.15600000	-29.53371000
84.29999517	0.00000000	-67.99335000	-25.68282000
84.49999516	0.00000000	-66.87376000	-22.23794000
84.69999515	0.00000000	-66.44931000	-19.87574000
84.89999514	0.00000000	-66.40624000	-19.08218000
85.09999512	0.00000000	-66.44931000	-19.50049000
85.29999511	0.00000000	-66.78149000	-21.49975000
85.49999510	0.00000000	-67.15059000	-25.35679000
85.69999509	0.00000000	-66.78149000	-29.95817000
85.89999508	0.00000000	-66.44931000	-34.18430000
86.09999506	0.00000000	-66.44931000	-36.87869000
86.29999505	0.00000000	-66.87376000	-37.29700000
86.49999504	0.00000000	-67.99335000	-35.75910000
86.69999503	0.00000000	-69.15600000	-32.60334000
86.89999502	0.00000000	-69.94955000	-28.00197000
87.09999501	0.00000000	-70.68774000	-23.03149000
87.29999499	0.00000000	-70.68774000	-19.54355000
87.49999498	0.00000000	-69.94955000	-17.96260000
87.69999497	0.00000000	-69.15600000	-18.43012000
87.89999496	0.00000000	-67.94415000	-21.49975000
88.09999495	0.00000000	-66.45546000	-26.46407000
88.29999493	0.00000000	-65.29281000	-31.44069000
88.49999492	0.00000000	-64.91756000	-35.29773000
88.69999491	0.00000000	-65.29281000	-36.82948000
88.89999490	0.00000000	-66.49852000	-35.71604000
89.09999489	0.00000000	-68.31938000	-32.60334000
89.29999487	0.00000000	-69.89419000	-28.00197000
89.49999486	0.00000000	-70.32480000	-23.03149000
89.69999485	0.00000000	-70.68774000	-19.50049000
89.89999484	0.00000000	-70.26943000	-17.59350000
90.09999483	0.00000000	-68.78691000	-17.64272000
90.29999482	0.00000000	-67.66117000	-20.74926000
90.49999480	0.00000000	-66.82455000	-25.68282000
90.69999479	0.00000000	-66.44931000	-31.06545000
90.89999478	0.00000000	-66.40624000	-35.24852000
91.09999477	0.00000000	-66.40624000	-36.82948000
91.29999476	0.00000000	-66.40624000	-35.67298000
91.49999474	0.00000000	-66.40624000	-32.22810000
91.69999473	0.00000000	-66.40624000	-27.21457000
91.89999472	0.00000000	-66.40624000	-22.28100000
92.09999471	0.00000000	-66.40624000	-18.75615000
92.29999470	0.00000000	-66.40624000	-17.63656000
92.49999468	0.00000000	-66.44931000	-18.75615000
92.69999467	0.00000000	-66.87376000	-22.23794000
92.89999466	0.00000000	-67.99335000	-26.83932000
93.09999465	0.00000000	-69.15600000	-31.44069000
93.29999464	0.00000000	-69.94955000	-34.87328000
93.49999463	0.00000000	-70.68774000	-35.67298000
93.69999461	0.00000000	-70.64468000	-34.18430000
93.89999460	0.00000000	-69.53124000	-31.06545000
94.09999459	0.00000000	-67.94415000	-26.83932000
94.29999458	0.00000000	-65.98794000	-22.65625000
94.49999457	0.00000000	-63.71186000	-19.96186000
94.69999455	0.00000000	-62.21702000	-19.54355000
94.89999454	0.00000000	-62.17396000	-21.08145000
95.09999453	0.00000000	-63.33661000	-24.19414000
95.29999452	0.00000000	-65.29281000	-28.37721000
95.49999451	0.00000000	-68.03641000	-32.18504000
95.69999449	0.00000000	-71.11221000	-34.14124000
95.89999448	0.00000000	-73.80659000	-34.18430000
96.09999447	0.00000000	-75.30142000	-32.60334000
96.29999446	0.00000000	-74.92618000	-29.58292000
96.49999445	0.00000000	-72.60088000	-26.14419000
96.69999444	0.00000000	-69.15600000	-23.81890000
96.89999442	0.00000000	-65.24360000	-22.61319000
97.09999441	0.00000000	-61.79872000	-22.61319000
97.29999440	0.00000000	-59.47342000	-23.77584000
97.49999439	0.00000000	-59.05511000	-25.68282000
97.69999438	0.00000000	-60.21776000	-28.00197000
97.89999436	0.00000000	-62.59227000	-29.86589000
98.09999435	0.00000000	-66.45546000	-30.69636000
98.29999434	0.00000000	-70.68774000	-30.32726000
98.49999433	0.00000000	-74.18184000	-29.62598000
98.69999432	0.00000000	-76.45792000	-28.79552000
98.89999430	0.00000000	-76.45792000	-28.04503000
99.09999429	0.00000000	-74.18184000	-27.25763000
99.29999428	0.00000000	-70.73695000	-26.88238000
99.49999427	0.00000000	-66.82455000	-26.83932000
99.69999426	0.00000000	-63.37967000	-26.79626000
99.89999425	0.00000000	-61.01131000	-26.42101000
100.09999423	0.00000000	-60.21776000	-25.68282000
100.29999422	0.00000000	-60.59301000	-25.30758000
100.49999421	0.00000000	-62.17396000	-25.26452000
100.69999420	0.00000000	-64.87450000	-25.35679000
100.89999419	0.00000000	-67.94415000	-26.14419000
101.09999417	0.00000000	-70.68774000	-28.04503000
101.29999416	0.00000000	-72.64394000	-29.90895000
101.49999415	0.00000000	-73.80659000	-31.11466000
101.69999414	0.00000000	-73.76353000	-31.48376000
101.89999413	0.00000000	-72.26870000	-31.11466000
102.09999411	0.00000000	-69.94955000	-29.90895000
102.29999410	0.00000000	-67.61810000	-27.95891000
102.49999409	0.00000000	-65.24360000	-25.26452000
102.69999408	0.00000000	-63.37967000	-22.61319000
102.89999407	0.00000000	-62.54921000	-21.08145000
103.09999406	0.00000000	-62.91216000	-21.08145000
103.29999404	0.00000000	-63.71186000	-22.61319000
103.49999403	0.00000000	-65.29281000	-25.30758000
103.69999402	0.00000000	-67.57505000	-28.37721000
103.89999401	0.00000000	-69.48203000	-31.11466000
104.09999400	0.00000000	-70.68774000	-33.02165000
104.29999398	0.00000000	-71.06299000	-33.76599000
104.49999397	0.00000000	-70.68774000	-32.60334000
104.69999396	0.00000000	-69.53124000	-29.95201000
104.89999395	0.00000000	-67.99335000	-26.88853000
105.09999394	0.00000000	-66.40624000	-24.14493000
105.29999392	0.00000000	-64.91756000	-22.23794000
105.49999391	0.00000000	-64.13016000	-21.45669000
105.69999390	0.00000000	-64.49311000	-22.23794000
105.89999389	0.00000000	-65.24360000	-24.10187000
106.09999388	0.00000000	-66.40624000	-26.42101000
106.29999387	0.00000000	-67.57505000	-28.37721000
106.49999385	0.00000000	-68.36859000	-29.95201000
106.69999384	0.00000000	-69.10678000	-31.02239000
106.89999383	0.00000000	-69.06373000	-30.64714000
107.09999382	0.00000000	-67.99335000	-28.79552000
107.29999381	0.00000000	-66.82455000	-26.88853000
107.49999379	0.00000000	-66.03100000	-25.30758000
107.69999378	0.00000000	-65.29281000	-24.15108000
107.89999377	0.00000000	-65.29281000	-23.81890000
108.09999376	0.00000000	-66.03100000	-24.56324000
108.29999375	0.00000000	-66.82455000	-26.46407000
108.49999374	0.00000000	-67.99335000	-28.32800000
108.69999372	0.00000000	-69.10678000	-29.53371000
108.89999371	0.00000000	-69.53124000	-29.90895000
109.09999370	0.00000000	-69.53124000	-29.53371000
109.29999369	0.00000000	-69.10678000	-28.37721000
109.49999368	0.00000000	-67.94415000	-26.83932000
109.69999366	0.00000000	-66.45546000	-25.30758000
109.89999365	0.00000000	-65.29281000	-24.15108000
110.09999364	0.00000000	-64.86835000	-23.77584000
110.29999363	0.00000000	-64.86835000	-24.15108000
110.49999362	0.00000000	-65.29281000	-25.30758000
110.69999360	0.00000000	-66.40624000	-26.79626000
110.89999359	0.00000000	-67.57505000	-28.00197000
111.09999358	0.00000000	-68.36859000	-28.79552000
111.29999357	0.00000000	-69.10678000	-29.58292000
111.49999356	0.00000000	-69.10678000	-29.90895000
111.69999355	0.00000000	-68.41166000	-29.53371000
111.89999353	0.00000000	-67.99335000	-28.42027000
112.09999352	0.00000000	-67.52583000	-27.25763000
112.29999351	0.00000000	-66.49852000	-26.46407000
112.49999350	0.00000000	-66.08636000	-25.68282000
112.69999349	0.00000000	-66.77534000	-25.30758000
112.89999347	0.00000000	-66.73843000	-25.26452000
113.09999346	0.00000000	-66.44931000	-25.30758000
113.29999345	0.00000000	-66.44931000	-25.68282000
113.49999344	0.00000000	-66.78149000	-26.42101000
113.69999343	0.00000000	-67.15059000	-26.83932000
113.89999341	0.00000000	-66.82455000	-27.25763000
114.09999340	0.00000000	-66.87376000	-28.00197000
114.29999339	0.00000000	-67.57505000	-28.37721000
114.49999338	0.00000000	-67.99335000	-28.46333000
114.69999337	0.00000000	-68.32554000	-28.79552000
114.89999336	0.00000000	-68.31324000	-29.16461000
115.09999334	0.00000000	-67.19980000	-28.79552000
115.29999333	0.00000000	-66.49852000	-28.42027000
115.49999332	0.00000000	-66.40624000	-28.00197000
115.69999331	0.00000000	-66.40624000	-27.21457000
115.89999330	0.00000000	-66.40624000	-26.46407000
116.09999328	0.00000000	-66.44931000	-25.68282000
116.29999327	0.00000000	-66.82455000	-25.30758000
116.49999326	0.00000000	-67.57505000	-25.26452000
116.69999325	0.00000000	-67.90108000	-25.30758000
116.89999324	0.00000000	-67.61810000	-25.68282000
117.09999322	0.00000000	-67.20596000	-26.46407000
117.29999321	0.00000000	-67.19365000	-27.21457000
117.49999320	0.00000000	-66.73843000	-28.00197000
117.69999319	0.00000000	-66.03100000	-28.42027000
117.89999318	0.00000000	-65.24360000	-28.79552000
118.09999317	0.00000000	-64.91756000	-29.16461000
118.29999315	0.00000000	-65.24360000	-28.75246000
118.49999314	0.00000000	-66.03100000	-28.00197000
118.69999313	0.00000000	-66.82455000	-26.83932000
118.89999312	0.00000000	-67.99335000	-25.68282000
119.09999311	0.00000000	-69.10678000	-24.88927000
119.29999309	0.00000000	-69.53124000	-24.15108000
119.49999308	0.00000000	-69.57431000	-24.19414000
119.69999307	0.00000000	-69.48203000	-25.26452000
119.89999306	0.00000000	-68.68848000	-26.37795000
120.09999305	0.00000000	-66.82455000	-26.83932000
120.29999303	0.00000000	-65.29281000	-27.25763000
120.49999302	0.00000000	-64.45004000	-28.00197000
120.69999301	0.00000000	-63.71186000	-28.37721000
120.89999300	0.00000000	-63.75492000	-28.42027000
121.09999299	0.00000000	-64.82529000	-28.37721000
121.29999298	0.00000000	-65.98794000	-28.00197000
121.49999296	0.00000000	-66.82455000	-27.25763000
121.69999295	0.00000000	-67.99335000	-26.88238000
121.89999294	0.00000000	-69.10678000	-26.79626000
122.09999293	0.00000000	-69.53124000	-26.42101000
122.29999292	0.00000000	-69.53124000	-25.68282000
122.49999290	0.00000000	-69.10678000	-25.30758000
122.69999289	0.00000000	-67.94415000	-25.26452000
122.89999288	0.00000000	-66.45546000	-25.26452000
123.09999287	0.00000000	-65.29281000	-25.26452000
123.29999286	0.00000000	-64.86835000	-25.30758000
123.49999284	0.00000000	-64.82529000	-25.68282000
123.69999283	0.00000000	-64.82529000	-26.46407000
123.89999282	0.00000000	-64.86835000	-27.21457000
124.09999281	0.00000000	-65.24360000	-28.00197000
124.29999280	0.00000000	-66.03100000	-28.37721000
124.49999279	0.00000000	-66.78149000	-28.37721000
124.69999277	0.00000000	-67.61810000	-28.00197000
124.89999276	0.00000000	-68.36859000	-27.25763000
125.09999275	0.00000000	-69.10678000	-26.83932000
125.29999274	0.00000000	-69.10678000	-26.42101000
125.49999273	0.00000000	-68.36859000	-25.68282000
125.69999271	0.00000000	-67.57505000	-25.30758000
125.89999270	0.00000000	-66.40624000	-25.26452000
126.09999269	0.00000000	-65.29281000	-25.30758000
126.29999268	0.00000000	-64.86835000	-25.68282000
126.49999267	0.00000000	-64.82529000	-26.42101000
126.69999265	0.00000000	-64.82529000	-26.79626000
126.89999264	0.00000000	-64.86835000	-26.88238000
127.09999263	0.00000000	-65.29281000	-27.25763000
127.29999262	0.00000000	-66.40624000	-27.95275000
127.49999261	0.00000000	-67.57505000	-28.00197000
127.69999260	0.00000000	-68.36859000	-27.63287000
127.89999258	0.00000000	-69.10678000	-27.62672000
128.09999257	0.00000000	-69.06373000	-27.21457000
128.29999256	0.00000000	-67.94415000	-26.88238000
128.49999255	0.00000000	-66.45546000	-26.83932000
128.69999254	0.00000000	-65.29281000	-26.83932000
128.89999252	0.00000000	-64.86835000	-26.83932000
129.09999251	0.00000000	-64.82529000	-26.83932000
129.29999250	0.00000000	-64.86835000	-26.88238000
129.49999249	0.00000000	-65.29281000	-27.25763000
129.69999248	0.00000000	-66.40624000	-27.95275000
129.89999246	0.00000000	-67.57505000	-27.95275000
130.09999245	0.00000000	-68.32554000	-27.25763000
130.29999244	0.00000000	-68.73769000	-26.88238000
130.49999243	0.00000000	-68.32554000	-26.83932000
130.69999242	0.00000000	-67.61810000	-26.79626000
130.89999241	0.00000000	-66.78149000	-26.46407000
131.09999239	0.00000000	-65.98794000	-26.10113000
131.29999238	0.00000000	-64.86835000	-26.46407000
131.49999237	0.00000000	-64.17323000	-26.83932000
131.69999236	0.00000000	-64.86835000	-27.25763000
131.89999235	0.00000000	-65.93873000	-28.00197000
132.09999233	0.00000000	-66.36318000	-28.37721000
132.29999232	0.00000000	-66.40624000	-28.42027000
132.49999231	0.00000000	-66.44931000	-28.37721000
132.69999230	0.00000000	-66.82455000	-28.00197000
132.89999229	0.00000000	-67.52583000	-27.21457000
133.09999227	0.00000000	-67.52583000	-26.46407000
133.29999226	0.00000000	-66.82455000	-25.68282000
133.49999225	0.00000000	-66.44931000	-25.30758000
133.69999224	0.00000000	-66.40624000	-25.26452000
133.89999223	0.00000000	-66.40624000	-25.30758000
134.09999222	0.00000000	-66.40624000	-25.68282000
134.29999220	0.00000000	-66.40624000	-26.42101000
134.49999219	0.00000000	-66.40624000	-26.83932000
134.69999218	0.00000000	-66.40624000	-27.30684000
134.89999217	0.00000000	-66.36318000	-28.37721000
135.09999216	0.00000000	-65.98794000	-29.11540000
135.29999214	0.00000000	-65.24360000	-28.75246000
135.49999213	0.00000000	-64.91756000	-28.04503000
135.69999212	0.00000000	-65.24360000	-27.25763000
135.89999211	0.00000000	-66.03100000	-26.83932000
136.09999210	0.00000000	-66.78149000	-26.42101000
136.29999208	0.00000000	-67.57505000	-25.68282000
136.49999207	0.00000000	-67.95029000	-25.30758000
136.69999206	0.00000000	-67.95029000	-25.26452000
136.89999205	0.00000000	-67.57505000	-25.30758000
137.09999204	0.00000000	-66.78149000	-25.68282000
137.29999203	0.00000000	-66.03100000	-26.42101000
137.49999201	0.00000000	-65.24360000	-26.83932000
137.69999200	0.00000000	-64.86835000	-27.25763000
137.89999199	0.00000000	-64.86835000	-28.00197000
138.09999198	0.00000000	-65.24360000	-28.37721000
138.29999197	0.00000000	-65.98794000	-28.37721000
138.49999195	0.00000000	-66.40624000	-28.00197000
138.69999194	0.00000000	-66.82455000	-27.21457000
138.89999193	0.00000000	-67.57505000	-26.46407000
139.09999192	0.00000000	-67.90108000	-25.68282000
139.29999191	0.00000000	-67.57505000	-25.30758000
139.49999189	0.00000000	-66.82455000	-25.26452000
139.69999188	0.00000000	-66.40624000	-25.26452000
139.89999187	0.00000000	-65.98794000	-25.30758000
140.09999186	0.00000000	-65.24360000	-25.68282000
140.29999185	0.00000000	-64.86835000	-26.46407000
140.49999184	0.00000000	-64.86835000	-27.21457000
140.69999182	0.00000000	-65.24360000	-28.00197000
140.89999181	0.00000000	-65.98794000	-28.37721000
141.09999180	0.00000000	-66.36318000	-28.42027000
141.29999179	0.00000000	-66.40624000	-28.32800000
141.49999178	0.00000000	-66.40624000	-27.58366000
141.69999176	0.00000000	-66.40624000	-26.10113000
141.89999175	0.00000000	-66.36318000	-25.30758000
142.09999174	0.00000000	-66.03100000	-24.88927000
142.29999173	0.00000000	-65.61884000	-24.52018000
142.49999172	0.00000000	-65.65575000	-24.93233000
142.69999170	0.00000000	-65.61884000	-25.63976000
142.89999169	0.00000000	-66.03100000	-26.42101000
143.09999168	0.00000000	-66.36318000	-26.83932000
143.29999167	0.00000000	-66.40624000	-27.25763000
143.49999166	0.00000000	-66.40624000	-28.00197000
143.69999165	0.00000000	-66.40624000	-28.37721000
143.89999163	0.00000000	-66.40624000	-28.37721000
144.09999162	0.00000000	-66.36318000	-27.95275000
144.29999161	0.00000000	-65.98794000	-26.83932000
144.49999160	0.00000000	-65.29281000	-25.72589000
144.69999159	0.00000000	-65.24360000	-25.30758000
144.89999157	0.00000000	-65.61269000	-25.26452000
145.09999156	0.00000000	-65.61884000	-25.30758000
145.29999155	0.00000000	-66.03100000	-25.68282000
145.49999154	0.00000000	-66.40624000	-26.46407000
145.69999153	0.00000000	-66.78149000	-27.21457000
145.89999151	0.00000000	-67.15059000	-28.00197000
146.09999150	0.00000000	-66.78149000	-28.37721000
146.29999149	0.00000000	-66.44931000	-28.42027000
146.49999148	0.00000000	-66.36318000	-28.37721000
146.69999147	0.00000000	-65.98794000	-28.00197000
146.89999146	0.00000000	-65.29281000	-27.25763000
147.09999144	0.00000000	-65.24360000	-26.83932000
147.29999143	0.00000000	-65.61269000	-26.42101000
147.49999142	0.00000000	-65.61884000	-25.68282000
147.69999141	0.00000000	-65.98794000	-25.30758000
147.89999140	0.00000000	-65.98794000	-25.30758000
148.09999138	0.00000000	-65.66190000	-25.68282000
148.29999137	0.00000000	-66.03100000	-26.42101000
148.49999136	0.00000000	-66.36318000	-26.79626000
148.69999135	0.00000000	-66.40624000	-26.83932000
148.89999134	0.00000000	-66.40624000	-26.83932000
149.09999132	0.00000000	-66.36318000	-26.83932000
149.29999131	0.00000000	-65.98794000	-26.83932000
149.49999130	0.00000000	-65.24360000	-26.79626000
149.69999129	0.00000000	-64.86835000	-26.42101000
149.89999128	0.00000000	-64.82529000	-25.68282000
150.09999127	0.00000000	-64.82529000	-25.30758000
150.29999125	0.00000000	-64.86835000	-25.26452000
150.49999124	0.00000000	-65.24360000	-25.26452000
150.69999123	0.00000000	-65.98794000	-25.30758000
150.89999122	0.00000000	-66.36318000	-25.68282000
151.09999121	0.00000000	-66.40624000	-26.42101000
151.29999119	0.00000000	-66.40624000	-26.79626000
151.49999118	0.00000000	-66.40624000	-26.83932000
151.69999117	0.00000000	-66.40624000	-26.83932000
151.89999116	0.00000000	-66.36318000	-26.83932000
152.09999115	0.00000000	-65.98794000	-26.83932000
152.29999113	0.00000000	-65.24360000	-26.83932000
152.49999112	0.00000000	-64.86835000	-26.83932000
152.69999111	0.00000000	-64.82529000	-26.79626000
152.89999110	0.00000000	-64.82529000	-26.42101000
153.09999109	0.00000000	-64.86835000	-25.68282000
153.29999108	0.00000000	-65.24360000	-25.30758000
153.49999106	0.00000000	-65.98794000	-25.26452000
153.69999105	0.00000000	-66.36318000	-25.26452000
153.89999104	0.00000000	-66.40624000	-25.26452000
154.09999103	0.00000000	-66.40624000	-25.26452000
154.29999102	0.00000000	-66.44931000	-25.30758000
154.49999100	0.00000000	-66.78149000	-25.68282000
154.69999099	0.00000000	-67.15059000	-26.42101000
154.89999098	0.00000000	-66.73843000	-26.79626000
155.09999097	0.00000000	-66.03100000	-26.83932000
155.29999096	0.00000000	-65.24360000	-26.83932000
155.49999094	0.00000000	-64.86835000	-26.83932000
155.69999093	0.00000000	-64.82529000	-26.83932000
155.89999092	0.00000000	-64.82529000	-26.79626000
156.09999091	-0.15871060	-64.86835000	-26.42101000
156.29999090	0.00000000	-65.24360000	-25.68282000
156.49999089	0.00000000	-65.98794000	-25.30758000
156.69999087	0.00000000	-66.36318000	-25.26452000
156.89999086	0.00000000	-66.40624000	-25.26452000
157.09999085	0.00000000	-66.40624000	-25.26452000
157.29999084	0.00000000	-66.40624000	-25.30758000
157.49999083	0.00000000	-66.40624000	-25.68282000
157.69999081	0.00000000	-66.36318000	-26.42101000
157.89999080	0.00000000	-65.98794000	-26.79626000
158.09999079	0.00000000	-65.24360000	-26.83932000
158.29999078	0.00000000	-64.86835000	-26.83932000
158.49999077	0.00000000	-64.82529000	-26.83932000
158.69999075	0.00000000	-64.82529000	-26.83932000
158.89999074	0.00000000	-64.86835000	-26.79626000
159.09999073	0.00000000	-65.24360000	-26.42101000
159.29999072	0.00000000	-65.98794000	-25.68282000
159.49999071	0.00000000	-66.36318000	-25.30758000
159.69999070	0.00000000	-66.40624000	-25.26452000
159.89999068	0.00000000	-66.40624000	-25.26452000
160.09999067	0.00000000	-66.36318000	-25.26452000
160.29999066	0.00000000	-66.03100000	-25.30758000
160.49999065	0.00000000	-65.66190000	-25.68282000
160.69999064	0.00000000	-66.03100000	-26.42101000
160.89999062	0.00000000	-66.36318000	-26.79626000
161.09999061	0.00000000	-66.36318000	-26.83932000
161.29999060	0.00000000	-65.98794000	-26.83932000
161.49999059	0.00000000	-65.24360000	-26.83932000
161.69999058	0.00000000	-64.86835000	-26.83932000
161.89999056	0.00000000	-64.82529000	-26.83932000
162.09999055	0.00000000	-64.82529000	-26.79626000
162.29999054	0.00000000	-64.82529000	-26.42101000
162.49999053	0.00000000	-64.82529000	-25.68282000
162.69999052	0.00000000	-64.86835000	-25.35679000
162.89999051	0.00000000	-65.24360000	-25.68282000
163.09999049	0.00000000	-65.98794000	-26.42101000
163.29999048	0.00000000	-66.36318000	-26.79626000
163.49999047	0.00000000	-66.40624000	-26.83932000
163.69999046	0.00000000	-66.40624000	-26.83932000
163.89999045	0.00000000	-66.40624000	-26.83932000
164.09999043	0.00000000	-66.36318000	-26.83932000
164.29999042	0.00000000	-65.98794000	-26.83932000
164.49999041	0.00000000	-65.24360000	-26.83932000
164.69999040	0.00000000	-64.86835000	-26.83932000
164.89999039	0.00000000	-64.82529000	-26.83932000
165.09999037	0.00000000	-64.82529000	-26.79626000
165.29999036	0.00000000	-64.82529000	-26.42101000
165.49999035	0.00000000	-64.86835000	-25.72589000
165.69999034	0.00000000	-65.24360000	-25.68282000
165.89999033	0.00000000	-65.98794000	-26.00270000
166.09999032	0.00000000	-66.36318000	-25.68282000
166.29999030	0.00000000	-66.40624000	-25.72589000
166.49999029	0.00000000	-66.40624000	-26.42101000
166.69999028	0.00000000	-66.40624000	-26.74705000
166.89999027	0.00000000	-66.36318000	-26.42101000
167.09999026	0.00000000	-65.98794000	-25.72589000
167.29999024	0.00000000	-65.24360000	-25.68282000
167.49999023	0.00000000	-64.86835000	-26.00270000
167.69999022	0.00000000	-64.82529000	-25.68282000
167.89999021	0.00000000	-64.82529000	-25.68282000
168.09999020	0.00000000	-64.82529000	-26.04577000
168.29999018	0.00000000	-64.82529000	-26.05807000
168.49999017	0.00000000	-64.82529000	-26.42101000
168.69999016	0.00000000	-64.82529000	-26.42101000
168.89999015	0.00000000	-64.86835000	-26.05807000
169.09999014	0.00000000	-65.20053000	-26.09498000
169.29999013	0.00000000	-65.56963000	-26.05807000
169.49999011	0.00000000	-65.20053000	-26.42101000
169.69999010	0.00000000	-64.91756000	-26.37795000
169.89999009	0.00000000	-65.20053000	-25.68282000
170.09999008	0.00000000	-65.61269000	-25.35679000
170.29999007	0.00000000	-65.57578000	-25.68282000
170.49999005	0.00000000	-65.61269000	-26.37795000
170.69999004	0.00000000	-65.20053000	-26.37795000
170.89999003	0.00000000	-64.86835000	-25.72589000
171.09999002	0.00000000	-64.82529000	-25.68282000
171.29999001	0.00000000	-64.82529000	-26.04577000
171.49998999	0.00000000	-64.82529000	-26.05807000
171.69998998	0.00000000	-64.82529000	-26.46407000
171.89998997	0.00000000	-64.82529000	-26.79626000
172.09998996	0.00000000	-64.86835000	-26.83932000
172.29998995	0.00000000	-65.20053000	-26.83932000
172.49998994	0.00000000	-65.61269000	-26.83932000
172.69998992	0.00000000	-65.57578000	-26.83932000
172.89998991	0.00000000	-65.61269000	-26.79626000
173.09998990	0.00000000	-65.20053000	-26.46407000
173.29998989	0.00000000	-64.86835000	-26.05807000
173.49998988	0.00000000	-64.82529000	-26.09498000
173.69998986	0.00000000	-64.86835000	-26.05807000
173.89998985	0.00000000	-65.20053000	-26.46407000
174.09998984	0.00000000	-65.56963000	-26.79626000
174.29998983	0.00000000	-65.20053000	-26.83932000
174.49998982	0.00000000	-64.86835000	-26.83932000
174.69998980	0.00000000	-64.82529000	-26.83932000
174.89998979	0.00000000	-64.82529000	-26.83932000
175.09998978	0.00000000	-64.82529000	-26.83932000
175.29998977	0.00000000	-64.82529000	-26.83932000
175.49998976	0.00000000	-64.82529000	-26.83932000
175.69998975	0.00000000	-64.82529000	-26.83932000
175.89998973	0.00000000	-64.82529000	-26.83932000
176.09998972	0.00000000	-64.82529000	-26.83932000
176.29998971	0.00000000	-64.86835000	-26.83932000
176.49998970	0.00000000	-65.20053000	-26.83932000
176.69998969	0.00000000	-65.56963000	-26.83932000
176.89998967	0.00000000	-65.20053000	-26.83932000
177.09998966	0.00000000	-64.86835000	-26.83932000
177.29998965	0.00000000	-64.82529000	-26.83932000
177.49998964	0.00000000	-64.82529000	-26.83932000
177.69998963	0.00000000	-64.82529000	-26.83932000
177.89998961	0.00000000	-64.86835000	-26.83932000
178.09998960	0.00000000	-65.20053000	-26.83932000
178.29998959	0.00000000	-65.56963000	-26.79626000
178.49998958	0.00000000	-65.20053000	-26.46407000
178.69998957	0.00000000	-64.86835000	-26.10113000
178.89998956	0.00000000	-64.82529000	-26.46407000
179.09998954	0.00000000	-64.82529000	-26.74705000
179.29998953	0.00000000	-64.82529000	-26.46407000
179.49998952	0.00000000	-64.82529000	-26.10113000
179.69998951	0.00000000	-64.82529000	-26.46407000
179.89998950	0.00000000	-64.82529000	-26.79626000
180.09998948	0.00000000	-64.82529000	-26.83932000
180.29998947	0.00000000	-64.82529000	-26.83932000
180.49998946	0.00000000	-64.82529000	-26.79626000
180.69998945	0.00000000	-64.82529000	-26.46407000
180.89998944	0.00000000	-64.82529000	-26.10113000
181.09998942	0.00000000	-64.82529000	-26.42101000
181.29998941	0.00000000	-64.82529000	-26.37795000
181.49998940	0.00000000	-64.82529000	-25.68282000
181.69998939	0.00000000	-64.82529000	-25.30758000
181.89998938	0.00000000	-64.82529000	-25.26452000
182.09998937	0.00000000	-64.82529000	-25.26452000
182.29998935	0.00000000	-64.82529000	-25.26452000
182.49998934	0.00000000	-64.82529000	-25.30758000
182.69998933	0.00000000	-64.82529000	-25.68282000
182.89998932	0.00000000	-64.82529000	-26.42101000
183.09998931	0.00000000	-64.82529000	-26.74705000
183.29998929	0.00000000	-64.82529000	-26.42101000
183.49998928	0.00000000	-64.82529000	-25.68282000
183.69998927	0.00000000	-64.82529000	-25.30758000
183.89998926	0.00000000	-64.82529000	-25.26452000
184.09998925	0.00000000	-64.82529000	-25.26452000
184.29998923	0.00000000	-64.82529000	-25.26452000
184.49998922	0.00000000	-64.82529000	-25.26452000
184.69998921	0.00000000	-64.82529000	-25.26452000
184.89998920	0.00000000	-64.82529000	-25.30758000
185.09998919	0.00000000	-64.82529000	-25.68282000
185.29998918	0.00000000	-64.82529000	-26.42101000
185.49998916	0.00000000	-64.82529000	-26.79626000
185.69998915	0.00000000	-64.82529000	-26.83932000
185.89998914	0.00000000	-64.82529000	-26.83932000
186.09998913	0.00000000	-64.82529000	-26.83932000
186.29998912	0.00000000	-64.82529000	-26.83932000
186.49998910	0.00000000	-64.82529000	-26.83932000
186.69998909	0.00000000	-64.82529000	-26.79626000
186.89998908	0.00000000	-64.82529000	-26.42101000
187.09998907	0.00000000	-64.82529000	-25.68282000
187.29998906	0.00000000	-64.82529000	-25.30758000
187.49998904	0.00000000	-64.82529000	-25.26452000
187.69998903	0.00000000	-64.82529000	-25.26452000
187.89998902	0.00000000	-64.82529000	-25.30758000
188.09998901	0.00000000	-64.82529000	-25.68282000
188.29998900	0.00000000	-64.82529000	-26.42101000
188.49998899	0.00000000	-64.82529000	-26.79626000
188.69998897	0.00000000	-64.82529000	-26.83932000
188.89998896	0.00000000	-64.82529000	-26.83932000
189.09998895	0.00000000	-64.82529000	-26.83932000
189.29998894	0.00000000	-64.82529000	-26.83932000
189.49998893	0.00000000	-64.82529000	-26.83932000
189.69998891	0.00000000	-64.82529000	-26.79626000
189.89998890	0.00000000	-64.82529000	-26.42101000
190.09998889	0.00000000	-64.82529000	-25.68282000
190.29998888	0.00000000	-64.82529000	-25.30758000
190.49998887	0.00000000	-64.82529000	-25.26452000
190.69998885	0.00000000	-64.82529000	-25.26452000
190.89998884	0.00000000	-64.82529000	-25.26452000
191.09998883	0.00000000	-64.82529000	-25.26452000
191.29998882	0.00000000	-64.82529000	-25.26452000
191.49998881	0.00000000	-64.82529000	-25.30758000
191.69998880	0.00000000	-64.82529000	-25.68282000
191.89998878	0.00000000	-64.82529000	-26.42101000
192.09998877	0.00000000	-64.82529000	-26.79626000
192.29998876	0.00000000	-64.82529000	-26.83932000
192.49998875	0.00000000	-64.82529000	-26.83932000
192.69998874	0.00000000	-64.82529000	-26.83932000
192.89998872	0.00000000	-64.82529000	-26.83932000
193.09998871	0.00000000	-64.82529000	-26.79626000
193.29998870	0.00000000	-64.82529000	-26.42101000
193.49998869	0.00000000	-64.82529000	-25.68282000
193.69998868	0.00000000	-64.82529000	-25.30758000
193.89998866	0.00000000	-64.82529000	-25.26452000
194.09998865	0.00000000	-64.82529000	-25.30758000
194.29998864	0.00000000	-64.82529000	-25.63976000
194.49998863	0.00000000	-64.82529000	-26.04577000
194.69998862	0.00000000	-64.82529000	-26.05807000
194.89998861	0.00000000	-64.82529000	-26.46407000
195.09998859	0.00000000	-64.82529000	-26.79626000
195.29998858	0.00000000	-64.82529000	-26.83932000
195.49998857	0.00000000	-64.82529000	-26.83932000
195.69998856	0.00000000	-64.82529000	-26.83932000
195.89998855	0.00000000	-64.82529000	-26.83932000
196.09998853	0.00000000	-64.82529000	-26.83932000
