Time	Channel A	Channel B	Channel C
(us)	(V)	(mV)	(mV)

-4.53333289	0.00000000	-60.12549000	-23.68356000
-4.33333290	0.00000000	-60.45767000	-23.68356000
-4.13333291	0.00000000	-60.86983000	-23.68356000
-3.93333293	0.00000000	-60.83292000	-23.68356000
-3.73333294	0.00000000	-60.86983000	-23.68356000
-3.53333295	0.00000000	-60.45767000	-23.68356000
-3.33333296	0.00000000	-60.12549000	-23.68356000
-3.13333297	0.00000000	-60.08243000	-23.68356000
-2.93333299	0.00000000	-60.08243000	-23.68356000
-2.73333300	0.00000000	-60.08243000	-23.68356000
-2.53333301	0.00000000	-60.08243000	-23.68356000
-2.33333302	0.00000000	-60.08243000	-23.68356000
-2.13333303	0.00000000	-60.08243000	-23.68356000
-1.93333304	0.00000000	-60.08243000	-23.68356000
-1.73333306	0.00000000	-60.08243000	-23.68356000
-1.53333307	0.00000000	-60.12549000	-23.68356000
-1.33333308	0.00000000	-60.45767000	-23.68356000
-1.13333309	0.00000000	-60.82677000	-23.68356000
-0.93333310	0.00000000	-60.45767000	-23.68356000
-0.73333312	0.00000000	-60.12549000	-23.68356000
-0.53333313	0.00000000	-60.08243000	-23.68356000
-0.33333314	0.15871060	-60.08243000	-23.68356000
-0.13333315	0.47736220	-60.08243000	-23.68356000
0.06666684	0.95533960	-60.08243000	-23.68356000
0.26666682	0.95533960	-60.08243000	-23.68356000
0.46666681	0.95533960	-60.08243000	-23.68356000
0.66666680	0.47736220	-60.08243000	-23.68356000
0.86666679	-0.31803640	-60.08243000	-23.68356000
1.06666678	-1.27399100	-60.08243000	-23.68356000
1.26666677	-2.22994600	-60.08243000	-23.68356000
1.46666675	-2.70792300	-60.08243000	-23.68356000
1.66666674	-2.70792300	-60.08243000	-23.64050000
1.86666673	-1.75196900	-60.08243000	-23.30832000
2.06666672	0.00000000	-60.08243000	-22.93922000
2.26666671	2.07062000	-60.08243000	-23.30832000
2.46666669	3.98191400	-60.08243000	-23.64050000
2.66666668	5.25652100	-60.08243000	-23.68356000
2.86666667	5.25652100	-60.08243000	-23.68356000
3.06666666	3.50393700	-60.08243000	-23.68356000
3.26666665	0.79601380	-60.08243000	-23.68356000
3.46666663	-2.70792300	-60.08243000	-23.68356000
3.66666662	-5.73449800	-60.08243000	-23.68356000
3.86666661	-7.64579200	-60.08243000	-23.68356000
4.06666660	-7.80511800	-60.08243000	-23.64050000
4.26666659	-5.89382400	-60.08243000	-23.26525000
4.46666658	-2.22994600	-60.08243000	-22.57013000
4.66666656	2.07062000	-60.08243000	-22.57013000
4.86666655	6.21247500	-60.08243000	-23.26525000
5.06666654	8.92039900	-60.08243000	-23.64050000
5.26666653	9.39837600	-60.08243000	-23.68356000
5.46666652	7.48646600	-60.08243000	-23.72662000
5.66666650	3.66326300	-60.08243000	-24.05881000
5.86666649	-1.11466500	-60.08243000	-24.42790000
6.06666648	-5.57517200	-60.08243000	-24.05881000
6.26666647	-8.60174700	-60.08243000	-23.68356000
6.46666646	-9.39837600	-60.08243000	-23.26525000
6.66666644	-7.96444400	-60.08243000	-22.52091000
6.86666643	-4.61921700	-60.08243000	-22.19488000
7.06666642	-0.15871060	-60.03937000	-22.52091000
7.26666641	3.98191400	-59.70718000	-23.26525000
7.46666640	6.84916400	-59.29502000	-23.64050000
7.66666639	7.80511800	-59.33194000	-23.68356000
7.86666637	6.84916400	-59.29502000	-23.68356000
8.06666636	4.30056600	-59.70718000	-23.68356000
8.26666635	0.95533960	-60.03937000	-23.68356000
8.46666634	-2.07062000	-60.08243000	-23.68356000
8.66666633	-4.30056600	-60.08243000	-23.68356000
8.86666631	-5.25652100	-60.08243000	-23.68356000
9.06666630	-4.77854300	-60.08243000	-23.68356000
9.26666629	-3.18590100	-60.08243000	-23.68356000
9.46666628	-1.11466500	-60.08243000	-23.68356000
9.66666627	0.63668800	-60.08243000	-23.68356000
9.86666625	1.91129400	-60.08243000	-23.68356000
10.06666624	2.54859700	-60.08243000	-23.68356000
10.26666623	2.38927200	-60.08243000	-23.68356000
10.46666622	1.59264300	-60.08243000	-23.68356000
10.66666621	0.79601380	-60.08243000	-23.68356000
10.86666620	0.00000000	-60.08243000	-23.68356000
11.06666618	-0.63668800	-60.08243000	-23.68356000
11.26666617	-0.95533960	-60.08243000	-23.68356000
11.46666616	-0.95533960	-60.08243000	-23.68356000
11.66666615	-0.79601380	-60.08243000	-23.68356000
11.86666614	-0.47736220	-60.08243000	-23.68356000
12.06666612	-0.15871060	-60.08243000	-23.68356000
12.26666611	-0.15871060	-60.08243000	-23.68356000
12.46666610	-0.15871060	-60.08243000	-23.68356000
12.66666609	0.00000000	-60.08243000	-23.68356000
12.86666608	0.00000000	-60.08243000	-23.68356000
13.06666606	0.00000000	-60.08243000	-23.68356000
13.26666605	0.15871060	-60.08243000	-23.68356000
13.46666604	0.00000000	-60.08243000	-23.68356000
13.66666603	0.00000000	-60.08243000	-23.68356000
13.86666602	0.00000000	-60.08243000	-23.68356000
14.06666601	-0.15871060	-60.08243000	-23.68356000
14.26666599	-0.15871060	-60.08243000	-23.68356000
14.46666598	-0.15871060	-60.08243000	-23.68356000
14.66666597	-0.15871060	-60.08243000	-23.68356000
14.86666596	0.00000000	-60.08243000	-23.68356000
15.06666595	0.00000000	-60.08243000	-23.68356000
15.26666593	0.00000000	-60.08243000	-23.68356000
15.46666592	0.00000000	-60.08243000	-23.68356000
15.66666591	0.00000000	-60.08243000	-23.68356000
15.86666590	0.00000000	-60.08243000	-23.68356000
16.06666589	0.00000000	-60.08243000	-23.68356000
16.26666587	0.00000000	-60.08243000	-23.68356000
16.46666586	0.00000000	-60.08243000	-23.68356000
16.66666585	-0.15871060	-60.03937000	-23.68356000
16.86666584	-0.15871060	-59.66412000	-23.68356000
17.06666583	0.00000000	-58.87672000	-23.68356000
17.26666582	0.00000000	-58.16929000	-23.68356000
17.46666580	0.00000000	-57.75713000	-23.68356000
17.66666579	0.00000000	-58.12622000	-23.68356000
17.86666578	0.00000000	-58.50147000	-23.68356000
18.06666577	0.00000000	-58.96899000	-23.68356000
18.26666576	0.00000000	-60.12549000	-23.68356000
18.46666574	0.00000000	-61.70644000	-23.68356000
18.66666573	0.00000000	-63.57652000	-23.68356000
18.86666572	0.00000000	-65.10211000	-23.68356000
19.06666571	0.00000000	-65.06520000	-23.68356000
19.26666570	0.00000000	-63.93946000	-23.68356000
19.46666568	0.00000000	-61.52805000	-23.68356000
19.66666567	0.00000000	-58.08316000	-23.68356000
19.86666566	0.00000000	-54.17691000	-23.68356000
20.06666565	0.00000000	-50.73204000	-23.68356000
20.26666564	0.00000000	-48.45595000	-23.68356000
20.46666563	0.00000000	-48.54207000	-23.68356000
20.66666561	0.00000000	-51.66092000	-23.68356000
20.86666560	0.00000000	-57.47416000	-23.68356000
21.06666559	0.00000000	-64.82529000	-23.68356000
21.26666558	0.00000000	-72.18258000	-23.68356000
21.46666557	0.00000000	-77.95275000	-23.68356000
21.66666555	0.00000000	-80.51180000	-23.68356000
21.86666554	0.00000000	-78.13730000	-23.68356000
22.06666553	0.00000000	-70.41707000	-23.68356000
22.26666552	0.00000000	-59.57185000	-23.68356000
22.46666551	0.00000000	-47.47785000	-23.68356000
22.66666549	0.00000000	-36.02977000	-23.68356000
22.86666548	0.00000000	-28.77707000	-23.64050000
23.06666547	0.00000000	-28.80782000	-23.26525000
23.26666546	0.00000000	-35.79601000	-22.52091000
23.46666545	0.00000000	-49.05265000	-22.14567000
23.66666544	0.00000000	-66.40624000	-22.05955000
23.86666542	0.00000000	-83.76598000	-21.72736000
24.06666541	0.00000000	-96.84424000	-21.36442000
24.26666540	0.00000000	-102.19610000	-21.77658000
24.46666539	0.00000000	-97.87155000	-22.52091000
24.66666538	0.00000000	-84.28272000	-23.72662000
24.86666536	0.00000000	-63.81028000	-25.26452000
25.06666535	0.00000000	-41.05561000	-26.79626000
25.26666534	0.00000000	-21.78888000	-27.90969000
25.46666533	0.00000000	-10.58071000	-27.90969000
25.66666532	0.00000000	-10.24852000	-26.75320000
25.86666530	0.00000000	-21.09375000	-24.75394000
26.06666529	0.00000000	-41.24015000	-21.64124000
26.26666528	0.00000000	-66.27091000	-17.78420000
26.46666527	0.00000000	-90.18823000	-14.34547000
26.66666526	0.00000000	-106.80360000	-12.06939000
26.86666525	0.00000000	-112.61690000	-12.11245000
27.06666523	0.00000000	-106.47150000	-14.84990000
27.26666522	0.00000000	-89.86835000	-19.91880000
27.46666521	0.00000000	-67.10752000	-26.93159000
27.66666520	0.00000000	-43.06102000	-34.60261000
27.86666519	0.00000000	-22.99459000	-41.10482000
28.06666517	0.00000000	-11.04208000	-44.13140000
28.26666516	0.00000000	-10.67298000	-42.55044000
28.46666515	0.00000000	-21.74582000	-36.32505000
28.66666514	0.00000000	-40.63730000	-26.24262000
28.86666513	0.00000000	-62.69069000	-14.34547000
29.06666511	0.00000000	-83.16314000	-3.52485200
29.26666510	0.00000000	-97.53937000	3.45103300
29.46666509	0.00000000	-102.98970000	5.72096400
29.66666508	0.00000000	-99.21259000	2.10383800
29.86666507	0.00000000	-87.26009000	-7.97244000
30.06666506	0.00000000	-70.64468000	-22.61319000
30.26666504	0.00000000	-52.78051000	-38.41043000
30.46666503	0.00000000	-36.95866000	-51.51329000
30.66666502	0.00000000	-26.90699000	-58.85826000
30.86666501	0.00000000	-24.85851000	-58.85826000
31.06666500	0.00000000	-30.16732000	-51.47023000
31.26666498	0.00000000	-40.63730000	-37.89985000
31.46666497	0.00000000	-54.17691000	-20.57087000
31.66666496	0.00000000	-68.09177000	-3.56791300
31.86666495	0.00000000	-78.93085000	9.20890700
32.06666494	0.00000000	-84.83636000	15.75418000
32.26666492	0.00000000	-85.25467000	14.17938000
32.46666491	0.00000000	-80.60408000	4.56446800
32.66666490	0.00000000	-71.71505000	-10.53765000
32.86666489	0.00000000	-60.54995000	-28.28494000
33.06666488	0.00000000	-50.12303000	-44.91264000
33.26666487	0.00000000	-42.77190000	-56.53297000
33.46666485	0.00000000	-39.98523000	-61.59571000
33.66666484	0.00000000	-41.84301000	-58.81520000
33.86666483	0.00000000	-46.87500000	-48.40059000
34.06666482	0.00000000	-54.22613000	-32.60334000
34.26666481	0.00000000	-62.31545000	-15.27436000
34.46666479	0.00000000	-68.88533000	-0.54749010
34.66666478	0.00000000	-72.74237000	8.74138700
34.86666477	0.00000000	-72.78542000	11.10974000
35.06666476	0.00000000	-69.34670000	6.09621000
35.26666475	0.00000000	-63.98867000	-4.68134800
35.46666473	0.00000000	-57.80634000	-18.98991000
35.66666472	0.00000000	-52.82357000	-33.63066000
35.86666471	0.00000000	-50.07997000	-45.19562000
36.06666470	0.00000000	-50.07997000	-50.95964000
36.26666469	0.00000000	-52.77436000	-49.51402000
36.46666468	0.00000000	-57.38804000	-41.84916000
36.66666466	0.00000000	-62.73376000	-30.69636000
36.86666465	0.00000000	-66.97219000	-18.33784000
37.06666464	0.00000000	-68.88533000	-8.02165300
37.26666463	0.00000000	-68.13484000	-2.58981300
37.46666462	0.00000000	-64.64690000	-3.32800200
37.66666460	0.00000000	-59.75024000	-9.41806000
37.86666459	0.00000000	-55.06274000	-18.98991000
38.06666458	0.00000000	-51.98080000	-28.98007000
38.26666457	0.00000000	-50.36294000	-36.65108000
38.46666456	0.00000000	-50.77510000	-40.08366000
38.66666454	0.00000000	-52.73130000	-37.81373000
38.86666453	0.00000000	-56.22539000	-30.93627000
39.06666452	0.00000000	-60.86983000	-21.72736000
39.26666451	0.00000000	-65.06520000	-12.57382000
39.46666450	0.00000000	-68.22096000	-6.85900500
39.66666449	0.00000000	-69.34670000	-6.44069800
39.86666447	0.00000000	-68.64542000	-10.99901000
40.06666446	0.00000000	-66.27091000	-19.08218000
40.26666445	0.00000000	-62.77681000	-28.28494000
40.46666444	0.00000000	-58.50147000	-36.36811000
40.66666443	0.00000000	-54.26919000	-40.92643000
40.86666441	0.00000000	-51.15034000	-40.55118000
41.06666440	0.00000000	-49.61245000	-35.16240000
41.26666439	0.00000000	-49.98769000	-26.32874000
41.46666438	0.00000000	-52.31299000	-16.38164000
41.66666437	0.00000000	-55.75787000	-8.30462600
41.86666435	0.00000000	-59.66412000	-4.39837600
42.06666434	0.00000000	-63.15207000	-4.77362200
42.26666433	0.00000000	-65.89567000	-9.41806000
42.46666432	0.00000000	-67.43970000	-17.45817000
42.66666431	0.00000000	-67.43970000	-26.28568000
42.86666430	0.00000000	-65.89567000	-33.63066000
43.06666428	0.00000000	-63.20127000	-37.85679000
43.26666427	0.00000000	-60.12549000	-37.89985000
43.46666426	0.00000000	-57.38804000	-34.14124000
43.66666425	0.00000000	-55.47490000	-28.37721000
43.86666424	0.00000000	-54.64444000	-22.19488000
44.06666422	0.00000000	-55.00738000	-16.80610000
44.26666421	0.00000000	-55.71481000	-13.69340000
44.46666420	0.00000000	-56.50221000	-13.22589000
44.66666419	0.00000000	-56.87746000	-14.76378000
44.86666418	0.00000000	-56.92052000	-17.83341000
45.06666416	0.00000000	-56.96358000	-21.68430000
45.26666415	0.00000000	-57.38804000	-25.17224000
45.46666414	0.00000000	-58.54454000	-27.90969000
45.66666413	0.00000000	-60.17470000	-29.44759000
45.86666412	0.00000000	-62.50000000	-29.44759000
46.06666411	0.00000000	-65.56963000	-27.90969000
46.26666409	0.00000000	-67.85802000	-25.26452000
46.46666408	0.00000000	-68.97145000	-22.57013000
46.66666407	0.00000000	-68.13484000	-20.61393000
46.86666406	0.00000000	-64.60383000	-19.41437000
47.06666405	0.00000000	-59.19660000	-19.03912000
47.26666403	0.00000000	-52.64517000	-19.45743000
47.46666402	0.00000000	-46.91806000	-20.98917000
47.66666401	0.00000000	-43.79921000	-23.30832000
47.86666400	0.00000000	-43.84842000	-25.63976000
48.06666399	0.00000000	-47.38558000	-27.90969000
48.26666397	0.00000000	-54.35531000	-29.02928000
48.46666396	0.00000000	-63.15822000	-28.28494000
48.66666395	0.00000000	-71.25368000	-26.37795000
48.86666394	0.00000000	-76.27953000	-23.64050000
49.06666393	0.00000000	-77.48523000	-20.57087000
49.26666392	0.00000000	-74.69857000	-17.87647000
49.46666390	0.00000000	-68.09177000	-16.33858000
49.66666389	0.00000000	-58.50147000	-16.33858000
49.86666388	0.00000000	-48.91732000	-17.87647000
50.06666387	0.00000000	-42.31053000	-20.61393000
50.26666386	0.00000000	-39.60999000	-24.10187000
50.46666384	0.00000000	-41.61540000	-27.95275000
50.66666383	0.00000000	-48.45595000	-30.97933000
50.86666382	0.00000000	-57.70792000	-32.13582000
51.06666381	0.00000000	-66.56004000	-30.97933000
51.26666380	0.00000000	-73.52977000	-27.90969000
51.46666379	0.00000000	-76.18725000	-23.68356000
51.66666377	0.00000000	-74.32332000	-19.40822000
51.86666376	0.00000000	-68.51008000	-15.92027000
52.06666375	0.00000000	-60.08243000	-13.64419000
52.26666374	0.00000000	-51.66092000	-13.69340000
52.46666373	0.00000000	-45.84769000	-16.29552000
52.66666371	0.00000000	-43.89148000	-20.10950000
52.86666370	0.00000000	-45.84769000	-23.64050000
53.06666369	0.00000000	-51.56865000	-26.79626000
53.26666368	0.00000000	-59.24582000	-29.44759000
53.46666367	0.00000000	-66.13557000	-30.56102000
53.66666365	0.00000000	-70.78616000	-29.39837000
53.86666364	0.00000000	-71.53666000	-26.42101000
54.06666363	0.00000000	-68.55315000	-22.98843000
54.26666362	0.00000000	-63.15822000	-20.66314000
54.46666361	0.00000000	-56.96358000	-19.41437000
54.66666360	0.00000000	-51.19340000	-19.03912000
54.86666358	0.00000000	-47.42864000	-19.45743000
55.06666357	0.00000000	-47.38558000	-20.98917000
55.26666356	0.00000000	-50.77510000	-23.22219000
55.46666355	0.00000000	-55.80708000	-24.71087000
55.66666354	0.00000000	-61.57726000	-24.75394000
55.86666352	0.00000000	-66.55389000	-23.59129000
56.06666351	0.00000000	-68.88533000	-21.72736000
56.26666350	0.00000000	-68.55315000	-19.82652000
56.46666349	0.00000000	-65.80955000	-19.12524000
56.66666348	0.00000000	-61.24508000	-19.82652000
56.86666346	0.00000000	-56.22539000	-21.81964000
57.06666345	0.00000000	-52.35605000	-24.47712000
57.26666344	0.00000000	-50.03691000	-27.58366000
57.46666343	0.00000000	-50.07997000	-29.77362000
57.66666342	0.00000000	-52.68823000	-30.18578000
57.86666341	0.00000000	-56.50221000	-28.24188000
58.06666339	0.00000000	-59.99015000	-24.75394000
58.26666338	0.00000000	-62.73376000	-20.10950000
58.46666337	0.00000000	-64.27164000	-15.18209000
58.66666336	0.00000000	-64.31471000	-12.11245000
58.86666335	0.00000000	-63.15207000	-11.73720000
59.06666333	0.00000000	-61.24508000	-14.06865000
59.26666332	0.00000000	-58.91978000	-19.12524000
59.46666331	0.00000000	-57.05585000	-25.63976000
59.66666330	0.00000000	-56.17618000	-32.14198000
59.86666329	0.00000000	-56.21309000	-36.36811000
60.06666327	0.00000000	-56.55142000	-37.16166000
60.26666326	0.00000000	-57.75098000	-34.83022000
60.46666325	0.00000000	-58.83366000	-29.39837000
60.66666324	0.00000000	-59.66412000	-22.10261000
60.86666323	0.00000000	-60.03937000	-14.80684000
61.06666322	0.00000000	-60.03937000	-9.41806000
61.26666320	0.00000000	-59.66412000	-7.46801100
61.46666319	0.00000000	-58.91978000	-9.04281500
61.66666318	0.00000000	-58.54454000	-14.06865000
61.86666317	0.00000000	-58.50147000	-21.72736000
62.06666316	0.00000000	-58.54454000	-29.44759000
62.26666314	0.00000000	-58.96899000	-35.62377000
62.46666313	0.00000000	-60.08243000	-39.06250000
62.66666312	0.00000000	-61.15280000	-38.32431000
62.86666311	0.00000000	-61.19586000	-34.09203000
63.06666310	0.00000000	-60.45767000	-27.54060000
63.26666308	0.00000000	-59.66412000	-19.82652000
63.46666307	0.00000000	-58.50147000	-13.27510000
63.66666306	0.00000000	-57.33883000	-8.95669300
63.86666305	0.00000000	-56.58833000	-7.46801100
64.06666304	0.00000000	-56.17618000	-9.41806000
64.26666303	0.00000000	-56.58833000	-14.76378000
64.46666301	0.00000000	-57.33883000	-21.68430000
64.66666300	0.00000000	-58.54454000	-28.24188000
64.86666299	0.00000000	-60.03937000	-33.29847000
65.06666298	0.00000000	-61.15280000	-35.62377000
65.26666297	0.00000000	-61.19586000	-35.29773000
65.46666295	0.00000000	-60.45767000	-32.60334000
65.66666294	0.00000000	-59.66412000	-28.37721000
65.86666293	0.00000000	-58.50147000	-23.68356000
66.06666292	0.00000000	-57.38804000	-19.03912000
66.26666291	0.00000000	-57.01279000	-15.18209000
66.46666289	0.00000000	-57.38804000	-13.22589000
66.66666288	0.00000000	-58.54454000	-13.13976000
66.86666287	0.00000000	-60.03937000	-14.29626000
67.06666286	0.00000000	-61.19586000	-16.25246000
67.26666285	0.00000000	-61.52805000	-18.98991000
67.46666284	0.00000000	-60.77756000	-22.10261000
67.66666282	0.00000000	-58.83366000	-25.21530000
67.86666281	0.00000000	-56.54527000	-28.00197000
68.06666280	0.00000000	-54.22613000	-30.28420000
68.26666279	0.00000000	-52.77436000	-31.80979000
68.46666278	0.00000000	-53.14960000	-31.39763000
68.66666276	0.00000000	-55.43184000	-29.49065000
68.86666275	0.00000000	-58.54454000	-26.32874000
69.06666274	0.00000000	-62.03863000	-22.10261000
69.26666273	0.00000000	-65.47736000	-17.83341000
69.46666272	0.00000000	-67.39050000	-14.34547000
69.66666270	0.00000000	-67.39050000	-12.02018000
69.86666269	0.00000000	-65.43430000	-11.64493000
70.06666268	0.00000000	-61.57111000	-13.22589000
70.26666267	0.00000000	-56.92052000	-16.75689000
70.46666266	0.00000000	-52.26993000	-22.14567000
70.66666265	0.00000000	-48.45595000	-27.86663000
70.86666263	0.00000000	-46.87500000	-32.09276000
71.06666262	0.00000000	-47.70546000	-33.71678000
71.26666261	0.00000000	-50.83046000	-32.97859000
71.46666260	0.00000000	-56.58833000	-30.64714000
71.66666259	0.00000000	-62.69069000	-26.70398000
71.86666257	0.00000000	-67.43970000	-21.77042000
72.06666256	0.00000000	-70.50935000	-17.13213000
72.26666255	0.00000000	-71.25368000	-14.43159000
72.46666254	0.00000000	-68.92839000	-13.60113000
72.66666253	0.00000000	-64.31471000	-14.80684000
72.86666251	0.00000000	-58.50147000	-17.83341000
73.06666250	0.00000000	-52.73130000	-21.64124000
73.26666249	0.00000000	-48.49901000	-24.71087000
73.46666248	0.00000000	-46.91806000	-26.32874000
73.66666247	0.00000000	-48.03149000	-26.74705000
73.86666246	0.00000000	-51.15034000	-26.32874000
74.06666244	0.00000000	-55.80708000	-24.84621000
74.26666243	0.00000000	-61.15280000	-22.98843000
74.46666242	0.00000000	-65.39124000	-22.19488000
74.66666241	0.00000000	-67.39050000	-22.14567000
74.86666240	0.00000000	-67.43970000	-22.57013000
75.06666238	0.00000000	-65.85260000	-23.68356000
75.26666237	0.00000000	-62.77681000	-24.79700000
75.46666236	0.00000000	-58.96899000	-25.12918000
75.66666235	0.00000000	-55.85014000	-24.33563000
75.86666234	0.00000000	-53.89394000	-22.05955000
76.06666232	0.00000000	-53.10654000	-19.40822000
76.26666231	0.00000000	-53.85088000	-17.45817000
76.46666230	0.00000000	-55.33957000	-16.29552000
76.66666229	0.00000000	-56.92052000	-16.38164000
76.86666228	0.00000000	-58.45841000	-18.33784000
77.06666227	0.00000000	-59.57185000	-22.14567000
77.26666225	0.00000000	-59.61491000	-26.37795000
77.46666224	0.00000000	-58.91978000	-29.86589000
77.66666223	0.00000000	-58.54454000	-32.18504000
77.86666222	0.00000000	-58.54454000	-32.51107000
78.06666221	0.00000000	-58.91978000	-30.56102000
78.26666219	0.00000000	-59.70718000	-26.32874000
78.46666218	0.00000000	-60.41461000	-20.98917000
78.66666217	0.00000000	-60.82677000	-16.33858000
78.86666216	0.00000000	-60.41461000	-13.18282000
79.06666215	0.00000000	-59.61491000	-11.64493000
79.26666213	0.00000000	-58.03395000	-12.11245000
79.46666212	0.00000000	-55.80708000	-15.18209000
79.66666211	0.00000000	-54.26919000	-20.15256000
79.86666210	0.00000000	-53.85088000	-25.12918000
80.06666209	0.00000000	-54.22613000	-29.07234000
80.26666208	0.00000000	-55.43184000	-31.39763000
80.46666206	0.00000000	-57.38804000	-32.18504000
80.66666205	0.00000000	-60.08243000	-30.97933000
80.86666204	0.00000000	-62.73376000	-27.95275000
81.06666203	0.00000000	-64.22859000	-24.10187000
81.26666202	0.00000000	-63.89641000	-20.61393000
81.46666200	0.00000000	-61.99557000	-17.83341000
81.66666199	0.00000000	-59.66412000	-15.92027000
81.86666198	0.00000000	-56.92052000	-15.13902000
82.06666197	0.00000000	-54.26919000	-15.87721000
82.26666196	0.00000000	-52.73130000	-17.36589000
82.46666194	0.00000000	-52.68823000	-18.98991000
82.66666193	0.00000000	-53.89394000	-20.98917000
82.86666192	0.00000000	-56.13312000	-23.68356000
83.06666191	0.00000000	-58.82135000	-26.37795000
83.26666190	0.00000000	-60.36540000	-28.32800000
83.46666189	0.00000000	-61.19586000	-29.49065000
83.66666187	0.00000000	-61.19586000	-29.44759000
83.86666186	0.00000000	-60.45767000	-27.95891000
84.06666185	0.00000000	-59.70718000	-25.59055000
84.26666184	0.00000000	-58.87672000	-22.84695000
84.46666183	0.00000000	-58.12622000	-19.32210000
84.66666181	0.00000000	-57.33883000	-15.92027000
84.86666180	0.00000000	-56.96358000	-13.60113000
85.06666179	0.00000000	-56.96358000	-13.27510000
85.26666178	0.00000000	-57.29576000	-15.18209000
85.46666177	0.00000000	-57.66486000	-18.98991000
85.66666175	0.00000000	-57.29576000	-23.26525000
85.86666174	0.00000000	-56.96358000	-27.17150000
86.06666173	0.00000000	-56.92052000	-30.60408000
86.26666172	0.00000000	-56.96358000	-32.09276000
86.46666171	0.00000000	-57.38804000	-31.02239000
86.66666170	0.00000000	-58.54454000	-28.28494000
86.86666168	0.00000000	-60.03937000	-24.37869000
87.06666167	0.00000000	-61.15280000	-19.41437000
87.26666166	0.00000000	-61.19586000	-15.22515000
87.46666165	0.00000000	-60.45767000	-13.22589000
87.66666164	0.00000000	-59.66412000	-13.22589000
87.86666162	0.00000000	-58.45841000	-15.22515000
88.06666161	0.00000000	-56.96358000	-19.45743000
88.26666160	0.00000000	-55.80708000	-24.79700000
88.46666159	0.00000000	-55.43184000	-29.40452000
88.66666158	0.00000000	-55.75787000	-32.09276000
88.86666156	0.00000000	-56.54527000	-32.09276000
89.06666155	0.00000000	-57.33883000	-29.44759000
89.26666154	0.00000000	-58.54454000	-25.22145000
89.46666153	0.00000000	-59.99015000	-20.57087000
89.66666152	0.00000000	-60.77756000	-16.33858000
89.86666151	0.00000000	-60.41461000	-13.64419000
90.06666149	0.00000000	-59.70718000	-13.27510000
90.26666148	0.00000000	-58.87672000	-15.22515000
90.46666147	0.00000000	-58.12622000	-19.45743000
90.66666146	0.00000000	-57.33883000	-24.79700000
90.86666145	0.00000000	-56.96358000	-29.40452000
91.06666143	0.00000000	-56.92052000	-32.09276000
91.26666142	0.00000000	-56.96358000	-32.09276000
91.46666141	0.00000000	-57.33883000	-29.44759000
91.66666140	0.00000000	-58.03395000	-25.17224000
91.86666139	0.00000000	-58.03395000	-20.19562000
92.06666137	0.00000000	-57.33883000	-15.60039000
92.26666136	0.00000000	-56.96358000	-13.31816000
92.46666135	0.00000000	-56.92052000	-13.64419000
92.66666134	0.00000000	-56.96358000	-16.33858000
92.86666133	0.00000000	-57.38804000	-20.57087000
93.06666132	0.00000000	-58.54454000	-25.17224000
93.26666130	0.00000000	-60.03937000	-29.02928000
93.46666129	0.00000000	-61.19586000	-30.93627000
93.66666128	0.00000000	-61.52805000	-30.56102000
93.86666127	0.00000000	-60.77756000	-27.86663000
94.06666126	0.00000000	-58.87672000	-23.68356000
94.26666124	0.00000000	-56.96358000	-19.45743000
94.46666123	0.00000000	-55.33957000	-16.33858000
94.66666122	0.00000000	-53.80167000	-14.84990000
94.86666121	0.00000000	-52.68823000	-15.60039000
95.06666120	0.00000000	-52.73130000	-18.66388000
95.26666118	0.00000000	-54.31225000	-22.47785000
95.46666117	0.00000000	-57.33883000	-26.32874000
95.66666116	0.00000000	-60.82677000	-28.98007000
95.86666115	0.00000000	-63.52731000	-29.40452000
96.06666114	0.00000000	-65.47736000	-27.90969000
96.26666113	0.00000000	-65.80955000	-25.21530000
96.46666111	0.00000000	-64.27164000	-22.15182000
96.66666110	0.00000000	-61.15280000	-19.45743000
96.86666109	0.00000000	-56.92052000	-17.87647000
97.06666108	0.00000000	-52.68823000	-17.50123000
97.26666107	0.00000000	-49.61245000	-18.25172000
97.46666105	0.00000000	-48.45595000	-20.19562000
97.66666104	0.00000000	-49.56939000	-22.47785000
97.86666103	0.00000000	-52.26993000	-24.79700000
98.06666102	0.00000000	-55.75787000	-26.28568000
98.26666101	0.00000000	-59.66412000	-26.32874000
98.46666099	0.00000000	-63.15207000	-25.26452000
98.66666098	0.00000000	-65.85260000	-24.10187000
98.86666097	0.00000000	-66.97219000	-23.30832000
99.06666096	0.00000000	-65.80955000	-22.47785000
99.26666095	0.00000000	-62.77681000	-21.72736000
99.46666094	0.00000000	-58.91978000	-20.98917000
99.66666092	0.00000000	-55.43184000	-20.94611000
99.86666091	0.00000000	-52.64517000	-21.26599000
100.06666090	0.00000000	-50.73204000	-20.85384000
100.26666089	0.00000000	-49.98769000	-20.19562000
100.46666088	0.00000000	-51.15034000	-19.78346000
100.66666086	0.00000000	-53.80167000	-20.19562000
100.86666085	0.00000000	-56.92052000	-20.94611000
101.06666084	0.00000000	-60.03937000	-22.15182000
101.26666083	0.00000000	-62.73376000	-23.68356000
101.46666082	0.00000000	-64.27164000	-25.21530000
101.66666080	0.00000000	-64.31471000	-26.37795000
101.86666079	0.00000000	-63.15207000	-26.70398000
102.06666078	0.00000000	-61.24508000	-25.95964000
102.26666077	0.00000000	-58.87672000	-23.96653000
102.46666076	0.00000000	-56.58833000	-21.30905000
102.66666075	0.00000000	-54.59522000	-18.24557000
102.86666073	0.00000000	-53.47564000	-16.33858000
103.06666072	0.00000000	-53.06348000	-15.92027000
103.26666071	0.00000000	-53.85088000	-16.71383000
103.46666070	0.00000000	-55.33957000	-19.03297000
103.66666069	0.00000000	-56.92052000	-22.05955000
103.86666067	0.00000000	-58.50147000	-24.84621000
104.06666066	0.00000000	-60.03937000	-27.12844000
104.26666065	0.00000000	-61.19586000	-28.65403000
104.46666064	0.00000000	-61.57111000	-28.24188000
104.66666063	0.00000000	-61.19586000	-26.37795000
104.86666061	0.00000000	-60.03937000	-23.64050000
105.06666060	0.00000000	-58.50147000	-20.61393000
105.26666059	0.00000000	-56.96358000	-18.29478000
105.46666058	0.00000000	-55.80708000	-17.50123000
105.66666057	0.00000000	-55.43184000	-17.83341000
105.86666056	0.00000000	-55.80708000	-19.03912000
106.06666054	0.00000000	-56.92052000	-20.94611000
106.26666053	0.00000000	-58.08316000	-23.26525000
106.46666052	0.00000000	-58.87672000	-25.17224000
106.66666051	0.00000000	-59.66412000	-26.32874000
106.86666050	0.00000000	-59.99015000	-26.32874000
107.06666048	0.00000000	-59.61491000	-25.21530000
107.26666047	0.00000000	-58.45841000	-23.64050000
107.46666046	0.00000000	-56.96358000	-21.72736000
107.66666045	0.00000000	-55.80708000	-19.82652000
107.86666044	0.00000000	-55.43184000	-19.08218000
108.06666042	0.00000000	-55.80708000	-19.41437000
108.26666041	0.00000000	-56.92052000	-20.61393000
108.46666040	0.00000000	-58.08316000	-22.47785000
108.66666039	0.00000000	-58.87672000	-24.37869000
108.86666038	0.00000000	-59.66412000	-25.17224000
109.06666037	0.00000000	-59.99015000	-25.22145000
109.26666035	0.00000000	-59.61491000	-24.79700000
109.46666034	0.00000000	-58.50147000	-23.64050000
109.66666033	0.00000000	-57.33883000	-22.10261000
109.86666032	0.00000000	-56.54527000	-20.57087000
110.06666031	0.00000000	-55.75787000	-19.41437000
110.26666029	0.00000000	-55.43184000	-19.03912000
110.46666028	0.00000000	-55.75787000	-19.41437000
110.66666027	0.00000000	-56.54527000	-20.57087000
110.86666026	0.00000000	-57.33883000	-22.10261000
111.06666025	0.00000000	-58.50147000	-23.64050000
111.26666023	0.00000000	-59.57185000	-24.79700000
111.46666022	0.00000000	-59.66412000	-25.22145000
111.66666021	0.00000000	-59.29502000	-25.22145000
111.86666020	0.00000000	-59.24582000	-24.79700000
112.06666019	0.00000000	-58.45841000	-23.64050000
112.26666018	0.00000000	-57.38804000	-22.15182000
112.46666016	0.00000000	-56.96358000	-20.98917000
112.66666015	0.00000000	-56.92052000	-20.57087000
112.86666014	0.00000000	-56.92052000	-20.52780000
113.06666013	0.00000000	-56.92052000	-20.57087000
113.26666012	0.00000000	-56.92052000	-20.94611000
113.46666010	0.00000000	-56.96358000	-21.68430000
113.66666009	0.00000000	-57.33883000	-22.05955000
113.86666008	0.00000000	-58.08316000	-22.10261000
114.06666007	0.00000000	-58.40920000	-22.14567000
114.26666006	0.00000000	-58.12622000	-22.52091000
114.46666004	0.00000000	-57.75713000	-23.26525000
114.66666003	0.00000000	-58.08316000	-23.64050000
114.86666002	0.00000000	-58.03395000	-23.68356000
115.06666001	0.00000000	-57.33883000	-23.68356000
115.26666000	0.00000000	-56.96358000	-23.64050000
115.46665999	0.00000000	-56.92052000	-23.26525000
115.66665997	0.00000000	-56.92052000	-22.47785000
115.86665996	0.00000000	-56.92052000	-21.72736000
116.06665995	0.00000000	-56.92052000	-20.90305000
116.26665994	0.00000000	-56.96358000	-20.19562000
116.46665993	0.00000000	-57.33883000	-19.78346000
116.66665991	0.00000000	-58.08316000	-20.19562000
116.86665990	0.00000000	-58.45841000	-20.90305000
117.06665989	0.00000000	-58.45841000	-21.72736000
117.26665988	0.00000000	-58.03395000	-22.47785000
117.46665987	0.00000000	-56.92052000	-23.26525000
117.66665985	0.00000000	-55.80708000	-23.68356000
117.86665984	0.00000000	-55.38263000	-24.10187000
118.06665983	0.00000000	-55.33957000	-24.79700000
118.26665982	0.00000000	-55.38263000	-24.75394000
118.46665981	0.00000000	-55.80708000	-23.68356000
118.66665980	0.00000000	-56.92052000	-22.52091000
118.86665978	0.00000000	-58.08316000	-21.72736000
119.06665977	0.00000000	-58.87672000	-20.94611000
119.26665976	0.00000000	-59.66412000	-20.57087000
119.46665975	0.00000000	-59.99015000	-20.52780000
119.66665974	0.00000000	-59.61491000	-20.57087000
119.86665972	0.00000000	-58.50147000	-20.94611000
120.06665971	0.00000000	-57.33883000	-21.68430000
120.26665970	0.00000000	-56.50221000	-22.10261000
120.46665969	0.00000000	-55.33957000	-22.52091000
120.66665968	0.00000000	-54.26919000	-23.26525000
120.86665966	0.00000000	-54.22613000	-23.64050000
121.06665965	0.00000000	-54.96432000	-23.68356000
121.26665964	0.00000000	-55.75787000	-23.68356000
121.46665963	0.00000000	-56.96358000	-23.64050000
121.66665962	0.00000000	-58.45841000	-23.26525000
121.86665961	0.00000000	-59.61491000	-22.52091000
122.06665959	0.00000000	-60.03937000	-22.14567000
122.26665958	0.00000000	-60.03937000	-22.05955000
122.46665957	0.00000000	-59.61491000	-21.68430000
122.66665956	0.00000000	-58.50147000	-20.94611000
122.86665955	0.00000000	-57.33883000	-20.57087000
123.06665953	0.00000000	-56.50221000	-20.57087000
123.26665952	0.00000000	-55.38263000	-20.94611000
123.46665951	0.00000000	-54.64444000	-21.68430000
123.66665950	0.00000000	-55.00738000	-22.10261000
123.86665949	0.00000000	-55.67175000	-22.52091000
124.06665947	0.00000000	-56.17002000	-23.26525000
124.26665946	0.00000000	-56.55142000	-23.64050000
124.46665945	0.00000000	-57.70792000	-23.64050000
124.66665944	0.00000000	-58.45841000	-23.26525000
124.86665943	0.00000000	-58.91978000	-22.52091000
125.06665942	0.00000000	-59.61491000	-22.10261000
125.26665940	0.00000000	-59.61491000	-21.68430000
125.46665939	0.00000000	-58.87672000	-20.94611000
125.66665938	0.00000000	-58.12622000	-20.57087000
125.86665937	0.00000000	-57.29576000	-20.52780000
126.06665936	0.00000000	-56.54527000	-20.52780000
126.26665934	0.00000000	-55.75787000	-20.57087000
126.46665933	0.00000000	-55.38263000	-20.94611000
126.66665932	0.00000000	-55.33957000	-21.72736000
126.86665931	0.00000000	-55.38263000	-22.47785000
127.06665930	0.00000000	-55.80708000	-23.26525000
127.26665928	0.00000000	-56.96358000	-23.64050000
127.46665927	0.00000000	-58.45841000	-23.68356000
127.66665926	0.00000000	-59.61491000	-23.64050000
127.86665925	0.00000000	-60.03937000	-23.26525000
128.06665924	0.00000000	-60.03937000	-22.52091000
128.26665923	0.00000000	-59.61491000	-22.14567000
128.46665921	0.00000000	-58.45841000	-22.05955000
128.66665920	0.00000000	-56.96358000	-21.72736000
128.86665919	0.00000000	-55.80708000	-21.36442000
129.06665918	0.00000000	-55.38263000	-21.72736000
129.26665917	0.00000000	-55.38263000	-22.05955000
129.46665915	0.00000000	-55.75787000	-22.10261000
129.66665914	0.00000000	-56.54527000	-22.10261000
129.86665913	0.00000000	-57.29576000	-22.10261000
130.06665912	0.00000000	-58.12622000	-22.10261000
130.26665911	0.00000000	-58.83366000	-22.10261000
130.46665909	0.00000000	-59.24582000	-22.05955000
130.66665908	0.00000000	-58.83366000	-21.68430000
130.86665907	0.00000000	-58.08316000	-20.94611000
131.06665906	0.00000000	-56.92052000	-20.57087000
131.26665905	0.00000000	-55.80708000	-20.57087000
131.46665904	0.00000000	-55.43184000	-20.94611000
131.66665902	0.00000000	-55.75787000	-21.72736000
131.86665901	0.00000000	-56.50221000	-22.47785000
132.06665900	0.00000000	-56.87746000	-23.26525000
132.26665899	0.00000000	-56.96358000	-23.64050000
132.46665898	0.00000000	-57.29576000	-23.64050000
132.66665896	0.00000000	-57.70792000	-23.26525000
132.86665895	0.00000000	-57.67101000	-22.47785000
133.06665894	0.00000000	-57.70792000	-21.72736000
133.26665893	0.00000000	-57.29576000	-20.94611000
133.46665892	0.00000000	-56.96358000	-20.57087000
133.66665890	0.00000000	-56.92052000	-20.52780000
133.86665889	0.00000000	-56.92052000	-20.57087000
134.06665888	0.00000000	-56.92052000	-20.94611000
134.26665887	0.00000000	-56.92052000	-21.72736000
134.46665886	0.00000000	-56.92052000	-22.47785000
134.66665885	0.00000000	-56.92052000	-23.26525000
134.86665883	0.00000000	-56.87746000	-23.64050000
135.06665882	0.00000000	-56.50221000	-23.68356000
135.26665881	0.00000000	-55.80708000	-23.64050000
135.46665880	0.00000000	-55.80708000	-23.26525000
135.66665879	0.00000000	-56.50221000	-22.47785000
135.86665877	0.00000000	-56.92052000	-21.72736000
136.06665876	0.00000000	-57.33883000	-20.94611000
136.26665875	0.00000000	-58.08316000	-20.57087000
136.46665874	0.00000000	-58.45841000	-20.57087000
136.66665873	0.00000000	-58.50147000	-20.94611000
136.86665871	0.00000000	-58.45841000	-21.68430000
137.06665870	0.00000000	-58.03395000	-22.05955000
137.26665869	0.00000000	-56.92052000	-22.14567000
137.46665868	0.00000000	-55.80708000	-22.52091000
137.66665867	0.00000000	-55.38263000	-23.26525000
137.86665866	0.00000000	-55.33957000	-23.64050000
138.06665864	0.00000000	-55.38263000	-23.68356000
138.26665863	0.00000000	-55.75787000	-23.68356000
138.46665862	0.00000000	-56.54527000	-23.64050000
138.66665861	0.00000000	-57.29576000	-23.26525000
138.86665860	0.00000000	-58.08316000	-22.47785000
139.06665858	0.00000000	-58.45841000	-21.72736000
139.26665857	0.00000000	-58.45841000	-20.94611000
139.46665856	0.00000000	-58.08316000	-20.57087000
139.66665855	0.00000000	-57.29576000	-20.52780000
139.86665854	0.00000000	-56.54527000	-20.57087000
140.06665852	0.00000000	-55.75787000	-20.94611000
140.26665851	0.00000000	-55.43184000	-21.72736000
140.46665850	0.00000000	-55.75787000	-22.47785000
140.66665849	0.00000000	-56.50221000	-23.26525000
140.86665848	0.00000000	-56.87746000	-23.64050000
141.06665847	0.00000000	-56.92052000	-23.64050000
141.26665845	0.00000000	-56.92052000	-23.26525000
141.46665844	0.00000000	-56.92052000	-22.47785000
141.66665843	0.00000000	-56.92052000	-21.72736000
141.86665842	0.00000000	-56.87746000	-20.94611000
142.06665841	0.00000000	-56.54527000	-20.52780000
142.26665839	0.00000000	-56.13312000	-20.15256000
142.46665838	0.00000000	-56.12696000	-19.78346000
142.66665837	0.00000000	-55.75787000	-20.19562000
142.86665836	0.00000000	-55.80708000	-20.90305000
143.06665835	0.00000000	-56.50221000	-21.72736000
143.26665834	0.00000000	-56.87746000	-22.47785000
143.46665832	0.00000000	-56.92052000	-23.26525000
143.66665831	0.00000000	-56.92052000	-23.64050000
143.86665830	0.00000000	-56.92052000	-23.64050000
144.06665829	0.00000000	-56.92052000	-23.26525000
144.26665828	0.00000000	-56.87746000	-22.47785000
144.46665826	0.00000000	-56.50221000	-21.72736000
144.66665825	0.00000000	-55.80708000	-20.98917000
144.86665824	0.00000000	-55.80708000	-20.94611000
145.06665823	0.00000000	-56.50221000	-21.26599000
145.26665822	0.00000000	-56.87746000	-20.94611000
145.46665820	0.00000000	-56.92052000	-20.98917000
145.66665819	0.00000000	-56.92052000	-21.68430000
145.86665818	0.00000000	-56.92052000	-22.10261000
146.06665817	0.00000000	-56.92052000	-22.52091000
146.26665816	0.00000000	-56.92052000	-23.26525000
146.46665815	0.00000000	-56.87746000	-23.59129000
146.66665813	0.00000000	-56.50221000	-23.26525000
146.86665812	0.00000000	-55.80708000	-22.52091000
147.06665811	0.00000000	-55.80708000	-22.14567000
147.26665810	0.00000000	-56.45300000	-22.05955000
147.46665809	0.00000000	-56.50221000	-21.68430000
147.66665807	0.00000000	-56.17618000	-20.94611000
147.86665806	0.00000000	-56.54527000	-20.57087000
148.06665805	0.00000000	-56.87746000	-20.57087000
148.26665804	0.00000000	-56.92052000	-20.94611000
148.46665803	0.00000000	-56.92052000	-21.68430000
148.66665801	0.00000000	-56.92052000	-22.05955000
148.86665800	0.00000000	-56.92052000	-22.10261000
149.06665799	0.00000000	-56.87746000	-22.10261000
149.26665798	0.00000000	-56.50221000	-22.10261000
149.46665797	0.00000000	-55.75787000	-22.10261000
149.66665796	0.00000000	-55.38263000	-22.10261000
149.86665794	0.00000000	-55.38263000	-22.10261000
150.06665793	0.00000000	-55.71481000	-22.05955000
150.26665792	0.00000000	-56.12696000	-21.68430000
150.46665791	0.00000000	-56.13312000	-20.94611000
150.66665790	0.00000000	-56.54527000	-20.57087000
150.86665788	0.00000000	-56.87746000	-20.52780000
151.06665787	0.00000000	-56.92052000	-20.57087000
151.26665786	0.00000000	-56.92052000	-20.94611000
151.46665785	0.00000000	-56.92052000	-21.68430000
151.66665784	0.00000000	-56.92052000	-22.05955000
151.86665782	0.00000000	-56.87746000	-22.10261000
152.06665781	0.00000000	-56.50221000	-22.10261000
152.26665780	0.00000000	-55.80708000	-22.10261000
152.46665779	0.00000000	-55.75787000	-22.10261000
152.66665778	0.00000000	-56.08390000	-22.10261000
152.86665777	0.00000000	-55.71481000	-22.10261000
153.06665775	0.00000000	-55.43184000	-22.10261000
153.26665774	0.00000000	-55.75787000	-22.05955000
153.46665773	0.00000000	-56.50221000	-21.72736000
153.66665772	0.00000000	-56.87746000	-21.36442000
153.86665771	0.00000000	-56.92052000	-21.72736000
154.06665769	0.00000000	-56.92052000	-22.05955000
154.26665768	0.00000000	-56.92052000	-22.10261000
154.46665767	0.00000000	-56.92052000	-22.10261000
154.66665766	0.00000000	-56.92052000	-22.10261000
154.86665765	0.00000000	-56.92052000	-22.10261000
155.06665763	0.00000000	-56.87746000	-22.10261000
155.26665762	0.00000000	-56.50221000	-22.10261000
155.46665761	0.00000000	-55.75787000	-22.10261000
155.66665760	0.00000000	-55.38263000	-22.10261000
155.86665759	0.00000000	-55.33957000	-22.10261000
156.06665758	0.00000000	-55.38263000	-22.10261000
156.26665756	0.00000000	-55.75787000	-22.10261000
156.46665755	0.00000000	-56.50221000	-22.05955000
156.66665754	0.00000000	-56.87746000	-21.68430000
156.86665753	0.00000000	-56.96358000	-20.94611000
157.06665752	0.00000000	-57.29576000	-20.57087000
157.26665750	0.00000000	-57.66486000	-20.57087000
157.46665749	0.00000000	-57.29576000	-20.94611000
157.66665748	0.00000000	-56.96358000	-21.68430000
157.86665747	0.00000000	-56.87746000	-22.05955000
158.06665746	0.00000000	-56.50221000	-22.14567000
158.26665744	0.00000000	-55.75787000	-22.47785000
158.46665743	0.00000000	-55.38263000	-22.84695000
158.66665742	0.00000000	-55.33957000	-22.47785000
158.86665741	0.00000000	-55.33957000	-22.14567000
159.06665740	0.00000000	-55.38263000	-22.05955000
159.26665739	0.00000000	-55.75787000	-21.68430000
159.46665737	0.00000000	-56.50221000	-20.94611000
159.66665736	0.00000000	-56.92052000	-20.57087000
159.86665735	0.00000000	-57.33883000	-20.57087000
160.06665734	0.00000000	-58.03395000	-20.90305000
160.26665733	0.00000000	-58.03395000	-21.30905000
160.46665731	0.00000000	-57.33883000	-21.32136000
160.66665730	0.00000000	-56.96358000	-21.72736000
160.86665729	0.00000000	-56.92052000	-22.05955000
161.06665728	0.00000000	-56.87746000	-22.10261000
161.26665727	0.00000000	-56.54527000	-22.10261000
161.46665725	0.00000000	-56.13312000	-22.10261000
161.66665724	0.00000000	-56.12696000	-22.10261000
161.86665723	0.00000000	-55.71481000	-22.05955000
162.06665722	0.00000000	-55.38263000	-21.68430000
162.26665721	0.00000000	-55.38263000	-20.94611000
162.46665720	0.00000000	-55.75787000	-20.57087000
162.66665718	0.00000000	-56.50221000	-20.57087000
162.86665717	0.00000000	-56.87746000	-20.90305000
163.06665716	0.00000000	-56.92052000	-21.30905000
163.26665715	0.00000000	-56.92052000	-21.27214000
163.46665714	0.00000000	-56.92052000	-21.35827000
163.66665712	0.00000000	-56.92052000	-21.32136000
163.86665711	0.00000000	-56.92052000	-21.72736000
164.06665710	0.00000000	-56.92052000	-22.05955000
164.26665709	0.00000000	-56.87746000	-22.10261000
164.46665708	0.00000000	-56.50221000	-22.10261000
164.66665706	0.00000000	-55.75787000	-22.10261000
164.86665705	0.00000000	-55.38263000	-22.10261000
165.06665704	0.00000000	-55.33957000	-22.10261000
165.26665703	0.00000000	-55.33957000	-22.10261000
165.46665702	0.00000000	-55.33957000	-22.10261000
165.66665701	0.00000000	-55.38263000	-22.10261000
165.86665699	0.00000000	-55.75787000	-22.10261000
166.06665698	0.00000000	-56.50221000	-22.10261000
166.26665697	0.00000000	-56.87746000	-22.10261000
166.46665696	0.00000000	-56.92052000	-22.10261000
166.66665695	0.00000000	-56.92052000	-22.10261000
166.86665693	0.00000000	-56.92052000	-22.10261000
167.06665692	0.00000000	-56.87746000	-22.10261000
167.26665691	0.00000000	-56.50221000	-22.10261000
167.46665690	0.00000000	-55.75787000	-22.10261000
167.66665689	0.00000000	-55.38263000	-22.10261000
167.86665687	0.00000000	-55.33957000	-22.10261000
168.06665686	0.00000000	-55.38263000	-22.10261000
168.26665685	0.00000000	-55.71481000	-22.10261000
168.46665684	0.00000000	-56.08390000	-22.10261000
168.66665683	0.00000000	-55.75787000	-22.10261000
168.86665682	0.00000000	-55.80708000	-22.10261000
169.06665680	0.00000000	-56.50221000	-22.10261000
169.26665679	0.00000000	-56.87746000	-22.10261000
169.46665678	0.00000000	-56.92052000	-22.10261000
169.66665677	0.00000000	-56.92052000	-22.10261000
169.86665676	0.00000000	-56.92052000	-22.10261000
170.06665674	0.00000000	-56.92052000	-22.10261000
170.26665673	0.00000000	-56.92052000	-22.10261000
170.46665672	0.00000000	-56.87746000	-22.10261000
170.66665671	0.00000000	-56.50221000	-22.10261000
170.86665670	0.00000000	-55.75787000	-22.10261000
171.06665668	0.00000000	-55.38263000	-22.10261000
171.26665667	0.00000000	-55.33957000	-22.10261000
171.46665666	0.00000000	-55.33957000	-22.10261000
171.66665665	0.00000000	-55.33957000	-22.10261000
171.86665664	0.00000000	-55.33957000	-22.10261000
172.06665663	0.00000000	-55.33957000	-22.10261000
172.26665661	0.00000000	-55.33957000	-22.10261000
172.46665660	0.00000000	-55.38263000	-22.10261000
172.66665659	0.00000000	-55.75787000	-22.10261000
172.86665658	0.00000000	-56.50221000	-22.10261000
173.06665657	0.00000000	-56.87746000	-22.10261000
173.26665655	0.00000000	-56.87746000	-22.10261000
173.46665654	0.00000000	-56.54527000	-22.10261000
173.66665653	0.00000000	-56.13312000	-22.10261000
173.86665652	0.00000000	-56.12696000	-22.05955000
174.06665651	0.00000000	-55.71481000	-21.72736000
174.26665649	0.00000000	-55.38263000	-21.36442000
174.46665648	0.00000000	-55.38263000	-21.72736000
174.66665647	0.00000000	-55.71481000	-22.05955000
174.86665646	0.00000000	-56.08390000	-22.10261000
175.06665645	0.00000000	-55.75787000	-22.10261000
175.26665644	0.00000000	-55.75787000	-22.10261000
175.46665642	0.00000000	-56.08390000	-22.10261000
175.66665641	0.00000000	-55.71481000	-22.10261000
175.86665640	0.00000000	-55.38263000	-22.10261000
176.06665639	0.00000000	-55.33957000	-22.10261000
176.26665638	0.00000000	-55.33957000	-22.05955000
176.46665636	0.00000000	-55.38263000	-21.72736000
176.66665635	0.00000000	-55.71481000	-21.36442000
176.86665634	0.00000000	-56.08390000	-21.72736000
177.06665633	0.00000000	-55.71481000	-22.05955000
177.26665632	0.00000000	-55.43184000	-22.10261000
177.46665630	0.00000000	-55.71481000	-22.10261000
177.66665629	0.00000000	-56.12696000	-22.10261000
177.86665628	0.00000000	-56.09006000	-22.10261000
178.06665627	0.00000000	-56.12696000	-22.05955000
178.26665626	0.00000000	-55.71481000	-21.68430000
178.46665625	0.00000000	-55.38263000	-20.98917000
178.66665623	0.00000000	-55.33957000	-20.94611000
178.86665622	0.00000000	-55.38263000	-21.30905000
179.06665621	0.00000000	-55.75787000	-21.32136000
179.26665620	0.00000000	-56.45300000	-21.68430000
179.46665619	0.00000000	-56.50221000	-21.68430000
179.66665617	0.00000000	-56.13312000	-21.36442000
179.86665616	0.00000000	-56.12696000	-21.72736000
180.06665615	0.00000000	-55.75787000	-22.05955000
180.26665614	0.00000000	-55.75787000	-22.10261000
180.46665613	0.00000000	-56.08390000	-22.10261000
180.66665611	0.00000000	-55.71481000	-22.10261000
180.86665610	0.00000000	-55.43184000	-22.10261000
181.06665609	0.00000000	-55.71481000	-22.05955000
181.26665608	0.00000000	-56.08390000	-21.68430000
181.46665607	0.00000000	-55.71481000	-20.94611000
181.66665606	0.00000000	-55.38263000	-20.57087000
181.86665604	0.00000000	-55.33957000	-20.52780000
182.06665603	0.00000000	-55.33957000	-20.52780000
182.26665602	0.00000000	-55.33957000	-20.57087000
182.46665601	0.00000000	-55.33957000	-20.94611000
182.66665600	0.00000000	-55.33957000	-21.68430000
182.86665598	0.00000000	-55.33957000	-22.05955000
183.06665597	0.00000000	-55.33957000	-22.10261000
183.26665596	0.00000000	-55.33957000	-22.10261000
183.46665595	0.00000000	-55.33957000	-22.10261000
183.66665594	0.00000000	-55.33957000	-22.10261000
183.86665592	0.00000000	-55.33957000	-22.10261000
184.06665591	0.00000000	-55.33957000	-22.05955000
184.26665590	0.00000000	-55.38263000	-21.72736000
184.46665589	0.00000000	-55.71481000	-21.32136000
184.66665588	0.00000000	-56.08390000	-21.30905000
184.86665587	0.00000000	-55.71481000	-20.90305000
185.06665585	0.00000000	-55.38263000	-20.62008000
185.26665584	0.00000000	-55.33957000	-20.94611000
185.46665583	0.00000000	-55.33957000	-21.68430000
185.66665582	0.00000000	-55.33957000	-22.05955000
185.86665581	0.00000000	-55.33957000	-22.10261000
186.06665579	0.00000000	-55.33957000	-22.10261000
186.26665578	0.00000000	-55.33957000	-22.10261000
186.46665577	0.00000000	-55.33957000	-22.10261000
186.66665576	0.00000000	-55.38263000	-22.10261000
186.86665575	0.00000000	-55.71481000	-22.05955000
187.06665573	0.00000000	-56.08390000	-21.68430000
187.26665572	0.00000000	-55.71481000	-20.94611000
187.46665571	0.00000000	-55.43184000	-20.57087000
187.66665570	0.00000000	-55.71481000	-20.52780000
187.86665569	0.00000000	-56.08390000	-20.52780000
188.06665568	0.00000000	-55.75787000	-20.57087000
188.26665566	0.00000000	-55.75787000	-20.94611000
188.46665565	0.00000000	-56.08390000	-21.68430000
188.66665564	0.00000000	-55.71481000	-22.05955000
188.86665563	0.00000000	-55.38263000	-22.10261000
189.06665562	0.00000000	-55.33957000	-22.10261000
189.26665560	0.00000000	-55.33957000	-22.10261000
189.46665559	0.00000000	-55.33957000	-22.10261000
189.66665558	0.00000000	-55.33957000	-22.10261000
189.86665557	0.00000000	-55.38263000	-22.05955000
190.06665556	0.00000000	-55.71481000	-21.72736000
190.26665554	0.00000000	-56.08390000	-21.32136000
190.46665553	0.00000000	-55.75787000	-21.30905000
190.66665552	0.00000000	-55.75787000	-20.90305000
190.86665551	0.00000000	-56.08390000	-20.57087000
191.06665550	0.00000000	-55.71481000	-20.52780000
191.26665549	0.00000000	-55.38263000	-20.57087000
191.46665547	0.00000000	-55.33957000	-20.94611000
191.66665546	0.00000000	-55.33957000	-21.68430000
191.86665545	0.00000000	-55.33957000	-22.05955000
192.06665544	0.00000000	-55.33957000	-22.10261000
192.26665543	0.00000000	-55.33957000	-22.10261000
192.46665541	0.00000000	-55.33957000	-22.10261000
192.66665540	0.00000000	-55.33957000	-22.10261000
192.86665539	0.00000000	-55.33957000	-22.10261000
193.06665538	0.00000000	-55.33957000	-22.05955000
193.26665537	0.00000000	-55.33957000	-21.68430000
193.46665535	0.00000000	-55.33957000	-20.98917000
193.66665534	0.00000000	-55.33957000	-20.94611000
193.86665533	0.00000000	-55.33957000	-21.26599000
194.06665532	0.00000000	-55.33957000	-20.90305000
194.26665531	0.00000000	-55.33957000	-20.57087000
194.46665530	0.00000000	-55.33957000	-20.52780000
194.66665528	0.00000000	-55.33957000	-20.52780000
194.86665527	0.00000000	-55.33957000	-20.57087000
195.06665526	0.00000000	-55.33957000	-20.94611000
195.26665525	0.00000000	-55.33957000	-21.68430000
195.46665524	0.00000000	-55.33957000	-22.05955000
195.66665522	0.00000000	-55.33957000	-22.05955000
195.86665521	0.00000000	-55.33957000	-21.68430000
196.06665520	0.00000000	-55.33957000	-20.98917000
