Time	Channel A	Channel B	Channel C
(us)	(V)	(mV)	(mV)

-4.59999956	0.00000000	-49.01575000	-18.94685000
-4.39999957	0.00000000	-49.01575000	-18.90379000
-4.19999958	0.00000000	-49.01575000	-18.57160000
-3.99999959	0.00000000	-49.01575000	-18.20251000
-3.79999960	0.00000000	-49.01575000	-18.57160000
-3.59999962	0.00000000	-49.01575000	-18.90379000
-3.39999963	0.00000000	-49.01575000	-18.94685000
-3.19999964	0.00000000	-49.01575000	-18.94685000
-2.99999965	0.00000000	-49.01575000	-18.94685000
-2.79999966	0.00000000	-49.01575000	-18.90379000
-2.59999968	0.00000000	-49.01575000	-18.57160000
-2.39999969	0.00000000	-49.01575000	-18.20251000
-2.19999970	0.00000000	-49.01575000	-18.57160000
-1.99999971	0.00000000	-49.01575000	-18.85458000
-1.79999972	0.00000000	-49.01575000	-18.52854000
-1.59999973	0.00000000	-49.01575000	-17.83341000
-1.39999975	0.00000000	-49.01575000	-17.83341000
-1.19999976	0.00000000	-49.01575000	-18.52854000
-0.99999977	0.00000000	-49.01575000	-18.90379000
-0.79999978	0.00000000	-49.05881000	-18.94685000
-0.59999979	0.00000000	-49.39099000	-18.90379000
-0.39999981	0.00000000	-49.76009000	-18.52854000
-0.19999982	0.47736220	-49.39099000	-17.83341000
0.00000017	0.79601380	-49.05881000	-17.83341000
0.20000016	0.95533960	-49.01575000	-18.52854000
0.40000015	0.95533960	-49.01575000	-18.85458000
0.60000013	0.63668800	-49.01575000	-18.57160000
0.80000012	0.00000000	-49.01575000	-18.20251000
1.00000011	-0.95533960	-49.01575000	-18.52854000
1.20000010	-1.91129400	-49.01575000	-18.47933000
1.40000009	-2.70792300	-49.01575000	-17.78420000
1.60000008	-2.70792300	-48.97269000	-17.40895000
1.80000006	-2.07062000	-48.64050000	-17.36589000
2.00000005	-0.63668800	-48.27140000	-17.36589000
2.20000004	1.43331700	-48.64050000	-17.36589000
2.40000003	3.50393700	-48.97269000	-17.40895000
2.60000002	4.93786900	-49.01575000	-17.78420000
2.80000000	5.25652100	-49.01575000	-18.52854000
2.99999999	4.30056600	-49.01575000	-18.90379000
3.19999998	1.75196900	-49.01575000	-18.94685000
3.39999997	-1.43331700	-49.01575000	-18.94685000
3.59999996	-4.77854300	-49.01575000	-18.94685000
3.79999994	-7.16781500	-49.01575000	-18.90379000
3.99999993	-7.96444400	-49.01575000	-18.52854000
4.19999992	-6.69045300	-49.01575000	-17.78420000
4.39999991	-3.50393700	-49.01575000	-17.40895000
4.59999990	0.63668800	-49.01575000	-17.36589000
4.79999989	4.93786900	-49.01575000	-17.40895000
4.99999987	8.28309500	-49.01575000	-17.78420000
5.19999986	9.39837600	-49.01575000	-18.52854000
5.39999985	8.28309500	-49.01575000	-18.90379000
5.59999984	5.09719500	-49.01575000	-18.94685000
5.79999983	0.47736220	-49.01575000	-18.94685000
5.99999981	-4.14124000	-49.01575000	-18.94685000
6.19999980	-7.80511800	-49.01575000	-18.94685000
6.39999979	-9.39837600	-49.01575000	-18.90379000
6.59999978	-8.76107300	-49.01575000	-18.52854000
6.79999977	-5.89382400	-48.97269000	-17.78420000
6.99999975	-1.59264300	-48.64050000	-17.40895000
7.19999974	2.70792300	-48.27140000	-17.40895000
7.39999973	6.05315000	-48.64050000	-17.78420000
7.59999972	7.64579200	-48.97269000	-18.52854000
7.79999971	7.32714100	-49.01575000	-18.90379000
7.99999970	5.25652100	-49.01575000	-18.98991000
8.19999968	2.07062000	-49.01575000	-19.32210000
8.39999967	-1.11466500	-49.01575000	-19.69119000
8.59999966	-3.66326300	-49.01575000	-19.27903000
8.79999965	-5.09719500	-49.01575000	-18.57160000
8.99999964	-4.93786900	-49.01575000	-17.78420000
9.19999962	-3.82258900	-49.01575000	-17.40895000
9.39999961	-1.91129400	-49.01575000	-17.40895000
9.59999960	0.00000000	-49.01575000	-17.78420000
9.79999959	1.59264300	-48.97269000	-18.47933000
9.99999958	2.38927200	-48.64050000	-18.47933000
10.19999956	2.54859700	-48.27140000	-17.78420000
10.39999955	1.91129400	-48.64050000	-17.45817000
10.59999954	1.11466500	-48.97269000	-17.74114000
10.79999953	0.15871060	-49.01575000	-18.11024000
10.99999952	-0.47736220	-49.01575000	-17.74114000
11.19999951	-0.95533960	-49.01575000	-17.40895000
11.39999949	-0.95533960	-48.97269000	-17.36589000
11.59999948	-0.79601380	-48.64050000	-17.36589000
11.79999947	-0.63668800	-48.27140000	-17.36589000
11.99999946	-0.31803640	-48.64050000	-17.40895000
12.19999945	-0.15871060	-48.97269000	-17.74114000
12.39999943	-0.15871060	-49.01575000	-18.11024000
12.59999942	0.00000000	-49.01575000	-17.74114000
12.79999941	0.00000000	-49.01575000	-17.40895000
12.99999940	0.00000000	-49.01575000	-17.36589000
13.19999939	0.00000000	-48.97269000	-17.36589000
13.39999937	0.00000000	-48.64050000	-17.36589000
13.59999936	0.00000000	-48.27140000	-17.36589000
13.79999935	0.00000000	-48.59744000	-17.36589000
13.99999934	-0.15871060	-48.59744000	-17.36589000
14.19999933	-0.15871060	-48.27140000	-17.40895000
14.39999932	-0.15871060	-48.64050000	-17.74114000
14.59999930	0.00000000	-48.97269000	-18.15330000
14.79999929	0.00000000	-49.01575000	-18.11639000
14.99999928	0.00000000	-48.97269000	-18.15330000
15.19999927	0.00000000	-48.64050000	-17.78420000
15.39999926	0.00000000	-48.27140000	-17.78420000
15.59999924	0.00000000	-48.64050000	-18.15330000
15.79999923	0.00000000	-48.97269000	-18.15945000
15.99999922	0.00000000	-49.01575000	-18.52854000
16.19999921	0.00000000	-49.01575000	-18.52854000
16.39999920	-0.15871060	-49.01575000	-18.20251000
16.59999919	-0.15871060	-48.97269000	-18.52854000
16.79999917	0.00000000	-48.59744000	-18.52854000
16.99999916	0.00000000	-47.85310000	-18.20251000
17.19999915	0.00000000	-47.43479000	-18.52854000
17.39999914	0.00000000	-47.01648000	-18.52854000
17.59999913	0.00000000	-46.32135000	-18.15945000
17.79999911	0.00000000	-46.36442000	-18.19636000
17.99999910	0.00000000	-47.47785000	-18.15945000
18.19999909	0.00000000	-49.01575000	-18.57160000
18.39999908	0.00000000	-50.59670000	-18.85458000
18.59999907	0.00000000	-52.13459000	-18.52854000
18.79999905	0.00000000	-53.29109000	-17.83341000
18.99999904	0.00000000	-53.66634000	-17.78420000
19.19999903	0.00000000	-53.20496000	-18.15330000
19.39999902	0.00000000	-51.24877000	-18.11639000
19.59999901	0.00000000	-47.76698000	-18.19636000
19.79999900	0.00000000	-43.89763000	-18.11639000
19.99999898	0.00000000	-40.04060000	-18.19636000
20.19999897	0.00000000	-37.38927000	-18.15945000
20.39999896	0.00000000	-37.01402000	-18.57160000
20.59999895	0.00000000	-39.01329000	-18.90379000
20.79999894	0.00000000	-43.71309000	-18.90379000
20.99999892	0.00000000	-50.68897000	-18.57160000
21.19999891	0.00000000	-58.40920000	-18.20251000
21.39999890	0.00000000	-65.29897000	-18.52854000
21.59999889	0.00000000	-69.06988000	-18.47933000
21.79999888	0.00000000	-67.90723000	-17.83341000
21.99999886	0.00000000	-62.04478000	-17.83341000
22.19999885	0.00000000	-52.31914000	-18.52854000
22.39999884	0.00000000	-39.94832000	-18.90379000
22.59999883	0.00000000	-27.98966000	-18.90379000
22.79999882	0.00000000	-19.18676000	-18.52854000
22.99999881	0.00000000	-16.17249000	-17.78420000
23.19999879	0.00000000	-20.90305000	-17.40895000
23.39999878	0.00000000	-32.49877000	-17.32283000
23.59999877	0.00000000	-49.19414000	-16.94759000
23.79999876	0.00000000	-67.25517000	-16.20325000
23.99999875	0.00000000	-82.28346000	-15.87721000
24.19999873	0.00000000	-89.96062000	-16.20325000
24.39999872	0.00000000	-88.37967000	-17.03371000
24.59999871	0.00000000	-77.49139000	-18.20251000
24.79999870	0.00000000	-58.93208000	-20.10950000
24.99999869	0.00000000	-36.92175000	-21.64124000
25.19999867	0.00000000	-16.44931000	-22.47785000
25.39999866	0.00000000	-2.20841500	-23.17298000
25.59999865	0.00000000	1.97465500	-22.71161000
25.79999864	0.00000000	-5.41953700	-20.39247000
25.99999863	0.00000000	-23.19143000	-16.94759000
26.19999862	0.00000000	-47.47785000	-13.04749000
26.39999860	0.00000000	-72.13951000	-9.60875900
26.59999859	0.00000000	-91.08022000	-7.28346400
26.79999858	0.00000000	-100.01230000	-6.95743000
26.99999857	0.00000000	-97.31791000	-8.90747900
27.19999856	0.00000000	-83.81520000	-13.22589000
27.39999854	0.00000000	-62.55536000	-19.45743000
27.59999853	0.00000000	-38.54576000	-26.79626000
27.79999852	0.00000000	-16.58464000	-33.67372000
27.99999851	0.00000000	-1.93159400	-37.85679000
28.19999850	0.00000000	1.23646700	-37.81373000
28.39999848	0.00000000	-6.39763700	-33.12008000
28.59999847	0.00000000	-22.63779000	-24.20029000
28.79999846	0.00000000	-43.85457000	-12.62918000
28.99999845	0.00000000	-64.74532000	-1.06422200
29.19999844	0.00000000	-81.07159000	7.76943800
29.39999843	0.00000000	-89.96062000	11.57726000
29.59999841	0.00000000	-89.58538000	8.83366100
29.79999840	0.00000000	-80.00122000	-0.04306102
29.99999839	0.00000000	-64.22859000	-13.23204000
30.19999838	0.00000000	-46.40748000	-28.28494000
30.39999837	0.00000000	-30.12426000	-42.17519000
30.59999835	0.00000000	-18.49163000	-51.42716000
30.79999834	0.00000000	-13.84104000	-54.12155000
30.99999833	0.00000000	-16.82456000	-49.37868000
31.19999832	0.00000000	-26.03346000	-37.39542000
31.39999831	0.00000000	-38.41043000	-20.43553000
31.59999829	0.00000000	-51.66707000	-2.73129900
31.79999828	0.00000000	-63.62573000	11.62032000
31.99999827	0.00000000	-71.77042000	19.75271000
32.19999826	0.00000000	-74.10187000	20.54011000
32.39999825	0.00000000	-70.74310000	13.52731000
32.59999824	0.00000000	-62.97367000	0.00615157
32.79999822	0.00000000	-52.96506000	-17.41511000
32.99999821	0.00000000	-42.50123000	-35.11319000
33.19999820	0.00000000	-34.39960000	-49.05265000
33.39999819	0.00000000	-30.03199000	-56.02854000
33.59999818	0.00000000	-29.65674000	-55.27805000
33.79999816	0.00000000	-33.15083000	-46.77657000
33.99999815	0.00000000	-40.08366000	-32.51107000
34.19999814	0.00000000	-48.50517000	-15.87721000
34.39999813	0.00000000	-55.85630000	-0.03690945
34.59999812	0.00000000	-60.55610000	11.52805000
34.79999810	0.00000000	-62.08784000	16.17864000
34.99999809	0.00000000	-60.18085000	13.15207000
35.19999808	0.00000000	-55.20423000	3.53715500
35.39999807	0.00000000	-49.05881000	-9.98400600
35.59999806	0.00000000	-43.28863000	-24.66781000
35.79999805	0.00000000	-39.43159000	-37.39542000
35.99999803	0.00000000	-38.63804000	-45.06028000
36.19999802	0.00000000	-40.50196000	-45.89690000
36.39999801	0.00000000	-44.36515000	-39.76993000
36.59999800	0.00000000	-48.97269000	-29.02928000
36.79999799	0.00000000	-53.24803000	-16.33858000
36.99999797	0.00000000	-56.27460000	-5.14886800
37.19999796	0.00000000	-57.01894000	1.82701800
37.39999795	0.00000000	-54.74286000	3.72170300
37.59999794	0.00000000	-50.55364000	-0.50442900
37.79999793	0.00000000	-45.89690000	-9.60875900
37.99999791	0.00000000	-41.66461000	-19.97416000
38.19999790	0.00000000	-38.97022000	-28.84473000
38.39999789	0.00000000	-38.54576000	-34.14124000
38.59999788	0.00000000	-40.08366000	-33.76599000
38.79999787	0.00000000	-43.20251000	-27.68824000
38.99999786	0.00000000	-47.43479000	-18.57160000
39.19999784	0.00000000	-51.71013000	-9.33193800
39.39999783	0.00000000	-55.20423000	-2.81742100
39.59999782	0.00000000	-57.48031000	-0.50442900
39.79999781	0.00000000	-57.48031000	-3.24188000
39.99999780	0.00000000	-55.24729000	-10.48843000
40.19999778	0.00000000	-52.13459000	-20.06029000
40.39999777	0.00000000	-48.59744000	-28.89395000
40.59999776	0.00000000	-44.69119000	-34.69488000
40.79999775	0.00000000	-41.24631000	-36.18971000
40.99999774	0.00000000	-38.92101000	-32.70177000
41.19999772	0.00000000	-38.54576000	-24.66781000
41.39999771	0.00000000	-40.04060000	-14.72072000
41.59999770	0.00000000	-42.78420000	-5.84399600
41.79999769	0.00000000	-46.27214000	-0.08612204
41.99999768	0.00000000	-50.17839000	1.07652500
42.19999767	0.00000000	-53.62328000	-2.73129900
42.39999765	0.00000000	-55.94857000	-9.98400600
42.59999764	0.00000000	-56.32381000	-18.47933000
42.79999763	0.00000000	-54.82898000	-26.19955000
42.99999762	0.00000000	-52.13459000	-31.58218000
43.19999761	0.00000000	-49.05881000	-33.16314000
43.39999759	0.00000000	-46.32135000	-30.88705000
43.59999758	0.00000000	-44.36515000	-25.91043000
43.79999757	0.00000000	-43.20251000	-19.36516000
43.99999756	0.00000000	-43.20251000	-13.27510000
44.19999755	0.00000000	-44.27288000	-9.33193800
44.39999753	0.00000000	-45.38631000	-8.11392700
44.59999752	0.00000000	-45.81078000	-8.86441900
44.79999751	0.00000000	-45.85384000	-11.55881000
44.99999750	0.00000000	-45.85384000	-15.40969000
45.19999749	0.00000000	-45.89690000	-19.27288000
45.39999748	0.00000000	-46.36442000	-22.75467000
45.59999746	0.00000000	-47.94537000	-24.66781000
45.79999745	0.00000000	-50.59670000	-24.71087000
45.99999744	0.00000000	-53.34030000	-23.17298000
46.19999743	0.00000000	-55.62254000	-20.52780000
46.39999742	0.00000000	-57.15428000	-17.78420000
46.59999740	0.00000000	-56.64985000	-15.45891000
46.79999739	0.00000000	-53.94316000	-13.55807000
46.99999738	0.00000000	-48.88041000	-13.13976000
47.19999737	0.00000000	-42.78420000	-13.87795000
47.39999736	0.00000000	-37.34006000	-15.08981000
47.59999734	0.00000000	-33.84596000	-17.41511000
47.79999733	0.00000000	-32.72638000	-20.06029000
47.99999732	0.00000000	-34.77485000	-22.01649000
48.19999731	0.00000000	-40.59424000	-23.17298000
48.39999730	0.00000000	-49.01575000	-23.12992000
48.59999729	0.00000000	-57.48031000	-21.59203000
48.79999727	0.00000000	-63.67495000	-18.89764000
48.99999726	0.00000000	-66.32628000	-15.83415000
49.19999725	0.00000000	-64.41313000	-13.09055000
49.39999724	0.00000000	-58.23080000	-11.18356000
49.59999723	0.00000000	-49.71087000	-10.40231000
49.79999721	0.00000000	-40.08366000	-11.22662000
49.99999720	0.00000000	-32.03125000	-13.51501000
50.19999719	0.00000000	-28.16806000	-17.03986000
50.39999718	0.00000000	-28.91240000	-20.85384000
50.59999717	0.00000000	-34.35654000	-24.33563000
50.79999715	0.00000000	-43.15329000	-26.24262000
50.99999714	0.00000000	-52.78666000	-26.24262000
51.19999713	0.00000000	-60.50689000	-24.29257000
51.39999712	0.00000000	-64.74532000	-20.43553000
51.59999711	0.00000000	-64.37008000	-15.83415000
51.79999710	0.00000000	-59.39345000	-11.60187000
51.99999708	0.00000000	-51.71013000	-8.90747900
52.19999707	0.00000000	-43.24557000	-8.48917200
52.39999706	0.00000000	-36.31274000	-10.02707000
52.59999705	0.00000000	-32.86786000	-13.13976000
52.79999704	0.00000000	-33.61220000	-17.32283000
52.99999702	0.00000000	-38.58883000	-21.17372000
53.19999701	0.00000000	-45.85384000	-23.54823000
53.39999700	0.00000000	-53.16190000	-24.71087000
53.59999699	0.00000000	-58.55069000	-24.29257000
53.79999698	0.00000000	-60.46383000	-22.01649000
53.99999696	0.00000000	-58.59990000	-18.98991000
54.19999695	0.00000000	-53.62328000	-16.25246000
54.39999694	0.00000000	-47.47785000	-14.29626000
54.59999693	0.00000000	-41.66461000	-13.18282000
54.79999692	0.00000000	-37.43233000	-13.55807000
54.99999691	0.00000000	-35.94365000	-15.45891000
55.19999689	0.00000000	-37.85064000	-17.69808000
55.39999688	0.00000000	-42.82726000	-19.59892000
55.59999687	0.00000000	-48.92347000	-19.97416000
55.79999686	0.00000000	-54.36761000	-18.90379000
55.99999685	0.00000000	-57.81250000	-17.36589000
56.19999683	0.00000000	-58.59990000	-15.83415000
56.39999682	0.00000000	-56.27460000	-14.72072000
56.59999681	0.00000000	-51.71013000	-14.76378000
56.79999680	0.00000000	-46.32135000	-16.29552000
56.99999679	0.00000000	-41.70767000	-18.94685000
57.19999677	0.00000000	-38.97022000	-21.64124000
57.39999676	0.00000000	-38.59498000	-23.54823000
57.59999675	0.00000000	-40.45890000	-24.33563000
57.79999674	0.00000000	-43.94069000	-23.50517000
57.99999673	0.00000000	-47.76698000	-21.13066000
58.19999672	0.00000000	-51.24877000	-16.89837000
58.39999670	0.00000000	-53.16190000	-11.97711000
58.59999669	0.00000000	-53.24803000	-8.48917200
58.79999668	0.00000000	-52.08538000	-6.95743000
58.99999667	0.00000000	-50.17839000	-7.79404500
59.19999666	0.00000000	-47.85310000	-11.64493000
59.39999664	0.00000000	-45.89690000	-17.40895000
59.59999663	0.00000000	-44.36515000	-23.54823000
59.79999662	0.00000000	-43.62082000	-28.56176000
59.99999661	0.00000000	-44.36515000	-30.84399000
60.19999660	0.00000000	-45.85384000	-30.09350000
60.39999658	0.00000000	-47.39173000	-26.15034000
60.59999657	0.00000000	-48.54823000	-19.64198000
60.79999656	0.00000000	-48.97269000	-11.97711000
60.99999655	0.00000000	-48.97269000	-5.84399600
61.19999654	0.00000000	-48.59744000	-2.73129900
61.39999653	0.00000000	-47.85310000	-3.10039400
61.59999651	0.00000000	-47.47785000	-7.00049200
61.79999650	0.00000000	-47.43479000	-13.55807000
61.99999649	0.00000000	-47.47785000	-21.64124000
62.19999648	0.00000000	-47.85310000	-28.89395000
62.39999647	0.00000000	-48.59744000	-33.16314000
62.59999645	0.00000000	-48.97269000	-33.58144000
62.79999644	0.00000000	-49.01575000	-30.51796000
62.99999643	0.00000000	-48.92347000	-24.71087000
63.19999642	0.00000000	-48.17913000	-17.36589000
63.39999641	0.00000000	-46.69045000	-10.07013000
63.59999639	0.00000000	-45.89690000	-4.63828700
63.79999638	0.00000000	-45.43553000	-2.35605300
63.99999637	0.00000000	-44.74040000	-3.47564000
64.19999636	0.00000000	-44.78346000	-8.11392700
64.39999635	0.00000000	-45.89690000	-14.58538000
64.59999634	0.00000000	-47.39173000	-21.17372000
64.79999632	0.00000000	-48.54823000	-26.24262000
64.99999631	0.00000000	-48.97269000	-29.39837000
65.19999630	0.00000000	-49.01575000	-30.51796000
65.39999629	0.00000000	-48.97269000	-28.98007000
65.59999628	0.00000000	-48.54823000	-25.17224000
65.79999626	0.00000000	-47.43479000	-20.52780000
65.99999625	0.00000000	-46.32135000	-15.83415000
66.19999624	0.00000000	-45.94611000	-11.60187000
66.39999623	0.00000000	-46.32135000	-8.86441900
66.59999622	0.00000000	-47.47785000	-8.02780400
66.79999620	0.00000000	-48.97269000	-8.44611200
66.99999619	0.00000000	-50.08612000	-10.40231000
67.19999618	0.00000000	-50.12918000	-13.83489000
67.39999617	0.00000000	-49.34793000	-17.27977000
67.59999616	0.00000000	-48.12992000	-20.10950000
67.79999615	0.00000000	-45.81078000	-22.47785000
67.99999613	0.00000000	-43.20251000	-24.79700000
68.19999612	0.00000000	-41.66461000	-26.28568000
68.39999611	0.00000000	-41.66461000	-26.32874000
68.59999610	0.00000000	-43.20251000	-25.12918000
68.79999609	0.00000000	-45.94611000	-22.75467000
68.99999607	0.00000000	-49.43405000	-18.85458000
69.19999606	0.00000000	-53.24803000	-14.30241000
69.39999605	0.00000000	-55.94857000	-10.40231000
69.59999604	0.00000000	-56.69291000	-8.02780400
69.79999603	0.00000000	-55.52411000	-6.86515700
69.99999601	0.00000000	-51.99926000	-7.33267600
70.19999600	0.00000000	-47.01648000	-10.07013000
70.39999599	0.00000000	-41.62155000	-14.72072000
70.59999598	0.00000000	-37.38927000	-20.43553000
70.79999597	0.00000000	-35.43307000	-25.44906000
70.99999596	0.00000000	-35.80832000	-28.14960000
71.19999594	0.00000000	-38.59498000	-28.60482000
71.39999593	0.00000000	-43.57775000	-26.66092000
71.59999592	0.00000000	-49.76009000	-23.17298000
71.79999591	0.00000000	-55.16117000	-18.52854000
71.99999590	0.00000000	-59.06127000	-13.55807000
72.19999588	0.00000000	-60.55610000	-10.07013000
72.39999587	0.00000000	-58.97515000	-8.48917200
72.59999586	0.00000000	-54.41068000	-8.86441900
72.79999585	0.00000000	-48.27140000	-11.14050000
72.99999584	0.00000000	-42.82726000	-14.21014000
73.19999582	0.00000000	-38.50270000	-17.32283000
73.39999581	0.00000000	-35.85138000	-20.01722000
73.59999580	0.00000000	-35.85138000	-21.54897000
73.79999579	0.00000000	-38.50270000	-21.59203000
73.99999578	0.00000000	-42.73499000	-20.47859000
74.19999577	0.00000000	-47.39173000	-18.98991000
74.39999575	0.00000000	-51.66707000	-17.83341000
74.59999574	0.00000000	-54.74286000	-17.40895000
74.79999573	0.00000000	-55.89936000	-17.40895000
74.99999572	0.00000000	-54.74286000	-17.78420000
75.19999571	0.00000000	-51.75935000	-18.52854000
75.39999569	0.00000000	-48.27140000	-18.85458000
75.59999568	0.00000000	-45.52165000	-18.47933000
75.79999567	0.00000000	-43.20251000	-17.27362000
75.99999566	0.00000000	-42.03986000	-15.36663000
76.19999565	0.00000000	-42.40895000	-13.09055000
76.39999563	0.00000000	-43.48548000	-11.55881000
76.59999562	0.00000000	-45.06028000	-11.22662000
76.79999561	0.00000000	-46.18602000	-12.39542000
76.99999560	0.00000000	-47.01648000	-15.50197000
77.19999559	0.00000000	-47.39173000	-19.32210000
77.39999558	0.00000000	-47.43479000	-23.21604000
77.59999556	0.00000000	-47.43479000	-26.24262000
77.79999555	0.00000000	-47.47785000	-27.39911000
77.99999554	0.00000000	-47.85310000	-26.24262000
78.19999553	0.00000000	-48.59744000	-23.12992000
78.39999552	0.00000000	-48.97269000	-18.47933000
78.59999550	0.00000000	-49.01575000	-13.13976000
78.79999549	0.00000000	-48.92347000	-8.90747900
78.99999548	0.00000000	-48.12992000	-6.95743000
79.19999547	0.00000000	-46.22908000	-7.28346400
79.39999546	0.00000000	-44.31594000	-9.65182000
79.59999544	0.00000000	-42.73499000	-13.51501000
79.79999543	0.00000000	-41.62155000	-18.52854000
79.99999542	0.00000000	-41.66461000	-23.12992000
80.19999541	0.00000000	-43.20251000	-26.24262000
80.39999540	0.00000000	-45.89690000	-27.44832000
80.59999539	0.00000000	-48.97269000	-26.66092000
80.79999537	0.00000000	-51.66707000	-24.37869000
80.99999536	0.00000000	-53.20496000	-20.85384000
81.19999535	0.00000000	-53.20496000	-17.03986000
81.39999534	0.00000000	-51.71013000	-13.51501000
81.59999533	0.00000000	-49.39099000	-11.18356000
81.79999531	0.00000000	-47.01648000	-9.98400600
81.99999530	0.00000000	-44.31594000	-9.98400600
82.19999529	0.00000000	-42.08292000	-11.14050000
82.39999528	0.00000000	-41.66461000	-13.09055000
82.59999527	0.00000000	-42.78420000	-15.78494000
82.79999525	0.00000000	-44.69119000	-18.52854000
82.99999524	0.00000000	-47.01648000	-20.90305000
83.19999523	0.00000000	-48.92347000	-23.22219000
83.39999522	0.00000000	-50.12918000	-24.71087000
83.59999521	0.00000000	-50.50443000	-24.75394000
83.79999520	0.00000000	-50.12918000	-23.59129000
83.99999518	0.00000000	-48.97269000	-21.64124000
84.19999517	0.00000000	-47.47785000	-18.85458000
84.39999516	0.00000000	-46.32135000	-15.36663000
84.59999515	0.00000000	-45.89690000	-11.55881000
84.79999514	0.00000000	-45.85384000	-8.90747900
84.99999512	0.00000000	-45.85384000	-8.48917200
85.19999511	0.00000000	-45.85384000	-9.98400600
85.39999510	0.00000000	-45.85384000	-12.72146000
85.59999509	0.00000000	-45.85384000	-16.25246000
85.79999508	0.00000000	-45.85384000	-20.52780000
85.99999506	0.00000000	-45.85384000	-24.71087000
86.19999505	0.00000000	-45.89690000	-27.35605000
86.39999504	0.00000000	-46.27214000	-27.35605000
86.59999503	0.00000000	-47.05954000	-24.71087000
86.79999502	0.00000000	-47.85310000	-20.47859000
86.99999501	0.00000000	-48.97269000	-15.83415000
87.19999499	0.00000000	-49.71087000	-11.55881000
87.39999498	0.00000000	-49.34793000	-8.53223400
87.59999497	0.00000000	-48.59744000	-7.75098400
87.79999496	0.00000000	-47.39173000	-9.65182000
87.99999495	0.00000000	-45.89690000	-13.13976000
88.19999493	0.00000000	-44.74040000	-17.78420000
88.39999492	0.00000000	-44.31594000	-22.75467000
88.59999491	0.00000000	-44.31594000	-26.19955000
88.79999490	0.00000000	-44.74040000	-27.35605000
88.99999489	0.00000000	-45.89690000	-25.82431000
89.19999487	0.00000000	-47.39173000	-21.96727000
89.39999486	0.00000000	-48.54823000	-16.99065000
89.59999485	0.00000000	-48.97269000	-11.97711000
89.79999484	0.00000000	-48.97269000	-8.53223400
89.99999483	0.00000000	-48.59744000	-7.33267600
90.19999482	0.00000000	-47.81004000	-8.53223400
90.39999480	0.00000000	-47.05954000	-11.97711000
90.59999479	0.00000000	-46.27214000	-16.99065000
90.79999478	0.00000000	-45.89690000	-21.96727000
90.99999477	0.00000000	-45.85384000	-25.82431000
91.19999476	0.00000000	-45.85384000	-27.31299000
91.39999474	0.00000000	-45.85384000	-25.77510000
91.59999473	0.00000000	-45.85384000	-21.59203000
91.79999472	0.00000000	-45.85384000	-16.25246000
91.99999471	0.00000000	-45.85384000	-11.60187000
92.19999470	0.00000000	-45.85384000	-8.48917200
92.39999468	0.00000000	-45.89690000	-7.37573800
92.59999467	0.00000000	-46.27214000	-8.95669300
92.79999466	0.00000000	-47.05954000	-13.13976000
92.99999465	0.00000000	-47.81004000	-18.47933000
93.19999464	0.00000000	-48.59744000	-23.12992000
93.39999463	0.00000000	-48.97269000	-26.19955000
93.59999461	0.00000000	-49.01575000	-26.93774000
93.79999460	0.00000000	-48.92347000	-24.66781000
93.99999459	0.00000000	-48.12992000	-20.47859000
94.19999458	0.00000000	-46.22908000	-15.87721000
94.39999457	0.00000000	-44.31594000	-12.02018000
94.59999455	0.00000000	-42.73499000	-10.07013000
94.79999454	0.00000000	-41.62155000	-10.02707000
94.99999453	0.00000000	-41.66461000	-11.65108000
95.19999452	0.00000000	-43.15945000	-15.08981000
95.39999451	0.00000000	-45.47859000	-19.59892000
95.59999449	0.00000000	-47.85310000	-22.71161000
95.79999448	0.00000000	-50.59670000	-23.92347000
95.99999447	0.00000000	-53.20496000	-23.91732000
96.19999446	0.00000000	-54.31840000	-21.96727000
96.39999445	0.00000000	-53.20496000	-18.94685000
96.59999444	0.00000000	-50.50443000	-15.83415000
96.79999442	0.00000000	-47.01648000	-13.18282000
96.99999441	0.00000000	-43.15945000	-12.02018000
97.19999440	0.00000000	-40.08366000	-12.72146000
97.39999439	0.00000000	-38.50270000	-14.25320000
97.59999438	0.00000000	-38.50270000	-16.20325000
97.79999436	0.00000000	-40.08366000	-18.47933000
97.99999435	0.00000000	-43.20251000	-20.01722000
98.19999434	0.00000000	-47.43479000	-20.48474000
98.39999433	0.00000000	-51.62401000	-20.48474000
98.59999432	0.00000000	-54.36761000	-20.06029000
98.79999430	0.00000000	-55.20423000	-18.90379000
98.99999429	0.00000000	-54.78592000	-17.40895000
99.19999428	0.00000000	-52.82972000	-16.25246000
99.39999427	0.00000000	-49.34793000	-15.82800000
99.59999426	0.00000000	-45.52165000	-15.78494000
99.79999425	0.00000000	-41.99680000	-15.74188000
99.99999423	0.00000000	-39.70842000	-15.36663000
100.19999422	0.00000000	-38.87795000	-14.62844000
100.39999421	0.00000000	-39.66535000	-14.25320000
100.59999420	0.00000000	-41.57849000	-14.25320000
100.79999419	0.00000000	-44.31594000	-14.67150000
100.99999417	0.00000000	-47.43479000	-15.87721000
101.19999416	0.00000000	-50.50443000	-17.78420000
101.39999415	0.00000000	-52.78666000	-20.06029000
101.59999414	0.00000000	-53.20496000	-21.59203000
101.79999413	0.00000000	-52.13459000	-22.01033000
101.99999411	0.00000000	-50.55364000	-21.59203000
102.19999410	0.00000000	-48.59744000	-20.01722000
102.39999409	0.00000000	-46.27214000	-17.36589000
102.59999408	0.00000000	-44.31594000	-14.67150000
102.79999407	0.00000000	-42.78420000	-12.72146000
102.99999406	0.00000000	-41.99680000	-11.55881000
103.19999404	0.00000000	-42.40895000	-11.60187000
103.39999403	0.00000000	-43.52854000	-13.13976000
103.59999402	0.00000000	-45.47859000	-15.83415000
103.79999401	0.00000000	-47.39173000	-18.89764000
103.99999400	0.00000000	-48.97269000	-21.59203000
104.19999398	0.00000000	-50.12918000	-23.12992000
104.39999397	0.00000000	-50.50443000	-23.12992000
104.59999396	0.00000000	-50.08612000	-21.59203000
104.79999395	0.00000000	-48.59744000	-18.89764000
104.99999394	0.00000000	-46.69045000	-15.83415000
105.19999392	0.00000000	-45.47859000	-13.13976000
105.39999391	0.00000000	-44.31594000	-11.60187000
105.59999390	0.00000000	-43.57775000	-11.55881000
105.79999389	0.00000000	-43.94069000	-12.72146000
105.99999388	0.00000000	-44.69119000	-14.62844000
106.19999387	0.00000000	-45.89690000	-16.99065000
106.39999385	0.00000000	-47.39173000	-19.27288000
106.59999384	0.00000000	-48.50517000	-21.17372000
106.79999383	0.00000000	-48.54823000	-21.50590000
106.99999382	0.00000000	-47.81004000	-20.06029000
107.19999381	0.00000000	-47.01648000	-17.78420000
107.39999379	0.00000000	-45.81078000	-15.83415000
107.59999378	0.00000000	-44.36515000	-14.29626000
107.79999377	0.00000000	-43.57775000	-13.51501000
107.99999376	0.00000000	-43.94069000	-13.87795000
108.19999375	0.00000000	-44.69119000	-14.67150000
108.39999374	0.00000000	-45.89690000	-16.25246000
108.59999372	0.00000000	-47.39173000	-18.47933000
108.79999371	0.00000000	-48.54823000	-20.01722000
108.99999370	0.00000000	-48.92347000	-20.43553000
109.19999369	0.00000000	-48.59744000	-20.06029000
109.39999368	0.00000000	-47.81004000	-18.90379000
109.59999366	0.00000000	-47.01648000	-17.36589000
109.79999365	0.00000000	-45.85384000	-15.83415000
109.99999364	0.00000000	-44.74040000	-14.67150000
110.19999363	0.00000000	-44.36515000	-14.30241000
110.39999362	0.00000000	-44.69119000	-14.67150000
110.59999360	0.00000000	-45.47859000	-15.83415000
110.79999359	0.00000000	-46.22908000	-17.36589000
110.99999358	0.00000000	-47.01648000	-18.90379000
111.19999357	0.00000000	-47.43479000	-20.06029000
111.39999356	0.00000000	-47.81004000	-20.48474000
111.59999355	0.00000000	-48.17913000	-20.48474000
111.79999353	0.00000000	-47.81004000	-20.06029000
111.99999352	0.00000000	-47.43479000	-18.90379000
112.19999351	0.00000000	-47.01648000	-17.40895000
112.39999350	0.00000000	-46.27214000	-16.25246000
112.59999349	0.00000000	-45.89690000	-15.82800000
112.79999347	0.00000000	-45.85384000	-15.78494000
112.99999346	0.00000000	-45.85384000	-15.78494000
113.19999345	0.00000000	-45.85384000	-15.82800000
113.39999344	0.00000000	-45.89690000	-16.20325000
113.59999343	0.00000000	-46.22908000	-16.94759000
113.79999341	0.00000000	-46.64124000	-17.32283000
113.99999340	0.00000000	-46.64739000	-17.40895000
114.19999339	0.00000000	-47.05954000	-17.78420000
114.39999338	0.00000000	-47.39173000	-18.52854000
114.59999337	0.00000000	-47.43479000	-18.90379000
114.79999336	0.00000000	-47.39173000	-18.94685000
114.99999334	0.00000000	-47.01648000	-18.94685000
115.19999333	0.00000000	-46.27214000	-18.94685000
115.39999332	0.00000000	-45.89690000	-18.90379000
115.59999331	0.00000000	-45.85384000	-18.47933000
115.79999330	0.00000000	-45.85384000	-17.36589000
115.99999328	0.00000000	-45.85384000	-16.20325000
116.19999327	0.00000000	-45.85384000	-15.40969000
116.39999326	0.00000000	-45.89690000	-14.62844000
116.59999325	0.00000000	-46.27214000	-14.30241000
116.79999324	0.00000000	-47.01648000	-14.67150000
116.99999322	0.00000000	-47.34252000	-15.78494000
117.19999321	0.00000000	-47.01648000	-16.94759000
117.39999320	0.00000000	-46.22908000	-17.74114000
117.59999319	0.00000000	-45.47859000	-18.57160000
117.79999318	0.00000000	-44.69119000	-19.27903000
117.99999317	0.00000000	-44.31594000	-19.69119000
118.19999315	0.00000000	-44.31594000	-19.27903000
118.39999314	0.00000000	-44.69119000	-18.57160000
118.59999313	0.00000000	-45.47859000	-17.74114000
118.79999312	0.00000000	-46.22908000	-16.94759000
118.99999311	0.00000000	-47.05954000	-15.78494000
119.19999309	0.00000000	-47.81004000	-14.67150000
119.39999308	0.00000000	-48.54823000	-14.30241000
119.59999307	0.00000000	-48.54823000	-14.62844000
119.79999306	0.00000000	-47.81004000	-15.36663000
119.99999305	0.00000000	-47.01648000	-15.78494000
120.19999303	0.00000000	-45.81078000	-16.20325000
120.39999302	0.00000000	-44.31594000	-16.99065000
120.59999301	0.00000000	-43.15945000	-17.74114000
120.79999300	0.00000000	-42.78420000	-18.47933000
120.99999299	0.00000000	-43.15945000	-18.47933000
121.19999298	0.00000000	-44.31594000	-17.78420000
121.39999296	0.00000000	-45.81078000	-17.40895000
121.59999295	0.00000000	-47.01648000	-17.36589000
121.79999294	0.00000000	-47.81004000	-17.36589000
121.99999293	0.00000000	-48.59744000	-17.32283000
122.19999292	0.00000000	-48.92347000	-16.94759000
122.39999290	0.00000000	-48.59744000	-16.20325000
122.59999289	0.00000000	-47.81004000	-15.82800000
122.79999288	0.00000000	-47.01648000	-15.78494000
122.99999287	0.00000000	-45.81078000	-15.82800000
123.19999286	0.00000000	-44.36515000	-16.20325000
123.39999284	0.00000000	-43.57775000	-16.94759000
123.59999283	0.00000000	-43.89763000	-17.32283000
123.79999282	0.00000000	-44.27288000	-17.40895000
123.99999281	0.00000000	-44.69119000	-17.78420000
124.19999280	0.00000000	-45.47859000	-18.52854000
124.39999279	0.00000000	-46.22908000	-18.85458000
124.59999277	0.00000000	-47.01648000	-18.52854000
124.79999276	0.00000000	-47.43479000	-17.78420000
124.99999275	0.00000000	-47.85310000	-17.40895000
125.19999274	0.00000000	-48.54823000	-17.32283000
125.39999273	0.00000000	-48.54823000	-16.94759000
125.59999271	0.00000000	-47.81004000	-16.20325000
125.79999270	0.00000000	-47.01648000	-15.82800000
125.99999269	0.00000000	-45.85384000	-15.78494000
126.19999268	0.00000000	-44.69119000	-15.78494000
126.39999267	0.00000000	-43.94069000	-15.82800000
126.59999265	0.00000000	-43.52854000	-16.20325000
126.79999264	0.00000000	-43.94069000	-16.94759000
126.99999263	0.00000000	-44.69119000	-17.36589000
127.19999262	0.00000000	-45.85384000	-17.78420000
127.39999261	0.00000000	-47.01648000	-18.47933000
127.59999260	0.00000000	-47.81004000	-18.47933000
127.79999258	0.00000000	-48.59744000	-17.78420000
127.99999257	0.00000000	-48.92347000	-17.40895000
128.19999256	0.00000000	-48.54823000	-17.32283000
128.39999255	0.00000000	-47.39173000	-16.94759000
128.59999254	0.00000000	-45.89690000	-16.20325000
128.79999252	0.00000000	-44.74040000	-15.82800000
128.99999251	0.00000000	-44.31594000	-15.82800000
129.19999250	0.00000000	-44.27288000	-16.20325000
129.39999249	0.00000000	-44.31594000	-16.94759000
129.59999248	0.00000000	-44.74040000	-17.32283000
129.79999246	0.00000000	-45.85384000	-17.36589000
129.99999245	0.00000000	-46.96727000	-17.36589000
130.19999244	0.00000000	-47.39173000	-17.36589000
130.39999243	0.00000000	-47.43479000	-17.36589000
130.59999242	0.00000000	-47.39173000	-17.32283000
130.79999241	0.00000000	-47.01648000	-16.94759000
130.99999239	0.00000000	-46.22908000	-16.20325000
131.19999238	0.00000000	-45.47859000	-15.87721000
131.39999237	0.00000000	-44.69119000	-16.20325000
131.59999236	0.00000000	-44.31594000	-16.94759000
131.79999235	0.00000000	-44.31594000	-17.32283000
131.99999233	0.00000000	-44.69119000	-17.36589000
132.19999232	0.00000000	-45.47859000	-17.40895000
132.39999231	0.00000000	-46.22908000	-17.74114000
132.59999230	0.00000000	-46.96727000	-18.11024000
132.79999229	0.00000000	-46.96727000	-17.69808000
132.99999227	0.00000000	-46.27214000	-16.99065000
133.19999226	0.00000000	-45.89690000	-16.20325000
133.39999225	0.00000000	-45.85384000	-15.82800000
133.59999224	0.00000000	-45.85384000	-15.78494000
133.79999223	0.00000000	-45.85384000	-15.78494000
133.99999222	0.00000000	-45.85384000	-15.82800000
134.19999220	0.00000000	-45.85384000	-16.20325000
134.39999219	0.00000000	-45.85384000	-16.99065000
134.59999218	0.00000000	-45.85384000	-17.74114000
134.79999217	0.00000000	-45.85384000	-18.52854000
134.99999216	0.00000000	-45.81078000	-18.90379000
135.19999214	0.00000000	-45.43553000	-18.90379000
135.39999213	0.00000000	-44.74040000	-18.52854000
135.59999212	0.00000000	-44.74040000	-17.74114000
135.79999211	0.00000000	-45.43553000	-16.99065000
135.99999210	0.00000000	-45.85384000	-16.20325000
136.19999208	0.00000000	-46.27214000	-15.82800000
136.39999207	0.00000000	-47.01648000	-15.78494000
136.59999206	0.00000000	-47.39173000	-15.78494000
136.79999205	0.00000000	-47.39173000	-15.78494000
136.99999204	0.00000000	-47.01648000	-15.82800000
137.19999203	0.00000000	-46.22908000	-16.20325000
137.39999201	0.00000000	-45.47859000	-16.94759000
137.59999200	0.00000000	-44.69119000	-17.36589000
137.79999199	0.00000000	-44.31594000	-17.78420000
137.99999198	0.00000000	-44.31594000	-18.52854000
138.19999197	0.00000000	-44.69119000	-18.85458000
138.39999195	0.00000000	-45.47859000	-18.52854000
138.59999194	0.00000000	-46.22908000	-17.78420000
138.79999193	0.00000000	-47.01648000	-17.36589000
138.99999192	0.00000000	-47.39173000	-16.94759000
139.19999191	0.00000000	-47.43479000	-16.20325000
139.39999189	0.00000000	-47.39173000	-15.82800000
139.59999188	0.00000000	-47.01648000	-15.78494000
139.79999187	0.00000000	-46.22908000	-15.78494000
139.99999186	0.00000000	-45.47859000	-15.82800000
140.19999185	0.00000000	-44.69119000	-16.20325000
140.39999184	0.00000000	-44.36515000	-16.99065000
140.59999182	0.00000000	-44.69119000	-17.74114000
140.79999181	0.00000000	-45.43553000	-18.52854000
140.99999180	0.00000000	-45.81078000	-18.85458000
141.19999179	0.00000000	-45.85384000	-18.52854000
141.39999178	0.00000000	-45.85384000	-17.78420000
141.59999176	0.00000000	-45.85384000	-17.36589000
141.79999175	0.00000000	-45.85384000	-16.89837000
141.99999174	0.00000000	-45.85384000	-15.83415000
142.19999173	0.00000000	-45.85384000	-15.04675000
142.39999172	0.00000000	-45.81078000	-15.04060000
142.59999170	0.00000000	-45.47859000	-15.04675000
142.79999169	0.00000000	-45.10950000	-15.83415000
142.99999168	0.00000000	-45.47859000	-16.89837000
143.19999167	0.00000000	-45.81078000	-17.36589000
143.39999166	0.00000000	-45.85384000	-17.78420000
143.59999165	0.00000000	-45.85384000	-18.52854000
143.79999163	0.00000000	-45.85384000	-18.90379000
143.99999162	0.00000000	-45.85384000	-18.90379000
144.19999161	0.00000000	-45.81078000	-18.47933000
144.39999160	0.00000000	-45.43553000	-17.36589000
144.59999159	0.00000000	-44.69119000	-16.20325000
144.79999157	0.00000000	-44.31594000	-15.40969000
144.99999156	0.00000000	-44.31594000	-14.67150000
145.19999155	0.00000000	-44.69119000	-14.67150000
145.39999154	0.00000000	-45.43553000	-15.36663000
145.59999153	0.00000000	-45.81078000	-15.78494000
145.79999151	0.00000000	-45.85384000	-16.20325000
145.99999150	0.00000000	-45.85384000	-16.99065000
146.19999149	0.00000000	-45.85384000	-17.74114000
146.39999148	0.00000000	-45.85384000	-18.52854000
146.59999147	0.00000000	-45.85384000	-18.90379000
146.79999146	0.00000000	-45.81078000	-18.90379000
146.99999144	0.00000000	-45.47859000	-18.52854000
147.19999143	0.00000000	-45.10950000	-17.74114000
147.39999142	0.00000000	-45.47859000	-16.99065000
147.59999141	0.00000000	-45.81078000	-16.20325000
147.79999140	0.00000000	-45.85384000	-15.82800000
147.99999138	0.00000000	-45.85384000	-15.78494000
148.19999137	0.00000000	-45.85384000	-15.82800000
148.39999136	0.00000000	-45.85384000	-16.20325000
148.59999135	0.00000000	-45.85384000	-16.94759000
148.79999134	0.00000000	-45.85384000	-17.32283000
148.99999132	0.00000000	-45.85384000	-17.36589000
149.19999131	0.00000000	-45.85384000	-17.36589000
149.39999130	0.00000000	-45.81078000	-17.36589000
149.59999129	0.00000000	-45.43553000	-17.36589000
149.79999128	0.00000000	-44.69119000	-17.32283000
149.99999127	0.00000000	-44.31594000	-16.94759000
150.19999125	0.00000000	-44.31594000	-16.20325000
150.39999124	0.00000000	-44.69119000	-15.82800000
150.59999123	0.00000000	-45.43553000	-15.78494000
150.79999122	0.00000000	-45.81078000	-15.78494000
150.99999121	0.00000000	-45.85384000	-15.78494000
151.19999119	0.00000000	-45.85384000	-15.78494000
151.39999118	0.00000000	-45.85384000	-15.82800000
151.59999117	0.00000000	-45.85384000	-16.20325000
151.79999116	0.00000000	-45.85384000	-16.89837000
151.99999115	0.00000000	-45.81078000	-16.94759000
152.19999113	0.00000000	-45.43553000	-16.62155000
152.39999112	0.00000000	-44.69119000	-16.94759000
152.59999111	0.00000000	-44.31594000	-16.89837000
152.79999110	0.00000000	-44.27288000	-16.20325000
152.99999109	0.00000000	-44.27288000	-15.82800000
153.19999108	0.00000000	-44.31594000	-15.78494000
153.39999106	0.00000000	-44.69119000	-15.78494000
153.59999105	0.00000000	-45.43553000	-15.78494000
153.79999104	0.00000000	-45.85384000	-15.78494000
153.99999103	0.00000000	-46.22908000	-15.78494000
154.19999102	0.00000000	-46.59818000	-15.82800000
154.39999100	0.00000000	-46.22908000	-16.20325000
154.59999099	0.00000000	-45.89690000	-16.94759000
154.79999098	0.00000000	-45.85384000	-17.32283000
154.99999097	0.00000000	-45.81078000	-17.36589000
155.19999096	0.00000000	-45.43553000	-17.36589000
155.39999094	0.00000000	-44.69119000	-17.36589000
155.59999093	0.00000000	-44.31594000	-17.36589000
155.79999092	0.00000000	-44.27288000	-17.36589000
155.99999091	0.00000000	-44.31594000	-17.36589000
156.19999090	0.00000000	-44.69119000	-17.36589000
156.39999089	0.00000000	-45.43553000	-17.32283000
156.59999087	0.00000000	-45.81078000	-16.94759000
156.79999086	0.00000000	-45.85384000	-16.20325000
156.99999085	0.00000000	-45.89690000	-15.87721000
157.19999084	0.00000000	-46.22908000	-16.16018000
157.39999083	0.00000000	-46.59818000	-16.57234000
157.59999081	0.00000000	-46.22908000	-16.57849000
157.79999080	0.00000000	-45.89690000	-16.99065000
157.99999079	0.00000000	-45.81078000	-17.32283000
158.19999078	0.00000000	-45.43553000	-17.36589000
158.39999077	0.00000000	-44.69119000	-17.36589000
158.59999075	0.00000000	-44.31594000	-17.36589000
158.79999074	0.00000000	-44.27288000	-17.36589000
158.99999073	0.00000000	-44.31594000	-17.32283000
159.19999072	0.00000000	-44.69119000	-16.94759000
159.39999071	0.00000000	-45.43553000	-16.20325000
159.59999070	0.00000000	-45.81078000	-15.82800000
159.79999068	0.00000000	-45.85384000	-15.78494000
159.99999067	0.00000000	-45.85384000	-15.78494000
160.19999066	0.00000000	-45.85384000	-15.78494000
160.39999065	0.00000000	-45.85384000	-15.82800000
160.59999064	0.00000000	-45.85384000	-16.20325000
160.79999062	0.00000000	-45.85384000	-16.94759000
160.99999061	0.00000000	-45.85384000	-17.32283000
161.19999060	0.00000000	-45.85384000	-17.36589000
161.39999059	0.00000000	-45.81078000	-17.36589000
161.59999058	0.00000000	-45.43553000	-17.36589000
161.79999056	0.00000000	-44.69119000	-17.36589000
161.99999055	0.00000000	-44.31594000	-17.32283000
162.19999054	0.00000000	-44.27288000	-16.94759000
162.39999053	0.00000000	-44.31594000	-16.20325000
162.59999052	0.00000000	-44.69119000	-15.82800000
162.79999051	0.00000000	-45.43553000	-15.78494000
162.99999049	0.00000000	-45.81078000	-15.78494000
163.19999048	0.00000000	-45.85384000	-15.78494000
163.39999047	0.00000000	-45.85384000	-15.78494000
163.59999046	0.00000000	-45.85384000	-15.78494000
163.79999045	0.00000000	-45.85384000	-15.82800000
163.99999043	0.00000000	-45.85384000	-16.16018000
164.19999042	0.00000000	-45.81078000	-16.57234000
164.39999041	0.00000000	-45.43553000	-16.53543000
164.59999040	0.00000000	-44.69119000	-16.61540000
164.79999039	0.00000000	-44.31594000	-16.57849000
164.99999037	0.00000000	-44.27288000	-16.94759000
165.19999036	0.00000000	-44.27288000	-16.94759000
165.39999035	0.00000000	-44.27288000	-16.57849000
165.59999034	0.00000000	-44.31594000	-16.57234000
165.79999033	0.00000000	-44.69119000	-16.16018000
165.99999032	0.00000000	-45.43553000	-15.87721000
166.19999030	0.00000000	-45.81078000	-16.16018000
166.39999029	0.00000000	-45.85384000	-16.57234000
166.59999028	0.00000000	-45.85384000	-16.53543000
166.79999027	0.00000000	-45.85384000	-16.61540000
166.99999026	0.00000000	-45.81078000	-16.53543000
167.19999024	0.00000000	-45.47859000	-16.61540000
167.39999023	0.00000000	-45.06644000	-16.57849000
167.59999022	0.00000000	-45.06028000	-16.99065000
167.79999021	0.00000000	-44.64813000	-17.32283000
167.99999020	0.00000000	-44.31594000	-17.36589000
168.19999018	0.00000000	-44.27288000	-17.36589000
168.39999017	0.00000000	-44.31594000	-17.36589000
168.59999016	0.00000000	-44.69119000	-17.36589000
168.79999015	0.00000000	-45.43553000	-17.36589000
168.99999014	0.00000000	-45.81078000	-17.36589000
169.19999013	0.00000000	-45.81078000	-17.36589000
169.39999011	0.00000000	-45.47859000	-17.36589000
169.59999010	0.00000000	-45.10950000	-17.36589000
169.79999009	0.00000000	-45.47859000	-17.36589000
169.99999008	0.00000000	-45.76156000	-17.32283000
170.19999007	0.00000000	-45.47859000	-16.99065000
170.39999005	0.00000000	-45.06644000	-16.62155000
170.59999004	0.00000000	-45.10334000	-16.99065000
170.79999003	0.00000000	-45.06644000	-17.32283000
170.99999002	0.00000000	-45.47859000	-17.36589000
171.19999001	0.00000000	-45.81078000	-17.36589000
171.39998999	0.00000000	-45.81078000	-17.36589000
171.59998998	0.00000000	-45.43553000	-17.36589000
171.79998997	0.00000000	-44.69119000	-17.36589000
171.99998996	0.00000000	-44.36515000	-17.36589000
172.19998995	0.00000000	-44.69119000	-17.32283000
172.39998994	0.00000000	-45.38631000	-16.99065000
172.59998992	0.00000000	-45.43553000	-16.57849000
172.79998991	0.00000000	-45.10950000	-16.61540000
172.99998990	0.00000000	-45.47859000	-16.57849000
173.19998989	0.00000000	-45.81078000	-16.94759000
173.39998988	0.00000000	-45.85384000	-16.94759000
173.59998986	0.00000000	-45.81078000	-16.62155000
173.79998985	0.00000000	-45.43553000	-16.99065000
173.99998984	0.00000000	-44.69119000	-17.32283000
174.19998983	0.00000000	-44.31594000	-17.32283000
174.39998982	0.00000000	-44.27288000	-16.99065000
174.59998980	0.00000000	-44.31594000	-16.57849000
174.79998979	0.00000000	-44.69119000	-16.57234000
174.99998978	0.00000000	-45.43553000	-16.20325000
175.19998977	0.00000000	-45.81078000	-16.20325000
175.39998976	0.00000000	-45.85384000	-16.52928000
175.59998975	0.00000000	-45.81078000	-16.20325000
175.79998973	0.00000000	-45.43553000	-16.20325000
175.99998972	0.00000000	-44.69119000	-16.52928000
176.19998971	0.00000000	-44.36515000	-16.16018000
176.39998970	0.00000000	-44.64813000	-15.82800000
176.59998969	0.00000000	-45.01722000	-15.78494000
176.79998967	0.00000000	-44.69119000	-15.78494000
176.99998966	0.00000000	-44.74040000	-15.82800000
177.19998965	0.00000000	-45.43553000	-16.16018000
177.39998964	0.00000000	-45.81078000	-16.57234000
177.59998963	0.00000000	-45.85384000	-16.53543000
177.79998961	0.00000000	-45.81078000	-16.61540000
177.99998960	0.00000000	-45.43553000	-16.53543000
178.19998959	0.00000000	-44.74040000	-16.57234000
178.39998958	0.00000000	-44.74040000	-16.16018000
178.59998957	0.00000000	-45.43553000	-15.82800000
178.79998956	0.00000000	-45.76156000	-15.78494000
178.99998954	0.00000000	-45.43553000	-15.82800000
179.19998953	0.00000000	-44.69119000	-16.16018000
179.39998952	0.00000000	-44.31594000	-16.57234000
179.59998951	0.00000000	-44.27288000	-16.53543000
179.79998950	0.00000000	-44.27288000	-16.57234000
179.99998948	0.00000000	-44.27288000	-16.16018000
180.19998947	0.00000000	-44.27288000	-15.87721000
180.39998946	0.00000000	-44.31594000	-16.20325000
180.59998945	0.00000000	-44.69119000	-16.94759000
180.79998944	0.00000000	-45.43553000	-17.32283000
180.99998942	0.00000000	-45.81078000	-17.36589000
181.19998941	0.00000000	-45.85384000	-17.32283000
181.39998940	0.00000000	-45.81078000	-16.94759000
181.59998939	0.00000000	-45.43553000	-16.20325000
181.79998938	0.00000000	-44.69119000	-15.82800000
181.99998937	0.00000000	-44.31594000	-15.78494000
182.19998935	0.00000000	-44.27288000	-15.78494000
182.39998934	0.00000000	-44.27288000	-15.82800000
182.59998933	0.00000000	-44.27288000	-16.16018000
182.79998932	0.00000000	-44.27288000	-16.57234000
182.99998931	0.00000000	-44.31594000	-16.57849000
183.19998929	0.00000000	-44.64813000	-16.99065000
183.39998928	0.00000000	-45.01722000	-17.32283000
183.59998927	0.00000000	-44.69119000	-17.32283000
183.79998926	0.00000000	-44.69119000	-16.94759000
183.99998925	0.00000000	-45.06028000	-16.20325000
184.19998923	0.00000000	-45.02337000	-15.82800000
184.39998922	0.00000000	-45.10334000	-15.78494000
184.59998921	0.00000000	-45.02337000	-15.78494000
184.79998920	0.00000000	-45.06028000	-15.78494000
184.99998919	0.00000000	-44.64813000	-15.78494000
185.19998918	0.00000000	-44.31594000	-15.82800000
185.39998916	0.00000000	-44.27288000	-16.20325000
185.59998915	0.00000000	-44.27288000	-16.94759000
185.79998914	0.00000000	-44.27288000	-17.32283000
185.99998913	0.00000000	-44.27288000	-17.36589000
186.19998912	0.00000000	-44.27288000	-17.36589000
186.39998910	0.00000000	-44.27288000	-17.36589000
186.59998909	0.00000000	-44.27288000	-17.36589000
186.79998908	0.00000000	-44.31594000	-17.32283000
186.99998907	0.00000000	-44.69119000	-16.94759000
187.19998906	0.00000000	-45.38631000	-16.20325000
187.39998904	0.00000000	-45.43553000	-15.82800000
187.59998903	0.00000000	-45.10950000	-15.78494000
187.79998902	0.00000000	-45.43553000	-15.78494000
187.99998901	0.00000000	-45.38631000	-15.78494000
188.19998900	0.00000000	-44.69119000	-15.82800000
188.39998899	0.00000000	-44.31594000	-16.20325000
188.59998897	0.00000000	-44.27288000	-16.94759000
188.79998896	0.00000000	-44.27288000	-17.32283000
188.99998895	0.00000000	-44.27288000	-17.36589000
189.19998894	0.00000000	-44.27288000	-17.36589000
189.39998893	0.00000000	-44.27288000	-17.36589000
189.59998891	0.00000000	-44.27288000	-17.32283000
189.79998890	0.00000000	-44.31594000	-16.94759000
189.99998889	0.00000000	-44.69119000	-16.20325000
190.19998888	0.00000000	-45.38631000	-15.82800000
190.39998887	0.00000000	-45.38631000	-15.78494000
190.59998885	0.00000000	-44.69119000	-15.78494000
190.79998884	0.00000000	-44.31594000	-15.78494000
190.99998883	0.00000000	-44.27288000	-15.78494000
191.19998882	0.00000000	-44.27288000	-15.78494000
191.39998881	0.00000000	-44.27288000	-15.82800000
191.59998880	0.00000000	-44.27288000	-16.16018000
191.79998878	0.00000000	-44.27288000	-16.57234000
191.99998877	0.00000000	-44.27288000	-16.57849000
192.19998876	0.00000000	-44.27288000	-16.99065000
192.39998875	0.00000000	-44.27288000	-17.32283000
192.59998874	0.00000000	-44.27288000	-17.36589000
192.79998872	0.00000000	-44.31594000	-17.32283000
192.99998871	0.00000000	-44.64813000	-16.94759000
193.19998870	0.00000000	-45.01722000	-16.20325000
193.39998869	0.00000000	-44.69119000	-15.82800000
193.59998868	0.00000000	-44.69119000	-15.78494000
193.79998866	0.00000000	-45.01722000	-15.78494000
193.99998865	0.00000000	-44.64813000	-15.78494000
194.19998864	0.00000000	-44.31594000	-15.78494000
194.39998863	0.00000000	-44.22982000	-15.78494000
194.59998862	0.00000000	-43.89763000	-15.78494000
194.79998861	0.00000000	-43.52854000	-15.78494000
194.99998859	0.00000000	-43.89763000	-15.82800000
195.19998858	0.00000000	-44.22982000	-16.20325000
195.39998857	0.00000000	-44.31594000	-16.94759000
195.59998856	0.00000000	-44.64813000	-17.27362000
195.79998855	0.00000000	-45.01722000	-16.94759000
195.99998853	0.00000000	-44.64813000	-16.20325000
