Time	Channel A	Channel B	Channel C
(us)	(V)	(mV)	(mV)

-4.59999956	0.00000000	36.36811000	6.31151500
-4.39999957	0.00000000	36.36811000	6.31151500
-4.19999958	0.00000000	36.36811000	6.31151500
-3.99999959	0.00000000	36.36811000	6.31151500
-3.79999960	0.00000000	36.36811000	6.31151500
-3.59999962	0.00000000	36.36811000	6.31151500
-3.39999963	0.00000000	36.36811000	6.31151500
-3.19999964	0.00000000	36.36811000	6.31151500
-2.99999965	0.00000000	36.36811000	6.31151500
-2.79999966	0.00000000	36.36811000	6.31151500
-2.59999968	0.00000000	36.36811000	6.31151500
-2.39999969	0.00000000	36.36811000	6.31151500
-2.19999970	0.00000000	36.36811000	6.31151500
-1.99999971	0.00000000	36.36811000	6.26845500
-1.79999972	0.00000000	36.36811000	5.93626900
-1.59999973	0.00000000	36.36811000	5.57332700
-1.39999975	0.00000000	36.36811000	5.93626900
-1.19999976	0.00000000	36.36811000	6.26845500
-0.99999977	0.00000000	36.36811000	6.31151500
-0.79999978	0.00000000	36.36811000	6.31151500
-0.59999979	0.00000000	36.36811000	6.26845500
-0.39999981	0.15871060	36.36811000	5.89320800
-0.19999982	0.47736220	36.36811000	5.19808000
0.00000017	0.79601380	36.36811000	5.19808000
0.20000016	0.95533960	36.36811000	5.89320800
0.40000015	0.95533960	36.36811000	6.21924200
0.60000013	0.63668800	36.36811000	5.93626900
0.80000012	-0.15871060	36.36811000	5.57332700
1.00000011	-1.11466500	36.36811000	5.89320800
1.20000010	-2.07062000	36.36811000	5.89320800
1.40000009	-2.70792300	36.36811000	5.57332700
1.60000008	-2.70792300	36.36811000	5.93626900
1.80000006	-1.91129400	36.36811000	6.26845500
2.00000005	-0.15871060	36.36811000	6.31151500
2.20000004	1.91129400	36.36811000	6.31151500
2.40000003	3.82258900	36.36811000	6.26845500
2.60000002	5.09719500	36.36811000	5.89320800
2.80000000	5.25652100	36.36811000	5.15501900
2.99999999	3.82258900	36.36811000	4.77977300
3.19999998	1.11466500	36.36811000	4.73671200
3.39999997	-2.22994600	36.36811000	4.73671200
3.59999996	-5.41584600	36.36811000	4.77977300
3.79999994	-7.48646600	36.36811000	5.15501900
3.99999993	-7.80511800	36.36811000	5.89320800
4.19999992	-6.21247500	36.36811000	6.26845500
4.39999991	-2.70792300	36.36811000	6.31151500
4.59999990	1.59264300	36.36811000	6.31151500
4.79999989	5.89382400	36.36811000	6.31151500
4.99999987	8.76107300	36.36811000	6.26845500
5.19999986	9.55770200	36.36811000	5.89320800
5.39999985	7.80511800	36.36811000	5.15501900
5.59999984	4.30056600	36.36811000	4.77977300
5.79999983	-0.47736220	36.36811000	4.77977300
5.99999981	-5.09719500	36.36811000	5.15501900
6.19999980	-8.44242100	36.36811000	5.89320800
6.39999979	-9.39837600	36.36811000	6.26845500
6.59999978	-8.28309500	36.36811000	6.31151500
6.79999977	-4.93786900	36.36811000	6.31151500
6.99999975	-0.63668800	36.32505000	6.31151500
7.19999974	3.50393700	35.99286000	6.31151500
7.39999973	6.53112700	35.62377000	6.26845500
7.59999972	7.80511800	35.99286000	5.89320800
7.79999971	7.00848900	36.32505000	5.15501900
7.99999970	4.61921700	36.36811000	4.82898600
8.19999968	1.43331700	36.36811000	5.15501900
8.39999967	-1.75196900	36.36811000	5.89320800
8.59999966	-4.14124000	36.36811000	6.26845500
8.79999965	-5.09719500	36.36811000	6.31151500
8.99999964	-4.77854300	36.36811000	6.31151500
9.19999962	-3.34522600	36.36811000	6.31151500
9.39999961	-1.43331700	36.36811000	6.31151500
9.59999960	0.47736220	36.36811000	6.31151500
9.79999959	1.75196900	36.36811000	6.26845500
9.99999958	2.54859700	36.36811000	5.93626900
10.19999956	2.38927200	36.36811000	5.57332700
10.39999955	1.75196900	36.36811000	5.93626900
10.59999954	0.95533960	36.36811000	6.26845500
10.79999953	0.00000000	36.36811000	6.31151500
10.99999952	-0.63668800	36.36811000	6.31151500
11.19999951	-0.95533960	36.36811000	6.31151500
11.39999949	-0.95533960	36.36811000	6.31151500
11.59999948	-0.79601380	36.36811000	6.26845500
11.79999947	-0.63668800	36.36811000	5.93626900
11.99999946	-0.15871060	36.36811000	5.57332700
12.19999945	-0.15871060	36.36811000	5.93626900
12.39999943	-0.15871060	36.36811000	6.26845500
12.59999942	0.00000000	36.36811000	6.31151500
12.79999941	0.00000000	36.36811000	6.31151500
12.99999940	0.00000000	36.36811000	6.31151500
13.19999939	0.00000000	36.36811000	6.31151500
13.39999937	0.00000000	36.36811000	6.31151500
13.59999936	0.00000000	36.36811000	6.31151500
13.79999935	0.00000000	36.36811000	6.26845500
13.99999934	0.00000000	36.36811000	5.89320800
14.19999933	-0.15871060	36.36811000	5.19808000
14.39999932	-0.15871060	36.36811000	5.19808000
14.59999930	-0.15871060	36.36811000	5.89320800
14.79999929	0.00000000	36.36811000	6.26845500
14.99999928	0.00000000	36.36811000	6.31151500
15.19999927	0.00000000	36.36811000	6.31151500
15.39999926	0.00000000	36.32505000	6.31151500
15.59999924	0.00000000	35.99286000	6.26845500
15.79999923	0.00000000	35.62377000	5.89320800
15.99999922	0.00000000	35.99286000	5.19808000
16.19999921	0.00000000	36.32505000	5.19808000
16.39999920	0.00000000	36.36811000	5.89320800
16.59999919	-0.15871060	36.36811000	6.26845500
16.79999917	0.00000000	36.41117000	6.31151500
16.99999916	0.00000000	36.78642000	6.26845500
17.19999915	0.00000000	37.53075000	5.93626900
17.39999914	0.00000000	37.90600000	5.57332700
17.59999913	0.00000000	37.90600000	5.93626900
17.79999911	0.00000000	37.53075000	6.21924200
17.99999910	0.00000000	36.74335000	5.93626900
18.19999909	0.00000000	35.94980000	5.57332700
18.39999908	0.00000000	34.73794000	5.93626900
18.59999907	0.00000000	33.20005000	6.21924200
18.79999905	0.00000000	31.71137000	5.93626900
18.99999904	0.00000000	30.96703000	5.57332700
19.19999903	0.00000000	31.75443000	5.93626900
19.39999902	0.00000000	33.71063000	6.26845500
19.59999901	0.00000000	36.82948000	6.31151500
19.79999900	0.00000000	40.69267000	6.31151500
19.99999898	0.00000000	44.18061000	6.31151500
20.19999897	0.00000000	46.83809000	6.26845500
20.39999896	0.00000000	47.53321000	5.89320800
20.59999895	0.00000000	45.16486000	5.19808000
20.79999894	0.00000000	40.13287000	5.19808000
20.99999892	0.00000000	33.11393000	5.89320800
21.19999891	0.00000000	25.43061000	6.21924200
21.39999890	0.00000000	18.87303000	5.89320800
21.59999889	0.00000000	15.47121000	5.19808000
21.79999888	0.00000000	16.31397000	5.15501900
21.99999886	0.00000000	22.17027000	5.47490100
22.19999885	0.00000000	32.26501000	5.11195900
22.39999884	0.00000000	44.64813000	4.77977300
22.59999883	0.00000000	56.92667000	4.77977300
22.79999882	0.00000000	65.35433000	5.15501900
22.99999881	0.00000000	67.26746000	5.89320800
23.19999879	0.00000000	62.18627000	6.26845500
23.39999878	0.00000000	50.51673000	6.35457700
23.59999877	0.00000000	34.23351000	6.72982200
23.79999876	0.00000000	16.49852000	7.47416300
23.99999875	0.00000000	1.51943900	7.80019600
24.19999873	0.00000000	-6.11466500	7.47416300
24.39999872	0.00000000	-4.20152500	6.64370100
24.59999871	0.00000000	7.09891700	5.47490100
24.79999870	0.00000000	25.66437000	3.53100400
24.99999869	0.00000000	48.08686000	1.66707700
25.19999867	0.00000000	68.84842000	0.46136810
25.39999866	0.00000000	82.75098000	0.09227362
25.59999865	0.00000000	86.20201000	0.55364170
25.79999864	0.00000000	78.42642000	2.50369100
25.99999863	0.00000000	60.60531000	5.98548200
26.19999862	0.00000000	36.31890000	9.84867000
26.39999860	0.00000000	11.66339000	13.74262000
26.59999859	0.00000000	-7.32037400	16.76919000
26.79999858	0.00000000	-16.57849000	17.83957000
26.99999857	0.00000000	-14.29626000	15.88336000
27.19999856	0.00000000	-0.76279520	10.86983000
27.39999854	0.00000000	20.46014000	4.26919300
27.59999853	0.00000000	44.83267000	-3.11269700
27.79999852	0.00000000	66.84301000	-9.98400600
27.99999851	0.00000000	81.54527000	-14.21629000
28.19999850	0.00000000	85.77755000	-14.54232000
28.39999848	0.00000000	78.51870000	-10.59301000
28.59999847	0.00000000	62.00172000	-2.04847400
28.79999846	0.00000000	41.11097000	9.51648500
28.99999845	0.00000000	20.17101000	21.46284000
29.19999844	0.00000000	3.14960600	31.07775000
29.39999843	0.00000000	-6.15772600	35.67913000
29.59999841	0.00000000	-6.20078700	34.05511000
29.79999840	0.00000000	2.63902500	25.91658000
29.99999839	0.00000000	17.99336000	12.35851000
30.19999838	0.00000000	35.39001000	-3.44488200
30.39999837	0.00000000	51.02116000	-18.49163000
30.59999835	0.00000000	63.07209000	-28.85088000
30.79999834	0.00000000	69.58661000	-31.96973000
30.99999833	0.00000000	68.42396000	-27.27608000
31.19999832	0.00000000	60.04552000	-15.28666000
31.39999831	0.00000000	47.29946000	1.66707700
31.59999829	0.00000000	33.33538000	19.46358000
31.79999828	0.00000000	20.54626000	34.56570000
31.99999827	0.00000000	11.65723000	44.18061000
32.19999826	0.00000000	8.49532500	45.66929000
32.39999825	0.00000000	11.14665000	38.37352000
32.59999824	0.00000000	18.49778000	24.10802000
32.79999822	0.00000000	28.92470000	6.31766700
32.99999821	0.00000000	40.13287000	-11.47884000
33.19999820	0.00000000	49.44020000	-25.78740000
33.39999819	0.00000000	55.25959000	-33.50147000
33.59999818	0.00000000	56.41609000	-33.12623000
33.79999816	0.00000000	52.60211000	-24.62475000
33.99999815	0.00000000	45.30019000	-9.99015700
34.19999814	0.00000000	36.41117000	7.38804100
34.39999813	0.00000000	27.94045000	23.60359000
34.59999812	0.00000000	22.12721000	35.26082000
34.79999810	0.00000000	20.17101000	40.28051000
34.99999809	0.00000000	22.08415000	37.95522000
35.19999808	0.00000000	27.42987000	28.34030000
35.39999807	0.00000000	34.31963000	14.12401000
35.59999806	0.00000000	40.51427000	-0.97810030
35.79999805	0.00000000	44.83267000	-14.08095000
35.99999803	0.00000000	46.70275000	-22.16412000
36.19999802	0.00000000	45.53395000	-23.00074000
36.39999801	0.00000000	40.97564000	-17.28592000
36.59999800	0.00000000	35.24852000	-6.87746000
36.79999799	0.00000000	30.21653000	5.80708600
36.99999797	0.00000000	26.73474000	17.37205000
37.19999796	0.00000000	25.98425000	25.04306000
37.39999795	0.00000000	27.84818000	26.99311000
37.59999794	0.00000000	31.71137000	22.44094000
37.79999793	0.00000000	36.31890000	13.65650000
37.99999791	0.00000000	40.60039000	3.29109200
38.19999790	0.00000000	43.67618000	-5.90551100
38.39999789	0.00000000	44.83267000	-10.87598000
38.59999788	0.00000000	43.67618000	-10.54995000
38.79999787	0.00000000	40.60039000	-5.16117100
38.99999786	0.00000000	36.41117000	3.62327700
39.19999784	0.00000000	32.50492000	13.18898000
39.39999783	0.00000000	29.70595000	20.44168000
39.59999782	0.00000000	27.38681000	23.13607000
39.79999781	0.00000000	26.31643000	20.44168000
39.99999780	0.00000000	27.42987000	13.18898000
40.19999778	0.00000000	30.13041000	3.57406500
40.39999777	0.00000000	33.61835000	-5.62253900
40.59999776	0.00000000	37.53075000	-12.12475000
40.79999775	0.00000000	40.97564000	-13.61343000
40.99999774	0.00000000	43.34399000	-9.43036400
41.19999772	0.00000000	44.09449000	-1.02116100
41.39999771	0.00000000	43.34399000	9.01205700
41.59999770	0.00000000	41.01870000	18.21481000
41.79999769	0.00000000	37.94907000	24.34178000
41.99999768	0.00000000	34.78716000	25.13533000
42.19999767	0.00000000	31.71137000	20.99532000
42.39999765	0.00000000	29.38607000	13.65650000
42.59999764	0.00000000	28.59252000	4.77977300
42.79999763	0.00000000	28.92470000	-3.67249000
42.99999762	0.00000000	30.13041000	-9.43036400
43.19999761	0.00000000	32.03740000	-11.06053000
43.39999759	0.00000000	34.36884000	-8.74138700
43.59999758	0.00000000	36.32505000	-3.38951800
43.79999757	0.00000000	37.90600000	3.90009800
43.99999756	0.00000000	39.06250000	10.40846000
44.19999755	0.00000000	39.48696000	14.76993000
44.39999753	0.00000000	39.53002000	16.67692000
44.59999752	0.00000000	39.53002000	15.92642000
44.79999751	0.00000000	39.48696000	12.49385000
44.99999750	0.00000000	39.11171000	7.93553100
45.19999749	0.00000000	38.28125000	3.66633800
45.39999748	0.00000000	37.06324000	0.55364170
45.59999746	0.00000000	34.69488000	-1.02116100
45.79999745	0.00000000	31.66830000	-1.06422200
45.99999744	0.00000000	28.87549000	0.09227362
46.19999743	0.00000000	26.59326000	2.04232300
46.39999742	0.00000000	25.06151000	4.73671200
46.59999740	0.00000000	25.56594000	7.43110200
46.79999739	0.00000000	28.27264000	9.38115100
46.99999738	0.00000000	33.33538000	10.53765000
47.19999737	0.00000000	39.48080000	10.53765000
47.39999736	0.00000000	45.34325000	9.38115100
47.59999734	0.00000000	49.90772000	7.43110200
47.79999733	0.00000000	51.76550000	4.73671200
47.99999732	0.00000000	49.44020000	2.08538400
48.19999731	0.00000000	43.67618000	0.51058070
48.39999730	0.00000000	35.90059000	0.09227362
48.59999729	0.00000000	27.38681000	0.51058070
48.79999727	0.00000000	20.12795000	2.12844500
48.99999726	0.00000000	16.26476000	5.15501900
49.19999725	0.00000000	17.05217000	8.58759800
49.39999724	0.00000000	22.08415000	10.91289000
49.59999723	0.00000000	30.54872000	12.11860000
49.79999721	0.00000000	40.18209000	12.07554000
49.99999720	0.00000000	48.32677000	10.49459000
50.19999719	0.00000000	53.67864000	7.38188900
50.39999718	0.00000000	54.41683000	3.20497000
50.59999717	0.00000000	49.86466000	-0.64591530
50.79999715	0.00000000	42.18134000	-2.93430100
50.99999714	0.00000000	33.24926000	-3.34030500
51.19999713	0.00000000	24.82160000	-1.39640700
51.39999712	0.00000000	19.42667000	2.04232300
51.59999711	0.00000000	18.63312000	6.31151500
51.79999710	0.00000000	22.03494000	10.53765000
51.99999708	0.00000000	28.59252000	13.60728000
52.19999707	0.00000000	36.31890000	14.76993000
52.39999706	0.00000000	43.62696000	13.60728000
52.59999705	0.00000000	48.60359000	10.53765000
52.79999704	0.00000000	49.35408000	6.31151500
52.99999702	0.00000000	45.95226000	2.08538400
53.19999701	0.00000000	39.43774000	-0.97810030
53.39999700	0.00000000	32.17273000	-2.13459600
53.59999699	0.00000000	26.35950000	-1.02116100
53.79999698	0.00000000	23.28986000	1.62401600
53.99999696	0.00000000	23.61589000	4.68750000
54.19999695	0.00000000	27.10384000	7.38188900
54.39999694	0.00000000	32.46186000	8.96284400
54.59999693	0.00000000	38.60113000	9.33809000
54.79999692	0.00000000	43.20866000	8.58759800
54.99999691	0.00000000	45.16486000	6.64370100
55.19999689	0.00000000	44.41437000	4.40452700
55.39999688	0.00000000	40.97564000	2.50369100
55.59999687	0.00000000	36.36811000	2.17150600
55.79999686	0.00000000	31.71137000	3.66633800
55.99999685	0.00000000	27.89739000	6.31151500
56.19999683	0.00000000	26.35950000	8.96284400
56.39999682	0.00000000	27.47293000	10.49459000
56.59999681	0.00000000	30.54872000	10.45152000
56.79999680	0.00000000	34.78716000	8.54453700
56.99999679	0.00000000	38.97638000	5.06274600
57.19999677	0.00000000	41.71998000	1.24877000
57.39999676	0.00000000	42.51353000	-2.18380900
57.59999675	0.00000000	41.76304000	-3.67249000
57.79999674	0.00000000	39.39468000	-2.51599400
57.99999673	0.00000000	35.99286000	0.92888770
58.19999672	0.00000000	32.54798000	5.98548200
58.39999670	0.00000000	30.59178000	11.33120000
58.59999669	0.00000000	30.17347000	15.97564000
58.79999668	0.00000000	30.92396000	18.21481000
58.99999667	0.00000000	32.82480000	17.42126000
59.19999666	0.00000000	34.73794000	13.14591000
59.39999664	0.00000000	36.32505000	6.26845500
59.59999663	0.00000000	37.43848000	-1.02116100
59.79999662	0.00000000	37.43848000	-6.82824800
59.99999661	0.00000000	36.36811000	-9.89788300
60.19999660	0.00000000	35.20546000	-9.47957600
60.39999658	0.00000000	34.41191000	-5.20423200
60.59999657	0.00000000	33.66756000	2.08538400
60.79999656	0.00000000	33.66756000	10.53765000
60.99999655	0.00000000	34.41191000	17.83957000
61.19999654	0.00000000	35.20546000	22.06570000
61.39999653	0.00000000	36.36811000	22.06570000
61.59999651	0.00000000	37.43848000	17.83957000
61.79999650	0.00000000	37.43848000	10.53765000
61.99999649	0.00000000	36.32505000	2.04232300
62.19999648	0.00000000	34.73794000	-5.67175200
62.39999647	0.00000000	32.82480000	-11.01132000
62.59999645	0.00000000	30.92396000	-12.21703000
62.79999644	0.00000000	30.17347000	-9.20275500
62.99999643	0.00000000	30.54872000	-3.76476400
63.19999642	0.00000000	32.08661000	3.62327700
63.39999641	0.00000000	34.41191000	11.65723000
63.59999639	0.00000000	36.74335000	17.79035000
63.79999638	0.00000000	39.06250000	20.57702000
63.99999637	0.00000000	40.55733000	19.83883000
64.19999636	0.00000000	40.55733000	16.35089000
64.39999635	0.00000000	39.01944000	10.53765000
64.59999634	0.00000000	36.31890000	3.62327700
64.79999632	0.00000000	33.24926000	-2.55905500
64.99999631	0.00000000	30.54872000	-6.82824800
65.19999630	0.00000000	29.01082000	-8.36614100
65.39999629	0.00000000	29.01082000	-6.87746000
65.59999628	0.00000000	30.54872000	-3.06963600
65.79999626	0.00000000	33.20005000	1.57480300
65.99999625	0.00000000	35.90059000	6.26845500
66.19999624	0.00000000	37.81373000	10.49459000
66.39999623	0.00000000	38.60113000	13.23819000
66.59999622	0.00000000	37.85679000	14.11786000
66.79999620	0.00000000	36.32505000	14.11786000
66.99999619	0.00000000	34.36884000	13.28125000
67.19999618	0.00000000	32.12967000	10.96211000
67.39999617	0.00000000	31.01009000	7.89247000
67.59999616	0.00000000	31.71137000	4.73671200
67.79999615	0.00000000	33.24926000	1.62401600
67.99999613	0.00000000	35.24852000	-1.11343500
68.19999612	0.00000000	37.90600000	-3.06348400
68.39999611	0.00000000	40.13902000	-4.18307100
68.59999610	0.00000000	40.51427000	-3.71555100
68.79999609	0.00000000	38.97638000	-1.07037400
68.99999607	0.00000000	35.90059000	2.78051200
69.19999606	0.00000000	32.03740000	6.72982200
69.39999605	0.00000000	28.54946000	11.00517000
69.59999604	0.00000000	25.89198000	14.81299000
69.79999603	0.00000000	25.19685000	16.71998000
69.99999601	0.00000000	27.47293000	16.35089000
70.19999600	0.00000000	31.71137000	13.61343000
70.39999599	0.00000000	36.74335000	9.00590400
70.59999598	0.00000000	41.76304000	3.57406500
70.79999597	0.00000000	45.20792000	-1.43946800
70.99999596	0.00000000	46.37057000	-5.24729300
71.19999594	0.00000000	44.83267000	-6.40994000
71.39999593	0.00000000	40.93258000	-4.55831700
71.59999592	0.00000000	35.48228000	-1.11343500
71.79999591	0.00000000	28.96776000	3.20497000
71.99999590	0.00000000	23.61589000	7.80019600
72.19999588	0.00000000	21.28445000	11.65723000
72.39999587	0.00000000	21.99188000	13.56422000
72.59999586	0.00000000	25.47367000	13.23819000
72.79999585	0.00000000	30.50566000	10.96211000
72.99999584	0.00000000	36.31890000	7.93553100
73.19999582	0.00000000	41.71998000	5.19808000
73.39999581	0.00000000	45.16486000	3.24803100
73.59999580	0.00000000	45.99532000	2.08538400
73.79999579	0.00000000	44.09449000	2.08538400
73.99999578	0.00000000	40.60039000	3.19881900
74.19999577	0.00000000	35.94980000	4.68750000
74.39999575	0.00000000	30.96703000	5.80093500
74.59999574	0.00000000	27.47293000	5.80093500
74.79999573	0.00000000	25.89198000	4.68750000
74.99999572	0.00000000	26.26722000	3.15575800
75.19999571	0.00000000	28.54946000	1.66707700
75.39999569	0.00000000	31.61909000	0.92888770
75.59999568	0.00000000	34.73794000	1.75319900
75.79999567	0.00000000	37.43848000	4.03543200
75.99999566	0.00000000	39.01944000	7.51722400
76.19999565	0.00000000	39.43774000	10.91289000
76.39999563	0.00000000	39.06250000	13.28125000
76.59999562	0.00000000	37.90600000	13.98253000
76.79999561	0.00000000	36.36811000	12.81988000
76.99999560	0.00000000	34.83022000	9.29502900
77.19999559	0.00000000	33.71063000	4.31840500
77.39999558	0.00000000	33.66756000	-1.06422200
77.59999556	0.00000000	34.36884000	-5.29650500
77.79999555	0.00000000	34.69488000	-7.20349400
77.99999554	0.00000000	34.31963000	-6.45300100
78.19999553	0.00000000	33.20005000	-2.97736200
78.39999552	0.00000000	32.08661000	2.04232300
78.59999550	0.00000000	31.66215000	7.89247000
78.79999549	0.00000000	31.66215000	13.61343000
78.99999548	0.00000000	32.12967000	17.42126000
79.19999547	0.00000000	33.66756000	17.83957000
79.39999546	0.00000000	35.94980000	15.23130000
79.59999544	0.00000000	37.85679000	10.95595000
79.79999543	0.00000000	39.06250000	5.93626900
79.99999542	0.00000000	39.39468000	0.87967510
80.19999541	0.00000000	38.64419000	-2.97736200
80.39999540	0.00000000	36.70029000	-5.33956700
80.59999539	0.00000000	34.36884000	-5.67175200
80.79999537	0.00000000	31.66830000	-3.76476400
80.99999536	0.00000000	29.38607000	0.04306102
81.19999535	0.00000000	28.63558000	4.31840500
81.39999534	0.00000000	29.38607000	8.22465500
81.59999533	0.00000000	31.66830000	11.74951000
81.79999531	0.00000000	34.36884000	14.03174000
81.99999530	0.00000000	36.70029000	14.85605000
82.19999529	0.00000000	38.64419000	14.03174000
82.39999528	0.00000000	39.39468000	11.74951000
82.59999527	0.00000000	39.01944000	8.26771600
82.79999525	0.00000000	37.48154000	4.77977300
82.99999524	0.00000000	35.20546000	1.62401600
83.19999523	0.00000000	33.29232000	-1.11343500
83.39999522	0.00000000	32.08661000	-3.02042300
83.59999521	0.00000000	31.66215000	-3.80782500
83.79999520	0.00000000	31.66215000	-3.02042300
83.99999518	0.00000000	32.03740000	-1.07037400
84.19999517	0.00000000	32.82480000	2.08538400
84.39999516	0.00000000	33.57529000	6.31151500
84.59999515	0.00000000	34.36884000	10.53765000
84.79999514	0.00000000	34.74409000	13.60728000
84.99999512	0.00000000	34.78716000	14.81299000
85.19999511	0.00000000	34.78716000	14.03174000
85.39999510	0.00000000	34.78716000	11.70029000
85.59999509	0.00000000	34.83022000	7.80019600
85.79999508	0.00000000	35.20546000	3.20497000
85.99999506	0.00000000	35.94980000	-1.07037400
86.19999505	0.00000000	36.27584000	-4.18307100
86.39999504	0.00000000	35.94980000	-5.67175200
86.59999503	0.00000000	35.11934000	-4.87204700
86.79999502	0.00000000	33.99360000	-1.39640700
86.99999501	0.00000000	32.41265000	3.53100400
87.19999499	0.00000000	31.33612000	8.58759800
87.39999498	0.00000000	30.87475000	12.45079000
87.59999497	0.00000000	31.33612000	14.76993000
87.79999496	0.00000000	32.46186000	14.72072000
87.99999495	0.00000000	34.41191000	12.07554000
88.19999493	0.00000000	36.27584000	7.84940900
88.39999492	0.00000000	37.48154000	3.20497000
88.59999491	0.00000000	37.85679000	-1.02116100
88.79999490	0.00000000	37.48154000	-3.67249000
88.99999489	0.00000000	36.32505000	-3.71555100
89.19999487	0.00000000	34.78716000	-1.39640700
89.39999486	0.00000000	33.20005000	2.41756900
89.59999485	0.00000000	31.66215000	7.05585600
89.79999484	0.00000000	30.54872000	10.86983000
89.99999483	0.00000000	30.54872000	13.18898000
90.19999482	0.00000000	31.66215000	13.14591000
90.39999480	0.00000000	33.15699000	10.49459000
90.59999479	0.00000000	34.36884000	6.31151500
90.79999478	0.00000000	35.16240000	2.04232300
90.99999477	0.00000000	35.94980000	-1.39640700
91.19999476	0.00000000	36.27584000	-3.29724400
91.39999474	0.00000000	35.94980000	-2.55905500
91.59999473	0.00000000	35.20546000	0.13533460
91.79999472	0.00000000	34.83022000	3.99237200
91.99999471	0.00000000	34.78716000	8.58759800
92.19999470	0.00000000	34.74409000	11.98942000
92.39999468	0.00000000	34.36884000	13.18898000
92.59999467	0.00000000	33.61835000	12.03248000
92.79999466	0.00000000	33.20005000	8.96284400
92.99999465	0.00000000	32.78174000	4.73671200
93.19999464	0.00000000	32.03740000	0.51058070
93.39999463	0.00000000	31.66215000	-2.51599400
93.59999461	0.00000000	31.66215000	-3.29724400
93.79999460	0.00000000	32.08661000	-1.39640700
93.99999459	0.00000000	33.24926000	2.04232300
94.19999458	0.00000000	34.78716000	6.31151500
94.39999457	0.00000000	36.36811000	10.49459000
94.59999455	0.00000000	37.90600000	13.14591000
94.79999454	0.00000000	39.06250000	13.18898000
94.99999453	0.00000000	39.39468000	10.91289000
95.19999452	0.00000000	38.60113000	7.47416300
95.39999451	0.00000000	36.27584000	3.57406500
95.59999449	0.00000000	33.24926000	0.13533460
95.79999448	0.00000000	30.50566000	-2.14074800
95.99999447	0.00000000	28.54946000	-2.14074800
96.19999446	0.00000000	27.38681000	0.09227362
96.39999445	0.00000000	27.47293000	3.15575800
96.59999444	0.00000000	29.38607000	6.26845500
96.79999442	0.00000000	32.87401000	8.96284400
96.99999441	0.00000000	36.69414000	10.49459000
97.19999440	0.00000000	40.18209000	10.49459000
97.39999439	0.00000000	42.13828000	8.96284400
97.59999438	0.00000000	42.55659000	6.31151500
97.79999436	0.00000000	41.71998000	3.61712600
97.99999435	0.00000000	38.97638000	1.71013800
98.19999434	0.00000000	34.78716000	0.92888770
98.39999433	0.00000000	30.54872000	1.66707700
98.59999432	0.00000000	27.42987000	3.15575800
98.79999430	0.00000000	25.84892000	4.68750000
98.99999429	0.00000000	25.84892000	5.85014700
99.19999428	0.00000000	27.42987000	6.26845500
99.39999427	0.00000000	30.50566000	6.31151500
99.59999426	0.00000000	34.36884000	6.31151500
99.79999425	0.00000000	37.85679000	6.31151500
99.99999423	0.00000000	40.60039000	6.31151500
100.19999422	0.00000000	42.13828000	6.35457700
100.39999421	0.00000000	42.13828000	6.68676100
100.59999420	0.00000000	40.60039000	7.05585600
100.79999419	0.00000000	37.85679000	6.68676100
100.99999417	0.00000000	34.41191000	6.31151500
101.19999416	0.00000000	30.92396000	5.80093500
101.39999415	0.00000000	28.59252000	4.26919300
101.59999414	0.00000000	27.38681000	2.04232300
101.79999413	0.00000000	27.38681000	0.55364170
101.99999411	0.00000000	28.54946000	0.51058070
102.19999410	0.00000000	30.50566000	1.66707700
102.39999409	0.00000000	33.20005000	3.61712600
102.59999408	0.00000000	35.90059000	6.31151500
102.79999407	0.00000000	37.85679000	8.96284400
102.99999406	0.00000000	39.01944000	10.53765000
103.19999404	0.00000000	39.06250000	10.95595000
103.39999403	0.00000000	38.23203000	10.49459000
103.59999402	0.00000000	36.68799000	8.54453700
103.79999401	0.00000000	33.99360000	5.15501900
103.99999400	0.00000000	31.75443000	2.08538400
104.19999398	0.00000000	30.50566000	0.09227362
104.39999397	0.00000000	30.08120000	-1.06422200
104.59999396	0.00000000	30.08120000	-1.02116100
104.79999395	0.00000000	30.54872000	0.51058070
104.99999394	0.00000000	32.08661000	3.19881900
105.19999392	0.00000000	34.31963000	6.26845500
105.39999391	0.00000000	35.85752000	8.91978400
105.59999390	0.00000000	36.32505000	10.07628000
105.79999389	0.00000000	36.32505000	9.33809000
105.99999388	0.00000000	35.90059000	7.47416300
106.19999387	0.00000000	34.73794000	5.15501900
106.39999385	0.00000000	33.24926000	3.19881900
106.59999384	0.00000000	32.08661000	1.66707700
106.79999383	0.00000000	31.71137000	0.92888770
106.99999382	0.00000000	32.08661000	1.66707700
107.19999381	0.00000000	33.20005000	3.15575800
107.39999379	0.00000000	34.36884000	4.73671200
107.59999378	0.00000000	35.16240000	6.26845500
107.79999377	0.00000000	35.90059000	7.38188900
107.99999376	0.00000000	35.85752000	7.38188900
108.19999375	0.00000000	34.73794000	6.26845500
108.39999374	0.00000000	33.24926000	4.73671200
108.59999372	0.00000000	32.03740000	3.19881900
108.79999371	0.00000000	31.28691000	2.04232300
108.99999370	0.00000000	30.92396000	1.66707700
109.19999369	0.00000000	31.71137000	2.04232300
109.39999368	0.00000000	33.20005000	3.19881900
109.59999366	0.00000000	34.73794000	4.73671200
109.79999365	0.00000000	35.90059000	6.26845500
109.99999364	0.00000000	36.32505000	7.42495000
110.19999363	0.00000000	36.32505000	7.80019600
110.39999362	0.00000000	35.90059000	7.42495000
110.59999360	0.00000000	34.73794000	6.26845500
110.79999359	0.00000000	33.24926000	4.73671200
110.99999358	0.00000000	32.03740000	3.19881900
111.19999357	0.00000000	31.28691000	2.04232300
111.39999356	0.00000000	30.87475000	1.66707700
111.59999355	0.00000000	31.28691000	1.99311000
111.79999353	0.00000000	32.03740000	2.78051200
111.99999352	0.00000000	33.20005000	3.57406500
112.19999351	0.00000000	34.31963000	4.73671200
112.39999350	0.00000000	34.78716000	5.85014700
112.59999349	0.00000000	35.16240000	6.26845500
112.79999347	0.00000000	35.53149000	6.31151500
112.99999346	0.00000000	35.11934000	6.26845500
113.19999345	0.00000000	34.41191000	5.89320800
113.39999344	0.00000000	33.57529000	5.15501900
113.59999343	0.00000000	32.82480000	4.77977300
113.79999341	0.00000000	32.08661000	4.73671200
113.99999340	0.00000000	32.08661000	4.73671200
114.19999339	0.00000000	32.78174000	4.69365100
114.39999338	0.00000000	33.20005000	4.36146600
114.59999337	0.00000000	33.61835000	3.94931100
114.79999336	0.00000000	34.36884000	3.94315900
114.99999334	0.00000000	34.74409000	3.53100400
115.19999333	0.00000000	34.78716000	3.19881900
115.39999332	0.00000000	34.78716000	3.19881900
115.59999331	0.00000000	34.74409000	3.57406500
115.79999330	0.00000000	34.36884000	4.36146600
115.99999328	0.00000000	33.61835000	5.11195900
116.19999327	0.00000000	33.20005000	5.89320800
116.39999326	0.00000000	32.78174000	6.26845500
116.59999325	0.00000000	32.03740000	6.31151500
116.79999324	0.00000000	31.75443000	6.31151500
116.99999322	0.00000000	32.41265000	6.26845500
117.19999321	0.00000000	33.56914000	5.85014700
117.39999320	0.00000000	33.99975000	4.73671200
117.59999319	0.00000000	34.83022000	3.62327700
117.79999318	0.00000000	35.90059000	3.19881900
117.99999317	0.00000000	36.27584000	3.15575800
118.19999315	0.00000000	35.94980000	3.15575800
118.39999314	0.00000000	35.16240000	3.19881900
118.59999313	0.00000000	34.36884000	3.57406500
118.79999312	0.00000000	33.20005000	4.36146600
118.99999311	0.00000000	32.03740000	5.11195900
119.19999309	0.00000000	31.24384000	5.89320800
119.39999308	0.00000000	30.50566000	6.26845500
119.59999307	0.00000000	30.54872000	6.31151500
119.79999306	0.00000000	31.66215000	6.31151500
119.99999305	0.00000000	33.15699000	6.26845500
120.19999303	0.00000000	34.36884000	5.89320800
120.39999302	0.00000000	35.16240000	5.15501900
120.59999301	0.00000000	35.94980000	4.77977300
120.79999300	0.00000000	36.32505000	4.69365100
120.99999299	0.00000000	36.32505000	4.31840500
121.19999298	0.00000000	35.90059000	3.57406500
121.39999296	0.00000000	34.73794000	3.19881900
121.59999295	0.00000000	33.20005000	3.19881900
121.79999294	0.00000000	31.66215000	3.57406500
121.99999293	0.00000000	30.50566000	4.31840500
122.19999292	0.00000000	30.13041000	4.73671200
122.39999290	0.00000000	30.50566000	5.15501900
122.59999289	0.00000000	31.66215000	5.89320800
122.79999288	0.00000000	33.15699000	6.26845500
122.99999287	0.00000000	34.31963000	6.31151500
123.19999286	0.00000000	34.74409000	6.26845500
123.39999284	0.00000000	34.83022000	5.89320800
123.59999283	0.00000000	35.16240000	5.15501900
123.79999282	0.00000000	35.53149000	4.73671200
123.99999281	0.00000000	35.11934000	4.31840500
124.19999280	0.00000000	34.41191000	3.57406500
124.39999279	0.00000000	33.57529000	3.19881900
124.59999277	0.00000000	32.82480000	3.19881900
124.79999276	0.00000000	32.03740000	3.57406500
124.99999275	0.00000000	31.66215000	4.31840500
125.19999274	0.00000000	31.61909000	4.69365100
125.39999273	0.00000000	31.61909000	4.73671200
125.59999271	0.00000000	31.66215000	4.77977300
125.79999270	0.00000000	32.08661000	5.15501900
125.99999269	0.00000000	33.20005000	5.89320800
126.19999268	0.00000000	34.36884000	6.21924200
126.39999267	0.00000000	35.16240000	5.89320800
126.59999265	0.00000000	35.90059000	5.15501900
126.79999264	0.00000000	35.85752000	4.77977300
126.99999263	0.00000000	34.78716000	4.73671200
127.19999262	0.00000000	33.61835000	4.73671200
127.39999261	0.00000000	32.82480000	4.73671200
127.59999260	0.00000000	32.03740000	4.73671200
127.79999258	0.00000000	31.66215000	4.73671200
127.99999257	0.00000000	31.61909000	4.73671200
128.19999256	0.00000000	31.66215000	4.73671200
128.39999255	0.00000000	32.08661000	4.73671200
128.59999254	0.00000000	33.20005000	4.77977300
128.79999252	0.00000000	34.36884000	5.11195900
128.99999251	0.00000000	35.16240000	5.47490100
129.19999250	0.00000000	35.90059000	5.11195900
129.39999249	0.00000000	35.85752000	4.77977300
129.59999248	0.00000000	34.78716000	4.73671200
129.79999246	0.00000000	33.61835000	4.73671200
129.99999245	0.00000000	32.82480000	4.73671200
130.19999244	0.00000000	32.03740000	4.73671200
130.39999243	0.00000000	31.66215000	4.73671200
130.59999242	0.00000000	31.66215000	4.73671200
130.79999241	0.00000000	32.08661000	4.73671200
130.99999239	0.00000000	33.20005000	4.73671200
131.19999238	0.00000000	34.31963000	4.73671200
131.39999237	0.00000000	34.74409000	4.73671200
131.59999236	0.00000000	34.78716000	4.69365100
131.79999235	0.00000000	34.74409000	4.31840500
131.99999233	0.00000000	34.36884000	3.57406500
132.19999232	0.00000000	33.57529000	3.19881900
132.39999231	0.00000000	32.82480000	3.15575800
132.59999230	0.00000000	32.03740000	3.19881900
132.79999229	0.00000000	31.66215000	3.57406500
132.99999227	0.00000000	31.66215000	4.36146600
133.19999226	0.00000000	32.03740000	5.11195900
133.39999225	0.00000000	32.82480000	5.89320800
133.59999224	0.00000000	33.53223000	6.26845500
133.79999223	0.00000000	33.94439000	6.31151500
133.99999222	0.00000000	33.57529000	6.26845500
134.19999220	0.00000000	33.24311000	5.85014700
134.39999219	0.00000000	33.20005000	4.73671200
134.59999218	0.00000000	33.20005000	3.62327700
134.79999217	0.00000000	33.20005000	3.19881900
134.99999216	0.00000000	33.20005000	3.15575800
135.19999214	0.00000000	33.20005000	3.15575800
135.39999213	0.00000000	33.24311000	3.19881900
135.59999212	0.00000000	33.61835000	3.57406500
135.79999211	0.00000000	34.31963000	4.36146600
135.99999210	0.00000000	34.31963000	5.11195900
136.19999208	0.00000000	33.57529000	5.89320800
136.39999207	0.00000000	32.82480000	6.26845500
136.59999206	0.00000000	32.03740000	6.26845500
136.79999205	0.00000000	31.66215000	5.89320800
136.99999204	0.00000000	31.66215000	5.15501900
137.19999203	0.00000000	32.03740000	4.77977300
137.39999201	0.00000000	32.82480000	4.69365100
137.59999200	0.00000000	33.57529000	4.31840500
137.79999199	0.00000000	34.36884000	3.57406500
137.99999198	0.00000000	34.74409000	3.15575800
138.19999197	0.00000000	34.74409000	2.78051200
138.39999195	0.00000000	34.36884000	2.41141700
138.59999194	0.00000000	33.57529000	2.82357300
138.79999193	0.00000000	32.82480000	3.53100400
138.99999192	0.00000000	32.03740000	4.36146600
139.19999191	0.00000000	31.66215000	5.11195900
139.39999189	0.00000000	31.61909000	5.89320800
139.59999188	0.00000000	31.66215000	6.26845500
139.79999187	0.00000000	32.08661000	6.31151500
139.99999186	0.00000000	33.15699000	6.26845500
140.19999185	0.00000000	33.94439000	5.89320800
140.39999184	0.00000000	33.99975000	5.11195900
140.59999182	0.00000000	34.36884000	4.36146600
140.79999181	0.00000000	34.31963000	3.53100400
140.99999180	0.00000000	33.61835000	2.82357300
141.19999179	0.00000000	33.20005000	2.41141700
141.39999178	0.00000000	32.82480000	2.82357300
141.59999176	0.00000000	32.45571000	3.57406500
141.79999175	0.00000000	32.82480000	4.73671200
141.99999174	0.00000000	33.15699000	5.85014700
142.19999173	0.00000000	33.20005000	6.26845500
142.39999172	0.00000000	33.20005000	6.31151500
142.59999170	0.00000000	33.20005000	6.26845500
142.79999169	0.00000000	33.20005000	5.89320800
142.99999168	0.00000000	33.20005000	5.11195900
143.19999167	0.00000000	33.20005000	4.36146600
143.39999166	0.00000000	33.20005000	3.57406500
143.59999165	0.00000000	33.20005000	3.19881900
143.79999163	0.00000000	33.20005000	3.15575800
143.99999162	0.00000000	33.20005000	3.19881900
144.19999161	0.00000000	33.20005000	3.57406500
144.39999160	0.00000000	33.20005000	4.31840500
144.59999159	0.00000000	33.20005000	4.73671200
144.79999157	0.00000000	33.20005000	5.15501900
144.99999156	0.00000000	33.20005000	5.85014700
145.19999155	0.00000000	33.20005000	5.85014700
145.39999154	0.00000000	33.15699000	5.15501900
145.59999153	0.00000000	32.78174000	4.77977300
145.79999151	0.00000000	32.03740000	4.73671200
145.99999150	0.00000000	31.66215000	4.69365100
146.19999149	0.00000000	31.66215000	4.31840500
146.39999148	0.00000000	32.03740000	3.57406500
146.59999147	0.00000000	32.78174000	3.19881900
146.79999146	0.00000000	33.20005000	3.19881900
146.99999144	0.00000000	33.57529000	3.57406500
147.19999143	0.00000000	33.94439000	4.31840500
147.39999142	0.00000000	33.57529000	4.69365100
147.59999141	0.00000000	33.20005000	4.73671200
147.79999140	0.00000000	32.82480000	4.77977300
147.99999138	0.00000000	32.41265000	5.11195900
148.19999137	0.00000000	32.40649000	5.47490100
148.39999136	0.00000000	31.99434000	5.11195900
148.59999135	0.00000000	31.71137000	4.77977300
148.79999134	0.00000000	32.03740000	4.69365100
148.99999132	0.00000000	32.78174000	4.31840500
149.19999131	0.00000000	33.15699000	3.57406500
149.39999130	0.00000000	33.20005000	3.19881900
149.59999129	0.00000000	33.20005000	3.15575800
149.79999128	0.00000000	33.20005000	3.19881900
149.99999127	0.00000000	33.20005000	3.57406500
150.19999125	0.00000000	33.20005000	4.31840500
150.39999124	0.00000000	33.20005000	4.69365100
150.59999123	0.00000000	33.15699000	4.73671200
150.79999122	0.00000000	32.78174000	4.73671200
150.99999121	0.00000000	32.03740000	4.73671200
151.19999119	0.00000000	31.66215000	4.73671200
151.39999118	0.00000000	31.61909000	4.73671200
151.59999117	0.00000000	31.66215000	4.73671200
151.79999116	0.00000000	32.03740000	4.69365100
151.99999115	0.00000000	32.78174000	4.36146600
152.19999113	0.00000000	33.15699000	3.99237200
152.39999112	0.00000000	33.20005000	4.36146600
152.59999111	0.00000000	33.20005000	4.69365100
152.79999110	0.00000000	33.20005000	4.73671200
152.99999109	0.00000000	33.20005000	4.73671200
153.19999108	0.00000000	33.20005000	4.73671200
153.39999106	0.00000000	33.15699000	4.73671200
153.59999105	0.00000000	32.78174000	4.73671200
153.79999104	0.00000000	32.03740000	4.73671200
153.99999103	0.00000000	31.66215000	4.73671200
154.19999102	0.00000000	31.61909000	4.73671200
154.39999100	0.00000000	31.61909000	4.73671200
154.59999099	0.00000000	31.66215000	4.73671200
154.79999098	0.00000000	32.03740000	4.73671200
154.99999097	0.00000000	32.78174000	4.69365100
155.19999096	0.00000000	33.15699000	4.36146600
155.39999094	0.00000000	33.20005000	3.94931100
155.59999093	0.00000000	33.24311000	3.94315900
155.79999092	0.00000000	33.57529000	3.57406500
155.99999091	0.00000000	33.94439000	3.62327700
156.19999090	0.00000000	33.57529000	4.31840500
156.39999089	0.00000000	33.24311000	4.69365100
156.59999087	0.00000000	33.15699000	4.73671200
156.79999086	0.00000000	32.78174000	4.77977300
156.99999085	0.00000000	32.03740000	5.15501900
157.19999084	0.00000000	31.66215000	5.85014700
157.39999083	0.00000000	31.61909000	5.85014700
157.59999081	0.00000000	31.61909000	5.15501900
157.79999080	0.00000000	31.66215000	4.77977300
157.99999079	0.00000000	32.03740000	4.69365100
158.19999078	0.00000000	32.78174000	4.31840500
158.39999077	0.00000000	33.20005000	3.57406500
158.59999075	0.00000000	33.61835000	3.19881900
158.79999074	0.00000000	34.27657000	3.19881900
158.99999073	0.00000000	33.94439000	3.57406500
159.19999072	0.00000000	32.88017000	4.31840500
159.39999071	0.00000000	32.82480000	4.69365100
159.59999070	0.00000000	32.73252000	4.73671200
159.79999068	0.00000000	32.03740000	4.77977300
159.99999067	0.00000000	31.66215000	5.15501900
160.19999066	0.00000000	31.61909000	5.85014700
160.39999065	0.00000000	31.61909000	5.85014700
160.59999064	0.00000000	31.61909000	5.15501900
160.79999062	0.00000000	31.61909000	4.73671200
160.99999061	0.00000000	31.66215000	4.31840500
161.19999060	0.00000000	32.03740000	3.57406500
161.39999059	0.00000000	32.78174000	3.24803100
161.59999058	0.00000000	33.15699000	3.53100400
161.79999056	0.00000000	33.20005000	3.94315900
161.99999055	0.00000000	33.20005000	3.94931100
162.19999054	0.00000000	33.20005000	4.36146600
162.39999053	0.00000000	33.20005000	4.69365100
162.59999052	0.00000000	33.20005000	4.73671200
162.79999051	0.00000000	33.20005000	4.73671200
162.99999049	0.00000000	33.20005000	4.73671200
163.19999048	0.00000000	33.15699000	4.73671200
163.39999047	0.00000000	32.78174000	4.73671200
163.59999046	0.00000000	32.03740000	4.73671200
163.79999045	0.00000000	31.66215000	4.73671200
163.99999043	0.00000000	31.61909000	4.73671200
164.19999042	0.00000000	31.66215000	4.73671200
164.39999041	0.00000000	32.03740000	4.69365100
164.59999040	0.00000000	32.78174000	4.31840500
164.79999039	0.00000000	33.15699000	3.62327700
164.99999037	0.00000000	33.20005000	3.62327700
165.19999036	0.00000000	33.20005000	4.31840500
165.39999035	0.00000000	33.20005000	4.69365100
165.59999034	0.00000000	33.20005000	4.73671200
165.79999033	0.00000000	33.15699000	4.73671200
165.99999032	0.00000000	32.78174000	4.73671200
166.19999030	0.00000000	32.03740000	4.73671200
166.39999029	0.00000000	31.66215000	4.73671200
166.59999028	0.00000000	31.61909000	4.73671200
166.79999027	0.00000000	31.61909000	4.73671200
166.99999026	0.00000000	31.61909000	4.73671200
167.19999024	0.00000000	31.61909000	4.73671200
167.39999023	0.00000000	31.61909000	4.69365100
167.59999022	0.00000000	31.66215000	4.36146600
167.79999021	0.00000000	32.03740000	3.94931100
167.99999020	0.00000000	32.78174000	3.98622000
168.19999018	0.00000000	33.15699000	3.94931100
168.39999017	0.00000000	33.20005000	4.36146600
168.59999016	0.00000000	33.20005000	4.69365100
168.79999015	0.00000000	33.15699000	4.73671200
168.99999014	0.00000000	32.78174000	4.73671200
169.19999013	0.00000000	32.03740000	4.73671200
169.39999011	0.00000000	31.66215000	4.73671200
169.59999010	0.00000000	31.61909000	4.73671200
169.79999009	0.00000000	31.61909000	4.73671200
169.99999008	0.00000000	31.66215000	4.73671200
170.19999007	0.00000000	31.99434000	4.73671200
170.39999005	0.00000000	32.40649000	4.73671200
170.59999004	0.00000000	32.41265000	4.73671200
170.79999003	0.00000000	32.82480000	4.73671200
170.99999002	0.00000000	33.15699000	4.73671200
171.19999001	0.00000000	33.20005000	4.73671200
171.39998999	0.00000000	33.20005000	4.69365100
171.59998998	0.00000000	33.15699000	4.31840500
171.79998997	0.00000000	32.78174000	3.57406500
171.99998996	0.00000000	32.03740000	3.19881900
172.19998995	0.00000000	31.66215000	3.19881900
172.39998994	0.00000000	31.61909000	3.53100400
172.59998992	0.00000000	31.61909000	3.94315900
172.79998991	0.00000000	31.61909000	3.94931100
172.99998990	0.00000000	31.61909000	4.36146600
173.19998989	0.00000000	31.61909000	4.69365100
173.39998988	0.00000000	31.61909000	4.73671200
173.59998986	0.00000000	31.66215000	4.73671200
173.79998985	0.00000000	32.03740000	4.73671200
173.99998984	0.00000000	32.73252000	4.73671200
174.19998983	0.00000000	32.78174000	4.73671200
174.39998982	0.00000000	32.41265000	4.73671200
174.59998980	0.00000000	32.40649000	4.69365100
174.79998979	0.00000000	31.99434000	4.31840500
174.99998978	0.00000000	31.66215000	3.57406500
175.19998977	0.00000000	31.61909000	3.24803100
175.39998976	0.00000000	31.61909000	3.57406500
175.59998975	0.00000000	31.66215000	4.31840500
175.79998973	0.00000000	31.99434000	4.69365100
175.99998972	0.00000000	32.40649000	4.73671200
176.19998971	0.00000000	32.36959000	4.73671200
176.39998970	0.00000000	32.40649000	4.73671200
176.59998969	0.00000000	32.03740000	4.73671200
176.79998967	0.00000000	32.08661000	4.73671200
176.99998966	0.00000000	32.78174000	4.69365100
177.19998965	0.00000000	33.10777000	4.31840500
177.39998964	0.00000000	32.78174000	3.57406500
177.59998963	0.00000000	32.03740000	3.19881900
177.79998961	0.00000000	31.66215000	3.19881900
177.99998960	0.00000000	31.61909000	3.53100400
178.19998959	0.00000000	31.61909000	3.94315900
178.39998958	0.00000000	31.61909000	3.94931100
178.59998957	0.00000000	31.66215000	4.36146600
178.79998956	0.00000000	32.03740000	4.69365100
178.99998954	0.00000000	32.78174000	4.77977300
179.19998953	0.00000000	33.15699000	5.11195900
179.39998952	0.00000000	33.20005000	5.47490100
179.59998951	0.00000000	33.20005000	5.11195900
179.79998950	0.00000000	33.20005000	4.77977300
179.99998948	0.00000000	33.15699000	4.73671200
180.19998947	0.00000000	32.82480000	4.73671200
180.39998946	0.00000000	32.41265000	4.69365100
180.59998945	0.00000000	32.40649000	4.31840500
180.79998944	0.00000000	31.99434000	3.62327700
180.99998942	0.00000000	31.66215000	3.57406500
181.19998941	0.00000000	31.61909000	3.90009800
181.39998940	0.00000000	31.61909000	3.57406500
181.59998939	0.00000000	31.61909000	3.62327700
181.79998938	0.00000000	31.61909000	4.31840500
181.99998937	0.00000000	31.66215000	4.69365100
182.19998935	0.00000000	31.99434000	4.73671200
182.39998934	0.00000000	32.36343000	4.69365100
182.59998933	0.00000000	32.03740000	4.31840500
182.79998932	0.00000000	32.08661000	3.57406500
182.99998931	0.00000000	32.73252000	3.19881900
183.19998929	0.00000000	32.73252000	3.19881900
183.39998928	0.00000000	32.03740000	3.53100400
183.59998927	0.00000000	31.66215000	3.90009800
183.79998926	0.00000000	31.61909000	3.57406500
183.99998925	0.00000000	31.61909000	3.62327700
184.19998923	0.00000000	31.61909000	4.31840500
184.39998922	0.00000000	31.61909000	4.69365100
184.59998921	0.00000000	31.61909000	4.73671200
184.79998920	0.00000000	31.61909000	4.73671200
184.99998919	0.00000000	31.61909000	4.73671200
185.19998918	0.00000000	31.61909000	4.73671200
185.39998916	0.00000000	31.61909000	4.73671200
185.59998915	0.00000000	31.61909000	4.69365100
185.79998914	0.00000000	31.61909000	4.31840500
185.99998913	0.00000000	31.66215000	3.57406500
186.19998912	0.00000000	32.03740000	3.19881900
186.39998910	0.00000000	32.73252000	3.15575800
186.59998909	0.00000000	32.73252000	3.15575800
186.79998908	0.00000000	32.03740000	3.19881900
186.99998907	0.00000000	31.66215000	3.57406500
187.19998906	0.00000000	31.61909000	4.31840500
187.39998904	0.00000000	31.61909000	4.69365100
187.59998903	0.00000000	31.61909000	4.73671200
187.79998902	0.00000000	31.61909000	4.73671200
187.99998901	0.00000000	31.61909000	4.73671200
188.19998900	0.00000000	31.61909000	4.73671200
188.39998899	0.00000000	31.61909000	4.69365100
188.59998897	0.00000000	31.61909000	4.31840500
188.79998896	0.00000000	31.61909000	3.57406500
188.99998895	0.00000000	31.61909000	3.19881900
189.19998894	0.00000000	31.61909000	3.15575800
189.39998893	0.00000000	31.61909000	3.15575800
189.59998891	0.00000000	31.61909000	3.15575800
189.79998890	0.00000000	31.61909000	3.19881900
189.99998889	0.00000000	31.61909000	3.53100400
190.19998888	0.00000000	31.61909000	3.94315900
190.39998887	0.00000000	31.57603000	3.94931100
190.59998885	0.00000000	31.20078000	4.36146600
190.79998884	0.00000000	30.50566000	4.69365100
190.99998883	0.00000000	30.50566000	4.73671200
191.19998882	0.00000000	31.20078000	4.73671200
191.39998881	0.00000000	31.61909000	4.73671200
191.59998880	0.00000000	31.99434000	4.73671200
191.79998878	0.00000000	32.40649000	4.73671200
191.99998877	0.00000000	32.36959000	4.69365100
192.19998876	0.00000000	32.40649000	4.31840500
192.39998875	0.00000000	31.99434000	3.57406500
192.59998874	0.00000000	31.66215000	3.19881900
192.79998872	0.00000000	31.61909000	3.15575800
192.99998871	0.00000000	31.61909000	3.15575800
193.19998870	0.00000000	31.61909000	3.15575800
193.39998869	0.00000000	31.61909000	3.19881900
193.59998868	0.00000000	31.61909000	3.57406500
193.79998866	0.00000000	31.61909000	4.31840500
193.99998865	0.00000000	31.61909000	4.69365100
194.19998864	0.00000000	31.61909000	4.73671200
194.39998863	0.00000000	31.61909000	4.73671200
194.59998862	0.00000000	31.66215000	4.73671200
194.79998861	0.00000000	31.99434000	4.73671200
194.99998859	0.00000000	32.40649000	4.69365100
195.19998858	0.00000000	32.36959000	4.31840500
195.39998857	0.00000000	32.40649000	3.62327700
195.59998856	0.00000000	31.99434000	3.57406500
195.79998855	0.00000000	31.66215000	3.90009800
195.99998853	0.00000000	31.61909000	3.57406500
