Time	Channel A	Channel B	Channel C
(us)	(V)	(mV)	(mV)

-4.49999956	0.00000000	30.03814000	3.15575800
-4.29999957	0.00000000	30.03814000	3.15575800
-4.09999958	0.00000000	29.99508000	3.15575800
-3.89999959	0.00000000	29.66289000	3.15575800
-3.69999960	0.00000000	29.29380000	3.15575800
-3.49999962	0.00000000	29.66289000	3.15575800
-3.29999963	0.00000000	29.99508000	3.15575800
-3.09999964	0.00000000	30.03814000	3.15575800
-2.89999965	0.00000000	30.03814000	3.15575800
-2.69999966	0.00000000	29.99508000	3.15575800
-2.49999968	0.00000000	29.66289000	3.15575800
-2.29999969	0.00000000	29.29380000	3.15575800
-2.09999970	0.00000000	29.61983000	3.15575800
-1.89999971	0.00000000	29.61983000	3.15575800
-1.69999972	0.00000000	29.29380000	3.15575800
-1.49999973	0.00000000	29.61983000	3.15575800
-1.29999975	0.00000000	29.61983000	3.15575800
-1.09999976	0.00000000	29.29380000	3.15575800
-0.89999977	0.00000000	29.66289000	3.15575800
-0.69999978	0.00000000	29.99508000	3.15575800
-0.49999979	0.00000000	30.03814000	3.15575800
-0.29999981	0.31803640	30.03814000	3.15575800
-0.09999982	0.63668800	30.03814000	3.15575800
0.10000017	0.95533960	30.03814000	3.15575800
0.30000016	1.11466500	30.03814000	3.15575800
0.50000015	0.79601380	30.03814000	3.15575800
0.70000013	0.31803640	30.03814000	3.15575800
0.90000012	-0.47736220	30.03814000	3.15575800
1.10000011	-1.43331700	30.03814000	3.15575800
1.30000010	-2.22994600	30.03814000	3.15575800
1.50000009	-2.70792300	30.03814000	3.15575800
1.70000008	-2.54859700	30.03814000	3.15575800
1.90000006	-1.43331700	30.03814000	3.15575800
2.10000005	0.31803640	30.03814000	3.15575800
2.30000004	2.54859700	30.03814000	3.15575800
2.50000003	4.30056600	30.03814000	3.15575800
2.70000002	5.25652100	29.99508000	3.15575800
2.90000000	4.93786900	29.61983000	3.11269700
3.09999999	3.02657500	28.92470000	2.73745100
3.29999998	0.15871060	28.92470000	2.04232300
3.49999997	-3.34522600	29.61983000	2.04232300
3.69999996	-6.21247500	29.99508000	2.73745100
3.89999994	-7.80511800	30.03814000	3.15575800
4.09999993	-7.48646600	30.03814000	3.57406500
4.29999992	-5.09719500	30.03814000	4.26919300
4.49999991	-1.43331700	30.03814000	4.26919300
4.69999990	3.02657500	30.03814000	3.57406500
4.89999989	6.84916400	30.03814000	3.19881900
5.09999987	9.23905000	29.99508000	3.11269700
5.29999986	9.07972400	29.61983000	2.73745100
5.49999985	6.84916400	28.87549000	1.99311000
5.69999984	2.70792300	28.50024000	1.66707700
5.89999983	-2.07062000	28.45718000	1.99311000
6.09999981	-6.37180100	28.45718000	2.73745100
6.29999980	-8.92039900	28.50024000	3.11269700
6.49999979	-9.39837600	28.87549000	3.15575800
6.69999978	-7.32714100	29.61983000	3.19881900
6.89999977	-3.66326300	29.99508000	3.53100400
7.09999975	0.79601380	30.03814000	3.90009800
7.29999974	4.61921700	29.99508000	3.53100400
7.49999973	7.16781500	29.66289000	3.19881900
7.69999972	7.64579200	29.25074000	3.11269700
7.89999971	6.37180100	29.24459000	2.78051200
8.09999970	3.66326300	28.87549000	2.41141700
8.29999968	0.31803640	28.92470000	2.78051200
8.49999967	-2.70792300	29.61983000	3.11269700
8.69999966	-4.61921700	29.99508000	3.15575800
8.89999965	-5.25652100	30.03814000	3.15575800
9.09999964	-4.45989200	30.03814000	3.15575800
9.29999962	-2.86724900	29.99508000	3.15575800
9.49999961	-0.79601380	29.61983000	3.15575800
9.69999960	0.95533960	28.92470000	3.15575800
9.89999959	2.07062000	28.87549000	3.15575800
10.09999958	2.54859700	29.24459000	3.15575800
10.29999956	2.22994600	29.20767000	3.11269700
10.49999955	1.43331700	29.28765000	2.78051200
10.69999954	0.63668800	29.20767000	2.41141700
10.89999953	-0.15871060	29.24459000	2.78051200
11.09999952	-0.63668800	28.83243000	3.11269700
11.29999951	-0.95533960	28.54946000	3.15575800
11.49999949	-0.95533960	28.83243000	3.15575800
11.69999948	-0.79601380	29.20152000	3.15575800
11.89999947	-0.31803640	28.83243000	3.15575800
12.09999946	-0.15871060	28.54946000	3.15575800
12.29999945	-0.15871060	28.83243000	3.15575800
12.49999943	-0.15871060	29.20152000	3.15575800
12.69999942	0.00000000	28.83243000	3.15575800
12.89999941	0.00000000	28.54946000	3.15575800
13.09999940	0.00000000	28.83243000	3.15575800
13.29999939	0.15871060	29.20152000	3.15575800
13.49999937	0.00000000	28.83243000	3.15575800
13.69999936	0.00000000	28.54946000	3.15575800
13.89999935	0.00000000	28.83243000	3.15575800
14.09999934	-0.15871060	29.20152000	3.15575800
14.29999933	-0.15871060	28.83243000	3.15575800
14.49999932	-0.15871060	28.54946000	3.15575800
14.69999930	-0.15871060	28.83243000	3.15575800
14.89999929	0.00000000	29.20152000	3.15575800
15.09999928	0.00000000	28.83243000	3.15575800
15.29999927	0.00000000	28.50024000	3.15575800
15.49999926	0.15871060	28.45718000	3.15575800
15.69999924	0.00000000	28.45718000	3.15575800
15.89999923	0.00000000	28.45718000	3.15575800
16.09999922	0.00000000	28.50024000	3.15575800
16.29999921	0.00000000	28.83243000	3.15575800
16.49999920	-0.15871060	29.24459000	3.15575800
16.69999919	0.00000000	29.25074000	3.15575800
16.89999917	-0.15871060	29.66289000	3.15575800
17.09999916	0.00000000	29.99508000	3.15575800
17.29999915	0.00000000	30.03814000	3.15575800
17.49999914	0.00000000	30.08120000	3.15575800
17.69999913	0.00000000	30.41338000	3.15575800
17.89999911	0.00000000	30.73326000	3.15575800
18.09999910	0.00000000	29.94586000	3.15575800
18.29999909	0.00000000	28.45718000	3.15575800
18.49999908	0.00000000	26.87623000	3.15575800
18.69999907	0.00000000	25.33834000	3.15575800
18.89999905	0.00000000	24.22490000	3.15575800
19.09999904	0.00000000	24.22490000	3.15575800
19.29999903	0.00000000	25.43061000	3.15575800
19.49999902	0.00000000	27.76206000	3.15575800
19.69999901	0.00000000	31.29306000	3.15575800
19.89999900	0.00000000	35.11319000	3.15575800
20.09999898	0.00000000	38.60113000	3.15575800
20.29999897	0.00000000	40.46506000	3.15575800
20.49999896	0.00000000	40.04675000	3.15575800
20.69999895	0.00000000	36.88484000	3.15575800
20.89999894	0.00000000	31.06545000	3.15575800
21.09999892	0.00000000	23.71432000	3.15575800
21.29999891	0.00000000	16.36319000	3.15575800
21.49999890	0.00000000	10.64222000	3.15575800
21.69999889	0.00000000	8.40920300	3.15575800
21.89999888	0.00000000	11.14665000	3.15575800
22.09999886	0.00000000	18.54700000	3.15575800
22.29999885	0.00000000	29.43528000	3.15575800
22.49999884	0.00000000	42.13828000	3.15575800
22.69999883	0.00000000	53.30339000	3.15575800
22.89999882	0.00000000	59.81791000	3.15575800
23.09999881	0.00000000	60.14394000	3.19881900
23.29999879	0.00000000	53.07578000	3.57406500
23.49999878	0.00000000	39.53617000	4.31840500
23.69999877	0.00000000	22.13336000	4.69365100
23.89999876	0.00000000	4.77977300	4.73671200
24.09999875	0.00000000	-8.29232200	4.73671200
24.29999873	0.00000000	-13.60113000	4.69365100
24.49999872	0.00000000	-8.90132800	4.22613100
24.69999871	0.00000000	5.38262700	2.69439000
24.89999870	0.00000000	25.84892000	0.41830710
25.09999869	0.00000000	47.90846000	-1.48868100
25.29999867	0.00000000	66.79995000	-2.64517700
25.49999866	0.00000000	77.92199000	-2.64517700
25.69999865	0.00000000	77.87278000	-1.48868100
25.89999864	0.00000000	66.28937000	0.51058070
26.09999863	0.00000000	45.81693000	3.66633800
26.29999862	0.00000000	21.10605000	7.84940900
26.49999860	0.00000000	-2.06077700	11.70029000
26.69999859	0.00000000	-18.29478000	13.98253000
26.89999858	0.00000000	-24.06496000	14.30241000
27.09999857	0.00000000	-17.87647000	11.56496000
27.29999856	0.00000000	-0.94119090	6.13312000
27.49999854	0.00000000	22.22564000	-0.83661410
27.69999853	0.00000000	46.19217000	-8.54453700
27.89999852	0.00000000	65.96333000	-14.67766000
28.09999851	0.00000000	77.13459000	-17.74729000
28.29999850	0.00000000	77.58981000	-16.86762000
28.49999848	0.00000000	67.17519000	-11.01132000
28.69999847	0.00000000	49.06496000	-0.97810030
28.89999846	0.00000000	27.38681000	10.96211000
29.09999845	0.00000000	6.96358300	22.20103000
29.29999844	0.00000000	-7.45570800	30.24729000
29.49999843	0.00000000	-13.32431000	33.26156000
29.69999841	0.00000000	-10.66068000	29.31840000
29.89999840	0.00000000	0.17224410	18.90994000
30.09999839	0.00000000	16.36319000	4.22613100
30.29999838	0.00000000	34.18430000	-11.61417000
30.49999837	0.00000000	50.04921000	-25.08612000
30.69999835	0.00000000	60.51919000	-33.16929000
30.89999834	0.00000000	63.68110000	-33.54453000
31.09999833	0.00000000	59.49188000	-26.20571000
31.29999832	0.00000000	49.48942000	-12.63533000
31.49999831	0.00000000	36.31890000	4.73671200
31.69999829	0.00000000	22.73622000	22.11491000
31.89999828	0.00000000	11.10359000	35.63607000
32.09999827	0.00000000	3.75246000	42.59965000
32.29999826	0.00000000	2.17150600	41.40009000
32.49999825	0.00000000	6.36072800	32.10507000
32.69999824	0.00000000	14.87451000	16.30783000
32.89999822	0.00000000	25.67052000	-2.22687000
33.09999821	0.00000000	36.50959000	-19.24212000
33.29999820	0.00000000	44.65428000	-31.63755000
33.49999819	0.00000000	48.97884000	-36.61417000
33.69999818	0.00000000	48.93578000	-33.21850000
33.89999816	0.00000000	44.32209000	-22.39788000
34.09999815	0.00000000	36.27584000	-6.92052100
34.29999814	0.00000000	27.38681000	10.45152000
34.49999813	0.00000000	19.66043000	25.87352000
34.69999812	0.00000000	14.64075000	35.54380000
34.89999810	0.00000000	13.84719000	37.95522000
35.09999809	0.00000000	16.87377000	32.89862000
35.29999808	0.00000000	22.64394000	21.73966000
35.49999807	0.00000000	29.52756000	6.68676100
35.69999806	0.00000000	35.34695000	-8.32308000
35.89999805	0.00000000	38.84104000	-19.93110000
36.09999803	0.00000000	39.62844000	-25.73819000
36.29999802	0.00000000	37.30315000	-24.58169000
36.49999801	0.00000000	32.73868000	-16.95374000
36.69999800	0.00000000	27.34375000	-5.01968500
36.89999799	0.00000000	22.73007000	7.67101300
37.09999797	0.00000000	20.03568000	18.44242000
37.29999796	0.00000000	19.99262000	24.20645000
37.49999795	0.00000000	22.31176000	23.51132000
37.69999794	0.00000000	26.18110000	17.42126000
37.89999793	0.00000000	31.15772000	7.80634800
38.09999791	0.00000000	35.34695000	-2.51599400
38.29999790	0.00000000	37.35236000	-10.59301000
38.49999789	0.00000000	37.39542000	-14.03789000
38.69999788	0.00000000	35.81446000	-12.12475000
38.89999787	0.00000000	32.68946000	-5.25344500
39.09999786	0.00000000	28.45718000	4.27534400
39.29999784	0.00000000	24.22490000	13.10285000
39.49999783	0.00000000	21.10605000	18.86688000
39.69999782	0.00000000	19.52510000	19.98031000
39.89999781	0.00000000	19.56816000	15.74803000
40.09999780	0.00000000	21.48130000	7.33882900
40.29999778	0.00000000	24.92003000	-2.64517700
40.49999777	0.00000000	28.41412000	-11.42962000
40.69999776	0.00000000	31.61909000	-16.40010000
40.89999775	0.00000000	34.69488000	-15.66191000
41.09999774	0.00000000	36.97712000	-9.94094400
41.29999772	0.00000000	37.35236000	-1.06422200
41.49999771	0.00000000	35.85752000	8.91978400
41.69999770	0.00000000	33.15699000	17.37820000
41.89999769	0.00000000	30.03814000	21.97957000
42.09999768	0.00000000	26.91929000	21.64739000
42.29999767	0.00000000	24.18184000	16.63386000
42.49999765	0.00000000	22.26870000	8.59375000
42.69999764	0.00000000	21.48130000	-0.64591530
42.89999763	0.00000000	22.22564000	-8.31692900
43.09999762	0.00000000	23.75738000	-12.63533000
43.29999761	0.00000000	25.71358000	-13.01058000
43.49999759	0.00000000	28.03888000	-9.61491000
43.69999758	0.00000000	29.99508000	-3.48794300
43.89999757	0.00000000	31.57603000	3.06963600
44.09999756	0.00000000	32.73252000	8.91978400
44.29999755	0.00000000	33.15699000	13.10285000
44.49999753	0.00000000	33.20005000	14.30241000
44.69999752	0.00000000	33.15699000	12.40773000
44.89999751	0.00000000	32.78174000	8.63681000
45.09999750	0.00000000	31.99434000	3.99237200
45.29999749	0.00000000	31.15157000	0.13533460
45.49999748	0.00000000	29.57062000	-2.60211600
45.69999746	0.00000000	27.20841000	-3.80782500
45.89999745	0.00000000	24.50172000	-3.43873000
46.09999744	0.00000000	21.38902000	-2.27608300
46.29999743	0.00000000	19.14985000	0.04306102
46.49999742	0.00000000	18.36245000	2.73745100
46.69999740	0.00000000	19.61737000	5.06274600
46.89999739	0.00000000	23.10531000	7.01279500
47.09999738	0.00000000	28.54946000	7.75713500
47.29999737	0.00000000	34.73794000	7.38188900
47.49999736	0.00000000	40.51427000	5.85014700
47.69999734	0.00000000	44.32209000	3.53100400
47.89999733	0.00000000	44.65428000	1.20570900
48.09999732	0.00000000	41.16019000	-1.11343500
48.29999731	0.00000000	34.23351000	-2.60211600
48.49999730	0.00000000	25.71358000	-2.64517700
48.69999729	0.00000000	17.61811000	-1.48868100
48.89999727	0.00000000	11.43578000	0.46751960
49.09999726	0.00000000	9.14739100	3.19881900
49.29999725	0.00000000	11.10359000	6.26845500
49.49999724	0.00000000	17.29208000	8.91978400
49.69999723	0.00000000	26.55019000	10.07628000
49.89999721	0.00000000	36.14050000	9.29502900
50.09999720	0.00000000	43.90379000	6.96358300
50.29999719	0.00000000	47.72391000	3.11269700
50.49999718	0.00000000	46.97957000	-1.07037400
50.69999717	0.00000000	41.53543000	-4.18307100
50.89999715	0.00000000	32.73868000	-5.75787400
51.09999714	0.00000000	23.10531000	-5.71481200
51.29999713	0.00000000	15.42815000	-3.76476400
51.49999712	0.00000000	11.52190000	0.09227362
51.69999711	0.00000000	12.26624000	4.69365100
51.89999710	0.00000000	16.87377000	8.91978400
52.09999708	0.00000000	24.22490000	11.61417000
52.29999707	0.00000000	32.64640000	11.98327000
52.49999706	0.00000000	39.53617000	10.07628000
52.69999705	0.00000000	42.65502000	6.26845500
52.89999704	0.00000000	41.58464000	2.04232300
53.09999702	0.00000000	37.34621000	-1.44562000
53.29999701	0.00000000	31.15772000	-3.76476400
53.49999700	0.00000000	24.26796000	-4.18307100
53.69999699	0.00000000	18.92224000	-3.02042300
53.89999698	0.00000000	16.96604000	-0.73818890
54.09999696	0.00000000	18.45472000	2.36220500
54.29999695	0.00000000	22.68701000	5.01968500
54.49999694	0.00000000	28.41412000	6.96358300
54.69999693	0.00000000	33.80905000	7.29576700
54.89999692	0.00000000	37.30315000	5.80093500
55.09999691	0.00000000	38.46580000	3.19881900
55.29999689	0.00000000	36.88484000	0.92888770
55.49999688	0.00000000	32.68946000	0.13533460
55.69999687	0.00000000	27.34375000	0.51058070
55.89999686	0.00000000	22.73007000	2.04232300
56.09999685	0.00000000	19.99262000	4.31840500
56.29999683	0.00000000	19.61737000	6.22539300
56.49999682	0.00000000	21.52436000	7.33882900
56.69999681	0.00000000	25.33834000	6.92052100
56.89999680	0.00000000	29.57062000	4.60137700
57.09999679	0.00000000	33.06471000	1.15649600
57.29999677	0.00000000	35.39001000	-2.69439000
57.49999676	0.00000000	35.76525000	-5.71481200
57.69999675	0.00000000	34.27657000	-6.82824800
57.89999674	0.00000000	31.57603000	-5.24729300
58.09999673	0.00000000	28.50024000	-1.02116100
58.29999672	0.00000000	25.80585000	4.73671200
58.49999670	0.00000000	24.26796000	10.49459000
58.69999669	0.00000000	24.22490000	14.72072000
58.89999668	0.00000000	25.33834000	16.20940000
59.09999667	0.00000000	26.87623000	14.25935000
59.29999666	0.00000000	28.45718000	8.87057000
59.49999664	0.00000000	29.94586000	1.58095500
59.69999663	0.00000000	30.73326000	-5.71481200
59.89999662	0.00000000	30.37032000	-11.10359000
60.09999661	0.00000000	29.61983000	-13.01058000
60.29999660	0.00000000	28.45718000	-11.10359000
60.49999658	0.00000000	27.34375000	-5.67175200
60.69999657	0.00000000	26.96850000	1.99311000
60.89999656	0.00000000	27.34375000	10.07628000
61.09999655	0.00000000	28.45718000	16.25861000
61.29999654	0.00000000	29.57062000	19.32825000
61.49999653	0.00000000	30.03814000	18.53469000
61.69999651	0.00000000	30.37032000	13.52116000
61.89999650	0.00000000	30.31496000	5.85014700
62.09999649	0.00000000	28.78937000	-2.64517700
62.29999648	0.00000000	26.91929000	-9.94094400
62.49999647	0.00000000	25.33834000	-14.16708000
62.69999645	0.00000000	24.18184000	-14.21629000
62.89999644	0.00000000	23.80659000	-10.35925000
63.09999643	0.00000000	24.22490000	-3.80782500
63.29999642	0.00000000	25.80585000	4.26919300
63.49999641	0.00000000	28.45718000	11.61417000
63.69999639	0.00000000	31.15157000	16.63386000
63.89999638	0.00000000	33.06471000	18.57775000
64.09999637	0.00000000	33.85211000	16.63386000
64.29999636	0.00000000	33.06471000	11.70029000
64.49999635	0.00000000	31.15157000	5.11195900
64.69999634	0.00000000	28.45718000	-1.43946800
64.89999632	0.00000000	25.76279000	-6.87130900
65.09999631	0.00000000	23.80659000	-9.98400600
65.29999630	0.00000000	22.68701000	-10.40846000
65.49999629	0.00000000	23.06225000	-8.50147600
65.69999628	0.00000000	24.96309000	-4.64443900
65.89999626	0.00000000	27.25147000	0.00000000
66.09999625	0.00000000	29.61983000	4.64443900
66.29999624	0.00000000	31.48376000	8.54453700
66.49999623	0.00000000	32.22810000	10.91289000
66.69999622	0.00000000	31.10851000	12.07554000
66.89999620	0.00000000	28.87549000	11.70029000
67.09999619	0.00000000	26.91929000	9.79945900
67.29999618	0.00000000	25.38755000	7.47416300
67.49999617	0.00000000	24.64321000	4.68750000
67.69999616	0.00000000	25.43061000	1.58095500
67.89999615	0.00000000	27.34375000	-1.53174200
68.09999613	0.00000000	30.03814000	-4.26919300
68.29999612	0.00000000	32.68946000	-6.17618100
68.49999611	0.00000000	34.18430000	-6.92052100
68.69999610	0.00000000	33.80905000	-5.71481200
68.89999609	0.00000000	31.48376000	-2.64517700
69.09999607	0.00000000	28.03888000	1.57480300
69.29999606	0.00000000	24.13263000	5.89320800
69.49999605	0.00000000	20.73080000	9.79945900
69.69999604	0.00000000	18.82997000	13.23819000
69.89999603	0.00000000	19.61737000	14.67766000
70.09999601	0.00000000	22.64394000	13.18898000
70.29999600	0.00000000	26.96850000	9.33809000
70.49999599	0.00000000	31.99434000	4.31840500
70.69999598	0.00000000	36.97096000	-1.11343500
70.89999597	0.00000000	40.00369000	-5.71481200
71.09999596	0.00000000	40.04675000	-8.40920300
71.29999594	0.00000000	37.34621000	-8.45226300
71.49999593	0.00000000	32.68946000	-6.13312000
71.69999592	0.00000000	26.87623000	-2.27608300
71.89999591	0.00000000	21.10605000	2.73745100
72.09999590	0.00000000	16.87377000	7.29576700
72.29999588	0.00000000	15.29281000	10.07628000
72.49999587	0.00000000	16.45546000	10.86983000
72.69999586	0.00000000	19.94340000	10.11934000
72.89999585	0.00000000	25.38755000	7.80019600
73.09999584	0.00000000	31.53297000	4.77977300
73.29999582	0.00000000	36.92790000	2.04232300
73.49999581	0.00000000	40.00369000	0.13533460
73.69999580	0.00000000	40.04675000	-0.65206690
73.89999579	0.00000000	37.34621000	0.09227362
74.09999578	0.00000000	32.73868000	1.53174200
74.29999577	0.00000000	27.34375000	2.68823800
74.49999575	0.00000000	22.73007000	3.06348400
74.69999574	0.00000000	19.94340000	2.68823800
74.89999573	0.00000000	19.14985000	1.53174200
75.09999572	0.00000000	19.94340000	0.04306102
75.29999571	0.00000000	22.64394000	-1.06422200
75.49999569	0.00000000	26.40871000	-1.06422200
75.69999568	0.00000000	29.52756000	0.13533460
75.89999567	0.00000000	31.52682000	2.46063000
76.09999566	0.00000000	32.68946000	5.89320800
76.29999565	0.00000000	32.68946000	8.96284400
76.49999563	0.00000000	31.57603000	10.86983000
76.69999562	0.00000000	30.03814000	11.18971000
76.89999561	0.00000000	28.50024000	8.87672100
77.09999560	0.00000000	27.34375000	4.69365100
77.29999559	0.00000000	26.91929000	0.00000000
77.49999558	0.00000000	26.87623000	-4.64443900
77.69999556	0.00000000	26.87623000	-8.45226300
77.89999555	0.00000000	26.87623000	-9.94094400
78.09999554	0.00000000	26.83317000	-8.40920300
78.29999553	0.00000000	26.45792000	-4.18307100
78.49999552	0.00000000	25.71358000	1.57480300
78.69999550	0.00000000	25.33834000	7.38188900
78.89999549	0.00000000	25.33834000	12.03248000
79.09999548	0.00000000	25.80585000	14.72072000
79.29999547	0.00000000	27.34375000	14.72072000
79.49999546	0.00000000	29.61983000	12.03248000
79.69999544	0.00000000	31.57603000	7.42495000
79.89999543	0.00000000	33.06471000	1.99311000
80.09999542	0.00000000	33.43381000	-3.02042300
80.29999541	0.00000000	31.90822000	-6.92052100
80.49999540	0.00000000	29.61983000	-8.82750900
80.69999539	0.00000000	26.87623000	-8.45226300
80.89999537	0.00000000	24.22490000	-5.75787400
81.09999536	0.00000000	22.64394000	-1.57480300
81.29999535	0.00000000	22.26870000	2.69439000
81.49999534	0.00000000	23.06225000	6.22539300
81.69999533	0.00000000	25.33834000	9.00590400
81.89999531	0.00000000	28.03888000	10.91289000
82.09999530	0.00000000	30.37032000	11.65723000
82.29999529	0.00000000	32.31422000	10.49459000
82.49999528	0.00000000	33.02165000	7.84940900
82.69999527	0.00000000	32.31422000	4.73671200
82.89999525	0.00000000	30.41338000	1.58095500
83.09999524	0.00000000	28.50024000	-1.53174200
83.29999523	0.00000000	26.91929000	-4.22613100
83.49999522	0.00000000	25.76279000	-5.75787400
83.69999521	0.00000000	25.33834000	-5.80093500
83.89999520	0.00000000	25.33834000	-4.60137700
84.09999518	0.00000000	25.71358000	-2.27608300
84.29999517	0.00000000	26.50098000	1.24877000
84.49999516	0.00000000	27.20841000	5.11195900
84.69999515	0.00000000	27.66363000	8.96284400
84.89999514	0.00000000	27.66978000	11.65723000
85.09999512	0.00000000	28.08194000	12.40773000
85.29999511	0.00000000	28.41412000	11.28199000
85.49999510	0.00000000	28.45718000	8.17544300
85.69999509	0.00000000	28.50024000	4.31840500
85.89999508	0.00000000	28.87549000	0.00000000
86.09999506	0.00000000	29.61983000	-4.18307100
86.29999505	0.00000000	29.94586000	-6.87746000
86.49999504	0.00000000	29.57062000	-7.24655500
86.69999503	0.00000000	28.41412000	-5.38262700
86.89999502	0.00000000	26.87623000	-1.86392700
87.09999501	0.00000000	25.33834000	2.36835600
87.29999499	0.00000000	24.22490000	7.00664300
87.49999498	0.00000000	24.18184000	10.45152000
87.69999497	0.00000000	24.96309000	11.98327000
87.89999496	0.00000000	26.13189000	11.18971000
88.09999495	0.00000000	28.08194000	7.75713500
88.29999493	0.00000000	29.94586000	3.20497000
88.49999492	0.00000000	31.15157000	-1.11343500
88.69999491	0.00000000	31.52682000	-4.55831700
88.89999490	0.00000000	31.15157000	-6.45300100
89.09999489	0.00000000	29.94586000	-5.67175200
89.29999487	0.00000000	28.08194000	-2.64517700
89.49999486	0.00000000	26.13189000	1.57480300
89.69999485	0.00000000	24.96309000	5.80093500
89.89999484	0.00000000	24.18184000	8.91978400
90.09999483	0.00000000	24.22490000	10.45152000
90.29999482	0.00000000	25.33834000	10.03322000
90.49999480	0.00000000	26.83317000	7.33882900
90.69999479	0.00000000	28.03888000	3.15575800
90.89999478	0.00000000	28.83243000	-1.07037400
91.09999477	0.00000000	29.57062000	-4.13385800
91.29999476	0.00000000	29.57062000	-5.29650500
91.49999474	0.00000000	28.87549000	-4.13385800
91.69999473	0.00000000	28.50024000	-1.07037400
91.89999472	0.00000000	28.45718000	3.15575800
92.09999471	0.00000000	28.41412000	7.33882900
92.29999470	0.00000000	28.03888000	10.03322000
92.49999468	0.00000000	27.29453000	10.40846000
92.69999467	0.00000000	26.91929000	8.50147600
92.89999466	0.00000000	26.83317000	4.64443900
93.09999465	0.00000000	26.45792000	0.04306102
93.29999464	0.00000000	25.67052000	-4.14000900
93.49999463	0.00000000	25.01230000	-6.45300100
93.69999461	0.00000000	24.97539000	-6.09005900
93.89999460	0.00000000	26.12574000	-3.80782500
94.09999459	0.00000000	27.25147000	0.09227362
94.29999458	0.00000000	28.54946000	4.64443900
94.49999457	0.00000000	30.41338000	8.45226300
94.69999455	0.00000000	32.31422000	10.03322000
94.89999454	0.00000000	33.06471000	9.29502900
95.09999453	0.00000000	32.68946000	6.96358300
95.29999452	0.00000000	31.10851000	3.11269700
95.49999451	0.00000000	28.41412000	-1.07037400
95.69999449	0.00000000	25.33834000	-4.13385800
95.89999448	0.00000000	22.64394000	-5.29650500
96.09999447	0.00000000	21.06299000	-4.18307100
96.29999446	0.00000000	20.68774000	-1.53174200
96.49999445	0.00000000	21.48130000	1.58095500
96.69999444	0.00000000	23.84965000	4.68750000
96.89999442	0.00000000	27.29453000	7.33882900
97.09999441	0.00000000	31.15772000	8.50147600
97.29999440	0.00000000	34.23351000	7.75713500
97.49999439	0.00000000	35.81446000	5.85014700
97.69999438	0.00000000	35.81446000	3.15575800
97.89999436	0.00000000	34.23351000	0.51058070
98.09999435	0.00000000	31.10851000	-1.06422200
98.29999434	0.00000000	26.87623000	-1.48253000
98.49999433	0.00000000	22.68701000	-1.11343500
98.69999432	0.00000000	19.94340000	0.04306102
98.89999430	0.00000000	19.10679000	1.57480300
99.09999429	0.00000000	19.52510000	3.11269700
99.29999428	0.00000000	21.48130000	4.22613100
99.49999427	0.00000000	24.92003000	4.26919300
99.69999426	0.00000000	28.41412000	3.57406500
99.89999425	0.00000000	31.57603000	3.19881900
100.09999423	0.00000000	34.23351000	3.19881900
100.29999422	0.00000000	35.39616000	3.57406500
100.49999421	0.00000000	34.65182000	4.31840500
100.69999420	0.00000000	32.73868000	4.69365100
100.89999419	0.00000000	29.99508000	4.69365100
101.09999417	0.00000000	26.87623000	4.26919300
101.29999416	0.00000000	23.80659000	3.11269700
101.49999415	0.00000000	21.52436000	1.57480300
101.69999414	0.00000000	21.06299000	0.04306102
101.89999413	0.00000000	21.80118000	-1.11343500
102.09999411	0.00000000	23.01919000	-1.43946800
102.29999410	0.00000000	25.33834000	-0.64591530
102.49999409	0.00000000	27.98966000	1.62401600
102.69999408	0.00000000	29.99508000	4.26919300
102.89999407	0.00000000	31.57603000	6.26845500
103.09999406	0.00000000	32.68946000	7.80019600
103.29999404	0.00000000	32.64640000	8.50147600
103.49999403	0.00000000	31.15157000	7.33882900
103.69999402	0.00000000	28.87549000	4.68750000
103.89999401	0.00000000	26.91929000	1.62401600
104.09999400	0.00000000	25.33834000	-1.07037400
104.29999398	0.00000000	24.18184000	-2.64517700
104.49999397	0.00000000	23.80659000	-3.06348400
104.69999396	0.00000000	24.18184000	-2.64517700
104.89999395	0.00000000	25.33834000	-1.07037400
105.09999394	0.00000000	26.87623000	1.58095500
105.29999392	0.00000000	28.41412000	4.26919300
105.49999391	0.00000000	29.57062000	6.17618100
105.69999390	0.00000000	29.94586000	6.96358300
105.89999389	0.00000000	29.57062000	6.22539300
106.09999388	0.00000000	28.45718000	4.68750000
106.29999387	0.00000000	27.29453000	2.73745100
106.49999385	0.00000000	26.50098000	0.46751960
106.69999384	0.00000000	25.71358000	-1.02116100
106.89999383	0.00000000	25.38755000	-1.11343500
107.09999382	0.00000000	25.76279000	-0.32603340
107.29999381	0.00000000	26.91929000	0.83661410
107.49999379	0.00000000	28.41412000	2.73745100
107.69999378	0.00000000	29.52756000	4.22613100
107.89999377	0.00000000	29.57062000	4.64443900
108.09999376	0.00000000	28.83243000	4.26919300
108.29999375	0.00000000	28.03888000	3.11269700
108.49999374	0.00000000	26.83317000	1.62401600
108.69999372	0.00000000	25.33834000	0.46136810
108.89999371	0.00000000	24.22490000	0.04306102
109.09999370	0.00000000	24.22490000	0.04306102
109.29999369	0.00000000	25.33834000	0.46136810
109.49999368	0.00000000	26.87623000	1.62401600
109.69999366	0.00000000	28.41412000	3.15575800
109.89999365	0.00000000	29.57062000	4.64443900
110.09999364	0.00000000	29.99508000	5.43184000
110.29999363	0.00000000	29.99508000	5.06274600
110.49999362	0.00000000	29.57062000	4.31840500
110.69999360	0.00000000	28.41412000	3.11269700
110.89999359	0.00000000	26.87623000	1.62401600
111.09999358	0.00000000	25.33834000	0.46136810
111.29999357	0.00000000	24.22490000	0.04306102
111.49999356	0.00000000	24.18184000	0.00000000
111.69999355	0.00000000	24.92003000	0.04306102
111.89999353	0.00000000	25.71358000	0.46136810
112.09999352	0.00000000	26.87623000	1.57480300
112.29999351	0.00000000	27.98966000	2.73745100
112.49999350	0.00000000	28.41412000	3.53100400
112.69999349	0.00000000	28.45718000	4.26919300
112.89999347	0.00000000	28.45718000	4.26919300
113.09999346	0.00000000	28.41412000	3.57406500
113.29999345	0.00000000	27.98966000	3.15575800
113.49999344	0.00000000	26.87623000	2.73745100
113.69999343	0.00000000	25.76279000	1.99311000
113.89999341	0.00000000	25.38755000	1.61786400
114.09999340	0.00000000	25.71358000	1.57480300
114.29999339	0.00000000	26.45792000	1.57480300
114.49999338	0.00000000	26.87623000	1.57480300
114.69999337	0.00000000	27.29453000	1.57480300
114.89999336	0.00000000	28.03888000	1.53174200
115.09999334	0.00000000	28.41412000	1.15649600
115.29999333	0.00000000	28.45718000	0.41830710
115.49999332	0.00000000	28.41412000	0.09227362
115.69999331	0.00000000	28.03888000	0.46136810
115.89999330	0.00000000	27.29453000	1.57480300
116.09999328	0.00000000	26.87623000	2.68823800
116.29999327	0.00000000	26.45792000	3.11269700
116.49999326	0.00000000	25.76279000	3.19881900
116.69999325	0.00000000	25.71358000	3.53100400
116.89999324	0.00000000	26.08268000	3.90009800
117.09999322	0.00000000	26.13189000	3.48794300
117.29999321	0.00000000	26.91929000	2.78051200
117.49999320	0.00000000	27.98966000	1.95004900
117.69999319	0.00000000	28.45718000	1.19955700
117.89999318	0.00000000	28.87549000	0.41830710
118.09999317	0.00000000	29.57062000	0.04306102
118.29999315	0.00000000	29.52756000	0.04306102
118.49999314	0.00000000	28.45718000	0.41830710
118.69999313	0.00000000	27.29453000	1.19955700
118.89999312	0.00000000	26.45792000	1.95004900
119.09999311	0.00000000	25.29527000	2.73745100
119.29999309	0.00000000	24.22490000	3.11269700
119.49999308	0.00000000	24.18184000	3.15575800
119.69999307	0.00000000	24.92003000	3.15575800
119.89999306	0.00000000	25.71358000	3.15575800
120.09999305	0.00000000	26.91929000	3.15575800
120.29999303	0.00000000	28.41412000	3.11269700
120.49999302	0.00000000	29.57062000	2.73745100
120.69999301	0.00000000	29.99508000	1.99311000
120.89999300	0.00000000	29.99508000	1.57480300
121.09999299	0.00000000	29.57062000	1.15649600
121.29999298	0.00000000	28.41412000	0.46136810
121.49999296	0.00000000	26.87623000	0.46136810
121.69999295	0.00000000	25.33834000	1.15649600
121.89999294	0.00000000	24.18184000	1.53174200
122.09999293	0.00000000	23.80659000	1.61786400
122.29999292	0.00000000	24.13263000	1.99311000
122.49999290	0.00000000	24.92003000	2.78051200
122.69999289	0.00000000	25.71358000	3.53100400
122.89999288	0.00000000	26.87623000	4.26919300
123.09999287	0.00000000	27.98966000	4.26919300
123.29999286	0.00000000	28.45718000	3.57406500
123.49999284	0.00000000	28.83243000	3.15575800
123.69999283	0.00000000	29.20152000	2.73745100
123.89999282	0.00000000	28.83243000	1.99311000
124.09999281	0.00000000	28.45718000	1.57480300
124.29999280	0.00000000	27.98966000	1.19955700
124.49999279	0.00000000	26.87623000	0.83661410
124.69999277	0.00000000	25.76279000	1.19955700
124.89999276	0.00000000	25.33834000	1.53174200
125.09999275	0.00000000	25.29527000	1.57480300
125.29999274	0.00000000	25.29527000	1.61786400
125.49999273	0.00000000	25.33834000	1.99311000
125.69999271	0.00000000	25.71358000	2.73745100
125.89999270	0.00000000	26.50098000	3.11269700
126.09999269	0.00000000	27.25147000	3.15575800
126.29999268	0.00000000	28.03888000	3.15575800
126.49999267	0.00000000	28.41412000	3.11269700
126.69999265	0.00000000	28.45718000	2.73745100
126.89999264	0.00000000	28.41412000	1.99311000
127.09999263	0.00000000	28.03888000	1.61786400
127.29999262	0.00000000	27.25147000	1.57480300
127.49999261	0.00000000	26.45792000	1.57480300
127.69999260	0.00000000	25.29527000	1.57480300
127.89999258	0.00000000	24.22490000	1.57480300
128.09999257	0.00000000	24.18184000	1.57480300
128.29999256	0.00000000	24.92003000	1.61786400
128.49999255	0.00000000	25.71358000	1.99311000
128.69999254	0.00000000	26.87623000	2.73745100
128.89999252	0.00000000	27.98966000	3.06348400
129.09999251	0.00000000	28.41412000	2.78051200
129.29999250	0.00000000	28.45718000	2.36835600
129.49999249	0.00000000	28.41412000	2.36220500
129.69999248	0.00000000	27.98966000	1.95004900
129.89999246	0.00000000	26.87623000	1.61786400
130.09999245	0.00000000	25.76279000	1.61786400
130.29999244	0.00000000	25.33834000	1.99311000
130.49999243	0.00000000	25.33834000	2.73745100
130.69999242	0.00000000	25.71358000	3.11269700
130.89999241	0.00000000	26.45792000	3.11269700
131.09999239	0.00000000	26.87623000	2.73745100
131.29999238	0.00000000	27.29453000	1.99311000
131.49999237	0.00000000	28.03888000	1.61786400
131.69999236	0.00000000	28.36491000	1.53174200
131.89999235	0.00000000	28.03888000	1.15649600
132.09999233	0.00000000	27.25147000	0.41830710
132.29999232	0.00000000	26.50098000	0.04306102
132.49999231	0.00000000	25.71358000	0.04306102
132.69999230	0.00000000	25.33834000	0.41830710
132.89999229	0.00000000	25.33834000	1.19955700
133.09999227	0.00000000	25.71358000	1.95004900
133.29999226	0.00000000	26.45792000	2.73745100
133.49999225	0.00000000	26.83317000	3.11269700
133.69999224	0.00000000	26.87623000	3.15575800
133.89999223	0.00000000	26.87623000	3.15575800
134.09999222	0.00000000	26.87623000	3.11269700
134.29999220	0.00000000	26.87623000	2.73745100
134.49999219	0.00000000	26.87623000	1.95004900
134.69999218	0.00000000	26.87623000	1.19955700
134.89999217	0.00000000	26.87623000	0.41830710
135.09999216	0.00000000	26.87623000	0.04306102
135.29999214	0.00000000	26.87623000	0.04306102
135.49999213	0.00000000	26.87623000	0.41830710
135.69999212	0.00000000	26.87623000	1.19955700
135.89999211	0.00000000	26.87623000	1.95004900
136.09999210	0.00000000	26.83317000	2.73745100
136.29999208	0.00000000	26.45792000	3.11269700
136.49999207	0.00000000	25.71358000	3.15575800
136.69999206	0.00000000	25.33834000	3.15575800
136.89999205	0.00000000	25.29527000	3.11269700
137.09999204	0.00000000	25.33834000	2.73745100
137.29999203	0.00000000	25.71358000	1.95004900
137.49999201	0.00000000	26.50098000	1.24877000
137.69999200	0.00000000	27.25147000	0.83661410
137.89999199	0.00000000	28.03888000	1.15649600
138.09999198	0.00000000	28.41412000	1.11343500
138.29999197	0.00000000	28.41412000	0.46136810
138.49999195	0.00000000	27.98966000	0.46136810
138.69999194	0.00000000	26.87623000	1.15649600
138.89999193	0.00000000	25.76279000	1.57480300
139.09999192	0.00000000	25.33834000	1.99311000
139.29999191	0.00000000	25.29527000	2.73745100
139.49999189	0.00000000	25.33834000	3.11269700
139.69999188	0.00000000	25.71358000	3.15575800
139.89999187	0.00000000	26.45792000	3.15575800
140.09999186	0.00000000	26.87623000	3.15575800
140.29999185	0.00000000	27.29453000	3.11269700
140.49999184	0.00000000	27.98966000	2.73745100
140.69999182	0.00000000	27.98966000	1.95004900
140.89999181	0.00000000	27.29453000	1.19955700
141.09999180	0.00000000	26.87623000	0.41830710
141.29999179	0.00000000	26.45792000	0.09227362
141.49999178	0.00000000	25.71358000	0.41830710
141.69999176	0.00000000	25.33834000	1.19955700
141.89999175	0.00000000	25.33834000	1.95004900
142.09999174	0.00000000	25.71358000	2.78051200
142.29999173	0.00000000	26.45792000	3.53100400
142.49999172	0.00000000	26.83317000	4.31840500
142.69999170	0.00000000	26.87623000	4.64443900
142.89999169	0.00000000	26.87623000	4.26919300
143.09999168	0.00000000	26.87623000	3.11269700
143.29999167	0.00000000	26.87623000	1.62401600
143.49999166	0.00000000	26.83317000	0.46136810
143.69999165	0.00000000	26.45792000	0.04306102
143.89999163	0.00000000	25.76279000	0.00000000
144.09999162	0.00000000	25.76279000	0.04306102
144.29999161	0.00000000	26.45792000	0.46136810
144.49999160	0.00000000	26.83317000	1.57480300
144.69999159	0.00000000	26.87623000	2.68823800
144.89999157	0.00000000	26.87623000	3.11269700
145.09999156	0.00000000	26.87623000	3.15575800
145.29999155	0.00000000	26.83317000	3.11269700
145.49999154	0.00000000	26.45792000	2.73745100
145.69999153	0.00000000	25.71358000	1.99311000
145.89999151	0.00000000	25.33834000	1.61786400
146.09999150	0.00000000	25.29527000	1.53174200
146.29999149	0.00000000	25.33834000	1.19955700
146.49999148	0.00000000	25.71358000	0.83661410
146.69999147	0.00000000	26.45792000	1.19955700
146.89999146	0.00000000	26.83317000	1.53174200
147.09999144	0.00000000	26.87623000	1.57480300
147.29999143	0.00000000	26.87623000	1.61786400
147.49999142	0.00000000	26.87623000	1.99311000
147.69999141	0.00000000	26.87623000	2.73745100
147.89999140	0.00000000	26.83317000	3.11269700
148.09999138	0.00000000	26.45792000	3.15575800
148.29999137	0.00000000	25.71358000	3.15575800
148.49999136	0.00000000	25.33834000	3.11269700
148.69999135	0.00000000	25.33834000	2.73745100
148.89999134	0.00000000	25.71358000	1.99311000
149.09999132	0.00000000	26.45792000	1.61786400
149.29999131	0.00000000	26.83317000	1.57480300
149.49999130	0.00000000	26.87623000	1.57480300
149.69999129	0.00000000	26.87623000	1.57480300
149.89999128	0.00000000	26.87623000	1.57480300
150.09999127	0.00000000	26.87623000	1.57480300
150.29999125	0.00000000	26.87623000	1.57480300
150.49999124	0.00000000	26.87623000	1.61786400
150.69999123	0.00000000	26.83317000	1.99311000
150.89999122	0.00000000	26.45792000	2.73745100
151.09999121	0.00000000	25.71358000	3.11269700
151.29999119	0.00000000	25.33834000	3.15575800
151.49999118	0.00000000	25.29527000	3.11269700
151.69999117	0.00000000	25.29527000	2.73745100
151.89999116	0.00000000	25.33834000	1.99311000
152.09999115	0.00000000	25.71358000	1.61786400
152.29999113	0.00000000	26.45792000	1.57480300
152.49999112	0.00000000	26.83317000	1.57480300
152.69999111	0.00000000	26.87623000	1.57480300
152.89999110	0.00000000	26.87623000	1.57480300
153.09999109	0.00000000	26.87623000	1.57480300
153.29999108	0.00000000	26.87623000	1.57480300
153.49999106	0.00000000	26.83317000	1.57480300
153.69999105	0.00000000	26.45792000	1.61786400
153.89999104	0.00000000	25.71358000	1.99311000
154.09999103	0.00000000	25.33834000	2.68823800
154.29999102	0.00000000	25.29527000	2.68823800
154.49999100	0.00000000	25.29527000	2.04232300
154.69999099	0.00000000	25.29527000	1.99311000
154.89999098	0.00000000	25.33834000	2.31914400
155.09999097	0.00000000	25.71358000	1.95004900
155.29999096	0.00000000	26.45792000	1.61786400
155.49999094	0.00000000	26.83317000	1.57480300
155.69999093	0.00000000	26.87623000	1.57480300
155.89999092	0.00000000	26.87623000	1.57480300
156.09999091	0.00000000	26.87623000	1.57480300
156.29999090	0.00000000	26.87623000	1.57480300
156.49999089	0.00000000	26.83317000	1.61786400
156.69999087	0.00000000	26.45792000	1.99311000
156.89999086	0.00000000	25.71358000	2.73745100
157.09999085	0.00000000	25.33834000	3.11269700
157.29999084	0.00000000	25.29527000	3.15575800
157.49999083	0.00000000	25.29527000	3.15575800
157.69999081	0.00000000	25.33834000	3.11269700
157.89999080	0.00000000	25.71358000	2.73745100
158.09999079	0.00000000	26.45792000	1.99311000
158.29999078	0.00000000	26.83317000	1.61786400
158.49999077	0.00000000	26.87623000	1.53174200
158.69999075	0.00000000	26.87623000	1.19955700
158.89999074	0.00000000	26.87623000	0.83661410
159.09999073	0.00000000	26.87623000	1.19955700
159.29999072	0.00000000	26.87623000	1.57480300
159.49999071	0.00000000	26.87623000	1.99311000
159.69999070	0.00000000	26.83317000	2.73745100
159.89999068	0.00000000	26.45792000	3.11269700
160.09999067	0.00000000	25.71358000	3.15575800
160.29999066	0.00000000	25.33834000	3.11269700
160.49999065	0.00000000	25.29527000	2.73745100
160.69999064	0.00000000	25.29527000	1.99311000
160.89999062	0.00000000	25.29527000	1.61786400
161.09999061	0.00000000	25.33834000	1.57480300
161.29999060	0.00000000	25.71358000	1.53174200
161.49999059	0.00000000	26.45792000	1.19955700
161.69999058	0.00000000	26.83317000	0.83661410
161.89999056	0.00000000	26.87623000	1.19955700
162.09999055	0.00000000	26.87623000	1.53174200
162.29999054	0.00000000	26.87623000	1.61786400
162.49999053	0.00000000	26.87623000	1.95004900
162.69999052	0.00000000	26.83317000	2.36220500
162.89999051	0.00000000	26.45792000	2.32529500
163.09999049	0.00000000	25.71358000	2.36220500
163.29999048	0.00000000	25.33834000	1.95004900
163.49999047	0.00000000	25.29527000	1.61786400
163.69999046	0.00000000	25.29527000	1.57480300
163.89999045	0.00000000	25.29527000	1.57480300
164.09999043	0.00000000	25.29527000	1.57480300
164.29999042	0.00000000	25.33834000	1.57480300
164.49999041	0.00000000	25.71358000	1.57480300
164.69999040	0.00000000	26.45792000	1.57480300
164.89999039	0.00000000	26.83317000	1.57480300
165.09999037	0.00000000	26.87623000	1.57480300
165.29999036	0.00000000	26.87623000	1.57480300
165.49999035	0.00000000	26.87623000	1.57480300
165.69999034	0.00000000	26.87623000	1.57480300
165.89999033	0.00000000	26.83317000	1.57480300
166.09999032	0.00000000	26.45792000	1.57480300
166.29999030	0.00000000	25.71358000	1.61786400
166.49999029	0.00000000	25.33834000	1.95004900
166.69999028	0.00000000	25.29527000	2.31914400
166.89999027	0.00000000	25.29527000	1.95004900
167.09999026	0.00000000	25.29527000	1.61786400
167.29999024	0.00000000	25.33834000	1.57480300
167.49999023	0.00000000	25.71358000	1.57480300
167.69999022	0.00000000	26.45792000	1.57480300
167.89999021	0.00000000	26.83317000	1.57480300
168.09999020	0.00000000	26.87623000	1.57480300
168.29999018	0.00000000	26.87623000	1.57480300
168.49999017	0.00000000	26.87623000	1.57480300
168.69999016	0.00000000	26.87623000	1.57480300
168.89999015	0.00000000	26.83317000	1.57480300
169.09999014	0.00000000	26.45792000	1.57480300
169.29999013	0.00000000	25.71358000	1.57480300
169.49999011	0.00000000	25.33834000	1.57480300
169.69999010	0.00000000	25.29527000	1.57480300
169.89999009	0.00000000	25.29527000	1.57480300
170.09999008	0.00000000	25.29527000	1.57480300
170.29999007	0.00000000	25.29527000	1.57480300
170.49999005	0.00000000	25.33834000	1.57480300
170.69999004	0.00000000	25.71358000	1.57480300
170.89999003	0.00000000	26.45792000	1.57480300
171.09999002	0.00000000	26.83317000	1.57480300
171.29999001	0.00000000	26.87623000	1.57480300
171.49998999	0.00000000	26.87623000	1.57480300
171.69998998	0.00000000	26.83317000	1.57480300
171.89998997	0.00000000	26.45792000	1.57480300
172.09998996	0.00000000	25.71358000	1.57480300
172.29998995	0.00000000	25.33834000	1.57480300
172.49998994	0.00000000	25.29527000	1.57480300
172.69998992	0.00000000	25.29527000	1.57480300
172.89998991	0.00000000	25.29527000	1.61786400
173.09998990	0.00000000	25.29527000	1.95004900
173.29998989	0.00000000	25.29527000	2.31914400
173.49998988	0.00000000	25.33834000	1.95004900
173.69998986	0.00000000	25.67052000	1.61786400
173.89998985	0.00000000	26.03961000	1.57480300
174.09998984	0.00000000	25.71358000	1.57480300
174.29998983	0.00000000	25.76279000	1.57480300
174.49998982	0.00000000	26.40871000	1.57480300
174.69998980	0.00000000	26.40871000	1.57480300
174.89998979	0.00000000	25.71358000	1.57480300
175.09998978	0.00000000	25.33834000	1.57480300
175.29998977	0.00000000	25.29527000	1.57480300
175.49998976	0.00000000	25.33834000	1.57480300
175.69998975	0.00000000	25.67052000	1.57480300
175.89998973	0.00000000	26.03961000	1.57480300
176.09998972	0.00000000	25.71358000	1.57480300
176.29998971	0.00000000	25.71358000	1.61786400
176.49998970	0.00000000	26.03961000	1.95004900
176.69998969	0.00000000	25.71358000	2.31914400
176.89998967	0.00000000	25.71358000	1.95004900
177.09998966	0.00000000	26.03961000	1.61786400
177.29998965	0.00000000	25.67052000	1.57480300
177.49998964	0.00000000	25.33834000	1.57480300
177.69998963	0.00000000	25.29527000	1.57480300
177.89998961	0.00000000	25.29527000	1.57480300
178.09998960	0.00000000	25.29527000	1.57480300
178.29998959	0.00000000	25.29527000	1.57480300
178.49998958	0.00000000	25.29527000	1.57480300
178.69998957	0.00000000	25.29527000	1.57480300
178.89998956	0.00000000	25.29527000	1.57480300
179.09998954	0.00000000	25.33834000	1.57480300
179.29998953	0.00000000	25.67052000	1.57480300
179.49998952	0.00000000	26.08268000	1.57480300
179.69998951	0.00000000	26.04577000	1.57480300
179.89998950	0.00000000	26.08268000	1.57480300
180.09998948	0.00000000	25.67052000	1.57480300
180.29998947	0.00000000	25.33834000	1.57480300
180.49998946	0.00000000	25.29527000	1.53174200
180.69998945	0.00000000	25.29527000	1.19955700
180.89998944	0.00000000	25.29527000	0.83661410
181.09998942	0.00000000	25.29527000	1.19955700
181.29998941	0.00000000	25.29527000	1.53174200
181.49998940	0.00000000	25.29527000	1.57480300
181.69998939	0.00000000	25.33834000	1.57480300
181.89998938	0.00000000	25.67052000	1.61786400
182.09998937	0.00000000	26.08268000	1.95004900
182.29998935	0.00000000	26.08883000	2.31914400
182.49998934	0.00000000	26.50098000	1.95004900
182.69998933	0.00000000	26.78395000	1.61786400
182.89998932	0.00000000	26.50098000	1.57480300
183.09998931	0.00000000	26.08883000	1.57480300
183.29998929	0.00000000	26.08268000	1.57480300
183.49998928	0.00000000	25.67052000	1.57480300
183.69998927	0.00000000	25.33834000	1.57480300
183.89998926	0.00000000	25.29527000	1.57480300
184.09998925	0.00000000	25.29527000	1.57480300
184.29998923	0.00000000	25.29527000	1.61786400
184.49998922	0.00000000	25.29527000	1.95004900
184.69998921	0.00000000	25.29527000	2.36220500
184.89998920	0.00000000	25.29527000	2.36835600
185.09998919	0.00000000	25.29527000	2.73745100
185.29998918	0.00000000	25.29527000	2.68823800
185.49998916	0.00000000	25.29527000	1.99311000
185.69998915	0.00000000	25.33834000	1.61786400
185.89998914	0.00000000	25.67052000	1.53174200
186.09998913	0.00000000	26.08268000	1.15649600
186.29998912	0.00000000	26.04577000	0.46136810
186.49998910	0.00000000	26.12574000	0.46136810
186.69998909	0.00000000	26.04577000	1.15649600
186.89998908	0.00000000	26.08268000	1.53174200
187.09998907	0.00000000	25.67052000	1.57480300
187.29998906	0.00000000	25.33834000	1.61786400
187.49998904	0.00000000	25.29527000	1.99311000
187.69998903	0.00000000	25.29527000	2.73745100
187.89998902	0.00000000	25.29527000	3.11269700
188.09998901	0.00000000	25.29527000	3.11269700
188.29998900	0.00000000	25.29527000	2.73745100
188.49998899	0.00000000	25.33834000	1.99311000
188.69998897	0.00000000	25.67052000	1.61786400
188.89998896	0.00000000	26.03961000	1.53174200
189.09998895	0.00000000	25.71358000	1.19955700
189.29998894	0.00000000	25.71358000	0.79355310
189.49998893	0.00000000	26.08268000	0.83046260
189.69998891	0.00000000	26.04577000	0.79355310
189.89998890	0.00000000	26.08268000	1.19955700
190.09998889	0.00000000	25.67052000	1.53174200
190.29998888	0.00000000	25.33834000	1.57480300
190.49998887	0.00000000	25.29527000	1.57480300
190.69998885	0.00000000	25.29527000	1.57480300
190.89998884	0.00000000	25.29527000	1.57480300
191.09998883	0.00000000	25.29527000	1.57480300
191.29998882	0.00000000	25.33834000	1.57480300
191.49998881	0.00000000	25.67052000	1.57480300
191.69998880	0.00000000	26.08268000	1.57480300
191.89998878	0.00000000	26.08883000	1.57480300
192.09998877	0.00000000	26.45792000	1.57480300
192.29998876	0.00000000	26.40871000	1.57480300
192.49998875	0.00000000	25.71358000	1.57480300
192.69998874	0.00000000	25.33834000	1.57480300
192.89998872	0.00000000	25.29527000	1.57480300
193.09998871	0.00000000	25.29527000	1.57480300
193.29998870	0.00000000	25.29527000	1.57480300
193.49998869	0.00000000	25.29527000	1.57480300
193.69998868	0.00000000	25.29527000	1.57480300
193.89998866	0.00000000	25.29527000	1.57480300
194.09998865	0.00000000	25.33834000	1.57480300
194.29998864	0.00000000	25.67052000	1.57480300
194.49998863	0.00000000	26.08268000	1.61786400
194.69998862	0.00000000	26.04577000	1.95004900
194.89998861	0.00000000	26.08268000	2.31914400
195.09998859	0.00000000	25.67052000	1.95004900
195.29998858	0.00000000	25.33834000	1.61786400
195.49998857	0.00000000	25.29527000	1.57480300
195.69998856	0.00000000	25.29527000	1.57480300
195.89998855	0.00000000	25.29527000	1.57480300
196.09998853	0.00000000	25.29527000	1.57480300
