Time	Channel A	Channel B	Channel C
(us)	(V)	(mV)	(mV)

-4.53333289	0.00000000	-63.20127000	-16.94759000
-4.33333290	0.00000000	-62.86909000	-16.25246000
-4.13333291	0.00000000	-62.50000000	-16.25246000
-3.93333293	0.00000000	-62.86909000	-16.94759000
-3.73333294	0.00000000	-63.15207000	-17.32283000
-3.53333295	0.00000000	-62.86909000	-17.36589000
-3.33333296	0.00000000	-62.45694000	-17.36589000
-3.13333297	0.00000000	-62.49385000	-17.36589000
-2.93333299	0.00000000	-62.41388000	-17.36589000
-2.73333300	0.00000000	-62.49385000	-17.36589000
-2.53333301	0.00000000	-62.45694000	-17.36589000
-2.33333302	0.00000000	-62.86909000	-17.36589000
-2.13333303	0.00000000	-63.15207000	-17.36589000
-1.93333304	0.00000000	-62.86909000	-17.36589000
-1.73333306	0.00000000	-62.50000000	-17.36589000
-1.53333307	0.00000000	-62.86909000	-17.36589000
-1.33333308	0.00000000	-63.20127000	-17.36589000
-1.13333309	0.00000000	-63.20127000	-17.36589000
-0.93333310	0.00000000	-62.86909000	-17.36589000
-0.73333312	0.00000000	-62.50000000	-17.36589000
-0.53333313	0.00000000	-62.86909000	-17.36589000
-0.33333314	0.15871060	-63.20127000	-17.36589000
-0.13333315	0.47736220	-63.20127000	-17.36589000
0.06666684	0.95533960	-62.86909000	-17.36589000
0.26666682	0.95533960	-62.50000000	-17.36589000
0.46666681	0.95533960	-62.86909000	-17.36589000
0.66666680	0.47736220	-63.20127000	-17.36589000
0.86666679	-0.15871060	-63.20127000	-17.36589000
1.06666678	-1.27399100	-62.86909000	-17.36589000
1.26666677	-2.07062000	-62.50000000	-17.36589000
1.46666675	-2.70792300	-62.86909000	-17.36589000
1.66666674	-2.70792300	-63.20127000	-17.36589000
1.86666673	-1.75196900	-63.20127000	-17.32283000
2.06666672	0.00000000	-62.82603000	-16.94759000
2.26666671	2.07062000	-62.08169000	-16.25246000
2.46666669	3.98191400	-61.70644000	-16.25246000
2.66666668	5.25652100	-61.70644000	-16.94759000
2.86666667	5.09719500	-62.08169000	-17.32283000
3.06666666	3.66326300	-62.82603000	-17.36589000
3.26666665	0.95533960	-63.20127000	-17.36589000
3.46666663	-2.38927200	-63.24434000	-17.36589000
3.66666662	-5.57517200	-63.24434000	-17.32283000
3.86666661	-7.64579200	-63.20127000	-16.94759000
4.06666660	-7.80511800	-62.82603000	-16.20325000
4.26666659	-6.05315000	-62.08169000	-15.82800000
4.46666658	-2.54859700	-61.70644000	-15.78494000
4.66666656	1.91129400	-61.66338000	-15.78494000
4.86666655	6.21247500	-61.66338000	-15.82800000
5.06666654	8.76107300	-61.70644000	-16.20325000
5.26666653	9.39837600	-62.08169000	-16.94759000
5.46666652	7.64579200	-62.82603000	-17.32283000
5.66666650	3.82258900	-63.20127000	-17.36589000
5.86666649	-0.95533960	-63.24434000	-17.36589000
6.06666648	-5.41584600	-63.20127000	-17.36589000
6.26666647	-8.60174700	-62.82603000	-17.36589000
6.46666646	-9.55770200	-62.08169000	-17.32283000
6.66666644	-8.12377000	-61.70644000	-16.99065000
6.86666643	-4.61921700	-61.70644000	-16.57849000
7.06666642	-0.31803640	-62.08169000	-16.57234000
7.26666641	3.82258900	-62.77681000	-16.20325000
7.46666640	6.69045300	-62.77681000	-16.25246000
7.66666639	7.80511800	-62.13090000	-16.94759000
7.86666637	6.84916400	-62.13090000	-17.32283000
8.06666636	4.30056600	-62.82603000	-17.36589000
8.26666635	1.11466500	-63.15207000	-17.36589000
8.46666634	-1.91129400	-62.82603000	-17.36589000
8.66666633	-4.30056600	-62.08169000	-17.36589000
8.86666631	-5.09719500	-61.70644000	-17.36589000
9.06666630	-4.77854300	-61.66338000	-17.36589000
9.26666629	-3.18590100	-61.66338000	-17.32283000
9.46666628	-1.27399100	-61.66338000	-16.99065000
9.66666627	0.63668800	-61.66338000	-16.62155000
9.86666625	1.91129400	-61.66338000	-16.99065000
10.06666624	2.54859700	-61.66338000	-17.32283000
10.26666623	2.38927200	-61.66338000	-17.32283000
10.46666622	1.75196900	-61.66338000	-16.99065000
10.66666621	0.79601380	-61.66338000	-16.62155000
10.86666620	0.00000000	-61.66338000	-16.94759000
11.06666618	-0.63668800	-61.66338000	-16.94759000
11.26666617	-0.95533960	-61.66338000	-16.62155000
11.46666616	-0.95533960	-61.66338000	-16.99065000
11.66666615	-0.79601380	-61.66338000	-17.27362000
11.86666614	-0.47736220	-61.66338000	-16.99065000
12.06666612	-0.15871060	-61.70644000	-16.62155000
12.26666611	-0.15871060	-62.03863000	-16.99065000
12.46666610	0.00000000	-62.40772000	-17.32283000
12.66666609	0.00000000	-62.03863000	-17.36589000
12.86666608	0.00000000	-61.70644000	-17.36589000
13.06666606	0.00000000	-61.66338000	-17.36589000
13.26666605	0.00000000	-61.66338000	-17.36589000
13.46666604	0.00000000	-61.66338000	-17.36589000
13.66666603	0.00000000	-61.66338000	-17.36589000
13.86666602	0.00000000	-61.66338000	-17.36589000
14.06666601	-0.15871060	-61.66338000	-17.32283000
14.26666599	-0.15871060	-61.66338000	-16.99065000
14.46666598	-0.15871060	-61.66338000	-16.62155000
14.66666597	-0.15871060	-61.70644000	-16.99065000
14.86666596	0.00000000	-62.08169000	-17.32283000
15.06666595	0.00000000	-62.77681000	-17.36589000
15.26666593	0.00000000	-62.82603000	-17.36589000
15.46666592	0.00000000	-62.45694000	-17.36589000
15.66666591	0.00000000	-62.45079000	-17.36589000
15.86666590	0.00000000	-62.08169000	-17.36589000
16.06666589	0.00000000	-62.13090000	-17.36589000
16.26666587	0.00000000	-62.77681000	-17.36589000
16.46666586	-0.15871060	-62.77681000	-17.36589000
16.66666585	-0.15871060	-62.08169000	-17.36589000
16.86666584	-0.15871060	-61.70644000	-17.32283000
17.06666583	0.00000000	-61.62032000	-16.99065000
17.26666582	0.00000000	-61.24508000	-16.62155000
17.46666580	0.00000000	-60.50073000	-16.99065000
17.66666579	0.00000000	-60.17470000	-17.32283000
17.86666578	0.00000000	-60.54995000	-17.36589000
18.06666577	0.00000000	-61.70644000	-17.36589000
18.26666576	0.00000000	-63.24434000	-17.36589000
18.46666574	0.00000000	-64.78223000	-17.36589000
18.66666573	0.00000000	-65.98794000	-17.36589000
18.86666572	0.00000000	-66.73843000	-17.36589000
19.06666571	0.00000000	-67.10752000	-17.32283000
19.26666570	0.00000000	-66.27091000	-16.99065000
19.46666568	0.00000000	-64.31471000	-16.62155000
19.66666567	0.00000000	-61.19586000	-16.99065000
19.86666566	0.00000000	-57.33883000	-17.27362000
20.06666565	0.00000000	-53.89394000	-16.99065000
20.26666564	0.00000000	-51.56865000	-16.62155000
20.46666563	0.00000000	-51.28568000	-16.94759000
20.66666561	0.00000000	-53.61712000	-16.94759000
20.86666560	0.00000000	-58.72908000	-16.62155000
21.06666559	0.00000000	-65.66806000	-16.99065000
21.26666558	0.00000000	-73.38828000	-17.32283000
21.46666557	0.00000000	-79.48450000	-17.36589000
21.66666555	0.00000000	-82.22810000	-17.36589000
21.86666554	0.00000000	-80.97932000	-17.36589000
22.06666553	0.00000000	-75.43676000	-17.36589000
22.26666552	0.00000000	-65.34202000	-17.36589000
22.46666551	0.00000000	-52.64517000	-17.36589000
22.66666549	0.00000000	-40.68036000	-17.32283000
22.86666548	0.00000000	-32.25885000	-16.94759000
23.06666547	0.00000000	-30.06890000	-16.20325000
23.26666546	0.00000000	-35.88213000	-15.82800000
23.46666545	0.00000000	-48.63435000	-15.78494000
23.66666544	0.00000000	-65.29281000	-15.74188000
23.86666542	0.00000000	-82.73868000	-15.40969000
24.06666541	0.00000000	-97.30560000	-15.04675000
24.26666540	0.00000000	-104.93360000	-15.40969000
24.46666539	0.00000000	-102.57140000	-15.82800000
24.66666538	0.00000000	-90.56348000	-16.67077000
24.86666536	0.00000000	-71.20448000	-18.57160000
25.06666535	0.00000000	-48.45595000	-20.43553000
25.26666534	0.00000000	-28.02657000	-21.64124000
25.46666533	0.00000000	-14.90526000	-22.01033000
25.66666532	0.00000000	-12.20472000	-21.59203000
25.86666530	0.00000000	-20.76156000	-19.97416000
26.06666529	0.00000000	-38.95792000	-16.90453000
26.26666528	0.00000000	-63.29355000	-13.04749000
26.46666527	0.00000000	-87.90600000	-9.55954600
26.66666526	0.00000000	-106.51450000	-6.86515700
26.86666525	0.00000000	-114.99140000	-5.79478300
27.06666523	0.00000000	-111.90940000	-7.41879900
27.26666522	0.00000000	-97.21333000	-12.06939000
27.46666521	0.00000000	-74.92002000	-19.03297000
27.66666520	0.00000000	-50.49828000	-26.75320000
27.86666519	0.00000000	-29.23228000	-33.67372000
28.06666517	0.00000000	-15.32357000	-37.85679000
28.26666516	0.00000000	-12.20472000	-37.77067000
28.46666515	0.00000000	-20.25714000	-32.74483000
28.66666514	0.00000000	-36.82332000	-23.46210000
28.86666513	0.00000000	-58.08316000	-12.21087000
29.06666511	0.00000000	-78.97392000	-0.59670270
29.26666510	0.00000000	-95.26328000	8.96899500
29.46666509	0.00000000	-103.77710000	13.52731000
29.66666508	0.00000000	-102.70050000	11.57726000
29.86666507	0.00000000	-93.11638000	3.03272600
30.06666506	0.00000000	-78.03887000	-10.48843000
30.26666504	0.00000000	-60.59301000	-26.32874000
30.46666503	0.00000000	-44.35285000	-40.96949000
30.66666502	0.00000000	-32.67717000	-51.00270000
30.86666501	0.00000000	-27.60211000	-54.02928000
31.06666500	0.00000000	-29.51525000	-48.96038000
31.26666498	0.00000000	-37.98597000	-36.23277000
31.46666497	0.00000000	-50.73204000	-18.90379000
31.66666496	0.00000000	-64.68996000	-1.10728300
31.86666495	0.00000000	-77.44217000	13.61959000
32.06666494	0.00000000	-85.94980000	22.49016000
32.26666492	0.00000000	-88.37352000	23.60974000
32.46666491	0.00000000	-85.34695000	16.22170000
32.66666490	0.00000000	-77.95275000	1.58710600
32.86666489	0.00000000	-67.52583000	-16.90453000
33.06666488	0.00000000	-56.31767000	-34.69488000
33.26666487	0.00000000	-47.05339000	-48.26525000
33.46666485	0.00000000	-41.61540000	-55.23499000
33.66666484	0.00000000	-41.19094000	-54.07234000
33.86666483	0.00000000	-45.38017000	-45.19562000
34.06666482	0.00000000	-52.73130000	-30.51181000
34.26666481	0.00000000	-61.62032000	-13.13976000
34.46666479	0.00000000	-70.09104000	3.07578700
34.66666478	0.00000000	-75.86122000	14.64075000
34.86666477	0.00000000	-77.44217000	18.91609000
35.06666476	0.00000000	-74.83390000	15.10827000
35.26666475	0.00000000	-69.43897000	4.74286400
35.46666473	0.00000000	-62.86909000	-9.56569900
35.66666472	0.00000000	-56.31151000	-24.61860000
35.86666471	0.00000000	-51.75319000	-37.34621000
36.06666470	0.00000000	-50.54749000	-44.69119000
36.26666469	0.00000000	-52.82357000	-45.10950000
36.46666468	0.00000000	-57.38804000	-38.97022000
36.66666466	0.00000000	-62.78297000	-27.82357000
36.86666465	0.00000000	-67.43970000	-14.80684000
37.06666464	0.00000000	-70.50935000	-3.61097400
37.26666463	0.00000000	-71.29675000	2.98351400
37.46666462	0.00000000	-69.39591000	4.14000900
37.66666460	0.00000000	-65.89567000	-0.46136810
37.86666459	0.00000000	-61.28814000	-9.60875900
38.06666458	0.00000000	-56.68676000	-19.97416000
38.26666457	0.00000000	-53.98622000	-28.80167000
38.46666456	0.00000000	-53.14960000	-33.77214000
38.66666454	0.00000000	-54.31225000	-32.98474000
38.86666453	0.00000000	-57.01279000	-26.93774000
39.06666452	0.00000000	-60.50073000	-17.74114000
39.26666451	0.00000000	-64.40699000	-8.53838500
39.46666450	0.00000000	-67.85802000	-1.61786400
39.66666449	0.00000000	-70.18331000	0.98425190
39.86666447	0.00000000	-70.55856000	-2.07923200
40.06666446	0.00000000	-69.06373000	-10.07013000
40.26666445	0.00000000	-66.32012000	-20.01722000
40.46666444	0.00000000	-62.82603000	-28.89395000
40.66666443	0.00000000	-58.96899000	-34.65182000
40.86666441	0.00000000	-55.85014000	-35.76525000
41.06666440	0.00000000	-53.89394000	-31.53912000
41.26666439	0.00000000	-53.10654000	-23.12992000
41.46666438	0.00000000	-53.89394000	-13.09670000
41.66666437	0.00000000	-55.80708000	-3.88779500
41.86666435	0.00000000	-58.59375000	2.23917300
42.06666434	0.00000000	-62.03863000	2.98351400
42.26666433	0.00000000	-65.52657000	-1.52559000
42.46666432	0.00000000	-67.85802000	-9.60875900
42.66666431	0.00000000	-69.06373000	-18.81152000
42.86666430	0.00000000	-69.02066000	-26.93774000
43.06666428	0.00000000	-67.52583000	-31.91437000
43.26666427	0.00000000	-65.20053000	-32.79404000
43.46666426	0.00000000	-62.86909000	-29.73056000
43.66666425	0.00000000	-60.50073000	-24.33563000
43.86666424	0.00000000	-58.59375000	-17.36589000
44.06666422	0.00000000	-57.38804000	-10.53765000
44.26666421	0.00000000	-56.96358000	-6.26230300
44.46666420	0.00000000	-56.92052000	-5.37647600
44.66666419	0.00000000	-56.96358000	-6.86515700
44.86666418	0.00000000	-57.33883000	-9.98400600
45.06666416	0.00000000	-58.12622000	-14.21014000
45.26666415	0.00000000	-58.91978000	-18.43627000
45.46666414	0.00000000	-60.17470000	-21.54897000
45.66666413	0.00000000	-62.13090000	-23.12992000
45.86666412	0.00000000	-64.87450000	-23.17298000
46.06666411	0.00000000	-67.94415000	-22.01649000
46.26666409	0.00000000	-70.64468000	-20.06029000
46.46666408	0.00000000	-72.13951000	-17.36589000
46.66666407	0.00000000	-71.67200000	-14.67150000
46.86666406	0.00000000	-68.55315000	-12.72146000
47.06666405	0.00000000	-63.15822000	-11.55881000
47.26666403	0.00000000	-56.92052000	-11.55881000
47.46666402	0.00000000	-50.77510000	-12.72146000
47.66666401	0.00000000	-46.22293000	-14.67150000
47.86666400	0.00000000	-45.47243000	-17.36589000
48.06666399	0.00000000	-48.49901000	-20.01722000
48.26666397	0.00000000	-54.35531000	-21.59203000
48.46666396	0.00000000	-62.13090000	-22.01033000
48.66666395	0.00000000	-70.60162000	-21.59203000
48.86666394	0.00000000	-77.48523000	-20.01722000
49.06666393	0.00000000	-80.60408000	-17.32283000
49.26666392	0.00000000	-79.44143000	-14.25320000
49.46666390	0.00000000	-74.36639000	-11.55881000
49.66666389	0.00000000	-65.85260000	-10.02707000
49.86666388	0.00000000	-55.89320000	-10.07013000
50.06666387	0.00000000	-47.42864000	-11.97711000
50.26666386	0.00000000	-42.77190000	-15.45891000
50.46666384	0.00000000	-42.72884000	-19.27288000
50.66666383	0.00000000	-47.01033000	-22.79773000
50.86666382	0.00000000	-54.68750000	-25.03691000
51.06666381	0.00000000	-63.94562000	-25.44906000
51.26666380	0.00000000	-72.04723000	-23.50517000
51.46666379	0.00000000	-77.44217000	-20.06029000
51.66666377	0.00000000	-78.55560000	-15.78494000
51.86666376	0.00000000	-74.74163000	-11.55881000
52.06666375	0.00000000	-67.52583000	-8.48917200
52.26666374	0.00000000	-59.43036000	-7.33267600
52.46666373	0.00000000	-52.82357000	-8.48917200
52.66666371	0.00000000	-48.59129000	-11.55881000
52.86666370	0.00000000	-47.84694000	-15.78494000
53.06666369	0.00000000	-51.28568000	-19.97416000
53.26666368	0.00000000	-57.38804000	-22.71161000
53.46666367	0.00000000	-64.31471000	-23.50517000
53.66666365	0.00000000	-70.09104000	-22.75467000
53.86666364	0.00000000	-73.16068000	-20.43553000
54.06666363	0.00000000	-72.78542000	-17.41511000
54.26666362	0.00000000	-68.97145000	-14.72072000
54.46666361	0.00000000	-63.29355000	-13.13976000
54.66666360	0.00000000	-57.84941000	-12.76452000
54.86666358	0.00000000	-53.98622000	-13.50886000
55.06666357	0.00000000	-52.03617000	-15.40969000
55.26666356	0.00000000	-52.86663000	-17.27362000
55.46666355	0.00000000	-56.26845000	-18.43627000
55.66666354	0.00000000	-61.24508000	-18.43627000
55.86666352	0.00000000	-65.80955000	-17.27362000
56.06666351	0.00000000	-68.59621000	-15.36663000
56.26666350	0.00000000	-69.34670000	-13.04749000
56.46666349	0.00000000	-68.22096000	-11.22662000
56.66666348	0.00000000	-65.11441000	-10.90674000
56.86666346	0.00000000	-61.28814000	-13.22589000
57.06666345	0.00000000	-57.43110000	-17.36589000
57.26666344	0.00000000	-54.77977000	-21.59203000
57.46666343	0.00000000	-54.35531000	-24.66166000
57.66666342	0.00000000	-55.85014000	-25.82431000
57.86666341	0.00000000	-58.54454000	-24.61860000
58.06666339	0.00000000	-61.62032000	-21.13066000
58.26666338	0.00000000	-64.31471000	-15.74188000
58.46666337	0.00000000	-65.85260000	-9.98400600
58.66666336	0.00000000	-65.89567000	-5.37647600
58.86666335	0.00000000	-64.78223000	-3.10039400
59.06666333	0.00000000	-63.24434000	-4.30610200
59.26666332	0.00000000	-61.66338000	-8.90747900
59.46666331	0.00000000	-60.12549000	-15.83415000
59.66666330	0.00000000	-59.01205000	-23.12992000
59.86666329	0.00000000	-58.96899000	-28.89395000
60.06666327	0.00000000	-59.70718000	-31.58218000
60.26666326	0.00000000	-60.45767000	-30.46875000
60.46666325	0.00000000	-61.28814000	-26.19955000
60.66666324	0.00000000	-61.99557000	-19.59892000
60.86666323	0.00000000	-62.35851000	-11.51575000
61.06666322	0.00000000	-61.62032000	-4.26304100
61.26666320	0.00000000	-60.50073000	-0.03690945
61.46666319	0.00000000	-59.70718000	-0.03690945
61.66666318	0.00000000	-58.96899000	-4.26304100
61.86666317	0.00000000	-59.01205000	-11.55881000
62.06666316	0.00000000	-60.12549000	-20.01722000
62.26666314	0.00000000	-61.66338000	-27.40526000
62.46666313	0.00000000	-63.24434000	-32.37574000
62.66666312	0.00000000	-64.78223000	-33.90133000
62.86666311	0.00000000	-65.89567000	-30.84399000
63.06666310	0.00000000	-65.85260000	-24.71087000
63.26666308	0.00000000	-64.31471000	-16.94759000
63.46666307	0.00000000	-61.66338000	-8.90747900
63.66666306	0.00000000	-58.96899000	-3.10039400
63.86666305	0.00000000	-57.01279000	-0.73203740
64.06666304	0.00000000	-55.85014000	-1.48253000
64.26666303	0.00000000	-55.89320000	-5.37647600
64.46666301	0.00000000	-57.38804000	-11.51575000
64.66666300	0.00000000	-59.70718000	-18.43627000
64.86666299	0.00000000	-62.03863000	-24.24335000
65.06666298	0.00000000	-64.35777000	-27.78051000
65.26666297	0.00000000	-65.85260000	-28.98007000
65.46666295	0.00000000	-65.85260000	-27.82357000
65.66666294	0.00000000	-64.35777000	-24.71087000
65.86666293	0.00000000	-62.08169000	-20.10950000
66.06666292	0.00000000	-60.12549000	-15.08981000
66.26666291	0.00000000	-58.54454000	-11.18356000
66.46666289	0.00000000	-57.47416000	-8.40305000
66.66666288	0.00000000	-57.84941000	-6.86515700
66.86666287	0.00000000	-59.75024000	-6.86515700
67.06666286	0.00000000	-61.99557000	-8.40305000
67.26666285	0.00000000	-63.93946000	-11.09744000
67.46666284	0.00000000	-64.68996000	-14.21014000
67.66666282	0.00000000	-64.31471000	-17.36589000
67.86666281	0.00000000	-62.73376000	-20.47859000
68.06666280	0.00000000	-60.08243000	-23.22219000
68.26666279	0.00000000	-57.43110000	-25.12918000
68.46666278	0.00000000	-55.89320000	-25.91043000
68.66666276	0.00000000	-55.89320000	-25.08612000
68.86666275	0.00000000	-57.47416000	-22.75467000
69.06666274	0.00000000	-60.54995000	-18.85458000
69.26666273	0.00000000	-64.40699000	-14.25320000
69.46666272	0.00000000	-67.85802000	-9.93479300
69.66666270	0.00000000	-70.18331000	-6.48991100
69.86666269	0.00000000	-70.46629000	-4.59522600
70.06666268	0.00000000	-68.17789000	-5.37647600
70.26666267	0.00000000	-63.53346000	-8.44611200
70.46666266	0.00000000	-58.16929000	-13.09670000
70.66666265	0.00000000	-53.10654000	-18.47933000
70.86666263	0.00000000	-49.70472000	-23.12992000
71.06666262	0.00000000	-48.91732000	-26.24262000
71.26666261	0.00000000	-51.24261000	-27.35605000
71.46666260	0.00000000	-55.85014000	-25.82431000
71.66666259	0.00000000	-61.66338000	-22.01033000
71.86666257	0.00000000	-67.48277000	-17.40895000
72.06666256	0.00000000	-72.09030000	-13.13976000
72.26666255	0.00000000	-74.41560000	-10.02707000
72.46666254	0.00000000	-73.62820000	-8.48917200
72.66666253	0.00000000	-70.17716000	-8.86441900
72.86666251	0.00000000	-64.73917000	-11.14050000
73.06666250	0.00000000	-58.59375000	-14.16092000
73.26666249	0.00000000	-53.14960000	-16.90453000
73.46666248	0.00000000	-49.70472000	-18.81152000
73.66666247	0.00000000	-48.91732000	-19.59892000
73.86666246	0.00000000	-51.19340000	-18.90379000
74.06666244	0.00000000	-55.38263000	-17.78420000
74.26666243	0.00000000	-60.08243000	-16.99065000
74.46666242	0.00000000	-64.73917000	-16.25246000
74.66666241	0.00000000	-68.55315000	-16.29552000
74.86666240	0.00000000	-70.13410000	-17.40895000
75.06666238	0.00000000	-69.39591000	-18.90379000
75.26666237	0.00000000	-67.10752000	-20.06029000
75.46666236	0.00000000	-63.61958000	-20.39247000
75.66666235	0.00000000	-60.17470000	-19.59892000
75.86666234	0.00000000	-57.43110000	-17.27977000
76.06666232	0.00000000	-55.89320000	-14.21014000
76.26666231	0.00000000	-55.85014000	-11.09744000
76.46666230	0.00000000	-56.96358000	-8.44611200
76.66666229	0.00000000	-58.50147000	-7.37573800
76.86666228	0.00000000	-60.03937000	-8.90747900
77.06666227	0.00000000	-61.19586000	-12.76452000
77.26666225	0.00000000	-61.62032000	-17.78420000
77.46666224	0.00000000	-61.66338000	-23.17298000
77.66666223	0.00000000	-61.66338000	-27.35605000
77.86666222	0.00000000	-61.66338000	-28.93701000
78.06666221	0.00000000	-61.70644000	-27.78051000
78.26666219	0.00000000	-62.08169000	-24.29257000
78.46666218	0.00000000	-62.82603000	-18.85458000
78.66666217	0.00000000	-63.20127000	-12.72146000
78.86666216	0.00000000	-63.20127000	-7.28346400
79.06666215	0.00000000	-62.82603000	-3.84473400
79.26666213	0.00000000	-61.94635000	-3.05733300
79.46666212	0.00000000	-60.40231000	-5.37647600
79.66666211	0.00000000	-57.75713000	-9.98400600
79.86666210	0.00000000	-55.93627000	-15.74188000
80.06666209	0.00000000	-55.85014000	-21.17372000
80.26666208	0.00000000	-57.01279000	-25.03691000
80.46666206	0.00000000	-58.96899000	-27.03002000
80.66666205	0.00000000	-61.66338000	-26.66092000
80.86666204	0.00000000	-64.35777000	-24.75394000
81.06666203	0.00000000	-66.27091000	-21.59203000
81.26666202	0.00000000	-67.05831000	-17.36589000
81.46666200	0.00000000	-66.27091000	-13.13976000
81.66666199	0.00000000	-64.35777000	-10.02707000
81.86666198	0.00000000	-61.66338000	-8.40305000
82.06666197	0.00000000	-58.96899000	-7.98474400
82.26666196	0.00000000	-57.01279000	-8.40305000
82.46666194	0.00000000	-55.85014000	-9.98400600
82.66666193	0.00000000	-55.89320000	-12.72146000
82.86666192	0.00000000	-57.38804000	-16.16018000
83.06666191	0.00000000	-59.66412000	-19.68504000
83.26666190	0.00000000	-61.57111000	-22.39173000
83.46666189	0.00000000	-62.77681000	-24.33563000
83.66666187	0.00000000	-63.20127000	-24.71087000
83.86666186	0.00000000	-63.20127000	-23.59129000
84.06666185	0.00000000	-62.77681000	-21.59203000
84.26666184	0.00000000	-61.66338000	-18.43627000
84.46666183	0.00000000	-60.54995000	-14.21014000
84.66666181	0.00000000	-60.12549000	-10.02707000
84.86666180	0.00000000	-60.08243000	-7.28346400
85.06666179	0.00000000	-60.08243000	-6.48991100
85.26666178	0.00000000	-60.08243000	-7.28346400
85.46666177	0.00000000	-60.08243000	-10.02707000
85.66666175	0.00000000	-60.03937000	-14.25320000
85.86666174	0.00000000	-59.66412000	-18.90379000
86.06666173	0.00000000	-58.91978000	-23.12992000
86.26666172	0.00000000	-58.59375000	-25.82431000
86.46666171	0.00000000	-58.96899000	-26.24262000
86.66666170	0.00000000	-60.12549000	-24.71087000
86.86666168	0.00000000	-61.66338000	-21.59203000
87.06666167	0.00000000	-63.20127000	-17.32283000
87.26666166	0.00000000	-64.35777000	-12.72146000
87.46666165	0.00000000	-64.73302000	-8.86441900
87.66666164	0.00000000	-64.35777000	-6.95743000
87.86666162	0.00000000	-63.20127000	-7.33267600
88.06666161	0.00000000	-61.62032000	-10.02707000
88.26666160	0.00000000	-59.70718000	-14.25320000
88.46666159	0.00000000	-57.80634000	-18.85458000
88.66666158	0.00000000	-57.05585000	-22.71161000
88.86666156	0.00000000	-57.38804000	-24.61860000
89.06666155	0.00000000	-58.54454000	-24.29257000
89.26666154	0.00000000	-60.08243000	-21.96727000
89.46666153	0.00000000	-61.66338000	-18.47933000
89.66666152	0.00000000	-63.15207000	-14.21014000
89.86666151	0.00000000	-63.93946000	-10.02707000
90.06666149	0.00000000	-63.57652000	-7.37573800
90.26666148	0.00000000	-62.82603000	-7.37573800
90.46666147	0.00000000	-61.66338000	-10.02707000
90.66666146	0.00000000	-60.50073000	-14.25320000
90.86666145	0.00000000	-59.70718000	-18.85458000
91.06666143	0.00000000	-58.91978000	-22.66855000
91.26666142	0.00000000	-58.54454000	-24.20029000
91.46666141	0.00000000	-58.54454000	-23.08686000
91.66666140	0.00000000	-58.91978000	-20.01722000
91.86666139	0.00000000	-59.66412000	-15.78494000
92.06666137	0.00000000	-60.03937000	-11.55881000
92.26666136	0.00000000	-60.08243000	-8.48917200
92.46666135	0.00000000	-60.08243000	-7.33267600
92.66666134	0.00000000	-60.12549000	-8.53223400
92.86666133	0.00000000	-60.50073000	-11.97711000
93.06666132	0.00000000	-61.28814000	-16.94759000
93.26666130	0.00000000	-62.03863000	-21.50590000
93.46666129	0.00000000	-62.82603000	-24.24335000
93.66666128	0.00000000	-63.15207000	-24.61860000
93.86666127	0.00000000	-62.82603000	-22.71161000
94.06666126	0.00000000	-61.99557000	-18.90379000
94.26666124	0.00000000	-60.82677000	-14.67150000
94.46666123	0.00000000	-58.87672000	-11.18356000
94.66666122	0.00000000	-57.01279000	-8.86441900
94.86666121	0.00000000	-55.85014000	-8.53838500
95.06666120	0.00000000	-55.85014000	-10.44537000
95.26666118	0.00000000	-57.01279000	-14.25320000
95.46666117	0.00000000	-58.96899000	-18.47933000
95.66666116	0.00000000	-61.70644000	-21.92421000
95.86666115	0.00000000	-64.73917000	-23.86811000
96.06666114	0.00000000	-67.06447000	-23.45595000
96.26666113	0.00000000	-67.81496000	-21.22293000
96.46666111	0.00000000	-67.06447000	-17.74114000
96.66666110	0.00000000	-64.73917000	-14.29626000
96.86666109	0.00000000	-61.62032000	-11.60187000
97.06666108	0.00000000	-58.12622000	-10.44537000
97.26666107	0.00000000	-54.68750000	-11.18356000
97.46666105	0.00000000	-52.73130000	-13.09055000
97.66666104	0.00000000	-52.35605000	-15.78494000
97.86666103	0.00000000	-53.52485000	-18.43627000
98.06666102	0.00000000	-56.63754000	-20.01722000
98.26666101	0.00000000	-60.45767000	-20.43553000
98.46666099	0.00000000	-64.36392000	-20.06029000
98.66666098	0.00000000	-67.43970000	-18.90379000
98.86666097	0.00000000	-69.02066000	-17.40895000
99.06666096	0.00000000	-69.02066000	-16.20325000
99.26666095	0.00000000	-67.43970000	-15.40969000
99.46666094	0.00000000	-64.36392000	-14.67150000
99.66666092	0.00000000	-60.50073000	-14.67150000
99.86666091	0.00000000	-57.01279000	-15.36663000
100.06666090	0.00000000	-54.26919000	-15.69267000
100.26666089	0.00000000	-52.73130000	-15.36663000
100.46666088	0.00000000	-52.73130000	-14.62844000
100.66666086	0.00000000	-54.31225000	-14.25320000
100.86666085	0.00000000	-57.38804000	-14.25320000
101.06666084	0.00000000	-61.19586000	-14.67150000
101.26666083	0.00000000	-64.27164000	-15.83415000
101.46666082	0.00000000	-65.89567000	-17.32283000
101.66666080	0.00000000	-66.31397000	-18.52854000
101.86666079	0.00000000	-65.93873000	-19.32210000
102.06666078	0.00000000	-64.73302000	-20.01722000
102.26666077	0.00000000	-62.77681000	-19.59892000
102.46666076	0.00000000	-60.08243000	-17.69808000
102.66666075	0.00000000	-57.43110000	-15.36663000
102.86666073	0.00000000	-55.85014000	-12.67224000
103.06666072	0.00000000	-55.43184000	-10.40231000
103.26666071	0.00000000	-55.80708000	-9.65182000
103.46666070	0.00000000	-56.96358000	-10.40231000
103.66666069	0.00000000	-58.50147000	-12.72146000
103.86666067	0.00000000	-60.12549000	-15.78494000
104.06666066	0.00000000	-62.03863000	-18.85458000
104.26666065	0.00000000	-63.93946000	-21.17372000
104.46666064	0.00000000	-64.68996000	-21.92421000
104.66666063	0.00000000	-64.35777000	-21.22293000
104.86666061	0.00000000	-63.20127000	-19.27288000
105.06666060	0.00000000	-61.66338000	-16.94759000
105.26666059	0.00000000	-60.12549000	-14.21014000
105.46666058	0.00000000	-58.96899000	-11.60187000
105.66666057	0.00000000	-58.54454000	-10.44537000
105.86666056	0.00000000	-58.54454000	-11.18356000
106.06666054	0.00000000	-58.96899000	-13.04749000
106.26666053	0.00000000	-60.08243000	-15.36663000
106.46666052	0.00000000	-61.19586000	-17.32283000
106.66666051	0.00000000	-61.62032000	-18.90379000
106.86666050	0.00000000	-61.62032000	-19.97416000
107.06666048	0.00000000	-61.24508000	-19.59892000
107.26666047	0.00000000	-60.45767000	-17.74114000
107.46666046	0.00000000	-59.70718000	-15.83415000
107.66666045	0.00000000	-58.91978000	-14.25320000
107.86666044	0.00000000	-58.59375000	-13.13976000
108.06666042	0.00000000	-58.96899000	-13.13976000
108.26666041	0.00000000	-60.08243000	-14.25320000
108.46666040	0.00000000	-61.24508000	-15.78494000
108.66666039	0.00000000	-62.03863000	-17.32283000
108.86666038	0.00000000	-62.82603000	-18.47933000
109.06666037	0.00000000	-63.15207000	-18.85458000
109.26666035	0.00000000	-62.77681000	-18.47933000
109.46666034	0.00000000	-61.62032000	-17.32283000
109.66666033	0.00000000	-60.08243000	-15.78494000
109.86666032	0.00000000	-58.54454000	-14.25320000
110.06666031	0.00000000	-57.43110000	-13.09670000
110.26666029	0.00000000	-57.43110000	-12.76452000
110.46666028	0.00000000	-58.50147000	-13.46580000
110.66666027	0.00000000	-59.66412000	-14.99139000
110.86666026	0.00000000	-60.50073000	-16.16018000
111.06666025	0.00000000	-61.66338000	-17.36589000
111.26666023	0.00000000	-62.77681000	-18.47933000
111.46666022	0.00000000	-63.15207000	-18.85458000
111.66666021	0.00000000	-62.77681000	-18.52854000
111.86666020	0.00000000	-61.66338000	-17.74114000
112.06666019	0.00000000	-60.50073000	-16.94759000
112.26666018	0.00000000	-59.70718000	-15.78494000
112.46666016	0.00000000	-58.91978000	-14.67150000
112.66666015	0.00000000	-58.59375000	-14.25320000
112.86666014	0.00000000	-58.91978000	-14.25320000
113.06666013	0.00000000	-59.66412000	-14.62844000
113.26666012	0.00000000	-60.08243000	-15.36663000
113.46666010	0.00000000	-60.50073000	-15.74188000
113.66666009	0.00000000	-61.24508000	-15.78494000
113.86666008	0.00000000	-61.62032000	-15.78494000
114.06666007	0.00000000	-61.62032000	-15.78494000
114.26666006	0.00000000	-61.24508000	-15.78494000
114.46666004	0.00000000	-60.50073000	-15.82800000
114.66666003	0.00000000	-60.08243000	-16.20325000
114.86666002	0.00000000	-59.66412000	-16.94759000
115.06666001	0.00000000	-58.91978000	-17.32283000
115.26666000	0.00000000	-58.59375000	-17.36589000
115.46665999	0.00000000	-58.91978000	-17.36589000
115.66665997	0.00000000	-59.66412000	-17.32283000
115.86665996	0.00000000	-60.08243000	-16.94759000
116.06665995	0.00000000	-60.50073000	-16.16018000
116.26665994	0.00000000	-61.24508000	-15.40969000
116.46665993	0.00000000	-61.62032000	-14.62844000
116.66665991	0.00000000	-61.66338000	-14.25320000
116.86665990	0.00000000	-61.62032000	-14.25320000
117.06665989	0.00000000	-61.24508000	-14.62844000
117.26665988	0.00000000	-60.45767000	-15.40969000
117.46665987	0.00000000	-59.70718000	-16.16018000
117.66665985	0.00000000	-58.87672000	-16.94759000
117.86665984	0.00000000	-58.16929000	-17.32283000
118.06665983	0.00000000	-57.75713000	-17.36589000
118.26665982	0.00000000	-58.16929000	-17.36589000
118.46665981	0.00000000	-58.87672000	-17.32283000
118.66665980	0.00000000	-59.70718000	-16.94759000
118.86665978	0.00000000	-60.50073000	-16.16018000
119.06665977	0.00000000	-61.66338000	-15.40969000
119.26665976	0.00000000	-62.77681000	-14.62844000
119.46665975	0.00000000	-63.15207000	-14.25320000
119.66665974	0.00000000	-62.82603000	-14.21014000
119.86665972	0.00000000	-62.03863000	-14.25320000
120.06665971	0.00000000	-61.19586000	-14.62844000
120.26665970	0.00000000	-59.66412000	-15.36663000
120.46665969	0.00000000	-57.80634000	-15.78494000
120.66665968	0.00000000	-57.01279000	-16.20325000
120.86665966	0.00000000	-56.96358000	-16.94759000
121.06665965	0.00000000	-57.33883000	-17.32283000
121.26665964	0.00000000	-58.16929000	-17.36589000
121.46665963	0.00000000	-59.29502000	-17.36589000
121.66665962	0.00000000	-60.86983000	-17.36589000
121.86665961	0.00000000	-61.99557000	-17.32283000
122.06665959	0.00000000	-62.82603000	-16.94759000
122.26665958	0.00000000	-63.15207000	-16.16018000
122.46665957	0.00000000	-62.82603000	-15.40969000
122.66665956	0.00000000	-62.03863000	-14.62844000
122.86665955	0.00000000	-61.24508000	-14.25320000
123.06665953	0.00000000	-60.08243000	-14.21014000
123.26665952	0.00000000	-58.96899000	-14.25320000
123.46665951	0.00000000	-58.54454000	-14.62844000
123.66665950	0.00000000	-58.50147000	-15.40969000
123.86665949	0.00000000	-58.50147000	-16.16018000
124.06665947	0.00000000	-58.50147000	-16.94759000
124.26665946	0.00000000	-58.54454000	-17.32283000
124.46665945	0.00000000	-58.96899000	-17.36589000
124.66665944	0.00000000	-60.08243000	-17.32283000
124.86665943	0.00000000	-61.19586000	-16.94759000
125.06665942	0.00000000	-61.62032000	-16.20325000
125.26665940	0.00000000	-61.66338000	-15.78494000
125.46665939	0.00000000	-61.66338000	-15.36663000
125.66665938	0.00000000	-61.62032000	-14.62844000
125.86665937	0.00000000	-61.19586000	-14.25320000
126.06665936	0.00000000	-60.08243000	-14.21014000
126.26665934	0.00000000	-58.96899000	-14.25320000
126.46665933	0.00000000	-58.54454000	-14.62844000
126.66665932	0.00000000	-58.50147000	-15.36663000
126.86665931	0.00000000	-58.50147000	-15.74188000
127.06665930	0.00000000	-58.54454000	-15.82800000
127.26665928	0.00000000	-58.96899000	-16.16018000
127.46665927	0.00000000	-60.08243000	-16.57234000
127.66665926	0.00000000	-61.19586000	-16.53543000
127.86665925	0.00000000	-61.62032000	-16.57234000
128.06665924	0.00000000	-61.66338000	-16.16018000
128.26665923	0.00000000	-61.62032000	-15.82800000
128.46665921	0.00000000	-61.19586000	-15.78494000
128.66665920	0.00000000	-60.08243000	-15.78494000
128.86665919	0.00000000	-58.96899000	-15.78494000
129.06665918	0.00000000	-58.54454000	-15.78494000
129.26665917	0.00000000	-58.50147000	-15.78494000
129.46665915	0.00000000	-58.54454000	-15.82800000
129.66665914	0.00000000	-58.96899000	-16.16018000
129.86665913	0.00000000	-60.08243000	-16.52928000
130.06665912	0.00000000	-61.19586000	-16.16018000
130.26665911	0.00000000	-61.62032000	-15.82800000
130.46665909	0.00000000	-61.66338000	-15.78494000
130.66665908	0.00000000	-61.62032000	-15.78494000
130.86665907	0.00000000	-61.24508000	-15.74188000
131.06665906	0.00000000	-60.45767000	-15.40969000
131.26665905	0.00000000	-59.70718000	-15.04675000
131.46665904	0.00000000	-58.91978000	-15.40969000
131.66665902	0.00000000	-58.54454000	-15.78494000
131.86665901	0.00000000	-58.54454000	-16.20325000
132.06665900	0.00000000	-58.91978000	-16.94759000
132.26665899	0.00000000	-59.70718000	-17.32283000
132.46665898	0.00000000	-60.45767000	-17.32283000
132.66665896	0.00000000	-61.24508000	-16.94759000
132.86665895	0.00000000	-61.57111000	-16.20325000
133.06665894	0.00000000	-61.24508000	-15.78494000
133.26665893	0.00000000	-60.50073000	-15.36663000
133.46665892	0.00000000	-60.08243000	-14.62844000
133.66665890	0.00000000	-59.66412000	-14.25320000
133.86665889	0.00000000	-58.96899000	-14.25320000
134.06665888	0.00000000	-58.96899000	-14.62844000
134.26665887	0.00000000	-59.66412000	-15.36663000
134.46665886	0.00000000	-60.03937000	-15.78494000
134.66665885	0.00000000	-60.08243000	-16.20325000
134.86665883	0.00000000	-60.08243000	-16.94759000
135.06665882	0.00000000	-60.08243000	-17.32283000
135.26665881	0.00000000	-60.03937000	-17.32283000
135.46665880	0.00000000	-59.66412000	-16.94759000
135.66665879	0.00000000	-58.91978000	-16.20325000
135.86665877	0.00000000	-58.59375000	-15.78494000
136.06665876	0.00000000	-58.91978000	-15.36663000
136.26665875	0.00000000	-59.70718000	-14.62844000
136.46665874	0.00000000	-60.45767000	-14.25320000
136.66665873	0.00000000	-61.24508000	-14.21014000
136.86665871	0.00000000	-61.57111000	-14.25320000
137.06665870	0.00000000	-61.24508000	-14.67150000
137.26665869	0.00000000	-60.45767000	-15.74188000
137.46665868	0.00000000	-59.70718000	-16.52928000
137.66665867	0.00000000	-58.91978000	-16.57849000
137.86665866	0.00000000	-58.54454000	-16.99065000
138.06665864	0.00000000	-58.50147000	-17.32283000
138.26665863	0.00000000	-58.50147000	-17.36589000
138.46665862	0.00000000	-58.54454000	-17.36589000
138.66665861	0.00000000	-58.91978000	-17.32283000
138.86665860	0.00000000	-59.70718000	-16.94759000
139.06665858	0.00000000	-60.45767000	-16.16018000
139.26665857	0.00000000	-61.24508000	-15.40969000
139.46665856	0.00000000	-61.57111000	-14.62844000
139.66665855	0.00000000	-61.24508000	-14.25320000
139.86665854	0.00000000	-60.45767000	-14.21014000
140.06665852	0.00000000	-59.70718000	-14.25320000
140.26665851	0.00000000	-58.91978000	-14.62844000
140.46665850	0.00000000	-58.54454000	-15.40969000
140.66665849	0.00000000	-58.54454000	-16.20325000
140.86665848	0.00000000	-58.91978000	-17.32283000
141.06665847	0.00000000	-59.66412000	-18.11024000
141.26665845	0.00000000	-60.03937000	-18.11639000
141.46665844	0.00000000	-60.08243000	-18.11024000
141.66665843	0.00000000	-60.08243000	-17.27362000
141.86665842	0.00000000	-60.08243000	-15.83415000
142.06665841	0.00000000	-60.08243000	-14.62844000
142.26665839	0.00000000	-60.03937000	-13.87795000
142.46665838	0.00000000	-59.66412000	-13.46580000
142.66665837	0.00000000	-58.96899000	-13.83489000
142.86665836	0.00000000	-58.96899000	-14.21014000
143.06665835	0.00000000	-59.66412000	-14.67150000
143.26665834	0.00000000	-60.03937000	-15.78494000
143.46665832	0.00000000	-60.08243000	-16.89837000
143.66665831	0.00000000	-60.08243000	-17.32283000
143.86665830	0.00000000	-60.08243000	-17.36589000
144.06665829	0.00000000	-60.08243000	-17.32283000
144.26665828	0.00000000	-60.03937000	-16.94759000
144.46665826	0.00000000	-59.66412000	-16.16018000
144.66665825	0.00000000	-58.91978000	-15.40969000
144.86665824	0.00000000	-58.54454000	-14.62844000
145.06665823	0.00000000	-58.54454000	-14.25320000
145.26665822	0.00000000	-58.91978000	-14.25320000
145.46665820	0.00000000	-59.66412000	-14.62844000
145.66665819	0.00000000	-60.03937000	-15.40969000
145.86665818	0.00000000	-60.08243000	-16.11712000
146.06665817	0.00000000	-60.08243000	-16.57234000
146.26665816	0.00000000	-60.08243000	-16.57849000
146.46665815	0.00000000	-60.08243000	-16.99065000
146.66665813	0.00000000	-60.03937000	-17.32283000
146.86665812	0.00000000	-59.66412000	-17.32283000
147.06665811	0.00000000	-58.91978000	-16.94759000
147.26665810	0.00000000	-58.54454000	-16.20325000
147.46665809	0.00000000	-58.54454000	-15.82800000
147.66665807	0.00000000	-58.91978000	-15.74188000
147.86665806	0.00000000	-59.66412000	-15.36663000
148.06665805	0.00000000	-60.03937000	-14.67150000
148.26665804	0.00000000	-60.08243000	-14.62844000
148.46665803	0.00000000	-60.08243000	-14.99139000
148.66665801	0.00000000	-60.03937000	-14.95448000
148.86665800	0.00000000	-59.70718000	-15.04060000
149.06665799	0.00000000	-59.29502000	-15.00369000
149.26665798	0.00000000	-59.28888000	-15.40969000
149.46665797	0.00000000	-58.87672000	-15.74188000
149.66665796	0.00000000	-58.54454000	-15.78494000
149.86665794	0.00000000	-58.50147000	-15.78494000
150.06665793	0.00000000	-58.54454000	-15.78494000
150.26665792	0.00000000	-58.91978000	-15.78494000
150.46665791	0.00000000	-59.66412000	-15.74188000
150.66665790	0.00000000	-60.03937000	-15.36663000
150.86665788	0.00000000	-60.08243000	-14.67150000
151.06665787	0.00000000	-60.08243000	-14.67150000
151.26665786	0.00000000	-60.08243000	-15.36663000
151.46665785	0.00000000	-60.08243000	-15.74188000
151.66665784	0.00000000	-60.03937000	-15.78494000
151.86665782	0.00000000	-59.66412000	-15.78494000
152.06665781	0.00000000	-58.96899000	-15.78494000
152.26665780	0.00000000	-58.91978000	-15.78494000
152.46665779	0.00000000	-59.24582000	-15.78494000
152.66665778	0.00000000	-58.87672000	-15.78494000
152.86665777	0.00000000	-58.54454000	-15.78494000
153.06665775	0.00000000	-58.50147000	-15.78494000
153.26665774	0.00000000	-58.54454000	-15.78494000
153.46665773	0.00000000	-58.91978000	-15.78494000
153.66665772	0.00000000	-59.66412000	-15.78494000
153.86665771	0.00000000	-60.03937000	-15.78494000
154.06665769	0.00000000	-60.08243000	-15.78494000
154.26665768	0.00000000	-60.08243000	-15.78494000
154.46665767	0.00000000	-60.08243000	-15.74188000
154.66665766	0.00000000	-60.08243000	-15.40969000
154.86665765	0.00000000	-60.08243000	-15.04675000
155.06665763	0.00000000	-60.03937000	-15.40969000
155.26665762	0.00000000	-59.66412000	-15.74188000
155.46665761	0.00000000	-58.91978000	-15.78494000
155.66665760	0.00000000	-58.54454000	-15.82800000
155.86665759	0.00000000	-58.50147000	-16.20325000
156.06665758	0.00000000	-58.50147000	-16.89837000
156.26665756	0.00000000	-58.54454000	-16.94759000
156.46665755	0.00000000	-58.91978000	-16.53543000
156.66665754	0.00000000	-59.66412000	-16.19710000
156.86665753	0.00000000	-60.08243000	-15.37894000
157.06665752	0.00000000	-60.45767000	-15.04060000
157.26665750	0.00000000	-60.82677000	-14.62844000
157.46665749	0.00000000	-60.45767000	-14.67150000
157.66665748	0.00000000	-60.12549000	-15.36663000
157.86665747	0.00000000	-60.08243000	-15.74188000
158.06665746	0.00000000	-60.03937000	-15.78494000
158.26665744	0.00000000	-59.66412000	-15.82800000
158.46665743	0.00000000	-58.91978000	-16.20325000
158.66665742	0.00000000	-58.54454000	-16.94759000
158.86665741	0.00000000	-58.50147000	-17.27362000
159.06665740	0.00000000	-58.50147000	-16.94759000
159.26665739	0.00000000	-58.50147000	-16.20325000
159.46665737	0.00000000	-58.54454000	-15.78494000
159.66665736	0.00000000	-58.91978000	-15.36663000
159.86665735	0.00000000	-59.66412000	-14.62844000
160.06665734	0.00000000	-60.03937000	-14.25320000
160.26665733	0.00000000	-60.08243000	-14.21014000
160.46665731	0.00000000	-60.08243000	-14.21014000
160.66665730	0.00000000	-60.08243000	-14.25320000
160.86665729	0.00000000	-60.08243000	-14.62844000
161.06665728	0.00000000	-60.03937000	-15.36663000
161.26665727	0.00000000	-59.66412000	-15.74188000
161.46665725	0.00000000	-58.91978000	-15.78494000
161.66665724	0.00000000	-58.54454000	-15.78494000
161.86665723	0.00000000	-58.50147000	-15.78494000
162.06665722	0.00000000	-58.50147000	-15.78494000
162.26665721	0.00000000	-58.50147000	-15.74188000
162.46665720	0.00000000	-58.50147000	-15.36663000
162.66665718	0.00000000	-58.50147000	-14.62844000
162.86665717	0.00000000	-58.54454000	-14.25320000
163.06665716	0.00000000	-58.91978000	-14.21014000
163.26665715	0.00000000	-59.66412000	-14.25320000
163.46665714	0.00000000	-60.03937000	-14.58538000
163.66665712	0.00000000	-60.08243000	-14.99139000
163.86665711	0.00000000	-60.08243000	-15.00369000
164.06665710	0.00000000	-60.08243000	-15.40969000
164.26665709	0.00000000	-60.08243000	-15.74188000
164.46665708	0.00000000	-60.03937000	-15.78494000
164.66665706	0.00000000	-59.66412000	-15.78494000
164.86665705	0.00000000	-58.91978000	-15.78494000
165.06665704	0.00000000	-58.54454000	-15.78494000
165.26665703	0.00000000	-58.50147000	-15.78494000
165.46665702	0.00000000	-58.50147000	-15.78494000
165.66665701	0.00000000	-58.50147000	-15.78494000
165.86665699	0.00000000	-58.54454000	-15.78494000
166.06665698	0.00000000	-58.91978000	-15.78494000
166.26665697	0.00000000	-59.66412000	-15.78494000
166.46665696	0.00000000	-60.03937000	-15.78494000
166.66665695	0.00000000	-60.08243000	-15.78494000
166.86665693	0.00000000	-60.08243000	-15.78494000
167.06665692	0.00000000	-60.03937000	-15.78494000
167.26665691	0.00000000	-59.70718000	-15.78494000
167.46665690	0.00000000	-59.29502000	-15.78494000
167.66665689	0.00000000	-59.28888000	-15.78494000
167.86665687	0.00000000	-58.87672000	-15.78494000
168.06665686	0.00000000	-58.54454000	-15.78494000
168.26665685	0.00000000	-58.50147000	-15.78494000
168.46665684	0.00000000	-58.50147000	-15.78494000
168.66665683	0.00000000	-58.50147000	-15.78494000
168.86665682	0.00000000	-58.54454000	-15.78494000
169.06665680	0.00000000	-58.91978000	-15.78494000
169.26665679	0.00000000	-59.66412000	-15.78494000
169.46665678	0.00000000	-60.03937000	-15.78494000
169.66665677	0.00000000	-60.08243000	-15.78494000
169.86665676	0.00000000	-60.08243000	-15.78494000
170.06665674	0.00000000	-60.08243000	-15.78494000
170.26665673	0.00000000	-60.08243000	-15.78494000
170.46665672	0.00000000	-60.08243000	-15.78494000
170.66665671	0.00000000	-60.03937000	-15.78494000
170.86665670	0.00000000	-59.66412000	-15.78494000
171.06665668	0.00000000	-58.91978000	-15.78494000
171.26665667	0.00000000	-58.54454000	-15.78494000
171.46665666	0.00000000	-58.50147000	-15.78494000
171.66665665	0.00000000	-58.50147000	-15.78494000
171.86665664	0.00000000	-58.50147000	-15.78494000
172.06665663	0.00000000	-58.54454000	-15.78494000
172.26665661	0.00000000	-58.91978000	-15.78494000
172.46665660	0.00000000	-59.66412000	-15.78494000
172.66665659	0.00000000	-60.03937000	-15.78494000
172.86665658	0.00000000	-60.08243000	-15.74188000
173.06665657	0.00000000	-60.03937000	-15.36663000
173.26665655	0.00000000	-59.66412000	-14.62844000
173.46665654	0.00000000	-58.91978000	-14.30241000
173.66665653	0.00000000	-58.54454000	-14.62844000
173.86665652	0.00000000	-58.50147000	-15.36663000
174.06665651	0.00000000	-58.50147000	-15.74188000
174.26665649	0.00000000	-58.50147000	-15.78494000
174.46665648	0.00000000	-58.50147000	-15.78494000
174.66665647	0.00000000	-58.50147000	-15.74188000
174.86665646	0.00000000	-58.50147000	-15.40969000
175.06665645	0.00000000	-58.50147000	-15.04675000
175.26665644	0.00000000	-58.54454000	-15.40969000
175.46665642	0.00000000	-58.87672000	-15.74188000
175.66665641	0.00000000	-59.28888000	-15.78494000
175.86665640	0.00000000	-59.25196000	-15.74188000
176.06665639	0.00000000	-59.28888000	-15.36663000
176.26665638	0.00000000	-58.87672000	-14.62844000
176.46665636	0.00000000	-58.54454000	-14.30241000
176.66665635	0.00000000	-58.50147000	-14.62844000
176.86665634	0.00000000	-58.50147000	-15.36663000
177.06665633	0.00000000	-58.50147000	-15.74188000
177.26665632	0.00000000	-58.54454000	-15.78494000
177.46665630	0.00000000	-58.91978000	-15.78494000
177.66665629	0.00000000	-59.66412000	-15.78494000
177.86665628	0.00000000	-59.99015000	-15.78494000
178.06665627	0.00000000	-59.66412000	-15.78494000
178.26665626	0.00000000	-58.91978000	-15.78494000
178.46665625	0.00000000	-58.54454000	-15.78494000
178.66665623	0.00000000	-58.50147000	-15.74188000
178.86665622	0.00000000	-58.50147000	-15.36663000
179.06665621	0.00000000	-58.50147000	-14.67150000
179.26665620	0.00000000	-58.50147000	-14.67150000
179.46665619	0.00000000	-58.50147000	-15.36663000
179.66665617	0.00000000	-58.50147000	-15.74188000
179.86665616	0.00000000	-58.50147000	-15.78494000
180.06665615	0.00000000	-58.54454000	-15.78494000
180.26665614	0.00000000	-58.87672000	-15.78494000
180.46665613	0.00000000	-59.24582000	-15.78494000
180.66665611	0.00000000	-58.87672000	-15.78494000
180.86665610	0.00000000	-58.54454000	-15.78494000
181.06665609	0.00000000	-58.50147000	-15.78494000
181.26665608	0.00000000	-58.50147000	-15.78494000
181.46665607	0.00000000	-58.50147000	-15.74188000
181.66665606	0.00000000	-58.50147000	-15.36663000
181.86665604	0.00000000	-58.50147000	-14.62844000
182.06665603	0.00000000	-58.50147000	-14.30241000
182.26665602	0.00000000	-58.50147000	-14.62844000
182.46665601	0.00000000	-58.50147000	-15.36663000
182.66665600	0.00000000	-58.50147000	-15.74188000
182.86665598	0.00000000	-58.50147000	-15.78494000
183.06665597	0.00000000	-58.50147000	-15.78494000
183.26665596	0.00000000	-58.50147000	-15.78494000
183.46665595	0.00000000	-58.50147000	-15.78494000
183.66665594	0.00000000	-58.50147000	-15.78494000
183.86665592	0.00000000	-58.54454000	-15.78494000
184.06665591	0.00000000	-58.87672000	-15.78494000
184.26665590	0.00000000	-59.24582000	-15.74188000
184.46665589	0.00000000	-58.87672000	-15.36663000
184.66665588	0.00000000	-58.54454000	-14.62844000
184.86665587	0.00000000	-58.50147000	-14.25320000
185.06665585	0.00000000	-58.50147000	-14.21014000
185.26665584	0.00000000	-58.50147000	-14.21014000
185.46665583	0.00000000	-58.50147000	-14.25320000
185.66665582	0.00000000	-58.50147000	-14.62844000
185.86665581	0.00000000	-58.50147000	-15.36663000
186.06665579	0.00000000	-58.50147000	-15.78494000
186.26665578	0.00000000	-58.50147000	-16.16018000
186.46665577	0.00000000	-58.50147000	-16.52928000
186.66665576	0.00000000	-58.50147000	-16.16018000
186.86665575	0.00000000	-58.50147000	-15.82800000
187.06665573	0.00000000	-58.54454000	-15.78494000
187.26665572	0.00000000	-58.87672000	-15.74188000
187.46665571	0.00000000	-59.28888000	-15.36663000
187.66665570	0.00000000	-59.25196000	-14.62844000
187.86665569	0.00000000	-59.28888000	-14.25320000
188.06665568	0.00000000	-58.87672000	-14.25320000
188.26665566	0.00000000	-58.54454000	-14.58538000
188.46665565	0.00000000	-58.50147000	-14.99139000
188.66665564	0.00000000	-58.50147000	-15.00369000
188.86665563	0.00000000	-58.50147000	-15.40969000
189.06665562	0.00000000	-58.50147000	-15.78494000
189.26665560	0.00000000	-58.50147000	-16.16018000
189.46665559	0.00000000	-58.50147000	-16.52928000
189.66665558	0.00000000	-58.50147000	-16.16018000
189.86665557	0.00000000	-58.50147000	-15.82800000
190.06665556	0.00000000	-58.50147000	-15.78494000
190.26665554	0.00000000	-58.54454000	-15.78494000
190.46665553	0.00000000	-58.91978000	-15.74188000
190.66665552	0.00000000	-59.61491000	-15.40969000
190.86665551	0.00000000	-59.61491000	-15.04675000
191.06665550	0.00000000	-58.91978000	-15.36663000
191.26665549	0.00000000	-58.54454000	-15.36663000
191.46665547	0.00000000	-58.50147000	-15.04675000
191.66665546	0.00000000	-58.50147000	-15.40969000
191.86665545	0.00000000	-58.50147000	-15.74188000
192.06665544	0.00000000	-58.50147000	-15.78494000
192.26665543	0.00000000	-58.50147000	-15.78494000
192.46665541	0.00000000	-58.50147000	-15.78494000
192.66665540	0.00000000	-58.50147000	-15.78494000
192.86665539	0.00000000	-58.50147000	-15.78494000
193.06665538	0.00000000	-58.50147000	-15.78494000
193.26665537	0.00000000	-58.50147000	-15.78494000
193.46665535	0.00000000	-58.50147000	-15.78494000
193.66665534	0.00000000	-58.50147000	-15.74188000
193.86665533	0.00000000	-58.50147000	-15.36663000
194.06665532	0.00000000	-58.50147000	-14.62844000
194.26665531	0.00000000	-58.50147000	-14.30241000
194.46665530	0.00000000	-58.50147000	-14.62844000
194.66665528	0.00000000	-58.50147000	-15.32357000
194.86665527	0.00000000	-58.50147000	-15.36663000
195.06665526	0.00000000	-58.50147000	-15.04675000
195.26665525	0.00000000	-58.50147000	-15.40969000
195.46665524	0.00000000	-58.50147000	-15.74188000
195.66665522	0.00000000	-58.50147000	-15.78494000
195.86665521	0.00000000	-58.50147000	-15.78494000
196.06665520	0.00000000	-58.54454000	-15.78494000
