Time	Channel A	Channel B	Channel C
(us)	(V)	(mV)	(mV)

-4.49999956	0.00000000	33.20005000	11.04823000
-4.29999957	0.00000000	33.20005000	11.04823000
-4.09999958	0.00000000	33.20005000	11.04823000
-3.89999959	0.00000000	33.20005000	11.04823000
-3.69999960	0.00000000	33.20005000	11.04823000
-3.49999962	0.00000000	33.20005000	11.09129000
-3.29999963	0.00000000	33.20005000	11.38041000
-3.09999964	0.00000000	33.20005000	11.41732000
-2.89999965	0.00000000	33.20005000	10.68528000
-2.69999966	0.00000000	33.20005000	10.72219000
-2.49999968	0.00000000	33.20005000	11.00517000
-2.29999969	0.00000000	33.20005000	11.04823000
-2.09999970	0.00000000	33.20005000	11.04823000
-1.89999971	0.00000000	33.20005000	11.04823000
-1.69999972	0.00000000	33.20005000	11.04823000
-1.49999973	0.00000000	33.20005000	11.04823000
-1.29999975	0.00000000	33.20005000	11.04823000
-1.09999976	0.00000000	33.20005000	11.04823000
-0.89999977	0.00000000	33.20005000	11.04823000
-0.69999978	0.00000000	33.20005000	11.04823000
-0.49999979	0.00000000	33.20005000	11.04823000
-0.29999981	0.31803640	33.20005000	11.04823000
-0.09999982	0.63668800	33.20005000	11.04823000
0.10000017	0.95533960	33.20005000	11.00517000
0.30000016	0.95533960	33.20005000	10.67298000
0.50000015	0.79601380	33.20005000	10.31004000
0.70000013	0.31803640	33.20005000	10.67298000
0.90000012	-0.47736220	33.20005000	11.00517000
1.10000011	-1.43331700	33.20005000	11.04823000
1.30000010	-2.38927200	33.20005000	11.04823000
1.50000009	-2.70792300	33.20005000	11.04823000
1.70000008	-2.54859700	33.20005000	11.04823000
1.90000006	-1.27399100	33.20005000	11.04823000
2.10000005	0.47736220	33.20005000	11.04823000
2.30000004	2.70792300	33.20005000	11.04823000
2.50000003	4.45989200	33.20005000	11.04823000
2.70000002	5.41584600	33.20005000	11.00517000
2.90000000	4.93786900	33.20005000	10.62992000
3.09999999	3.02657500	33.20005000	9.93479300
3.29999998	0.00000000	33.20005000	9.93479300
3.49999997	-3.50393700	33.20005000	10.62992000
3.69999996	-6.37180100	33.20005000	11.00517000
3.89999994	-7.96444400	33.20005000	11.04823000
4.09999993	-7.48646600	33.20005000	11.04823000
4.29999992	-5.09719500	33.20005000	11.04823000
4.49999991	-1.11466500	33.20005000	11.04823000
4.69999990	3.34522600	33.20005000	11.04823000
4.89999989	7.00848900	33.20005000	11.00517000
5.09999987	9.23905000	33.20005000	10.62992000
5.29999986	9.07972400	33.20005000	9.89173200
5.49999985	6.69045300	33.15699000	9.51648500
5.69999984	2.54859700	32.82480000	9.47342500
5.89999983	-2.22994600	32.45571000	9.47342500
6.09999981	-6.53112700	32.82480000	9.51648500
6.29999980	-9.07972400	33.15699000	9.89173200
6.49999979	-9.23905000	33.20005000	10.62992000
6.69999978	-7.16781500	33.20005000	11.00517000
6.89999977	-3.50393700	33.20005000	11.04823000
7.09999975	0.79601380	33.20005000	11.04823000
7.29999974	4.77854300	33.20005000	11.04823000
7.49999973	7.16781500	33.20005000	11.04823000
7.69999972	7.64579200	33.20005000	11.00517000
7.89999971	6.21247500	33.20005000	10.67298000
8.09999970	3.50393700	33.20005000	10.31004000
8.29999968	0.15871060	33.20005000	10.67298000
8.49999967	-2.86724900	33.20005000	11.00517000
8.69999966	-4.61921700	33.20005000	11.04823000
8.89999965	-5.25652100	33.20005000	11.04823000
9.09999964	-4.45989200	33.20005000	11.04823000
9.29999962	-2.70792300	33.15699000	11.04823000
9.49999961	-0.63668800	32.82480000	11.04823000
9.69999960	0.95533960	32.45571000	11.04823000
9.89999959	2.22994600	32.82480000	11.04823000
10.09999958	2.54859700	33.15699000	11.00517000
10.29999956	2.22994600	33.20005000	10.62992000
10.49999955	1.43331700	33.20005000	9.93479300
10.69999954	0.63668800	33.20005000	9.89173200
10.89999953	-0.15871060	33.15699000	10.21161000
11.09999952	-0.79601380	32.82480000	9.89173200
11.29999951	-0.95533960	32.45571000	9.93479300
11.49999949	-0.95533960	32.82480000	10.62992000
11.69999948	-0.79601380	33.10777000	10.95595000
11.89999947	-0.47736220	32.82480000	10.67298000
12.09999946	-0.15871060	32.45571000	10.31004000
12.29999945	-0.15871060	32.82480000	10.67298000
12.49999943	-0.15871060	33.15699000	11.00517000
12.69999942	0.00000000	33.20005000	11.04823000
12.89999941	0.00000000	33.20005000	11.04823000
13.09999940	0.15871060	33.20005000	11.04823000
13.29999939	0.00000000	33.15699000	11.04823000
13.49999937	0.00000000	32.82480000	11.04823000
13.69999936	0.00000000	32.45571000	11.04823000
13.89999935	0.00000000	32.82480000	11.04823000
14.09999934	-0.15871060	33.15699000	11.04823000
14.29999933	-0.15871060	33.20005000	11.04823000
14.49999932	-0.15871060	33.20005000	11.04823000
14.69999930	-0.15871060	33.20005000	11.04823000
14.89999929	0.00000000	33.20005000	11.04823000
15.09999928	0.00000000	33.20005000	11.04823000
15.29999927	0.00000000	33.20005000	11.04823000
15.49999926	0.00000000	33.20005000	11.04823000
15.69999924	0.00000000	33.20005000	11.04823000
15.89999923	0.00000000	33.20005000	11.04823000
16.09999922	0.00000000	33.20005000	11.04823000
16.29999921	0.00000000	33.20005000	11.04823000
16.49999920	-0.15871060	33.20005000	11.04823000
16.69999919	0.00000000	33.24311000	11.04823000
16.89999917	-0.15871060	33.61835000	11.04823000
17.09999916	0.00000000	34.36884000	11.04823000
17.29999915	0.00000000	34.74409000	11.04823000
17.49999914	0.00000000	34.78716000	11.04823000
17.69999913	0.00000000	34.74409000	11.04823000
17.89999911	0.00000000	34.31963000	11.04823000
18.09999910	0.00000000	33.15699000	11.04823000
18.29999909	0.00000000	31.61909000	11.04823000
18.49999908	0.00000000	30.03814000	11.04823000
18.69999907	0.00000000	28.50024000	11.00517000
18.89999905	0.00000000	27.38681000	10.67298000
19.09999904	0.00000000	27.38681000	10.26698000
19.29999903	0.00000000	28.59252000	10.30389000
19.49999902	0.00000000	30.92396000	10.26698000
19.69999901	0.00000000	34.45497000	10.67298000
19.89999900	0.00000000	38.28125000	11.00517000
20.09999898	0.00000000	41.76304000	11.00517000
20.29999897	0.00000000	43.62696000	10.62992000
20.49999896	0.00000000	43.20866000	9.93479300
20.69999895	0.00000000	40.04675000	9.89173200
20.89999894	0.00000000	34.23351000	10.21161000
21.09999892	0.00000000	26.87623000	9.84867000
21.29999891	0.00000000	19.52510000	9.51648500
21.49999890	0.00000000	13.80413000	9.47342500
21.69999889	0.00000000	11.57111000	9.47342500
21.89999888	0.00000000	14.35777000	9.47342500
22.09999886	0.00000000	22.08415000	9.47342500
22.29999885	0.00000000	33.33538000	9.47342500
22.49999884	0.00000000	45.71850000	9.51648500
22.69999883	0.00000000	56.88361000	9.89173200
22.89999882	0.00000000	63.72416000	10.62992000
23.09999881	0.00000000	63.68110000	11.00517000
23.29999879	0.00000000	56.28075000	11.09129000
23.49999878	0.00000000	42.69808000	11.46653000
23.69999877	-0.15871060	25.29527000	12.21087000
23.89999876	0.00000000	7.98474400	12.58612000
24.09999875	0.00000000	-4.75516700	12.58612000
24.29999873	0.00000000	-9.69488100	12.16166000
24.49999872	0.00000000	-5.36417300	11.00517000
24.69999871	0.00000000	8.58759800	9.47342500
24.89999870	0.00000000	29.01082000	7.89247000
25.09999869	0.00000000	51.07037000	6.36072800
25.29999867	0.00000000	70.00491000	5.24729300
25.49999866	0.00000000	81.50221000	5.24729300
25.69999865	0.00000000	82.19734000	6.40378900
25.89999864	0.00000000	70.98917000	8.40305000
26.09999863	0.00000000	50.55979000	11.55881000
26.29999862	0.00000000	25.84892000	15.74188000
26.49999860	0.00000000	2.63902500	19.59892000
26.69999859	0.00000000	-13.97638000	21.88115000
26.89999858	0.00000000	-20.48474000	22.24409000
27.09999857	0.00000000	-14.67150000	19.83883000
27.29999856	0.00000000	2.22071800	14.81299000
27.49999854	0.00000000	25.38755000	7.80019600
27.69999853	0.00000000	49.39714000	0.09227362
27.89999852	0.00000000	69.49433000	-6.78518600
28.09999851	0.00000000	81.08390000	-10.54995000
28.29999850	0.00000000	81.54527000	-9.34424200
28.49999848	0.00000000	71.54281000	-3.16190900
28.69999847	0.00000000	53.76476000	6.91437000
28.89999846	0.00000000	32.08661000	18.89764000
29.09999845	0.00000000	11.23893000	30.46875000
29.29999844	0.00000000	-4.25073800	38.88410000
29.49999843	0.00000000	-10.85753000	41.52928000
29.69999841	0.00000000	-7.87401500	37.26009000
29.89999840	0.00000000	3.33415300	26.80241000
30.09999839	0.00000000	19.90034000	12.07554000
30.29999838	0.00000000	38.13361000	-4.09694900
30.49999837	0.00000000	54.00467000	-17.98105000
30.69999835	0.00000000	64.88680000	-26.07037000
30.89999834	0.00000000	68.38091000	-26.80856000
31.09999833	0.00000000	64.23473000	-19.42667000
31.29999832	0.00000000	54.18307000	-5.16117100
31.49999831	0.00000000	40.60039000	12.62918000
31.69999829	0.00000000	25.89813000	30.42569000
31.89999828	0.00000000	13.15207000	44.69119000
32.09999827	0.00000000	5.38262700	51.98696000
32.29999826	0.00000000	3.80167300	50.44906000
32.49999825	0.00000000	8.40920300	40.41584000
32.69999824	0.00000000	18.03642000	24.20029000
32.89999822	0.00000000	29.99508000	5.24729300
33.09999821	0.00000000	41.62770000	-12.50615000
33.29999820	0.00000000	50.51673000	-25.23376000
33.49999819	0.00000000	54.79207000	-29.92126000
33.69999818	0.00000000	53.67864000	-26.11343000
33.89999816	0.00000000	47.90846000	-15.28666000
34.09999815	0.00000000	39.06250000	0.59670270
34.29999814	0.00000000	29.43528000	18.30093000
34.49999813	0.00000000	21.65969000	33.77214000
34.69999812	0.00000000	17.00910000	43.44242000
34.89999810	0.00000000	16.26476000	45.80462000
35.09999809	0.00000000	20.07874000	40.41584000
35.29999808	0.00000000	26.92544000	28.89395000
35.49999807	0.00000000	34.27657000	14.21014000
35.69999806	0.00000000	40.42199000	-0.46751960
35.89999805	0.00000000	43.90379000	-12.03863000
36.09999803	0.00000000	43.54084000	-17.84572000
36.29999802	0.00000000	40.18209000	-16.68922000
36.49999801	0.00000000	35.11319000	-9.06126900
36.69999800	0.00000000	29.75517000	2.87278500
36.89999799	0.00000000	25.11073000	15.52042000
37.09999797	0.00000000	22.82234000	25.96580000
37.29999796	0.00000000	23.15453000	31.36073000
37.49999795	0.00000000	25.89198000	31.02854000
37.69999794	0.00000000	30.50566000	25.22145000
37.89999793	0.00000000	35.85752000	15.32357000
38.09999791	0.00000000	40.08981000	4.63828700
38.29999790	0.00000000	42.04601000	-3.07578700
38.49999789	0.00000000	41.67076000	-6.18848400
38.69999788	0.00000000	39.01944000	-4.23228400
38.89999787	0.00000000	35.16240000	2.63902500
39.09999786	0.00000000	31.24384000	12.16781000
39.29999784	0.00000000	27.38681000	20.99532000
39.49999783	0.00000000	24.68627000	26.71629000
39.69999782	0.00000000	23.89271000	27.45448000
39.89999781	0.00000000	24.64321000	22.48400000
40.09999780	0.00000000	26.96850000	13.69956000
40.29999778	0.00000000	30.03814000	3.70939900
40.49999777	0.00000000	33.20005000	-4.69365100
40.69999776	0.00000000	36.27584000	-8.92593500
40.89999775	0.00000000	38.64419000	-7.76328700
41.09999774	0.00000000	39.81299000	-1.63016700
41.29999772	0.00000000	40.18209000	7.94168200
41.49999771	0.00000000	38.97638000	17.97490000
41.69999770	0.00000000	36.31890000	26.06422000
41.89999769	0.00000000	33.24926000	30.70251000
42.09999768	0.00000000	30.50566000	30.19808000
42.29999767	0.00000000	28.50024000	24.52018000
42.49999765	0.00000000	26.91929000	14.96063000
42.69999764	0.00000000	25.80585000	5.33341500
42.89999763	0.00000000	25.80585000	-2.42372000
43.09999762	0.00000000	26.96850000	-7.01894700
43.29999761	0.00000000	28.87549000	-6.64985200
43.49999759	0.00000000	31.20078000	-2.14074800
43.69999758	0.00000000	33.15699000	4.77977300
43.89999757	0.00000000	34.73794000	12.11860000
44.09999756	0.00000000	35.90059000	18.30093000
44.29999755	0.00000000	36.32505000	22.20103000
44.49999753	0.00000000	36.36811000	22.99459000
44.69999752	0.00000000	36.36811000	21.08760000
44.89999751	0.00000000	36.36811000	16.85531000
45.09999750	0.00000000	36.32505000	11.51575000
45.29999749	0.00000000	35.85752000	6.86515700
45.49999748	0.00000000	34.27657000	3.70939900
45.69999746	0.00000000	31.57603000	2.17150600
45.89999745	0.00000000	28.45718000	2.54675200
46.09999744	0.00000000	25.33834000	4.82283400
46.29999743	0.00000000	22.68701000	7.89247000
46.49999742	0.00000000	21.57357000	11.00517000
46.69999740	0.00000000	22.77928000	13.69956000
46.89999739	0.00000000	26.26722000	15.27436000
47.09999738	0.00000000	31.71137000	15.69267000
47.29999737	0.00000000	37.89985000	15.27436000
47.49999736	0.00000000	43.67618000	13.74262000
47.69999734	0.00000000	47.48400000	11.42347000
47.89999733	0.00000000	47.85925000	9.09817800
48.09999732	0.00000000	44.74655000	6.77903500
48.29999731	0.00000000	38.50886000	5.24729300
48.49999730	0.00000000	30.03814000	4.87204700
48.69999729	0.00000000	21.57357000	5.66560000
48.89999727	0.00000000	15.42815000	7.98474400
49.09999726	0.00000000	13.10285000	11.04823000
49.29999725	0.00000000	15.42815000	14.16092000
49.49999724	0.00000000	21.61663000	16.81225000
49.69999723	0.00000000	30.50566000	17.97490000
49.89999721	0.00000000	40.08981000	17.18750000
50.09999720	0.00000000	47.44094000	14.85605000
50.29999719	0.00000000	50.93504000	11.00517000
50.49999718	0.00000000	50.14148000	6.82209600
50.69999717	0.00000000	44.74655000	3.70939900
50.89999715	0.00000000	36.31890000	2.12844500
51.09999714	0.00000000	27.42987000	2.17150600
51.29999713	0.00000000	20.07874000	4.12770700
51.49999712	0.00000000	15.88952000	7.98474400
51.69999711	0.00000000	16.26476000	12.53691000
51.89999710	0.00000000	21.24139000	16.43701000
52.09999708	0.00000000	28.87549000	18.71924000
52.29999707	0.00000000	36.97096000	19.08834000
52.49999706	0.00000000	43.11638000	16.76919000
52.69999705	0.00000000	45.85999000	12.62918000
52.89999704	0.00000000	44.69734000	8.40305000
53.09999702	0.00000000	40.08981000	5.29035400
53.29999701	0.00000000	33.20005000	3.70939900
53.49999700	0.00000000	26.31643000	3.70939900
53.69999699	0.00000000	21.65969000	5.24729300
53.89999698	0.00000000	20.07874000	7.93553100
54.09999696	0.00000000	21.65969000	10.96211000
54.29999695	0.00000000	26.26722000	13.28125000
54.49999694	0.00000000	32.73868000	14.03174000
54.69999693	0.00000000	38.46580000	13.28125000
54.89999692	0.00000000	41.62770000	11.00517000
55.09999691	0.00000000	42.00295000	8.40305000
55.29999689	0.00000000	39.71457000	6.82209600
55.49999688	0.00000000	35.11319000	6.44685000
55.69999687	0.00000000	30.13041000	7.24040300
55.89999686	0.00000000	25.84892000	9.55954600
56.09999685	0.00000000	23.15453000	12.58612000
56.29999683	0.00000000	22.77928000	15.27436000
56.49999682	0.00000000	24.73548000	16.76919000
56.69999681	0.00000000	28.92470000	16.35089000
56.89999680	0.00000000	33.90133000	13.61343000
57.09999679	0.00000000	37.77067000	9.05511800
57.29999677	0.00000000	40.08981000	4.08464600
57.49999676	0.00000000	40.08981000	0.64591530
57.69999675	0.00000000	37.85679000	-0.51673230
57.89999674	0.00000000	34.78716000	1.06422200
58.09999673	0.00000000	31.61909000	5.29035400
58.29999672	0.00000000	28.59252000	11.09744000
58.49999670	0.00000000	26.69168000	17.23056000
58.69999669	0.00000000	27.01156000	22.20103000
58.89999668	0.00000000	28.50024000	24.06496000
59.09999667	0.00000000	30.45644000	22.15797000
59.29999666	0.00000000	32.73868000	16.76919000
59.49999664	0.00000000	34.27657000	9.47342500
59.69999663	0.00000000	34.69488000	2.17765700
59.89999662	0.00000000	34.36884000	-3.21112200
60.09999661	0.00000000	33.57529000	-5.11811000
60.29999660	0.00000000	32.78174000	-3.21112200
60.49999658	0.00000000	31.66215000	2.22071800
60.69999657	0.00000000	30.92396000	9.89173200
60.89999656	0.00000000	31.24384000	17.97490000
61.09999655	0.00000000	31.66215000	24.10802000
61.29999654	0.00000000	32.46186000	26.84547000
61.49999653	0.00000000	33.94439000	25.63976000
61.69999651	0.00000000	34.65182000	20.66314000
61.89999650	0.00000000	34.31963000	12.96137000
62.09999649	0.00000000	33.11393000	4.91510800
62.29999648	0.00000000	31.20078000	-1.67322800
62.49999647	0.00000000	28.92470000	-5.16117100
62.69999645	0.00000000	27.42987000	-5.16117100
62.89999644	0.00000000	27.38681000	-1.67322800
63.09999643	0.00000000	28.54946000	4.87204700
63.29999642	0.00000000	30.45644000	12.54306000
63.49999641	0.00000000	32.82480000	19.50664000
63.69999639	0.00000000	35.11319000	24.10802000
63.89999638	0.00000000	37.06324000	25.31373000
64.09999637	0.00000000	37.77067000	23.03765000
64.29999636	0.00000000	37.02018000	18.39321000
64.49999635	0.00000000	34.73794000	12.21087000
64.69999634	0.00000000	32.03740000	5.70866100
64.89999632	0.00000000	29.66289000	1.02116100
65.09999631	0.00000000	27.38681000	-1.35334600
65.29999630	0.00000000	26.26722000	-1.76550200
65.49999629	0.00000000	27.01156000	0.17839570
65.69999628	0.00000000	28.87549000	3.62327700
65.89999626	0.00000000	31.24384000	7.89247000
66.09999625	0.00000000	33.53223000	12.16166000
66.29999624	0.00000000	35.43922000	15.69882000
66.49999623	0.00000000	35.81446000	18.43627000
66.69999622	0.00000000	34.69488000	19.93110000
66.89999620	0.00000000	32.78174000	19.59892000
67.09999619	0.00000000	30.45644000	17.64887000
67.29999618	0.00000000	28.59252000	14.99139000
67.49999617	0.00000000	27.84818000	11.84178000
67.69999616	0.00000000	29.01082000	9.09817800
67.89999615	0.00000000	31.61909000	6.22539300
68.09999613	0.00000000	34.31963000	2.87278500
68.29999612	0.00000000	36.27584000	0.23375980
68.49999611	0.00000000	37.39542000	0.17839570
68.69999610	0.00000000	36.97712000	1.66707700
68.89999609	0.00000000	34.65182000	4.12770700
69.09999607	0.00000000	31.15772000	8.40305000
69.29999606	0.00000000	26.91929000	13.74262000
69.49999605	0.00000000	23.15453000	18.35015000
69.69999604	0.00000000	21.61663000	21.08760000
69.89999603	0.00000000	22.73007000	21.46284000
70.09999601	0.00000000	25.84892000	19.54970000
70.29999600	0.00000000	30.54872000	15.64960000
70.49999599	0.00000000	36.31890000	10.62992000
70.69999598	0.00000000	41.67076000	5.24729300
70.89999597	0.00000000	44.74655000	1.02116100
71.09999596	0.00000000	44.74655000	-0.93503930
71.29999594	0.00000000	41.62770000	-0.55979330
71.49999593	0.00000000	35.85752000	2.12844500
71.69999592	0.00000000	28.92470000	6.35457700
71.89999591	0.00000000	22.73007000	11.00517000
72.09999590	0.00000000	18.49778000	15.23130000
72.29999588	0.00000000	17.34129000	17.92569000
72.49999587	0.00000000	19.61737000	18.35015000
72.69999586	0.00000000	24.26796000	16.85531000
72.89999585	0.00000000	30.45644000	14.16092000
73.09999584	0.00000000	37.02018000	11.09744000
73.29999582	0.00000000	42.04601000	8.40305000
73.49999581	0.00000000	44.78961000	6.86515700
73.69999580	0.00000000	44.74655000	6.86515700
73.89999579	0.00000000	41.67076000	8.35383800
74.09999578	0.00000000	36.31890000	10.58686000
74.29999577	0.00000000	30.50566000	12.07554000
74.49999575	0.00000000	25.47367000	12.11860000
74.69999574	0.00000000	21.99188000	11.00517000
74.89999573	0.00000000	21.24139000	9.47342500
75.09999572	0.00000000	23.06225000	7.89247000
75.29999571	0.00000000	26.54404000	6.40378900
75.49999569	0.00000000	30.41338000	5.70866100
75.69999568	0.00000000	34.27657000	6.91437000
75.89999567	0.00000000	36.97712000	9.93479300
76.09999566	0.00000000	37.81373000	13.79183000
76.29999565	0.00000000	37.48154000	17.23056000
76.49999563	0.00000000	36.27584000	19.55585000
76.69999562	0.00000000	34.41191000	19.83883000
76.89999561	0.00000000	32.46186000	17.55659000
77.09999560	0.00000000	31.28691000	12.91215000
77.29999559	0.00000000	30.45644000	7.51722400
77.49999558	0.00000000	30.08120000	2.08538400
77.69999556	0.00000000	30.08120000	-2.04847400
77.89999555	0.00000000	30.41338000	-3.21112200
78.09999554	0.00000000	30.73326000	-0.93503930
78.29999553	0.00000000	29.99508000	3.66633800
78.49999552	0.00000000	28.92470000	9.51648500
78.69999550	0.00000000	28.54946000	15.69882000
78.89999549	0.00000000	28.92470000	21.03838000
79.09999548	0.00000000	30.13041000	23.73892000
79.29999547	0.00000000	32.03740000	22.99459000
79.49999546	0.00000000	34.36884000	19.55585000
79.69999544	0.00000000	36.23277000	14.11786000
79.89999543	0.00000000	37.06324000	7.98474400
80.09999542	0.00000000	36.65108000	2.55290300
80.29999541	0.00000000	35.48228000	-0.93503930
80.49999540	0.00000000	33.11393000	-2.13459600
80.69999539	0.00000000	30.03814000	-1.02116100
80.89999537	0.00000000	27.01156000	1.66707700
81.09999536	0.00000000	25.06151000	5.19808000
81.29999535	0.00000000	25.05536000	9.47342500
81.49999534	0.00000000	26.22416000	13.69956000
81.69999533	0.00000000	28.92470000	16.85531000
81.89999531	0.00000000	32.36343000	18.76845000
82.09999530	0.00000000	35.07013000	19.18061000
82.29999529	0.00000000	37.02018000	17.64887000
82.49999528	0.00000000	37.39542000	15.32357000
82.69999527	0.00000000	36.27584000	12.16166000
82.89999525	0.00000000	34.31963000	8.31077700
83.09999524	0.00000000	31.66830000	4.82283400
83.29999523	0.00000000	29.34301000	2.08538400
83.49999522	0.00000000	28.17421000	0.55364170
83.69999521	0.00000000	27.76206000	0.55364170
83.89999520	0.00000000	28.54946000	2.08538400
84.09999518	0.00000000	29.99508000	4.87204700
84.29999517	0.00000000	31.20078000	8.72908400
84.49999516	0.00000000	31.99434000	13.37352000
84.69999515	0.00000000	32.73252000	17.23056000
84.89999514	0.00000000	32.73252000	19.97416000
85.09999512	0.00000000	32.03740000	21.04454000
85.29999511	0.00000000	31.66215000	19.50664000
85.49999510	0.00000000	31.66215000	15.69882000
85.69999509	0.00000000	32.03740000	11.04823000
85.89999508	0.00000000	32.78174000	6.35457700
86.09999506	0.00000000	33.15699000	2.12844500
86.29999505	0.00000000	33.15699000	-0.51673230
86.49999504	0.00000000	32.78174000	-0.51673230
86.69999503	0.00000000	31.99434000	2.12844500
86.89999502	0.00000000	31.20078000	6.35457700
87.09999501	0.00000000	30.03814000	11.00517000
87.29999499	0.00000000	28.92470000	15.27436000
87.49999498	0.00000000	28.54946000	18.39321000
87.69999497	0.00000000	28.92470000	19.88189000
87.89999496	0.00000000	30.08120000	19.08834000
88.09999495	0.00000000	31.61909000	15.64960000
88.29999493	0.00000000	33.15699000	11.04823000
88.49999492	0.00000000	34.31963000	6.44685000
88.69999491	0.00000000	34.69488000	2.96505900
88.89999490	0.00000000	34.31963000	1.80241100
89.09999489	0.00000000	33.15699000	2.54675200
89.29999487	0.00000000	31.61909000	5.29035400
89.49999486	0.00000000	30.03814000	9.47342500
89.69999485	0.00000000	28.54946000	13.69956000
89.89999484	0.00000000	27.80512000	16.81225000
90.09999483	0.00000000	28.50024000	18.30093000
90.29999482	0.00000000	29.61983000	17.50738000
90.49999480	0.00000000	30.41338000	14.07480000
90.69999479	0.00000000	31.24384000	9.56569900
90.89999478	0.00000000	31.99434000	5.66560000
91.09999477	0.00000000	32.78174000	3.33415300
91.29999476	0.00000000	33.10777000	2.54675200
91.49999474	0.00000000	32.78174000	3.75246000
91.69999473	0.00000000	32.03740000	6.82209600
91.89999472	0.00000000	31.66215000	11.04823000
92.09999471	0.00000000	31.61909000	15.23130000
92.29999470	0.00000000	31.61909000	17.88263000
92.49999468	0.00000000	31.61909000	17.92569000
92.69999467	0.00000000	31.61909000	15.64960000
92.89999466	0.00000000	31.57603000	12.16166000
93.09999465	0.00000000	31.15157000	7.93553100
93.29999464	0.00000000	30.03814000	4.12770700
93.49999463	0.00000000	28.96776000	2.22071800
93.69999461	0.00000000	28.92470000	2.54675200
93.89999460	0.00000000	29.70595000	4.91510800
94.09999459	0.00000000	30.83169000	8.72908400
94.29999458	0.00000000	32.44956000	13.32431000
94.49999457	0.00000000	33.95054000	16.72613000
94.69999455	0.00000000	35.52534000	17.92569000
94.89999454	0.00000000	36.23277000	16.76919000
95.09999453	0.00000000	35.90059000	13.74262000
95.29999452	0.00000000	34.69488000	9.89173200
95.49999451	0.00000000	32.73868000	6.40378900
95.69999449	0.00000000	30.03814000	3.70939900
95.89999448	0.00000000	27.34375000	2.59596400
96.09999447	0.00000000	25.43061000	3.70939900
96.29999446	0.00000000	24.64321000	6.40378900
96.49999445	0.00000000	25.47367000	9.84867000
96.69999444	0.00000000	27.76206000	13.28125000
96.89999442	0.00000000	31.24384000	15.23130000
97.09999441	0.00000000	34.69488000	15.64960000
97.29999440	0.00000000	37.43848000	14.85605000
97.49999439	0.00000000	38.97638000	12.53691000
97.69999438	0.00000000	38.97638000	9.51648500
97.89999436	0.00000000	37.39542000	6.82209600
98.09999435	0.00000000	34.31963000	5.29035400
98.29999434	0.00000000	30.45644000	5.24729300
98.49999433	0.00000000	27.01156000	6.36072800
98.69999432	0.00000000	24.60015000	7.89247000
98.89999430	0.00000000	23.47441000	9.47342500
99.09999429	0.00000000	23.48056000	10.96211000
99.29999428	0.00000000	25.47367000	11.74336000
99.49999427	0.00000000	28.87549000	11.42347000
99.69999426	0.00000000	32.73868000	11.09129000
99.89999425	0.00000000	35.85752000	11.04823000
100.09999423	0.00000000	37.81373000	11.04823000
100.29999422	0.00000000	38.60113000	11.04823000
100.49999421	0.00000000	37.81373000	11.04823000
100.69999420	0.00000000	35.90059000	11.04823000
100.89999419	0.00000000	33.15699000	11.00517000
101.09999417	0.00000000	30.08120000	10.58686000
101.29999416	0.00000000	27.38681000	9.42421200
101.49999415	0.00000000	25.80585000	7.89247000
101.69999414	0.00000000	25.38755000	6.36072800
101.89999413	0.00000000	25.76279000	5.24729300
102.09999411	0.00000000	26.96850000	5.29035400
102.29999410	0.00000000	28.87549000	6.82209600
102.49999409	0.00000000	31.20078000	9.47342500
102.69999408	0.00000000	33.15699000	12.16781000
102.89999407	0.00000000	34.73794000	14.16092000
103.09999406	0.00000000	35.85752000	15.69882000
103.29999404	0.00000000	35.85752000	16.39395000
103.49999403	0.00000000	34.69488000	15.23130000
103.69999402	0.00000000	32.78174000	12.58612000
103.89999401	0.00000000	30.50566000	9.47342500
104.09999400	0.00000000	28.92470000	6.40378900
104.29999398	0.00000000	28.08194000	4.12770700
104.49999397	0.00000000	27.34375000	3.70939900
104.69999396	0.00000000	27.38681000	4.82283400
104.89999395	0.00000000	28.50024000	6.77903500
105.09999394	0.00000000	30.03814000	9.51648500
105.29999392	0.00000000	31.57603000	12.53691000
105.49999391	0.00000000	32.73252000	14.81299000
105.69999390	0.00000000	33.15699000	15.23130000
105.89999389	0.00000000	33.15699000	14.11786000
106.09999388	0.00000000	32.73252000	12.21087000
106.29999387	0.00000000	31.61909000	9.89173200
106.49999385	0.00000000	30.50566000	7.98474400
106.69999384	0.00000000	30.08120000	6.77903500
106.89999383	0.00000000	30.03814000	6.44685000
107.09999382	0.00000000	30.08120000	7.19734200
107.29999381	0.00000000	30.50566000	9.09817800
107.49999379	0.00000000	31.61909000	10.96211000
107.69999378	0.00000000	32.73252000	12.16166000
107.89999377	0.00000000	33.10777000	12.53691000
108.09999376	0.00000000	32.73252000	12.16166000
108.29999375	0.00000000	31.57603000	11.04823000
108.49999374	0.00000000	30.08120000	9.89173200
108.69999372	0.00000000	28.92470000	9.05511800
108.89999371	0.00000000	28.50024000	7.93553100
109.09999370	0.00000000	28.50024000	7.28346400
109.29999369	0.00000000	28.92470000	8.35383800
109.49999368	0.00000000	30.08120000	10.21161000
109.69999366	0.00000000	31.61909000	11.42347000
109.89999365	0.00000000	33.15699000	12.58612000
110.09999364	0.00000000	34.31963000	13.32431000
110.29999363	0.00000000	34.69488000	12.96137000
110.49999362	0.00000000	34.27657000	12.21087000
110.69999360	0.00000000	32.78174000	11.00517000
110.89999359	0.00000000	30.87475000	9.47342500
111.09999358	0.00000000	29.70595000	7.93553100
111.29999357	0.00000000	28.87549000	6.82209600
111.49999356	0.00000000	28.54946000	6.77903500
111.69999355	0.00000000	28.87549000	7.47416300
111.89999353	0.00000000	29.66289000	7.89247000
112.09999352	0.00000000	30.45644000	8.35998900
112.29999351	0.00000000	31.61909000	9.47342500
112.49999350	0.00000000	32.73252000	10.58686000
112.69999349	0.00000000	33.10777000	10.95595000
112.89999347	0.00000000	32.78174000	10.62992000
113.09999346	0.00000000	31.99434000	9.89173200
113.29999345	0.00000000	31.24384000	9.47342500
113.49999344	0.00000000	30.45644000	9.09817800
113.69999343	0.00000000	30.08120000	8.72908400
113.89999341	0.00000000	30.03814000	9.09817800
114.09999340	0.00000000	30.03814000	9.38115100
114.29999339	0.00000000	30.03814000	9.05511800
114.49999338	0.00000000	30.03814000	8.35998900
114.69999337	0.00000000	30.08120000	8.31077700
114.89999336	0.00000000	30.45644000	8.63681000
115.09999334	0.00000000	31.20078000	8.26771600
115.29999333	0.00000000	31.57603000	7.93553100
115.49999332	0.00000000	31.61909000	7.93553100
115.69999331	0.00000000	31.61909000	8.35998900
115.89999330	0.00000000	31.57603000	9.47342500
116.09999328	0.00000000	31.20078000	10.58686000
116.29999327	0.00000000	30.45644000	11.00517000
116.49999326	0.00000000	30.08120000	11.04823000
116.69999325	0.00000000	30.03814000	11.04823000
116.89999324	0.00000000	30.03814000	11.04823000
117.09999322	0.00000000	30.08120000	11.00517000
117.29999321	0.00000000	30.45644000	10.58686000
117.49999320	0.00000000	31.24384000	9.47342500
117.69999319	0.00000000	31.99434000	8.35998900
117.89999318	0.00000000	32.78174000	7.93553100
118.09999317	0.00000000	33.15699000	7.93553100
118.29999315	0.00000000	33.15699000	8.31077700
118.49999314	0.00000000	32.73252000	9.09817800
118.69999313	0.00000000	31.61909000	9.84867000
118.89999312	0.00000000	30.45644000	10.67298000
119.09999311	0.00000000	29.66289000	11.38041000
119.29999309	0.00000000	28.87549000	11.79257000
119.49999308	0.00000000	28.54946000	11.42347000
119.69999307	0.00000000	28.87549000	11.09129000
119.89999306	0.00000000	29.66289000	11.04823000
120.09999305	0.00000000	30.45644000	11.04823000
120.29999303	0.00000000	31.66215000	11.00517000
120.49999302	0.00000000	33.15699000	10.62992000
120.69999301	0.00000000	34.27657000	9.89173200
120.89999300	0.00000000	34.31963000	9.51648500
121.09999299	0.00000000	33.53223000	9.47342500
121.29999298	0.00000000	32.40649000	9.43036400
121.49999296	0.00000000	30.87475000	9.09817800
121.69999295	0.00000000	30.08120000	8.72908400
121.89999294	0.00000000	29.61983000	9.09817800
122.09999293	0.00000000	28.87549000	9.47342500
122.29999292	0.00000000	28.54946000	9.89173200
122.49999290	0.00000000	28.87549000	10.67298000
122.69999289	0.00000000	29.61983000	11.33120000
122.89999288	0.00000000	30.08120000	11.46038000
123.09999287	0.00000000	30.87475000	11.06053000
123.29999286	0.00000000	32.36343000	11.41732000
123.49999284	0.00000000	33.10777000	10.96211000
123.69999283	0.00000000	33.20005000	9.93479300
123.89999282	0.00000000	33.15699000	9.47342500
124.09999281	0.00000000	32.73252000	9.05511800
124.29999280	0.00000000	31.61909000	8.31077700
124.49999279	0.00000000	30.50566000	7.98474400
124.69999277	0.00000000	30.03814000	8.31077700
124.89999276	0.00000000	29.61983000	9.05511800
125.09999275	0.00000000	28.87549000	9.47342500
125.29999274	0.00000000	28.54946000	9.89173200
125.49999273	0.00000000	28.87549000	10.62992000
125.69999271	0.00000000	29.66289000	11.00517000
125.89999270	0.00000000	30.41338000	11.04823000
126.09999269	0.00000000	31.24384000	11.00517000
126.29999268	0.00000000	31.99434000	10.62992000
126.49999267	0.00000000	32.78174000	9.89173200
126.69999265	0.00000000	33.10777000	9.51648500
126.89999264	0.00000000	32.78174000	9.47342500
127.09999263	0.00000000	31.99434000	9.47342500
127.29999262	0.00000000	31.24384000	9.47342500
127.49999261	0.00000000	30.41338000	9.47342500
127.69999260	0.00000000	29.66289000	9.47342500
127.89999258	0.00000000	28.87549000	9.47342500
128.09999257	0.00000000	28.54946000	9.47342500
128.29999256	0.00000000	28.92470000	9.47342500
128.49999255	0.00000000	30.03814000	9.47342500
128.69999254	0.00000000	31.20078000	9.47342500
128.89999252	0.00000000	31.99434000	9.47342500
129.09999251	0.00000000	32.78174000	9.47342500
129.29999250	0.00000000	33.10777000	9.47342500
129.49999249	0.00000000	32.73252000	9.47342500
129.69999248	0.00000000	31.57603000	9.47342500
129.89999246	0.00000000	30.08120000	9.47342500
130.09999245	0.00000000	28.92470000	9.47342500
130.29999244	0.00000000	28.50024000	9.47342500
130.49999243	0.00000000	28.45718000	9.47342500
130.69999242	0.00000000	28.54946000	9.51648500
130.89999241	0.00000000	29.29380000	9.89173200
131.09999239	0.00000000	30.82554000	10.62992000
131.29999238	0.00000000	31.95128000	10.95595000
131.49999237	0.00000000	32.78174000	10.62992000
131.69999236	0.00000000	33.10777000	9.84867000
131.89999235	0.00000000	32.78174000	9.09817800
132.09999233	0.00000000	31.99434000	8.31077700
132.29999232	0.00000000	31.20078000	7.93553100
132.49999231	0.00000000	30.03814000	7.89247000
132.69999230	0.00000000	28.96776000	7.93553100
132.89999229	0.00000000	28.92470000	8.35998900
133.09999227	0.00000000	29.61983000	9.47342500
133.29999226	0.00000000	30.03814000	10.58686000
133.49999225	0.00000000	30.45644000	11.00517000
133.69999224	0.00000000	31.20078000	11.04823000
133.89999223	0.00000000	31.57603000	11.04823000
134.09999222	0.00000000	31.57603000	11.00517000
134.29999220	0.00000000	31.20078000	10.58686000
134.49999219	0.00000000	30.45644000	9.47342500
134.69999218	0.00000000	30.08120000	8.35998900
134.89999217	0.00000000	30.03814000	7.93553100
135.09999216	0.00000000	30.08120000	7.89247000
135.29999214	0.00000000	30.45644000	7.93553100
135.49999213	0.00000000	31.20078000	8.31077700
135.69999212	0.00000000	31.52682000	9.09817800
135.89999211	0.00000000	31.20078000	9.84867000
136.09999210	0.00000000	30.45644000	10.62992000
136.29999208	0.00000000	30.08120000	11.00517000
136.49999207	0.00000000	29.99508000	11.04823000
136.69999206	0.00000000	29.61983000	11.00517000
136.89999205	0.00000000	28.92470000	10.62992000
137.09999204	0.00000000	28.92470000	9.89173200
137.29999203	0.00000000	29.66289000	9.47342500
137.49999201	0.00000000	30.41338000	9.09817800
137.69999200	0.00000000	31.20078000	8.72908400
137.89999199	0.00000000	31.57603000	9.05511800
138.09999198	0.00000000	31.61909000	9.00590400
138.29999197	0.00000000	31.57603000	8.31077700
138.49999195	0.00000000	31.20078000	7.98474400
138.69999194	0.00000000	30.41338000	8.26771600
138.89999193	0.00000000	29.66289000	8.72293300
139.09999192	0.00000000	28.87549000	9.10433000
139.29999191	0.00000000	28.50024000	10.25467000
139.49999189	0.00000000	28.50024000	10.95595000
139.69999188	0.00000000	28.87549000	11.04823000
139.89999187	0.00000000	29.66289000	11.04823000
140.09999186	0.00000000	30.41338000	11.00517000
140.29999185	0.00000000	31.20078000	10.62992000
140.49999184	0.00000000	31.57603000	9.84867000
140.69999182	0.00000000	31.57603000	9.09817800
140.89999181	0.00000000	31.20078000	8.31077700
141.09999180	0.00000000	30.45644000	7.93553100
141.29999179	0.00000000	30.08120000	7.89247000
141.49999178	0.00000000	30.03814000	7.93553100
141.69999176	0.00000000	30.03814000	8.35998900
141.89999175	0.00000000	30.03814000	9.47342500
142.09999174	0.00000000	30.03814000	10.58686000
142.29999173	0.00000000	30.08120000	11.00517000
142.49999172	0.00000000	30.45644000	11.04823000
142.69999170	0.00000000	31.15157000	11.00517000
142.89999169	0.00000000	31.15157000	10.62992000
143.09999168	0.00000000	30.45644000	9.84867000
143.29999167	0.00000000	30.08120000	9.09817800
143.49999166	0.00000000	30.03814000	8.31077700
143.69999165	0.00000000	30.03814000	7.93553100
143.89999163	0.00000000	30.03814000	7.89247000
144.09999162	0.00000000	30.03814000	7.93553100
144.29999161	0.00000000	30.08120000	8.31077700
144.49999160	0.00000000	30.41338000	9.09817800
144.69999159	0.00000000	30.82554000	9.84867000
144.89999157	0.00000000	30.78863000	10.62992000
145.09999156	0.00000000	30.82554000	11.00517000
145.29999155	0.00000000	30.41338000	11.00517000
145.49999154	0.00000000	30.03814000	10.62992000
145.69999153	0.00000000	29.66289000	9.84867000
145.89999151	0.00000000	29.29380000	9.09817800
146.09999150	0.00000000	29.66289000	8.35998900
146.29999149	0.00000000	29.99508000	8.31077700
146.49999148	0.00000000	30.03814000	8.63681000
146.69999147	0.00000000	30.08120000	8.31077700
146.89999146	0.00000000	30.45644000	8.35998900
147.09999144	0.00000000	31.20078000	9.05511800
147.29999143	0.00000000	31.52682000	9.43036400
147.49999142	0.00000000	31.20078000	9.47342500
147.69999141	0.00000000	30.45644000	9.47342500
147.89999140	0.00000000	30.08120000	9.47342500
148.09999138	0.00000000	30.03814000	9.47342500
148.29999137	0.00000000	29.99508000	9.47342500
148.49999136	0.00000000	29.66289000	9.47342500
148.69999135	0.00000000	29.29380000	9.47342500
148.89999134	0.00000000	29.66289000	9.47342500
149.09999132	0.00000000	30.03814000	9.47342500
149.29999131	0.00000000	30.45644000	9.47342500
149.49999130	0.00000000	31.20078000	9.47342500
149.69999129	0.00000000	31.57603000	9.47342500
149.89999128	0.00000000	31.61909000	9.47342500
150.09999127	0.00000000	31.57603000	9.47342500
150.29999125	0.00000000	31.20078000	9.47342500
150.49999124	0.00000000	30.41338000	9.47342500
150.69999123	0.00000000	29.66289000	9.47342500
150.89999122	0.00000000	28.87549000	9.47342500
151.09999121	0.00000000	28.54946000	9.47342500
151.29999119	0.00000000	28.87549000	9.47342500
151.49999118	0.00000000	29.61983000	9.47342500
151.69999117	0.00000000	29.99508000	9.47342500
151.89999116	0.00000000	30.03814000	9.47342500
152.09999115	0.00000000	30.08120000	9.47342500
152.29999113	0.00000000	30.45644000	9.47342500
152.49999112	0.00000000	31.20078000	9.47342500
152.69999111	0.00000000	31.57603000	9.47342500
152.89999110	0.00000000	31.57603000	9.47342500
153.09999109	0.00000000	31.20078000	9.47342500
153.29999108	0.00000000	30.45644000	9.47342500
153.49999106	0.00000000	30.03814000	9.47342500
153.69999105	0.00000000	29.66289000	9.47342500
153.89999104	0.00000000	29.29380000	9.47342500
154.09999103	0.00000000	29.66289000	9.47342500
154.29999102	0.00000000	29.99508000	9.47342500
154.49999100	0.00000000	30.03814000	9.47342500
154.69999099	0.00000000	30.03814000	9.47342500
154.89999098	0.00000000	30.03814000	9.47342500
155.09999097	0.00000000	30.03814000	9.47342500
155.29999096	0.00000000	30.08120000	9.47342500
155.49999094	0.00000000	30.45644000	9.47342500
155.69999093	0.00000000	31.15157000	9.47342500
155.89999092	0.00000000	31.15157000	9.47342500
156.09999091	0.00000000	30.45644000	9.47342500
156.29999090	0.00000000	30.08120000	9.47342500
156.49999089	0.00000000	30.03814000	9.47342500
156.69999087	0.00000000	30.03814000	9.47342500
156.89999086	0.00000000	29.99508000	9.51648500
157.09999085	0.00000000	29.61983000	9.89173200
157.29999084	0.00000000	28.87549000	10.58686000
157.49999083	0.00000000	28.50024000	10.58686000
157.69999081	0.00000000	28.50024000	9.89173200
157.89999080	0.00000000	28.87549000	9.51648500
158.09999079	0.00000000	29.61983000	9.47342500
158.29999078	0.00000000	30.03814000	9.43036400
158.49999077	0.00000000	30.41338000	9.05511800
158.69999075	0.00000000	30.78248000	8.31077700
158.89999074	0.00000000	30.41338000	7.98474400
159.09999073	0.00000000	30.08120000	8.31077700
159.29999072	0.00000000	30.03814000	9.05511800
159.49999071	0.00000000	30.03814000	9.43036400
159.69999070	0.00000000	30.03814000	9.51648500
159.89999068	0.00000000	30.03814000	9.84867000
160.09999067	0.00000000	29.99508000	10.21161000
160.29999066	0.00000000	29.61983000	9.84867000
160.49999065	0.00000000	28.92470000	9.51648500
160.69999064	0.00000000	28.87549000	9.47342500
160.89999062	0.00000000	29.24459000	9.47342500
161.09999061	0.00000000	29.25074000	9.43036400
161.29999060	0.00000000	29.66289000	9.05511800
161.49999059	0.00000000	29.99508000	8.31077700
161.69999058	0.00000000	30.03814000	7.98474400
161.89999056	0.00000000	30.03814000	8.31077700
162.09999055	0.00000000	30.08120000	9.05511800
162.29999054	0.00000000	30.41338000	9.43036400
162.49999053	0.00000000	30.82554000	9.51648500
162.69999052	0.00000000	30.78863000	9.84867000
162.89999051	0.00000000	30.82554000	10.21161000
163.09999049	0.00000000	30.37032000	9.84867000
163.29999048	0.00000000	29.66289000	9.51648500
163.49999047	0.00000000	28.87549000	9.47342500
163.69999046	0.00000000	28.50024000	9.47342500
163.89999045	0.00000000	28.50024000	9.47342500
164.09999043	0.00000000	28.87549000	9.47342500
164.29999042	0.00000000	29.61983000	9.47342500
164.49999041	0.00000000	29.99508000	9.47342500
164.69999040	0.00000000	30.03814000	9.43036400
164.89999039	0.00000000	30.03814000	9.05511800
165.09999037	0.00000000	30.03814000	8.35998900
165.29999036	0.00000000	30.03814000	8.31077700
165.49999035	0.00000000	30.03814000	8.67987200
165.69999034	0.00000000	30.03814000	8.68602300
165.89999033	0.00000000	29.99508000	9.09817800
166.09999032	0.00000000	29.66289000	9.43036400
166.29999030	0.00000000	29.29380000	9.47342500
166.49999029	0.00000000	29.61983000	9.47342500
166.69999028	0.00000000	29.57062000	9.47342500
166.89999027	0.00000000	28.92470000	9.47342500
167.09999026	0.00000000	28.92470000	9.47342500
167.29999024	0.00000000	29.61983000	9.47342500
167.49999023	0.00000000	29.99508000	9.47342500
167.69999022	0.00000000	30.03814000	9.47342500
167.89999021	0.00000000	30.03814000	9.47342500
168.09999020	0.00000000	30.03814000	9.47342500
168.29999018	0.00000000	30.03814000	9.47342500
168.49999017	0.00000000	30.03814000	9.47342500
168.69999016	0.00000000	30.03814000	9.47342500
168.89999015	0.00000000	30.03814000	9.47342500
169.09999014	0.00000000	30.03814000	9.47342500
169.29999013	0.00000000	29.99508000	9.47342500
169.49999011	0.00000000	29.66289000	9.47342500
169.69999010	0.00000000	29.29380000	9.47342500
169.89999009	0.00000000	29.66289000	9.47342500
170.09999008	0.00000000	29.99508000	9.47342500
170.29999007	0.00000000	30.03814000	9.47342500
170.49999005	0.00000000	30.03814000	9.47342500
170.69999004	0.00000000	30.03814000	9.47342500
170.89999003	0.00000000	30.03814000	9.47342500
171.09999002	0.00000000	30.03814000	9.43036400
171.29999001	0.00000000	30.03814000	9.09817800
171.49998999	0.00000000	30.03814000	8.68602300
171.69998998	0.00000000	30.03814000	8.67987200
171.89998997	0.00000000	30.03814000	8.26771600
172.09998996	0.00000000	30.03814000	7.93553100
172.29998995	0.00000000	30.03814000	7.89247000
172.49998994	0.00000000	29.99508000	7.93553100
172.69998992	0.00000000	29.61983000	8.31077700
172.89998991	0.00000000	28.92470000	9.05511800
173.09998990	0.00000000	28.92470000	9.43036400
173.29998989	0.00000000	29.61983000	9.47342500
173.49998988	0.00000000	29.99508000	9.47342500
173.69998986	0.00000000	30.03814000	9.47342500
173.89998985	0.00000000	30.03814000	9.47342500
174.09998984	0.00000000	30.03814000	9.47342500
174.29998983	0.00000000	30.03814000	9.47342500
174.49998982	0.00000000	30.03814000	9.43036400
174.69998980	0.00000000	30.03814000	9.05511800
174.89998979	0.00000000	30.03814000	8.35998900
175.09998978	0.00000000	30.03814000	8.31077700
175.29998977	0.00000000	30.03814000	8.67987200
175.49998976	0.00000000	30.03814000	8.68602300
175.69998975	0.00000000	30.03814000	9.09817800
175.89998973	0.00000000	30.03814000	9.43036400
176.09998972	0.00000000	30.03814000	9.47342500
176.29998971	0.00000000	30.03814000	9.47342500
176.49998970	0.00000000	30.03814000	9.47342500
176.69998969	0.00000000	30.03814000	9.47342500
176.89998967	0.00000000	30.03814000	9.47342500
177.09998966	0.00000000	30.03814000	9.47342500
177.29998965	0.00000000	30.03814000	9.43036400
177.49998964	0.00000000	29.99508000	9.05511800
177.69998963	0.00000000	29.61983000	8.31077700
177.89998961	0.00000000	28.92470000	7.93553100
178.09998960	0.00000000	28.92470000	7.93553100
178.29998959	0.00000000	29.61983000	8.31077700
178.49998958	0.00000000	29.99508000	9.05511800
178.69998957	0.00000000	30.03814000	9.43036400
178.89998956	0.00000000	30.03814000	9.47342500
179.09998954	0.00000000	30.03814000	9.47342500
179.29998953	0.00000000	30.03814000	9.47342500
179.49998952	0.00000000	30.03814000	9.47342500
179.69998951	0.00000000	30.03814000	9.47342500
179.89998950	0.00000000	30.03814000	9.47342500
180.09998948	0.00000000	30.03814000	9.43036400
180.29998947	0.00000000	30.03814000	9.05511800
180.49998946	0.00000000	30.03814000	8.31077700
180.69998945	0.00000000	30.03814000	7.93553100
180.89998944	0.00000000	30.03814000	7.93553100
181.09998942	0.00000000	29.99508000	8.31077700
181.29998941	0.00000000	29.66289000	9.05511800
181.49998940	0.00000000	29.29380000	9.43036400
181.69998939	0.00000000	29.66289000	9.47342500
181.89998938	0.00000000	29.99508000	9.47342500
182.09998937	0.00000000	30.03814000	9.47342500
182.29998935	0.00000000	30.03814000	9.43036400
182.49998934	0.00000000	30.03814000	9.09817800
182.69998933	0.00000000	30.03814000	8.68602300
182.89998932	0.00000000	30.03814000	8.67987200
183.09998931	0.00000000	30.03814000	8.26771600
183.29998929	0.00000000	30.03814000	7.93553100
183.49998928	0.00000000	29.99508000	7.89247000
183.69998927	0.00000000	29.61983000	7.89247000
183.89998926	0.00000000	28.87549000	7.93553100
184.09998925	0.00000000	28.50024000	8.31077700
184.29998923	0.00000000	28.45718000	9.05511800
184.49998922	0.00000000	28.45718000	9.43036400
184.69998921	0.00000000	28.50024000	9.47342500
184.89998920	0.00000000	28.83243000	9.47342500
185.09998919	0.00000000	29.24459000	9.47342500
185.29998918	0.00000000	29.20767000	9.47342500
185.49998916	0.00000000	29.28765000	9.47342500
185.69998915	0.00000000	29.25074000	9.47342500
185.89998914	0.00000000	29.66289000	9.43036400
186.09998913	0.00000000	29.99508000	9.05511800
186.29998912	0.00000000	30.03814000	8.31077700
186.49998910	0.00000000	29.99508000	7.93553100
186.69998909	0.00000000	29.66289000	7.89247000
186.89998908	0.00000000	29.25074000	7.93553100
187.09998907	0.00000000	29.24459000	8.31077700
187.29998906	0.00000000	28.83243000	9.05511800
187.49998904	0.00000000	28.50024000	9.43036400
187.69998903	0.00000000	28.45718000	9.47342500
187.89998902	0.00000000	28.45718000	9.47342500
188.09998901	0.00000000	28.50024000	9.47342500
188.29998900	0.00000000	28.87549000	9.47342500
188.49998899	0.00000000	29.61983000	9.43036400
188.69998897	0.00000000	29.99508000	9.05511800
188.89998896	0.00000000	30.03814000	8.31077700
189.09998895	0.00000000	30.03814000	7.93553100
189.29998894	0.00000000	29.99508000	7.89247000
189.49998893	0.00000000	29.66289000	7.89247000
189.69998891	0.00000000	29.25074000	7.93553100
189.89998890	0.00000000	29.24459000	8.26771600
190.09998889	0.00000000	28.83243000	8.67987200
190.29998888	0.00000000	28.50024000	8.68602300
190.49998887	0.00000000	28.45718000	9.09817800
190.69998885	0.00000000	28.45718000	9.43036400
190.89998884	0.00000000	28.45718000	9.47342500
191.09998883	0.00000000	28.45718000	9.47342500
191.29998882	0.00000000	28.50024000	9.47342500
191.49998881	0.00000000	28.87549000	9.47342500
191.69998880	0.00000000	29.61983000	9.43036400
191.89998878	0.00000000	29.99508000	9.05511800
192.09998877	0.00000000	30.03814000	8.31077700
192.29998876	0.00000000	30.03814000	7.98474400
192.49998875	0.00000000	30.03814000	8.26771600
192.69998874	0.00000000	29.99508000	8.63681000
192.89998872	0.00000000	29.61983000	8.26771600
193.09998871	0.00000000	28.87549000	7.93553100
193.29998870	0.00000000	28.50024000	7.93553100
193.49998869	0.00000000	28.45718000	8.31077700
193.69998868	0.00000000	28.45718000	9.05511800
193.89998866	0.00000000	28.45718000	9.43036400
194.09998865	0.00000000	28.50024000	9.47342500
194.29998864	0.00000000	28.87549000	9.47342500
194.49998863	0.00000000	29.61983000	9.47342500
194.69998862	0.00000000	29.94586000	9.43036400
194.89998861	0.00000000	29.61983000	9.05511800
195.09998859	0.00000000	28.92470000	8.31077700
195.29998858	0.00000000	28.87549000	7.93553100
195.49998857	0.00000000	29.20152000	7.89247000
195.69998856	0.00000000	28.83243000	7.89247000
195.89998855	0.00000000	28.50024000	7.89247000
196.09998853	0.00000000	28.45718000	7.89247000
