Time	Channel A	Channel B	Channel C
(us)	(V)	(mV)	(mV)

-4.59999956	0.00000000	12.64764000	9.05511800
-4.39999957	0.00000000	12.64764000	9.00590400
-4.19999958	0.00000000	12.64764000	8.35998900
-3.99999959	0.00000000	12.64764000	8.31077700
-3.79999960	0.00000000	12.64764000	8.63681000
-3.59999962	0.00000000	12.64764000	8.26771600
-3.39999963	0.00000000	12.64764000	7.98474400
-3.19999964	0.00000000	12.64764000	8.31077700
-2.99999965	0.00000000	12.64764000	9.05511800
-2.79999966	0.00000000	12.64764000	9.38115100
-2.59999968	0.00000000	12.64764000	9.05511800
-2.39999969	0.00000000	12.64764000	8.31077700
-2.19999970	0.00000000	12.64764000	7.93553100
-1.99999971	0.00000000	12.64764000	7.93553100
-1.79999972	0.00000000	12.64764000	8.31077700
-1.59999973	0.00000000	12.64764000	9.00590400
-1.39999975	0.00000000	12.64764000	9.05511800
-1.19999976	0.00000000	12.64764000	8.72908400
-0.99999977	0.00000000	12.64764000	9.09817800
-0.79999978	0.00000000	12.64764000	9.38115100
-0.59999979	0.00000000	12.64764000	9.09817800
-0.39999981	0.00000000	12.64764000	8.72908400
-0.19999982	0.47736220	12.64764000	9.09817800
0.00000017	0.79601380	12.64764000	9.38115100
0.20000016	0.95533960	12.64764000	9.05511800
0.40000015	0.95533960	12.64764000	8.31077700
0.60000013	0.63668800	12.64764000	7.93553100
0.80000012	0.00000000	12.64764000	7.93553100
1.00000011	-0.95533960	12.64764000	8.26771600
1.20000010	-1.91129400	12.64764000	8.67987200
1.40000009	-2.54859700	12.64764000	8.68602300
1.60000008	-2.70792300	12.64764000	9.09817800
1.80000006	-2.07062000	12.64764000	9.43036400
2.00000005	-0.63668800	12.64764000	9.47342500
2.20000004	1.27399100	12.64764000	9.47342500
2.40000003	3.34522600	12.64764000	9.43036400
2.60000002	4.93786900	12.64764000	9.05511800
2.80000000	5.41584600	12.64764000	8.31077700
2.99999999	4.30056600	12.64764000	7.93553100
3.19999998	1.91129400	12.64764000	7.89247000
3.39999997	-1.27399100	12.64764000	7.93553100
3.59999996	-4.61921700	12.64764000	8.31077700
3.79999994	-7.16781500	12.64764000	9.05511800
3.99999993	-7.96444400	12.64764000	9.43036400
4.19999992	-6.84916400	12.64764000	9.47342500
4.39999991	-3.82258900	12.64764000	9.47342500
4.59999990	0.47736220	12.64764000	9.47342500
4.79999989	4.93786900	12.64764000	9.47342500
4.99999987	8.12377000	12.64764000	9.43036400
5.19999986	9.55770200	12.64764000	9.05511800
5.39999985	8.44242100	12.64764000	8.31077700
5.59999984	5.25652100	12.64764000	7.93553100
5.79999983	0.63668800	12.64764000	7.89247000
5.99999981	-4.14124000	12.64764000	7.93553100
6.19999980	-7.80511800	12.64764000	8.31077700
6.39999979	-9.39837600	12.64764000	9.05511800
6.59999978	-8.76107300	12.64764000	9.43036400
6.79999977	-5.89382400	12.64764000	9.47342500
6.99999975	-1.75196900	12.64764000	9.47342500
7.19999974	2.54859700	12.64764000	9.47342500
7.39999973	5.89382400	12.64764000	9.47342500
7.59999972	7.64579200	12.64764000	9.43036400
7.79999971	7.32714100	12.64764000	9.05511800
7.99999970	5.25652100	12.64764000	8.31077700
8.19999968	2.22994600	12.64764000	7.93553100
8.39999967	-0.95533960	12.64764000	7.89247000
8.59999966	-3.66326300	12.64764000	7.89247000
8.79999965	-5.09719500	12.64764000	7.89247000
8.99999964	-5.09719500	12.64764000	7.93553100
9.19999962	-3.82258900	12.64764000	8.26771600
9.39999961	-1.91129400	12.64764000	8.67987200
9.59999960	0.00000000	12.64764000	8.64296200
9.79999959	1.59264300	12.69070000	8.72293300
9.99999958	2.38927200	12.97982000	8.64296200
10.19999956	2.54859700	13.01673000	8.67987200
10.39999955	1.91129400	12.27854000	8.26771600
10.59999954	1.11466500	12.31545000	7.93553100
10.79999953	0.31803640	12.60458000	7.89247000
10.99999952	-0.47736220	12.64764000	7.89247000
11.19999951	-0.79601380	12.64764000	7.89247000
11.39999949	-0.95533960	12.69070000	7.93553100
11.59999948	-0.95533960	13.02288000	8.31077700
11.79999947	-0.63668800	13.39198000	9.00590400
11.99999946	-0.31803640	13.02288000	9.00590400
12.19999945	-0.15871060	12.69070000	8.31077700
12.39999943	-0.15871060	12.64764000	7.98474400
12.59999942	0.00000000	12.69070000	8.26771600
12.79999941	0.00000000	13.02288000	8.63681000
12.99999940	0.00000000	13.39198000	8.31077700
13.19999939	0.00000000	13.02288000	8.31077700
13.39999937	0.00000000	12.69070000	8.67987200
13.59999936	0.00000000	12.64764000	8.68602300
13.79999935	0.00000000	12.64764000	9.09817800
13.99999934	0.00000000	12.64764000	9.43036400
14.19999933	-0.15871060	12.64764000	9.43036400
14.39999932	-0.15871060	12.64764000	9.05511800
14.59999930	-0.15871060	12.64764000	8.31077700
14.79999929	0.00000000	12.64764000	7.98474400
14.99999928	0.00000000	12.64764000	8.31077700
15.19999927	0.00000000	12.64764000	9.05511800
15.39999926	0.00000000	12.64764000	9.43036400
15.59999924	0.00000000	12.64764000	9.47342500
15.79999923	0.00000000	12.64764000	9.47342500
15.99999922	0.00000000	12.64764000	9.47342500
16.19999921	0.00000000	12.64764000	9.43036400
16.39999920	0.00000000	12.64764000	9.05511800
16.59999919	-0.15871060	12.69070000	8.35998900
16.79999917	0.00000000	13.06594000	8.31077700
16.99999916	-0.15871060	13.81028000	8.67987200
17.19999915	0.00000000	14.22859000	8.68602300
17.39999914	0.00000000	14.60384000	9.09817800
17.59999913	0.00000000	14.97293000	9.43036400
17.79999911	0.00000000	14.56078000	9.43036400
17.99999910	0.00000000	13.81028000	9.09817800
18.19999909	0.00000000	12.60458000	8.72908400
18.39999908	0.00000000	11.06668000	9.05511800
18.59999907	0.00000000	9.48572700	9.00590400
18.79999905	0.00000000	7.99704600	8.35998900
18.99999904	0.00000000	7.25270600	8.35998900
19.19999903	0.00000000	8.04010800	9.05511800
19.39999902	0.00000000	9.95324800	9.43036400
19.59999901	0.00000000	12.73991000	9.47342500
19.79999900	0.00000000	16.22785000	9.47342500
19.99999898	0.00000000	20.08489000	9.47342500
20.19999897	0.00000000	23.11762000	9.47342500
20.39999896	0.00000000	24.23105000	9.47342500
20.59999895	0.00000000	22.65010000	9.43036400
20.79999894	0.00000000	18.32554000	9.05511800
20.99999892	0.00000000	11.76181000	8.31077700
21.19999891	0.00000000	4.04773600	7.98474400
21.39999890	0.00000000	-2.51599400	8.26771600
21.59999889	0.00000000	-6.70521600	8.63681000
21.79999888	0.00000000	-7.02509800	8.26771600
21.99999886	0.00000000	-2.33759800	7.93553100
22.19999885	0.00000000	6.22539300	7.89247000
22.39999884	0.00000000	17.90108000	7.89247000
22.59999883	0.00000000	30.55487000	7.89247000
22.79999882	0.00000000	40.51427000	7.93553100
22.99999881	0.00000000	44.75270000	8.31077700
23.19999879	0.00000000	41.96604000	9.05511800
23.39999878	0.00000000	32.19119000	9.47342500
23.59999877	0.00000000	16.32628000	9.89173200
23.79999876	0.00000000	-2.14074800	10.62992000
23.99999875	0.00000000	-18.33169000	10.95595000
24.19999873	0.00000000	-28.33415000	10.62992000
24.39999872	0.00000000	-29.41068000	9.84867000
24.59999871	0.00000000	-20.47859000	9.05511800
24.79999870	0.00000000	-3.08193900	7.80019600
24.99999869	0.00000000	18.92839000	5.93626900
25.19999867	0.00000000	40.56348000	4.03543200
25.39999866	0.00000000	56.75443000	3.29109200
25.59999865	0.00000000	63.64419000	3.66633800
25.79999864	-0.15871060	58.94439000	5.24729300
25.99999863	0.00000000	43.17175000	7.98474400
26.19999862	0.00000000	20.37401000	11.51575000
26.39999860	0.00000000	-4.01082700	15.74188000
26.59999859	0.00000000	-25.26452000	19.50664000
26.79999858	0.00000000	-38.29970000	20.99532000
26.99999857	0.00000000	-39.50541000	19.46358000
27.19999856	0.00000000	-28.71555000	15.18824000
27.39999854	0.00000000	-8.98129900	8.96284400
27.59999853	0.00000000	15.72342000	1.58095500
27.79999852	0.00000000	39.63459000	-5.71481200
27.99999851	0.00000000	56.66830000	-11.06053000
28.19999850	0.00000000	63.68724000	-12.50000000
28.39999848	0.00000000	59.40575000	-8.96899500
28.59999847	0.00000000	44.83883000	-0.51673230
28.79999846	0.00000000	23.95423000	10.72219000
28.99999845	0.00000000	1.89468500	22.34252000
29.19999844	0.00000000	-17.45202000	32.74483000
29.39999843	0.00000000	-29.41068000	38.79183000
29.59999841	0.00000000	-31.45915000	38.42273000
29.79999840	0.00000000	-24.15108000	31.40994000
29.99999839	0.00000000	-9.49187900	19.00221000
30.19999838	0.00000000	9.06742000	3.15575800
30.39999837	0.00000000	27.25763000	-12.59227000
30.59999835	0.00000000	41.59080000	-24.16338000
30.79999834	0.00000000	48.98499000	-28.80782000
30.99999833	0.00000000	48.28986000	-25.69513000
31.19999832	0.00000000	40.56348000	-15.19439000
31.39999831	0.00000000	27.44217000	1.02116100
31.59999829	0.00000000	11.99557000	19.50664000
31.79999828	0.00000000	-1.96235200	35.72219000
31.99999827	0.00000000	-12.05709000	46.22293000
32.19999826	0.00000000	-16.28937000	49.29256000
32.39999825	0.00000000	-13.68110000	44.22367000
32.59999824	0.00000000	-5.59178100	31.45300000
32.79999822	0.00000000	5.57947800	13.74877000
32.99999821	0.00000000	17.62426000	-4.82898600
33.19999820	0.00000000	27.63287000	-20.26329000
33.39999819	0.00000000	33.86442000	-29.54601000
33.59999818	0.00000000	34.65797000	-30.34572000
33.79999816	0.00000000	30.46875000	-23.04995000
33.99999815	0.00000000	22.74237000	-9.52263600
34.19999814	0.00000000	13.11516000	7.47416300
34.39999813	0.00000000	4.26919300	24.06496000
34.59999812	0.00000000	-1.54404500	36.88484000
34.79999810	0.00000000	-3.12500000	43.44242000
34.99999809	0.00000000	-0.47367120	42.69193000
35.19999808	0.00000000	5.29650500	34.56570000
35.39999807	0.00000000	12.60458000	21.08760000
35.59999806	0.00000000	19.48819000	5.29035400
35.79999805	0.00000000	23.76353000	-8.96899500
35.99999803	0.00000000	24.56324000	-18.22096000
36.19999802	0.00000000	22.27485000	-20.58317000
36.39999801	0.00000000	17.29823000	-15.66191000
36.59999800	0.00000000	11.53420000	-5.67175200
36.79999799	0.00000000	6.50221400	6.68676100
36.99999797	0.00000000	3.06348400	19.00221000
37.19999796	0.00000000	2.68823800	27.78666000
37.39999795	0.00000000	5.33956700	30.56717000
37.59999794	0.00000000	9.95324800	27.13459000
37.79999793	0.00000000	15.34203000	19.13140000
37.99999791	0.00000000	19.95571000	8.73523500
38.19999790	0.00000000	22.69316000	-0.79970470
38.39999789	0.00000000	23.11762000	-6.96973400
38.59999788	0.00000000	21.57972000	-7.72022600
38.79999787	0.00000000	18.46087000	-3.16806100
38.99999786	0.00000000	14.18553000	5.24729300
39.19999784	0.00000000	9.57800100	14.81299000
39.39999783	0.00000000	5.71481200	22.44094000
39.59999782	0.00000000	3.75861200	25.92274000
39.79999781	0.00000000	3.71555100	23.97884000
39.99999780	0.00000000	5.29650500	17.46432000
40.19999778	0.00000000	8.37229300	7.84940900
40.39999777	0.00000000	12.22933000	-2.04847400
40.59999776	0.00000000	15.71727000	-8.96899500
40.79999775	0.00000000	18.50394000	-10.87598000
40.99999774	0.00000000	20.41708000	-7.43725300
41.19999772	0.00000000	21.20448000	0.59670270
41.39999771	0.00000000	20.41708000	10.58686000
41.59999770	0.00000000	18.50394000	19.83883000
41.79999769	0.00000000	15.76649000	26.38410000
41.99999768	0.00000000	12.64764000	28.29109000
42.19999767	0.00000000	9.52879000	25.22145000
42.39999765	0.00000000	6.83439900	17.97490000
42.59999764	0.00000000	5.29650500	8.72908400
42.79999763	0.00000000	5.29650500	0.27066930
42.99999762	0.00000000	6.79133800	-5.90551100
43.19999761	0.00000000	9.11048200	-7.85556000
43.39999759	0.00000000	11.44193000	-5.62253900
43.59999758	0.00000000	13.81028000	-0.60285430
43.79999757	0.00000000	15.71727000	6.31766700
43.99999756	0.00000000	16.92298000	13.23819000
44.19999755	0.00000000	17.29823000	18.25787000
44.39999753	0.00000000	17.01525000	20.62008000
44.59999752	0.00000000	16.60310000	19.88189000
44.79999751	0.00000000	16.59695000	16.81225000
44.99999750	0.00000000	16.14173000	12.21087000
45.19999749	0.00000000	15.39124000	7.24040300
45.39999748	0.00000000	14.18553000	3.70939900
45.59999746	0.00000000	12.60458000	1.71013800
45.79999745	0.00000000	10.59916000	0.97194880
45.99999744	0.00000000	7.90477300	2.12844500
46.19999743	0.00000000	5.21038300	4.77977300
46.39999742	0.00000000	3.34030500	7.84940900
46.59999740	0.00000000	3.02042300	10.58686000
46.79999739	0.00000000	5.38877900	12.53691000
46.99999738	0.00000000	9.99630800	13.69956000
47.19999737	0.00000000	15.85261000	13.69956000
47.39999736	0.00000000	21.99803000	12.58612000
47.59999734	0.00000000	26.97465000	10.96211000
47.79999733	0.00000000	28.88164000	8.63681000
47.99999732	0.00000000	27.34990000	5.57332700
48.19999731	0.00000000	22.65010000	3.33415300
48.39999730	0.00000000	15.29897000	2.50369100
48.59999729	0.00000000	6.79133800	3.29109200
48.79999727	0.00000000	-0.89197830	5.19808000
48.99999726	0.00000000	-5.86860200	7.98474400
49.19999725	0.00000000	-6.24384800	11.38041000
49.39999724	0.00000000	-2.00541300	14.48081000
49.59999723	0.00000000	5.76402500	15.98179000
49.79999721	0.00000000	15.76649000	16.01870000
49.99999720	0.00000000	25.35064000	14.03174000
50.19999719	0.00000000	31.48991000	10.62992000
50.39999718	0.00000000	32.70177000	6.72982200
50.59999717	0.00000000	28.88779000	3.29109200
50.79999715	0.00000000	21.57972000	0.92888770
50.99999714	0.00000000	12.64764000	0.22145670
51.19999713	0.00000000	3.80782500	1.39025600
51.39999712	0.00000000	-2.70669300	4.87204700
51.59999711	0.00000000	-4.61368100	9.43036400
51.79999710	0.00000000	-1.63016700	13.69956000
51.99999708	0.00000000	4.92125900	16.76919000
52.19999707	0.00000000	12.97982000	17.97490000
52.39999706	0.00000000	20.69390000	17.18750000
52.59999705	0.00000000	25.67667000	14.85605000
52.79999704	0.00000000	26.88238000	11.00517000
52.99999702	0.00000000	24.18799000	6.82209600
53.19999701	0.00000000	18.41781000	3.70939900
53.39999700	0.00000000	11.15896000	2.17150600
53.59999699	0.00000000	4.64443900	2.54675200
53.79999698	0.00000000	1.19955700	4.82283400
53.99999696	0.00000000	1.53174200	7.84940900
54.19999695	0.00000000	5.33956700	10.53765000
54.39999694	0.00000000	11.06668000	12.11860000
54.59999693	0.00000000	16.87992000	12.49385000
54.79999692	0.00000000	21.48745000	11.74951000
54.99999691	0.00000000	23.76353000	9.84867000
55.19999689	0.00000000	22.65010000	7.98474400
55.39999688	0.00000000	18.83612000	6.77903500
55.59999687	0.00000000	13.81028000	6.44685000
55.79999686	0.00000000	8.41535400	7.24040300
55.99999685	0.00000000	4.22613100	9.51648500
56.19999683	0.00000000	2.68823800	12.11860000
56.39999682	0.00000000	4.18307100	13.65650000
56.59999681	0.00000000	8.04010800	13.65650000
56.79999680	0.00000000	13.02288000	12.07554000
56.99999679	0.00000000	17.99951000	9.00590400
57.19999677	0.00000000	21.06914000	5.15501900
57.39999676	0.00000000	21.53666000	1.75935000
57.59999675	0.00000000	20.04183000	-0.14148620
57.79999674	0.00000000	17.34744000	0.64591530
57.99999673	0.00000000	14.22859000	3.70939900
58.19999672	0.00000000	11.10974000	8.40305000
58.39999670	0.00000000	8.45841400	14.16708000
58.59999669	0.00000000	7.29576700	19.46358000
58.79999668	0.00000000	8.04010800	22.15797000
58.99999667	0.00000000	9.90403500	21.37057000
59.19999666	0.00000000	12.22933000	17.50738000
59.39999664	0.00000000	14.18553000	10.96211000
59.59999663	0.00000000	15.71727000	3.66633800
59.79999662	0.00000000	16.46161000	-2.51599400
59.99999661	0.00000000	15.71727000	-6.36687900
60.19999660	0.00000000	14.27165000	-6.69291300
60.39999658	0.00000000	13.06594000	-3.21112200
60.59999657	0.00000000	12.27239000	3.70939900
60.79999656	0.00000000	11.53420000	12.11860000
60.99999655	0.00000000	11.57726000	19.46358000
61.19999654	0.00000000	12.64764000	24.10802000
61.39999653	0.00000000	13.81028000	25.22145000
61.59999651	0.00000000	14.56078000	22.15797000
61.79999650	0.00000000	14.97293000	15.60654000
61.99999649	0.00000000	14.56078000	7.51722400
62.19999648	0.00000000	13.76107000	-0.55979330
62.39999647	0.00000000	12.22933000	-6.27460600
62.59999645	0.00000000	10.37155000	-7.89862200
62.79999644	0.00000000	9.57800100	-5.62253900
62.99999643	0.00000000	9.57800100	-0.55979330
63.19999642	0.00000000	10.37155000	6.73597400
63.39999641	0.00000000	12.31545000	14.39468000
63.59999639	0.00000000	14.56078000	19.83883000
63.79999638	0.00000000	16.50467000	22.61934000
63.99999637	0.00000000	17.29823000	22.57628000
64.19999636	0.00000000	17.29823000	19.46358000
64.39999635	0.00000000	16.50467000	13.74262000
64.59999634	0.00000000	14.56078000	7.19734200
64.79999632	0.00000000	12.31545000	1.75319900
64.99999631	0.00000000	10.32234000	-2.14074800
65.19999630	0.00000000	9.20275500	-3.62942900
65.39999629	0.00000000	8.79060000	-2.18380900
65.59999628	0.00000000	9.62106200	1.24877000
65.79999626	0.00000000	11.48499000	5.15501900
65.99999625	0.00000000	13.76107000	9.43036400
66.19999624	0.00000000	15.29897000	13.28125000
66.39999623	0.00000000	15.71727000	15.64960000
66.59999622	0.00000000	15.34203000	16.85531000
66.79999620	0.00000000	14.13632000	16.85531000
66.99999619	0.00000000	12.27239000	15.74188000
67.19999618	0.00000000	10.37155000	14.16092000
67.39999617	0.00000000	9.66412400	12.16781000
67.59999616	0.00000000	10.37155000	9.42421200
67.79999615	0.00000000	12.31545000	6.31151500
67.99999613	0.00000000	14.64690000	3.19881900
68.19999612	0.00000000	17.29823000	0.55364170
68.39999611	0.00000000	19.15600000	-0.60285430
68.59999610	0.00000000	18.79306000	0.13533460
68.79999609	0.00000000	16.87992000	2.08538400
68.99999607	0.00000000	13.71801000	5.29035400
69.19999606	0.00000000	9.52879000	9.89173200
69.39999605	0.00000000	5.67175200	14.90526000
69.59999604	0.00000000	3.38951800	18.71924000
69.79999603	0.00000000	3.02042300	20.71235000
69.99999601	0.00000000	5.38877900	20.25714000
70.19999600	0.00000000	9.99630800	17.55659000
70.39999599	0.00000000	15.76649000	12.53691000
70.59999598	0.00000000	21.16142000	6.77903500
70.79999597	0.00000000	24.64936000	1.71013800
70.99999596	0.00000000	25.81201000	-2.09768700
71.19999594	0.00000000	24.23105000	-3.25418300
71.39999593	0.00000000	19.95571000	-1.39640700
71.59999592	0.00000000	13.81028000	2.08538400
71.79999591	0.00000000	7.25270600	6.72982200
71.99999590	0.00000000	2.22687000	11.70029000
72.19999588	0.00000000	-0.47367120	15.18824000
72.39999587	0.00000000	-0.09842519	16.81225000
72.59999586	0.00000000	3.38951800	16.76919000
72.79999585	0.00000000	8.79060000	14.85605000
72.99999584	0.00000000	15.39124000	11.42347000
73.19999582	0.00000000	21.48745000	8.02780400
73.39999581	0.00000000	25.39370000	5.66560000
73.59999580	0.00000000	26.18725000	4.87204700
73.79999579	0.00000000	24.27411000	5.19808000
73.99999578	0.00000000	20.04183000	6.36072800
74.19999577	0.00000000	14.60384000	7.84940900
74.39999575	0.00000000	9.20275500	9.00590400
74.59999574	0.00000000	4.60137700	9.33809000
74.79999573	0.00000000	2.68823800	8.58759800
74.99999572	0.00000000	3.71555100	6.72982200
75.19999571	0.00000000	6.41609200	5.24729300
75.39999569	0.00000000	9.95324800	4.82898600
75.59999568	0.00000000	14.18553000	5.24729300
75.79999567	0.00000000	17.95029000	6.86515700
75.99999566	0.00000000	19.58046000	9.89173200
76.19999565	0.00000000	19.25443000	13.37352000
76.39999563	0.00000000	18.13484000	16.02485000
76.59999562	0.00000000	16.18479000	17.55044000
76.79999561	0.00000000	14.27165000	16.67692000
76.99999560	0.00000000	12.69070000	13.28125000
77.19999559	0.00000000	11.53420000	8.26771600
77.39999558	0.00000000	11.15896000	3.24803100
77.59999556	0.00000000	11.48499000	-0.97810030
77.79999555	0.00000000	12.22933000	-3.25418300
77.99999554	0.00000000	12.60458000	-2.46678100
78.19999553	0.00000000	12.60458000	0.97194880
78.39999552	0.00000000	12.22933000	6.40378900
78.59999550	0.00000000	11.48499000	12.53691000
78.79999549	0.00000000	11.15896000	17.97490000
78.99999548	0.00000000	11.53420000	21.41363000
79.19999547	0.00000000	12.69070000	22.20103000
79.39999546	0.00000000	14.22859000	19.88189000
79.59999544	0.00000000	15.80955000	15.28051000
79.79999543	0.00000000	17.29823000	9.51648500
79.99999542	0.00000000	18.04257000	4.08464600
80.19999541	0.00000000	17.25517000	0.17839570
80.39999540	0.00000000	15.34203000	-2.14074800
80.59999539	0.00000000	12.64764000	-2.09153500
80.79999537	0.00000000	9.95324800	0.51058070
80.99999536	0.00000000	8.04010800	4.36146600
81.19999535	0.00000000	7.25270600	8.26771600
81.39999534	0.00000000	8.04010800	12.16166000
81.59999533	0.00000000	9.95324800	15.23130000
81.79999531	0.00000000	12.69070000	16.85531000
81.99999530	0.00000000	15.71727000	17.27362000
82.19999529	0.00000000	18.04257000	16.85531000
82.39999528	0.00000000	18.79306000	15.27436000
82.59999527	0.00000000	18.08563000	12.58612000
82.79999525	0.00000000	16.14173000	9.47342500
82.99999524	0.00000000	13.89641000	6.36072800
83.19999523	0.00000000	11.90330000	3.61712600
83.39999522	0.00000000	10.73450000	1.66707700
83.59999521	0.00000000	9.95324800	0.55364170
83.79999520	0.00000000	9.95324800	0.97194880
83.99999518	0.00000000	10.69144000	3.24803100
84.19999517	0.00000000	11.48499000	6.36072800
84.39999516	0.00000000	12.64764000	9.89173200
84.59999515	0.00000000	13.76107000	13.74262000
84.79999514	0.00000000	14.18553000	16.81225000
84.99999512	0.00000000	14.22859000	18.35015000
85.19999511	0.00000000	14.22859000	17.97490000
85.39999510	0.00000000	14.22859000	15.60654000
85.59999509	0.00000000	14.22859000	11.74336000
85.79999508	0.00000000	14.22859000	6.72982200
85.99999506	0.00000000	14.22859000	2.12844500
86.19999505	0.00000000	14.22859000	-0.97810030
86.39999504	0.00000000	14.18553000	-2.09153500
86.59999503	0.00000000	13.76107000	-0.55979330
86.79999502	0.00000000	12.64764000	3.24803100
86.99999501	0.00000000	11.48499000	7.89247000
87.19999499	0.00000000	10.69144000	12.53691000
87.39999498	0.00000000	9.95324800	16.39395000
87.59999497	0.00000000	9.99630800	18.30093000
87.79999496	0.00000000	11.10974000	17.92569000
87.99999495	0.00000000	12.64764000	15.23130000
88.19999493	0.00000000	14.22859000	11.00517000
88.39999492	0.00000000	15.76649000	6.35457700
88.59999491	0.00000000	16.87992000	2.17765700
88.79999490	0.00000000	16.87992000	-0.09842519
88.99999489	0.00000000	15.76649000	0.59670270
89.19999487	0.00000000	14.22859000	3.29109200
89.39999486	0.00000000	12.64764000	7.14812900
89.59999485	0.00000000	11.10974000	11.79257000
89.79999484	0.00000000	9.99630800	15.56348000
89.99999483	0.00000000	9.99630800	17.55044000
90.19999482	0.00000000	11.06668000	17.09523000
90.39999480	0.00000000	12.22933000	14.43775000
90.59999479	0.00000000	13.06594000	9.84867000
90.79999478	0.00000000	14.22859000	5.29035400
90.99999477	0.00000000	15.29897000	2.12844500
91.19999476	0.00000000	15.34203000	0.59670270
91.39999474	0.00000000	14.64690000	1.01501000
91.59999473	0.00000000	14.22859000	3.70939900
91.79999472	0.00000000	13.81028000	7.93553100
91.99999471	0.00000000	13.06594000	12.49385000
92.19999470	0.00000000	12.73991000	15.97564000
92.39999468	0.00000000	13.02288000	17.09523000
92.59999467	0.00000000	13.39198000	15.97564000
92.79999466	0.00000000	13.02288000	12.53691000
92.99999465	0.00000000	12.64764000	8.31077700
93.19999464	0.00000000	12.22933000	4.45374000
93.39999463	0.00000000	11.48499000	1.39025600
93.59999461	0.00000000	11.10974000	0.63976370
93.79999460	0.00000000	11.10974000	2.12844500
93.99999459	0.00000000	11.53420000	5.24729300
94.19999458	0.00000000	12.73991000	9.47342500
94.39999457	0.00000000	14.64690000	13.65650000
94.59999455	0.00000000	16.92298000	16.35089000
94.79999454	0.00000000	18.41781000	16.71998000
94.99999453	0.00000000	18.46087000	14.81299000
95.19999452	0.00000000	17.29823000	11.00517000
95.39999451	0.00000000	15.34203000	6.82209600
95.59999449	0.00000000	12.60458000	3.70939900
95.79999448	0.00000000	9.57800100	2.17150600
95.99999447	0.00000000	7.25270600	2.54675200
96.19999446	0.00000000	6.45915300	4.82283400
96.39999445	0.00000000	6.83439900	7.89247000
96.59999444	0.00000000	8.45841400	11.00517000
96.79999442	0.00000000	11.53420000	13.65650000
96.99999441	0.00000000	15.39124000	14.81299000
97.19999440	0.00000000	18.83612000	14.07480000
97.39999439	0.00000000	21.20448000	12.21087000
97.59999438	0.00000000	21.95497000	9.84867000
97.79999436	0.00000000	21.16142000	7.56643700
97.99999435	0.00000000	18.41781000	5.61638700
98.19999434	0.00000000	14.22859000	4.87204700
98.39999433	0.00000000	9.99630800	5.19808000
98.59999432	0.00000000	6.87746000	6.36072800
98.79999430	0.00000000	5.29650500	7.89247000
98.99999429	0.00000000	5.29650500	9.42421200
99.19999428	0.00000000	6.83439900	10.58686000
99.39999427	0.00000000	9.57800100	10.95595000
99.59999426	0.00000000	13.06594000	10.62992000
99.79999425	0.00000000	16.92298000	9.89173200
99.99999423	0.00000000	19.99877000	9.56569900
100.19999422	0.00000000	21.53666000	9.89173200
100.39999421	0.00000000	21.20448000	10.62992000
100.59999420	0.00000000	19.25443000	11.00517000
100.79999419	0.00000000	16.59695000	11.00517000
100.99999417	0.00000000	13.44119000	10.58686000
101.19999416	0.00000000	10.73450000	9.42421200
101.39999415	0.00000000	8.37229300	7.89247000
101.59999414	0.00000000	6.87746000	6.36072800
101.79999413	0.00000000	6.87746000	5.19808000
101.99999411	0.00000000	8.37229300	4.87204700
102.19999410	0.00000000	10.69144000	5.66560000
102.39999409	0.00000000	13.02288000	7.93553100
102.59999408	0.00000000	15.34203000	10.62992000
102.79999407	0.00000000	16.92298000	12.95522000
102.99999406	0.00000000	17.72268000	14.85605000
103.19999404	0.00000000	18.08563000	15.23130000
103.39999403	0.00000000	17.29823000	14.11786000
103.59999402	0.00000000	15.76649000	12.16781000
103.79999401	0.00000000	13.81028000	9.42421200
103.99999400	0.00000000	11.53420000	6.40378900
104.19999398	0.00000000	9.99630800	4.03543200
104.39999397	0.00000000	9.52879000	2.91584600
104.59999396	0.00000000	9.52879000	2.92199800
104.79999395	0.00000000	9.95324800	4.87204700
104.99999394	0.00000000	11.10974000	7.84940900
105.19999392	0.00000000	12.64764000	10.58686000
105.39999391	0.00000000	14.18553000	12.53691000
105.59999390	0.00000000	15.34203000	13.69956000
105.79999389	0.00000000	15.71727000	13.65650000
105.99999388	0.00000000	15.39124000	12.16781000
106.19999387	0.00000000	14.56078000	9.89173200
106.39999385	0.00000000	13.43504000	7.93553100
106.59999384	0.00000000	11.90330000	6.36072800
106.79999383	0.00000000	11.20202000	5.24729300
106.99999382	0.00000000	11.53420000	5.24729300
107.19999381	0.00000000	12.64764000	6.40378900
107.39999379	0.00000000	13.76107000	8.26771600
107.59999378	0.00000000	14.18553000	10.16855000
107.79999377	0.00000000	14.22859000	10.91289000
107.99999376	0.00000000	14.18553000	10.67298000
108.19999375	0.00000000	13.81028000	10.21776000
108.39999374	0.00000000	13.02288000	9.79330600
108.59999372	0.00000000	12.27239000	8.26771600
108.79999371	0.00000000	11.48499000	6.82209600
108.99999370	0.00000000	11.15896000	6.40378900
109.19999369	0.00000000	11.48499000	6.77903500
109.39999368	0.00000000	12.27239000	7.93553100
109.59999366	0.00000000	13.06594000	9.47342500
109.79999365	0.00000000	14.22859000	11.00517000
109.99999364	0.00000000	15.34203000	12.11860000
110.19999363	0.00000000	15.71727000	12.16166000
110.39999362	0.00000000	15.34203000	11.42347000
110.59999360	0.00000000	14.22859000	10.62992000
110.79999359	0.00000000	13.06594000	9.42421200
110.99999358	0.00000000	12.27239000	7.93553100
111.19999357	0.00000000	11.48499000	6.77903500
111.39999356	0.00000000	11.10974000	6.35457700
111.59999355	0.00000000	11.10974000	6.35457700
111.79999353	0.00000000	11.53420000	6.77903500
111.99999352	0.00000000	12.64764000	7.89247000
112.19999351	0.00000000	13.76107000	9.00590400
112.39999350	0.00000000	14.18553000	9.47342500
112.59999349	0.00000000	14.22859000	9.89173200
112.79999347	0.00000000	14.18553000	10.58686000
112.99999346	0.00000000	13.81028000	10.58686000
113.19999345	0.00000000	13.06594000	9.89173200
113.39999344	0.00000000	12.69070000	9.51648500
113.59999343	0.00000000	12.64764000	9.47342500
113.79999341	0.00000000	12.64764000	9.43036400
113.99999340	0.00000000	12.64764000	9.05511800
114.19999339	0.00000000	12.64764000	8.31077700
114.39999338	0.00000000	12.69070000	7.93553100
114.59999337	0.00000000	13.06594000	7.89247000
114.79999336	0.00000000	13.81028000	7.84940900
114.99999334	0.00000000	14.13632000	7.51722400
115.19999333	0.00000000	13.85334000	7.14812900
115.39999332	0.00000000	13.48425000	7.51722400
115.59999331	0.00000000	13.85334000	7.89247000
115.79999330	0.00000000	14.13632000	8.31077700
115.99999328	0.00000000	13.81028000	9.09817800
116.19999327	0.00000000	13.06594000	9.84867000
116.39999326	0.00000000	12.69070000	10.62992000
116.59999325	0.00000000	12.64764000	11.00517000
116.79999324	0.00000000	12.64764000	11.00517000
116.99999322	0.00000000	12.69070000	10.58686000
117.19999321	0.00000000	13.06594000	9.47342500
117.39999320	0.00000000	13.81028000	8.31077700
117.59999319	0.00000000	14.22859000	7.51722400
117.79999318	0.00000000	14.64690000	6.72982200
117.99999317	0.00000000	15.34203000	6.35457700
118.19999315	0.00000000	15.34203000	6.35457700
118.39999314	0.00000000	14.60384000	6.77903500
118.59999313	0.00000000	13.81028000	7.89247000
118.79999312	0.00000000	12.64764000	9.05511800
118.99999311	0.00000000	11.53420000	9.84867000
119.19999309	0.00000000	11.10974000	10.62992000
119.39999308	0.00000000	11.06668000	11.00517000
119.59999307	0.00000000	11.10974000	11.00517000
119.79999306	0.00000000	11.53420000	10.62992000
119.99999305	0.00000000	12.69070000	9.89173200
120.19999303	0.00000000	14.18553000	9.51648500
120.39999302	0.00000000	15.34203000	9.43036400
120.59999301	0.00000000	15.76649000	9.05511800
120.79999300	0.00000000	15.80955000	8.31077700
120.99999299	0.00000000	15.76649000	7.93553100
121.19999298	0.00000000	15.34203000	7.89247000
121.39999296	0.00000000	14.18553000	7.89247000
121.59999295	0.00000000	12.69070000	7.89247000
121.79999294	0.00000000	11.53420000	7.93553100
121.99999293	0.00000000	11.10974000	8.31077700
122.19999292	0.00000000	11.06668000	9.05511800
122.39999290	0.00000000	11.10974000	9.43036400
122.59999289	0.00000000	11.48499000	9.51648500
122.79999288	0.00000000	12.27239000	9.89173200
122.99999287	0.00000000	13.06594000	10.58686000
123.19999286	0.00000000	14.22859000	10.58686000
123.39999284	0.00000000	15.34203000	9.89173200
123.59999283	0.00000000	15.76649000	9.47342500
123.79999282	0.00000000	15.76649000	9.05511800
123.99999281	0.00000000	15.39124000	8.35998900
124.19999280	0.00000000	14.60384000	8.26771600
124.39999279	0.00000000	13.85334000	8.26156400
124.59999277	0.00000000	13.02288000	7.52337600
124.79999276	0.00000000	12.27239000	7.60949800
124.99999275	0.00000000	11.48499000	8.26771600
125.19999274	0.00000000	11.10974000	9.05511800
125.39999273	0.00000000	11.10974000	9.43036400
125.59999271	0.00000000	11.53420000	9.51648500
125.79999270	0.00000000	12.64764000	9.84867000
125.99999269	0.00000000	13.81028000	10.21161000
126.19999268	0.00000000	14.60384000	9.84867000
126.39999267	0.00000000	15.39124000	9.51648500
126.59999265	0.00000000	15.76649000	9.47342500
126.79999264	0.00000000	15.76649000	9.43036400
126.99999263	0.00000000	15.34203000	9.05511800
127.19999262	0.00000000	14.22859000	8.31077700
127.39999261	0.00000000	13.06594000	7.93553100
127.59999260	0.00000000	12.27239000	7.89247000
127.79999258	0.00000000	11.48499000	7.93553100
127.99999257	0.00000000	11.15896000	8.31077700
128.19999256	0.00000000	11.53420000	9.05511800
128.39999255	0.00000000	12.64764000	9.43036400
128.59999254	0.00000000	13.81028000	9.47342500
128.79999252	0.00000000	14.60384000	9.47342500
128.99999251	0.00000000	15.39124000	9.47342500
129.19999250	0.00000000	15.71727000	9.47342500
129.39999249	0.00000000	15.34203000	9.47342500
129.59999248	0.00000000	14.22859000	9.43036400
129.79999246	0.00000000	13.06594000	9.05511800
129.99999245	0.00000000	12.27239000	8.35998900
130.19999244	0.00000000	11.48499000	8.35998900
130.39999243	0.00000000	11.15896000	9.05511800
130.59999242	0.00000000	11.48499000	9.43036400
130.79999241	0.00000000	12.27239000	9.47342500
130.99999239	0.00000000	13.06594000	9.47342500
131.19999238	0.00000000	14.22859000	9.47342500
131.39999237	0.00000000	15.34203000	9.43036400
131.59999236	0.00000000	15.71727000	9.05511800
131.79999235	0.00000000	15.39124000	8.31077700
131.99999233	0.00000000	14.60384000	7.93553100
132.19999232	0.00000000	13.85334000	7.89247000
132.39999231	0.00000000	13.06594000	7.89247000
132.59999230	0.00000000	12.69070000	7.93553100
132.79999229	0.00000000	12.64764000	8.31077700
132.99999227	0.00000000	12.64764000	9.09817800
133.19999226	0.00000000	12.69070000	9.84867000
133.39999225	0.00000000	13.06594000	10.62992000
133.59999224	0.00000000	13.81028000	11.00517000
133.79999223	0.00000000	14.18553000	11.00517000
133.99999222	0.00000000	14.22859000	10.62992000
134.19999220	0.00000000	14.18553000	9.84867000
134.39999219	0.00000000	13.85334000	9.05511800
134.59999218	0.00000000	13.44119000	7.89247000
134.79999217	0.00000000	13.47810000	6.77903500
134.99999216	0.00000000	13.44119000	6.40378900
135.19999214	0.00000000	13.85334000	6.72982200
135.39999213	0.00000000	14.18553000	7.47416300
135.59999212	0.00000000	14.22859000	7.89247000
135.79999211	0.00000000	14.18553000	8.31077700
135.99999210	0.00000000	13.81028000	9.09817800
136.19999208	0.00000000	13.06594000	9.79945900
136.39999207	0.00000000	12.69070000	10.21161000
136.59999206	0.00000000	12.64764000	9.84867000
136.79999205	0.00000000	12.64764000	9.51648500
136.99999204	0.00000000	12.64764000	9.43036400
137.19999203	0.00000000	12.69070000	9.05511800
137.39999201	0.00000000	13.06594000	8.31077700
137.59999200	0.00000000	13.85334000	7.93553100
137.79999199	0.00000000	14.60384000	7.89247000
137.99999198	0.00000000	15.34203000	7.89247000
138.19999197	0.00000000	15.34203000	7.89247000
138.39999195	0.00000000	14.60384000	7.89247000
138.59999194	0.00000000	13.85334000	7.89247000
138.79999193	0.00000000	13.06594000	7.93553100
138.99999192	0.00000000	12.69070000	8.31077700
139.19999191	0.00000000	12.64764000	9.09817800
139.39999189	0.00000000	12.64764000	9.84867000
139.59999188	0.00000000	12.69070000	10.62992000
139.79999187	0.00000000	13.06594000	11.00517000
139.99999186	0.00000000	13.76107000	11.00517000
140.19999185	0.00000000	13.81028000	10.62992000
140.39999184	0.00000000	13.48425000	9.84867000
140.59999182	0.00000000	13.85334000	9.09817800
140.79999181	0.00000000	14.13632000	8.31077700
140.99999180	0.00000000	13.81028000	7.93553100
141.19999179	0.00000000	13.06594000	7.89247000
141.39999178	0.00000000	12.69070000	7.93553100
141.59999176	0.00000000	12.64764000	8.31077700
141.79999175	0.00000000	12.69070000	9.09817800
141.99999174	0.00000000	13.02288000	9.84867000
142.19999173	0.00000000	13.43504000	10.62992000
142.39999172	0.00000000	13.44119000	11.00517000
142.59999170	0.00000000	13.85334000	11.00517000
142.79999169	0.00000000	14.18553000	10.62992000
142.99999168	0.00000000	14.22859000	9.84867000
143.19999167	0.00000000	14.18553000	9.09817800
143.39999166	0.00000000	13.81028000	8.26771600
143.59999165	0.00000000	13.06594000	7.56028500
143.79999163	0.00000000	12.69070000	7.14812900
143.99999162	0.00000000	12.64764000	7.51722400
144.19999161	0.00000000	12.69070000	7.84940900
144.39999160	0.00000000	13.06594000	7.93553100
144.59999159	0.00000000	13.81028000	8.35998900
144.79999157	0.00000000	14.18553000	9.47342500
144.99999156	0.00000000	14.22859000	10.58686000
145.19999155	0.00000000	14.18553000	10.95595000
145.39999154	0.00000000	13.81028000	10.62992000
145.59999153	0.00000000	13.06594000	9.84867000
145.79999151	0.00000000	12.69070000	9.09817800
145.99999150	0.00000000	12.64764000	8.31077700
146.19999149	0.00000000	12.64764000	7.93553100
146.39999148	0.00000000	12.69070000	7.89247000
146.59999147	0.00000000	13.06594000	7.89247000
146.79999146	0.00000000	13.81028000	7.89247000
146.99999144	0.00000000	14.18553000	7.93553100
147.19999143	0.00000000	14.22859000	8.31077700
147.39999142	0.00000000	14.18553000	9.05511800
147.59999141	0.00000000	13.85334000	9.43036400
147.79999140	0.00000000	13.44119000	9.51648500
147.99999138	0.00000000	13.43504000	9.84867000
148.19999137	0.00000000	13.02288000	10.21161000
148.39999136	0.00000000	12.69070000	9.84867000
148.59999135	0.00000000	12.64764000	9.51648500
148.79999134	0.00000000	12.64764000	9.43036400
148.99999132	0.00000000	12.69070000	9.05511800
149.19999131	0.00000000	13.06594000	8.31077700
149.39999130	0.00000000	13.81028000	7.93553100
149.59999129	0.00000000	14.18553000	7.89247000
149.79999128	0.00000000	14.22859000	7.93553100
149.99999127	0.00000000	14.22859000	8.31077700
150.19999125	0.00000000	14.22859000	9.05511800
150.39999124	0.00000000	14.18553000	9.43036400
150.59999123	0.00000000	13.81028000	9.47342500
150.79999122	0.00000000	13.06594000	9.47342500
150.99999121	0.00000000	12.69070000	9.47342500
151.19999119	0.00000000	12.64764000	9.47342500
151.39999118	0.00000000	12.64764000	9.47342500
151.59999117	0.00000000	12.69070000	9.47342500
151.79999116	0.00000000	13.06594000	9.43036400
151.99999115	0.00000000	13.81028000	9.05511800
152.19999113	0.00000000	14.18553000	8.31077700
152.39999112	0.00000000	14.22859000	7.93553100
152.59999111	0.00000000	14.22859000	7.93553100
152.79999110	0.00000000	14.22859000	8.31077700
152.99999109	0.00000000	14.22859000	9.05511800
153.19999108	0.00000000	14.22859000	9.43036400
153.39999106	0.00000000	14.18553000	9.47342500
153.59999105	0.00000000	13.81028000	9.47342500
153.79999104	0.00000000	13.06594000	9.47342500
153.99999103	0.00000000	12.69070000	9.47342500
154.19999102	0.00000000	12.64764000	9.47342500
154.39999100	0.00000000	12.64764000	9.47342500
154.59999099	0.00000000	12.64764000	9.47342500
154.79999098	0.00000000	12.69070000	9.47342500
154.99999097	0.00000000	13.06594000	9.43036400
155.19999096	0.00000000	13.81028000	9.05511800
155.39999094	0.00000000	14.18553000	8.31077700
155.59999093	0.00000000	14.22859000	7.93553100
155.79999092	0.00000000	14.22859000	7.93553100
155.99999091	0.00000000	14.22859000	8.31077700
156.19999090	0.00000000	14.18553000	9.05511800
156.39999089	0.00000000	13.81028000	9.43036400
156.59999087	0.00000000	13.06594000	9.47342500
156.79999086	0.00000000	12.69070000	9.47342500
156.99999085	0.00000000	12.64764000	9.51648500
157.19999084	0.00000000	12.64764000	9.84867000
157.39999083	0.00000000	12.64764000	10.21161000
157.59999081	0.00000000	12.64764000	9.84867000
157.79999080	0.00000000	12.69070000	9.51648500
157.99999079	0.00000000	13.06594000	9.43036400
158.19999078	0.00000000	13.81028000	9.05511800
158.39999077	0.00000000	14.18553000	8.31077700
158.59999075	0.00000000	14.22859000	7.93553100
158.79999074	0.00000000	14.22859000	7.93553100
158.99999073	0.00000000	14.22859000	8.31077700
159.19999072	0.00000000	14.18553000	9.05511800
159.39999071	0.00000000	13.81028000	9.43036400
159.59999070	0.00000000	13.06594000	9.47342500
159.79999068	0.00000000	12.69070000	9.51648500
159.99999067	0.00000000	12.64764000	9.84867000
160.19999066	0.00000000	12.64764000	10.21161000
160.39999065	0.00000000	12.64764000	9.84867000
160.59999064	0.00000000	12.64764000	9.51648500
160.79999062	0.00000000	12.69070000	9.43036400
160.99999061	0.00000000	13.06594000	9.05511800
161.19999060	0.00000000	13.81028000	8.31077700
161.39999059	0.00000000	14.18553000	7.93553100
161.59999058	0.00000000	14.22859000	7.89247000
161.79999056	0.00000000	14.22859000	7.93553100
161.99999055	0.00000000	14.22859000	8.31077700
162.19999054	0.00000000	14.22859000	9.05511800
162.39999053	0.00000000	14.22859000	9.43036400
162.59999052	0.00000000	14.22859000	9.47342500
162.79999051	0.00000000	14.22859000	9.47342500
162.99999049	0.00000000	14.18553000	9.47342500
163.19999048	0.00000000	13.81028000	9.47342500
163.39999047	0.00000000	13.06594000	9.47342500
163.59999046	0.00000000	12.69070000	9.47342500
163.79999045	0.00000000	12.64764000	9.47342500
163.99999043	0.00000000	12.64764000	9.43036400
164.19999042	0.00000000	12.69070000	9.05511800
164.39999041	0.00000000	13.06594000	8.35998900
164.59999040	0.00000000	13.81028000	8.31077700
164.79999039	0.00000000	14.18553000	8.63681000
164.99999037	0.00000000	14.22859000	8.31077700
165.19999036	0.00000000	14.22859000	8.35998900
165.39999035	0.00000000	14.22859000	9.05511800
165.59999034	0.00000000	14.22859000	9.43036400
165.79999033	0.00000000	14.18553000	9.47342500
165.99999032	0.00000000	13.81028000	9.47342500
166.19999030	0.00000000	13.06594000	9.47342500
166.39999029	0.00000000	12.69070000	9.47342500
166.59999028	0.00000000	12.64764000	9.47342500
166.79999027	0.00000000	12.64764000	9.47342500
166.99999026	0.00000000	12.69070000	9.47342500
167.19999024	0.00000000	13.06594000	9.47342500
167.39999023	0.00000000	13.81028000	9.47342500
167.59999022	0.00000000	14.18553000	9.43036400
167.79999021	0.00000000	14.22859000	9.09817800
167.99999020	0.00000000	14.22859000	8.72908400
168.19999018	0.00000000	14.22859000	9.09817800
168.39999017	0.00000000	14.22859000	9.43036400
168.59999016	0.00000000	14.22859000	9.43036400
168.79999015	0.00000000	14.22859000	9.09817800
168.99999014	0.00000000	14.22859000	8.72908400
169.19999013	0.00000000	14.22859000	9.09817800
169.39999011	0.00000000	14.18553000	9.43036400
169.59999010	0.00000000	13.81028000	9.47342500
169.79999009	0.00000000	13.06594000	9.47342500
169.99999008	0.00000000	12.69070000	9.47342500
170.19999007	0.00000000	12.64764000	9.47342500
170.39999005	0.00000000	12.69070000	9.47342500
170.59999004	0.00000000	13.02288000	9.43036400
170.79999003	0.00000000	13.43504000	9.09817800
170.99999002	0.00000000	13.44119000	8.72908400
171.19999001	0.00000000	13.85334000	9.09817800
171.39998999	0.00000000	14.18553000	9.43036400
171.59998998	0.00000000	14.22859000	9.43036400
171.79998997	0.00000000	14.22859000	9.09817800
171.99998996	0.00000000	14.22859000	8.72908400
172.19998995	0.00000000	14.22859000	9.09817800
172.39998994	0.00000000	14.22859000	9.38115100
172.59998992	0.00000000	14.18553000	9.09817800
172.79998991	0.00000000	13.81028000	8.72908400
172.99998990	0.00000000	13.11516000	9.09817800
173.19998989	0.00000000	13.06594000	9.43036400
173.39998988	0.00000000	13.43504000	9.47342500
173.59998986	0.00000000	13.44119000	9.47342500
173.79998985	0.00000000	13.85334000	9.43036400
173.99998984	0.00000000	14.18553000	9.09817800
174.19998983	0.00000000	14.22859000	8.72908400
174.39998982	0.00000000	14.22859000	9.09817800
174.59998980	0.00000000	14.22859000	9.43036400
174.79998979	0.00000000	14.22859000	9.43036400
174.99998978	0.00000000	14.22859000	9.09817800
175.19998977	0.00000000	14.22859000	8.72908400
175.39998976	0.00000000	14.22859000	9.09817800
175.59998975	0.00000000	14.22859000	9.43036400
175.79998973	0.00000000	14.22859000	9.47342500
175.99998972	0.00000000	14.22859000	9.47342500
176.19998971	0.00000000	14.22859000	9.47342500
176.39998970	0.00000000	14.18553000	9.47342500
176.59998969	0.00000000	13.85334000	9.47342500
176.79998967	0.00000000	13.48425000	9.47342500
176.99998966	0.00000000	13.85334000	9.47342500
177.19998965	0.00000000	14.18553000	9.47342500
177.39998964	0.00000000	14.22859000	9.47342500
177.59998963	0.00000000	14.22859000	9.47342500
177.79998961	0.00000000	14.22859000	9.47342500
177.99998960	0.00000000	14.18553000	9.47342500
178.19998959	0.00000000	13.85334000	9.47342500
178.39998958	0.00000000	13.48425000	9.47342500
178.59998957	0.00000000	13.85334000	9.47342500
178.79998956	0.00000000	14.18553000	9.47342500
178.99998954	0.00000000	14.18553000	9.47342500
179.19998953	0.00000000	13.81028000	9.47342500
179.39998952	0.00000000	13.11516000	9.47342500
179.59998951	0.00000000	13.11516000	9.47342500
179.79998950	0.00000000	13.81028000	9.47342500
179.99998948	0.00000000	14.18553000	9.47342500
180.19998947	0.00000000	14.22859000	9.47342500
180.39998946	0.00000000	14.18553000	9.43036400
180.59998945	0.00000000	13.85334000	9.09817800
180.79998944	0.00000000	13.48425000	8.72908400
180.99998942	0.00000000	13.81028000	9.09817800
181.19998941	0.00000000	13.76107000	9.43036400
181.39998940	0.00000000	13.11516000	9.47342500
181.59998939	0.00000000	13.11516000	9.47342500
181.79998938	0.00000000	13.76107000	9.47342500
181.99998937	0.00000000	13.76107000	9.47342500
182.19998935	0.00000000	13.11516000	9.47342500
182.39998934	0.00000000	13.11516000	9.47342500
182.59998933	0.00000000	13.81028000	9.47342500
182.79998932	0.00000000	14.18553000	9.47342500
182.99998931	0.00000000	14.22859000	9.43036400
183.19998929	0.00000000	14.22859000	9.09817800
183.39998928	0.00000000	14.22859000	8.72908400
183.59998927	0.00000000	14.22859000	9.09817800
183.79998926	0.00000000	14.22859000	9.43036400
183.99998925	0.00000000	14.22859000	9.47342500
184.19998923	0.00000000	14.22859000	9.47342500
184.39998922	0.00000000	14.18553000	9.47342500
184.59998921	0.00000000	13.81028000	9.47342500
184.79998920	0.00000000	13.11516000	9.47342500
184.99998919	0.00000000	13.11516000	9.47342500
185.19998918	0.00000000	13.81028000	9.47342500
185.39998916	0.00000000	14.18553000	9.47342500
185.59998915	0.00000000	14.22859000	9.47342500
185.79998914	0.00000000	14.22859000	9.43036400
185.99998913	0.00000000	14.22859000	9.05511800
186.19998912	0.00000000	14.22859000	8.31077700
186.39998910	0.00000000	14.22859000	7.93553100
186.59998909	0.00000000	14.22859000	7.89247000
186.79998908	0.00000000	14.22859000	7.93553100
186.99998907	0.00000000	14.18553000	8.31077700
187.19998906	0.00000000	13.81028000	9.05511800
187.39998904	0.00000000	13.06594000	9.43036400
187.59998903	0.00000000	12.69070000	9.47342500
187.79998902	0.00000000	12.69070000	9.47342500
187.99998901	0.00000000	13.06594000	9.47342500
188.19998900	0.00000000	13.81028000	9.47342500
188.39998899	0.00000000	14.18553000	9.47342500
188.59998897	0.00000000	14.22859000	9.47342500
188.79998896	0.00000000	14.22859000	9.43036400
188.99998895	0.00000000	14.22859000	9.05511800
189.19998894	0.00000000	14.22859000	8.31077700
189.39998893	0.00000000	14.22859000	7.93553100
189.59998891	0.00000000	14.22859000	7.89247000
189.79998890	0.00000000	14.18553000	7.93553100
189.99998889	0.00000000	13.81028000	8.31077700
190.19998888	0.00000000	13.11516000	9.05511800
190.39998887	0.00000000	13.11516000	9.43036400
190.59998885	0.00000000	13.81028000	9.47342500
190.79998884	0.00000000	14.18553000	9.47342500
190.99998883	0.00000000	14.22859000	9.47342500
191.19998882	0.00000000	14.22859000	9.47342500
191.39998881	0.00000000	14.22859000	9.47342500
191.59998880	0.00000000	14.22859000	9.47342500
191.79998878	0.00000000	14.22859000	9.47342500
191.99998877	0.00000000	14.22859000	9.43036400
192.19998876	0.00000000	14.22859000	9.05511800
192.39998875	0.00000000	14.22859000	8.31077700
192.59998874	0.00000000	14.22859000	7.93553100
192.79998872	0.00000000	14.18553000	7.93553100
192.99998871	0.00000000	13.81028000	8.31077700
193.19998870	0.00000000	13.06594000	9.05511800
193.39998869	0.00000000	12.73991000	9.43036400
193.59998868	0.00000000	13.06594000	9.47342500
193.79998866	0.00000000	13.81028000	9.47342500
193.99998865	0.00000000	14.18553000	9.47342500
194.19998864	0.00000000	14.22859000	9.47342500
194.39998863	0.00000000	14.22859000	9.47342500
194.59998862	0.00000000	14.22859000	9.47342500
194.79998861	0.00000000	14.22859000	9.47342500
194.99998859	0.00000000	14.22859000	9.47342500
195.19998858	0.00000000	14.22859000	9.47342500
195.39998857	0.00000000	14.22859000	9.47342500
195.59998856	0.00000000	14.18553000	9.47342500
195.79998855	0.00000000	13.81028000	9.47342500
195.99998853	0.00000000	13.11516000	9.47342500
