Time	Channel A	Channel B	Channel C
(us)	(V)	(mV)	(mV)

-4.49999956	0.00000000	16.92298000	4.26919300
-4.29999957	0.00000000	16.92298000	4.31840500
-4.09999958	0.00000000	16.22785000	3.94931100
-3.89999959	0.00000000	15.85261000	3.94315900
-3.69999960	0.00000000	15.80955000	3.53100400
-3.49999962	0.00000000	15.85261000	3.19881900
-3.29999963	0.00000000	16.18479000	3.15575800
-3.09999964	0.00000000	16.55389000	3.15575800
-2.89999965	0.00000000	16.18479000	3.15575800
-2.69999966	0.00000000	15.90182000	3.19881900
-2.49999968	0.00000000	16.18479000	3.53100400
-2.29999969	0.00000000	16.55389000	3.94315900
-2.09999970	0.00000000	16.18479000	3.94931100
-1.89999971	0.00000000	15.90182000	4.31840500
-1.69999972	0.00000000	16.18479000	4.26919300
-1.49999973	0.00000000	16.55389000	3.57406500
-1.29999975	0.00000000	16.18479000	3.24803100
-1.09999976	0.00000000	15.85261000	3.53100400
-0.89999977	0.00000000	15.85261000	3.94315900
-0.69999978	0.00000000	16.18479000	3.90625000
-0.49999979	0.00000000	16.59695000	3.98622000
-0.29999981	0.31803640	16.60310000	3.90625000
-0.09999982	0.63668800	16.97219000	3.94315900
0.10000017	0.95533960	16.97219000	3.53100400
0.30000016	0.95533960	16.60310000	3.19881900
0.50000015	0.79601380	16.59695000	3.15575800
0.70000013	0.15871060	16.18479000	3.15575800
0.90000012	-0.79601380	15.85261000	3.15575800
1.10000011	-1.75196900	15.85261000	3.19881900
1.30000010	-2.54859700	16.18479000	3.57406500
1.50000009	-2.70792300	16.59695000	4.31840500
1.70000008	-2.22994600	16.56004000	4.69365100
1.90000006	-0.95533960	16.59695000	4.73671200
2.10000005	0.95533960	16.18479000	4.69365100
2.30000004	3.18590100	15.85261000	4.31840500
2.50000003	4.77854300	15.80955000	3.57406500
2.70000002	5.41584600	15.80955000	3.19881900
2.90000000	4.61921700	15.80955000	3.11269700
3.09999999	2.38927200	15.80955000	2.78051200
3.29999998	-0.79601380	15.80955000	2.41141700
3.49999997	-4.14124000	15.80955000	2.82357300
3.69999996	-6.84916400	15.80955000	3.53100400
3.89999994	-7.96444400	15.85261000	4.31840500
4.09999993	-7.00848900	16.22785000	4.69365100
4.29999992	-4.30056600	16.97219000	4.73671200
4.49999991	-0.15871060	17.29823000	4.73671200
4.69999990	4.30056600	16.97219000	4.69365100
4.89999989	7.80511800	16.22785000	4.31840500
5.09999987	9.39837600	15.85261000	3.57406500
5.29999986	8.76107300	15.80955000	3.19881900
5.49999985	5.73449800	15.80955000	3.15575800
5.69999984	1.27399100	15.80955000	3.15575800
5.89999983	-3.50393700	15.85261000	3.15575800
6.09999981	-7.32714100	16.18479000	3.19881900
6.29999980	-9.39837600	16.55389000	3.57406500
6.49999979	-9.07972400	16.22785000	4.31840500
6.69999978	-6.37180100	16.27707000	4.69365100
6.89999977	-2.38927200	16.97219000	4.73671200
7.09999975	1.91129400	17.34744000	4.73671200
7.29999974	5.57517200	17.34744000	4.73671200
7.49999973	7.48646600	16.97219000	4.69365100
7.69999972	7.48646600	16.22785000	4.31840500
7.89999971	5.57517200	15.85261000	3.57406500
8.09999970	2.70792300	15.80955000	3.19881900
8.29999968	-0.63668800	15.80955000	3.15575800
8.49999967	-3.34522600	15.80955000	3.15575800
8.69999966	-4.93786900	15.80955000	3.15575800
8.89999965	-5.09719500	15.80955000	3.15575800
9.09999964	-3.98191400	15.80955000	3.15575800
9.29999962	-2.22994600	15.80955000	3.15575800
9.49999961	-0.31803640	15.80955000	3.15575800
9.69999960	1.43331700	15.80955000	3.15575800
9.89999959	2.38927200	15.80955000	3.15575800
10.09999958	2.54859700	15.80955000	3.15575800
10.29999956	2.07062000	15.80955000	3.15575800
10.49999955	1.27399100	15.80955000	3.15575800
10.69999954	0.31803640	15.80955000	3.15575800
10.89999953	-0.31803640	15.80955000	3.15575800
11.09999952	-0.79601380	15.80955000	3.15575800
11.29999951	-0.95533960	15.80955000	3.15575800
11.49999949	-0.95533960	15.80955000	3.15575800
11.69999948	-0.63668800	15.85261000	3.15575800
11.89999947	-0.31803640	16.18479000	3.15575800
12.09999946	-0.15871060	16.59695000	3.15575800
12.29999945	-0.15871060	16.56004000	3.15575800
12.49999943	0.00000000	16.59695000	3.15575800
12.69999942	0.00000000	16.18479000	3.15575800
12.89999941	0.00000000	15.85261000	3.19881900
13.09999940	0.00000000	15.80955000	3.53100400
13.29999939	0.00000000	15.80955000	3.90009800
13.49999937	0.00000000	15.80955000	3.53100400
13.69999936	0.00000000	15.80955000	3.19881900
13.89999935	0.00000000	15.80955000	3.15575800
14.09999934	-0.15871060	15.80955000	3.15575800
14.29999933	-0.15871060	15.80955000	3.15575800
14.49999932	-0.15871060	15.80955000	3.15575800
14.69999930	0.00000000	15.80955000	3.15575800
14.89999929	0.00000000	15.80955000	3.19881900
15.09999928	0.00000000	15.80955000	3.53100400
15.29999927	0.00000000	15.80955000	3.90009800
15.49999926	0.00000000	15.80955000	3.53100400
15.69999924	0.00000000	15.80955000	3.19881900
15.89999923	0.00000000	15.80955000	3.15575800
16.09999922	0.00000000	15.80955000	3.15575800
16.29999921	-0.15871060	15.80955000	3.15575800
16.49999920	-0.15871060	15.85261000	3.15575800
16.69999919	-0.15871060	16.22785000	3.15575800
16.89999917	-0.15871060	16.97219000	3.15575800
17.09999916	0.00000000	17.34744000	3.15575800
17.29999915	0.00000000	17.43356000	3.15575800
17.49999914	0.00000000	17.76575000	3.15575800
17.69999913	0.00000000	18.13484000	3.15575800
17.89999911	0.00000000	17.67347000	3.15575800
18.09999910	0.00000000	16.55389000	3.15575800
18.29999909	0.00000000	14.60384000	3.15575800
18.49999908	0.00000000	12.73991000	3.15575800
18.69999907	0.00000000	11.53420000	3.15575800
18.89999905	0.00000000	11.15896000	3.15575800
19.09999904	0.00000000	11.57726000	3.15575800
19.29999903	0.00000000	13.15822000	3.15575800
19.49999902	0.00000000	15.90182000	3.15575800
19.69999901	0.00000000	19.38976000	3.15575800
19.89999900	0.00000000	23.24680000	3.15575800
20.09999898	0.00000000	26.32259000	3.15575800
20.29999897	0.00000000	27.81127000	3.15575800
20.49999896	0.00000000	26.97465000	3.15575800
20.69999895	0.00000000	23.02534000	3.15575800
20.89999894	0.00000000	16.46161000	3.15575800
21.09999892	0.00000000	8.37229300	3.15575800
21.29999891	0.00000000	1.06422200	3.15575800
21.49999890	0.00000000	-3.54330700	3.15575800
21.69999889	0.00000000	-4.28764700	3.15575800
21.89999888	0.00000000	-0.33833660	3.15575800
22.09999886	0.00000000	7.85556000	3.15575800
22.29999885	0.00000000	19.48204000	3.15575800
22.49999884	0.00000000	32.18504000	3.15575800
22.69999883	0.00000000	42.56274000	3.15575800
22.89999882	0.00000000	47.91462000	3.19881900
23.09999881	0.00000000	46.24139000	3.57406500
23.29999879	0.00000000	36.93405000	4.31840500
23.49999878	0.00000000	21.49360000	4.73671200
23.69999877	0.00000000	3.71555100	5.15501900
23.89999876	0.00000000	-12.51845000	5.85014700
24.09999875	0.00000000	-23.64050000	5.85014700
24.29999873	0.00000000	-26.24877000	5.11195900
24.49999872	0.00000000	-18.84842000	4.31840500
24.69999871	0.00000000	-2.65748000	3.11269700
24.89999870	0.00000000	18.64542000	1.57480300
25.09999869	0.00000000	40.28666000	0.04306102
25.29999867	0.00000000	57.96013000	-1.06422200
25.49999866	0.00000000	66.38779000	-1.06422200
25.69999865	-0.15871060	62.94291000	0.13533460
25.89999864	0.00000000	48.98499000	2.50369100
26.09999863	0.00000000	26.93159000	6.35457700
26.29999862	0.00000000	1.53174200	10.53765000
26.49999860	0.00000000	-20.47859000	13.65650000
26.69999859	0.00000000	-34.06742000	15.18824000
26.89999858	0.00000000	-36.76181000	14.72072000
27.09999857	0.00000000	-27.82972000	11.56496000
27.29999856	0.00000000	-8.89517700	5.71481200
27.49999854	0.00000000	15.76649000	-1.99311000
27.69999853	0.00000000	40.09596000	-10.03322000
27.89999852	0.00000000	58.29232000	-15.74803000
28.09999851	0.00000000	66.84916000	-17.28592000
28.29999850	0.00000000	64.15477000	-14.16708000
28.49999848	0.00000000	51.03346000	-6.78518600
28.69999847	0.00000000	30.60408000	3.70939900
28.89999846	0.00000000	7.80634800	15.64960000
29.09999845	0.00000000	-11.96481000	26.42716000
29.29999844	0.00000000	-25.12918000	32.94168000
29.49999843	0.00000000	-28.98622000	33.67987000
29.69999841	0.00000000	-22.52091000	27.78666000
29.89999840	0.00000000	-8.28617100	15.79724000
30.09999839	0.00000000	9.90403500	0.00000000
30.29999838	0.00000000	28.46333000	-15.79724000
30.49999837	0.00000000	43.21481000	-27.78666000
30.69999835	0.00000000	51.40255000	-33.54453000
30.89999834	0.00000000	52.18996000	-31.59449000
31.09999833	0.00000000	45.25713000	-21.88730000
31.29999832	0.00000000	32.56028000	-6.45915300
31.49999831	0.00000000	17.48277000	11.70029000
31.69999829	0.00000000	3.15575800	28.29109000
31.89999828	0.00000000	-7.31422200	39.90526000
32.09999827	0.00000000	-12.05709000	44.13140000
32.29999826	0.00000000	-10.89444000	39.86220000
32.49999825	0.00000000	-4.33070900	27.87278000
32.69999824	0.00000000	6.50221400	10.54380000
32.89999822	0.00000000	18.79306000	-7.99089500
33.09999821	0.00000000	29.62598000	-23.51132000
33.29999820	0.00000000	36.23893000	-33.54453000
33.49999819	0.00000000	37.81988000	-35.86368000
33.69999818	0.00000000	34.37500000	-29.69365000
33.89999816	0.00000000	26.69783000	-17.00295000
34.09999815	0.00000000	17.43356000	-0.33218500
34.29999814	0.00000000	8.55068800	16.63386000
34.49999813	0.00000000	1.99311000	30.56717000
34.69999812	0.00000000	-0.33833660	38.28740000
34.89999810	0.00000000	1.53174200	38.33046000
35.09999809	0.00000000	6.92052100	30.98548000
35.29999808	0.00000000	14.18553000	17.83957000
35.49999807	0.00000000	21.11220000	1.75935000
35.69999806	0.00000000	25.76895000	-12.91215000
35.89999805	0.00000000	27.34990000	-22.21334000
36.09999803	0.00000000	25.81201000	-25.41215000
36.29999802	0.00000000	21.57972000	-21.88730000
36.49999801	0.00000000	15.80955000	-12.68455000
36.69999800	0.00000000	10.08243000	0.00000000
36.89999799	0.00000000	6.22539300	12.63533000
37.09999797	0.00000000	5.43184000	21.55512000
37.29999796	0.00000000	7.34498000	25.04306000
37.49999795	0.00000000	11.57726000	22.76083000
37.69999794	0.00000000	16.92298000	15.10212000
37.89999793	0.00000000	21.57972000	4.77977300
38.09999791	0.00000000	24.69857000	-5.20423200
38.29999790	0.00000000	25.85507000	-12.08169000
38.49999789	0.00000000	24.69857000	-13.61343000
38.69999788	0.00000000	21.62278000	-9.47957600
38.89999787	0.00000000	17.34744000	-1.43946800
39.09999786	0.00000000	12.73991000	7.75713500
39.29999784	0.00000000	8.87672100	15.84030000
39.49999783	0.00000000	6.92052100	20.34941000
39.69999782	0.00000000	6.87746000	19.60507000
39.89999781	0.00000000	8.41535400	13.47810000
40.09999780	0.00000000	11.10974000	4.31840500
40.29999778	0.00000000	14.27165000	-5.29650500
40.49999777	0.00000000	17.76575000	-12.59227000
40.69999776	0.00000000	21.24754000	-15.61270000
40.89999775	0.00000000	23.57899000	-13.28740000
41.09999774	0.00000000	24.74163000	-5.62253900
41.29999772	0.00000000	24.32333000	4.64443900
41.49999771	0.00000000	22.04109000	14.30241000
41.69999770	0.00000000	18.97145000	20.85999000
41.89999769	0.00000000	15.80955000	23.22835000
42.09999768	0.00000000	12.69070000	20.85999000
42.29999767	0.00000000	9.99630800	14.35162000
42.49999765	0.00000000	8.45841400	5.11195900
42.69999764	0.00000000	8.41535400	-4.04773600
42.89999763	0.00000000	9.57800100	-10.64222000
43.09999762	0.00000000	11.48499000	-13.01058000
43.29999761	0.00000000	13.81028000	-11.52190000
43.49999759	0.00000000	15.80955000	-6.87746000
43.69999758	0.00000000	17.72268000	0.04306102
43.89999757	0.00000000	19.24828000	7.29576700
44.09999756	0.00000000	19.30364000	12.72761000
44.29999755	0.00000000	19.06373000	15.09596000
44.49999753	0.00000000	19.34670000	14.76993000
44.69999752	0.00000000	19.71580000	12.07554000
44.89999751	0.00000000	19.30364000	7.84940900
45.09999750	0.00000000	18.55315000	3.24803100
45.29999749	0.00000000	17.34744000	-0.64591530
45.49999748	0.00000000	15.76649000	-2.97736200
45.69999746	0.00000000	13.76107000	-3.80782500
45.89999745	0.00000000	11.02362000	-3.02042300
46.09999744	0.00000000	7.99704600	-1.11343500
46.29999743	0.00000000	5.71481200	1.62401600
46.49999742	0.00000000	5.38877900	4.68750000
46.69999740	0.00000000	7.34498000	7.38188900
46.89999739	0.00000000	11.62032000	8.91978400
47.09999738	0.00000000	17.43356000	8.96284400
47.29999737	0.00000000	23.62205000	7.80019600
47.49999736	0.00000000	28.97392000	5.85014700
47.69999734	0.00000000	31.62524000	3.15575800
47.89999733	0.00000000	30.46260000	0.46751960
48.09999732	0.00000000	25.81201000	-1.48868100
48.29999731	0.00000000	18.46087000	-2.64517700
48.49999730	0.00000000	9.95324800	-2.60211600
48.69999729	0.00000000	2.26993100	-1.02116100
48.89999727	0.00000000	-2.74975400	2.04232300
49.09999726	0.00000000	-3.45103300	5.85014700
49.29999725	0.00000000	0.41215550	8.91978400
49.49999724	0.00000000	8.50147600	10.49459000
49.69999723	0.00000000	18.46087000	10.49459000
49.89999721	0.00000000	27.34990000	8.91978400
50.09999720	0.00000000	33.21235000	5.85014700
50.29999719	0.00000000	35.12549000	1.99311000
50.49999718	0.00000000	32.79404000	-1.48868100
50.69999717	0.00000000	26.18725000	-4.18307100
50.89999715	0.00000000	17.01525000	-5.29650500
51.09999714	0.00000000	7.76328700	-4.13385800
51.29999713	0.00000000	1.24261800	-1.07037400
51.49999712	0.00000000	-1.12573800	3.15575800
51.69999711	0.00000000	1.15649600	7.38188900
51.89999710	0.00000000	6.92052100	10.49459000
52.09999708	0.00000000	14.60384000	12.03248000
52.29999707	0.00000000	22.31791000	11.65723000
52.49999706	0.00000000	27.67593000	9.33809000
52.69999705	0.00000000	29.62598000	5.89320800
52.89999704	0.00000000	27.34990000	2.04232300
53.09999702	0.00000000	21.99803000	-1.02116100
53.29999701	0.00000000	15.39124000	-2.60211600
53.49999700	0.00000000	8.55068800	-2.60211600
53.69999699	0.00000000	3.99237200	-1.07037400
53.89999698	0.00000000	3.94315900	1.58095500
54.09999696	0.00000000	7.29576700	4.26919300
54.29999695	0.00000000	12.69070000	6.17618100
54.49999694	0.00000000	18.46087000	6.96358300
54.69999693	0.00000000	23.11762000	6.17618100
54.89999692	0.00000000	25.81201000	4.31840500
55.09999691	0.00000000	25.76895000	2.04232300
55.29999689	0.00000000	22.69316000	0.55364170
55.49999688	0.00000000	17.34744000	0.51058070
55.69999687	0.00000000	11.62032000	1.66707700
55.89999686	0.00000000	7.38804100	3.61712600
56.09999685	0.00000000	5.80708600	6.26845500
56.29999683	0.00000000	6.92052100	8.50147600
56.49999682	0.00000000	9.99630800	8.87672100
56.69999681	0.00000000	14.27165000	7.33882900
56.89999680	0.00000000	18.87918000	4.26919300
57.09999679	0.00000000	22.69316000	0.41830710
57.29999677	0.00000000	24.23105000	-3.02042300
57.49999676	0.00000000	23.11762000	-5.29650500
57.69999675	0.00000000	20.08489000	-5.24729300
57.89999674	0.00000000	16.22785000	-2.55905500
58.09999673	0.00000000	12.78297000	2.08538400
58.29999672	0.00000000	10.41462000	7.84940900
58.49999670	0.00000000	9.62106200	13.18898000
58.69999669	0.00000000	9.99630800	16.25861000
58.89999668	0.00000000	11.57726000	16.25861000
59.09999667	0.00000000	14.22859000	13.14591000
59.29999666	0.00000000	16.87992000	7.33882900
59.49999664	0.00000000	18.46087000	0.04306102
59.69999663	0.00000000	18.87918000	-6.82824800
59.89999662	0.00000000	18.50394000	-11.06053000
60.09999661	0.00000000	17.34744000	-11.47884000
60.29999660	0.00000000	15.85261000	-8.36614100
60.49999658	0.00000000	14.69611000	-2.18380900
60.69999657	0.00000000	14.27165000	5.85014700
60.89999656	0.00000000	14.27165000	13.14591000
61.09999655	0.00000000	14.69611000	17.83957000
61.29999654	0.00000000	15.80955000	19.32825000
61.49999653	0.00000000	16.92298000	17.00295000
61.69999651	0.00000000	17.29823000	10.82677000
61.89999650	0.00000000	16.92298000	2.82972400
62.09999649	0.00000000	15.76649000	-4.92125900
62.29999648	0.00000000	14.22859000	-10.31619000
62.49999647	0.00000000	12.69070000	-12.68455000
62.69999645	0.00000000	11.57726000	-11.47884000
62.89999644	0.00000000	11.57726000	-6.82824800
63.09999643	0.00000000	12.69070000	0.46751960
63.29999642	0.00000000	14.27165000	8.50147600
63.49999641	0.00000000	16.18479000	14.67766000
63.69999639	0.00000000	18.13484000	17.83957000
63.89999638	0.00000000	19.25443000	17.83957000
64.09999637	0.00000000	19.66658000	14.76993000
64.29999636	0.00000000	18.83612000	9.38115100
64.49999635	0.00000000	16.97219000	3.20497000
64.69999634	0.00000000	14.64690000	-2.60211600
64.89999632	0.00000000	12.73991000	-6.82824800
65.09999631	0.00000000	11.53420000	-8.40920300
65.29999630	0.00000000	11.15896000	-7.33882900
65.49999629	0.00000000	11.57726000	-4.64443900
65.69999628	0.00000000	13.11516000	-1.11343500
65.89999626	0.00000000	15.39124000	3.15575800
66.09999625	0.00000000	17.25517000	7.38188900
66.29999624	0.00000000	18.04257000	10.49459000
66.49999623	0.00000000	17.29823000	12.07554000
66.69999622	0.00000000	15.80955000	12.07554000
66.89999620	0.00000000	14.22859000	10.58686000
67.09999619	0.00000000	12.73991000	8.31077700
67.29999618	0.00000000	11.99557000	6.31151500
67.49999617	0.00000000	12.78297000	4.26919300
67.69999616	0.00000000	14.64690000	1.53174200
67.89999615	0.00000000	17.01525000	-1.53174200
68.09999613	0.00000000	19.30364000	-4.22613100
68.29999612	0.00000000	21.20448000	-5.75787400
68.49999611	0.00000000	21.53666000	-5.75787400
68.69999610	0.00000000	19.99877000	-4.18307100
68.89999609	0.00000000	16.87992000	-1.02116100
69.09999607	0.00000000	12.64764000	3.57406500
69.29999606	0.00000000	8.41535400	8.58759800
69.49999605	0.00000000	5.38877900	12.45079000
69.69999604	0.00000000	4.64443900	14.81299000
69.89999603	0.00000000	6.96973400	15.14518000
70.09999601	0.00000000	11.53420000	13.14591000
70.29999600	0.00000000	16.97219000	8.54453700
70.49999599	0.00000000	21.99803000	2.41756900
70.69999598	0.00000000	25.85507000	-2.97736200
70.89999597	0.00000000	27.39296000	-6.87746000
71.09999596	0.00000000	26.18725000	-8.40920300
71.29999594	0.00000000	22.31791000	-7.29576700
71.49999593	0.00000000	16.14173000	-4.18307100
71.69999592	0.00000000	9.62106200	0.46136810
71.89999591	0.00000000	4.18307100	5.80093500
72.09999590	0.00000000	1.10728300	10.03322000
72.29999588	0.00000000	1.10728300	12.03248000
72.49999587	0.00000000	4.18307100	12.03248000
72.69999586	0.00000000	9.62106200	10.11934000
72.89999585	0.00000000	16.14173000	6.68676100
73.09999584	0.00000000	22.31791000	3.24803100
73.29999582	0.00000000	26.18725000	0.55364170
73.49999581	0.00000000	27.39296000	-0.60285430
73.69999580	0.00000000	25.85507000	0.09227362
73.89999579	0.00000000	21.99803000	1.57480300
74.09999578	0.00000000	16.97219000	3.11269700
74.29999577	0.00000000	11.57726000	4.22613100
74.49999575	0.00000000	7.34498000	4.22613100
74.69999574	0.00000000	5.38877900	3.11269700
74.89999573	0.00000000	5.71481200	1.57480300
75.09999572	0.00000000	8.04010800	0.04306102
75.29999571	0.00000000	11.48499000	-1.06422200
75.49999569	0.00000000	15.39124000	-0.97810030
75.69999568	0.00000000	18.83612000	0.92888770
75.89999567	0.00000000	21.16142000	4.36146600
76.09999566	0.00000000	21.57972000	7.84940900
76.29999565	0.00000000	20.46014000	10.91289000
76.49999563	0.00000000	18.55315000	12.72761000
76.69999562	0.00000000	16.27707000	11.56496000
76.89999561	0.00000000	14.69611000	7.75713500
77.09999560	0.00000000	13.85334000	2.73745100
77.29999559	0.00000000	13.11516000	-2.64517700
77.49999558	0.00000000	13.11516000	-6.87746000
77.69999556	0.00000000	13.81028000	-8.82750900
77.89999555	0.00000000	14.18553000	-8.40920300
78.09999554	0.00000000	14.22859000	-5.29650500
78.29999553	0.00000000	14.18553000	0.09227362
78.49999552	0.00000000	13.81028000	6.22539300
78.69999550	0.00000000	13.11516000	11.65723000
78.89999549	0.00000000	13.15822000	15.14518000
79.09999548	0.00000000	14.27165000	16.30167000
79.29999547	0.00000000	15.80955000	14.72072000
79.49999546	0.00000000	17.39050000	10.49459000
79.69999544	0.00000000	18.92839000	4.77977300
79.89999543	0.00000000	19.99877000	-0.64591530
80.09999542	0.00000000	19.62352000	-4.55831700
80.29999541	0.00000000	17.72268000	-6.92052100
80.49999540	0.00000000	15.39124000	-7.24655500
80.69999539	0.00000000	12.64764000	-5.38262700
80.89999537	0.00000000	10.03937000	-1.90698800
81.09999536	0.00000000	8.83366100	1.95004900
81.29999535	0.00000000	9.24581600	5.85014700
81.49999534	0.00000000	10.78986000	8.91978400
81.69999533	0.00000000	13.89641000	10.53765000
81.89999531	0.00000000	17.25517000	10.95595000
82.09999530	0.00000000	19.62352000	10.53765000
82.29999529	0.00000000	20.41708000	8.96284400
82.49999528	0.00000000	20.08489000	6.26845500
82.69999527	0.00000000	18.87918000	3.19881900
82.89999525	0.00000000	16.97219000	0.41830710
83.09999524	0.00000000	14.64690000	-1.90698800
83.29999523	0.00000000	12.73991000	-3.85088600
83.49999522	0.00000000	11.57726000	-4.60137700
83.69999521	0.00000000	11.53420000	-4.26919300
83.89999520	0.00000000	12.27239000	-3.02042300
84.09999518	0.00000000	13.06594000	-0.64591530
84.29999517	0.00000000	14.22859000	3.20497000
84.49999516	0.00000000	15.34203000	7.43110200
84.69999515	0.00000000	15.76649000	10.86983000
84.89999514	0.00000000	15.80955000	12.81373000
85.09999512	0.00000000	15.80955000	12.40157000
85.29999511	0.00000000	15.80955000	10.11934000
85.49999510	0.00000000	15.80955000	6.21924200
85.69999509	0.00000000	15.85261000	1.62401600
85.89999508	0.00000000	16.18479000	-2.64517700
86.09999506	0.00000000	16.55389000	-5.75787400
86.29999505	0.00000000	16.14173000	-7.24655500
86.49999504	0.00000000	15.43430000	-6.45300100
86.69999503	0.00000000	14.60384000	-2.97736200
86.89999502	0.00000000	13.81028000	1.95004900
87.09999501	0.00000000	12.64764000	7.00664300
87.29999499	0.00000000	11.57726000	10.86983000
87.49999498	0.00000000	11.57726000	13.18898000
87.69999497	0.00000000	12.69070000	13.14591000
87.89999496	0.00000000	14.22859000	10.45152000
88.09999495	0.00000000	15.80955000	5.89320800
88.29999493	0.00000000	17.34744000	0.87967510
88.49999492	0.00000000	18.46087000	-2.97736200
88.69999491	0.00000000	18.46087000	-5.29650500
88.89999490	0.00000000	17.34744000	-5.29650500
89.09999489	0.00000000	15.80955000	-2.97736200
89.29999487	0.00000000	14.22859000	0.83661410
89.49999486	0.00000000	12.69070000	5.47490100
89.69999485	0.00000000	11.57726000	9.29502900
89.89999484	0.00000000	11.53420000	11.61417000
90.09999483	0.00000000	12.27239000	11.56496000
90.29999482	0.00000000	13.06594000	8.91978400
90.49999480	0.00000000	14.27165000	4.73671200
90.69999479	0.00000000	15.76649000	0.46751960
90.89999478	0.00000000	16.87992000	-2.97736200
91.09999477	0.00000000	16.92298000	-4.92125900
91.29999476	0.00000000	16.22785000	-4.50910400
91.49999474	0.00000000	15.80955000	-2.22687000
91.69999473	0.00000000	15.39124000	1.66707700
91.89999472	0.00000000	14.64690000	6.21924200
92.09999471	0.00000000	14.27165000	10.03322000
92.29999470	0.00000000	14.22859000	11.56496000
92.49999468	0.00000000	14.22859000	10.45152000
92.69999467	0.00000000	14.18553000	7.38188900
92.89999466	0.00000000	13.81028000	3.15575800
93.09999465	0.00000000	13.06594000	-1.07037400
93.29999464	0.00000000	12.69070000	-4.13385800
93.49999463	0.00000000	12.64764000	-5.25344500
93.69999461	0.00000000	12.69070000	-3.76476400
93.89999460	0.00000000	13.11516000	-0.33218500
94.09999459	0.00000000	14.32087000	3.53100400
94.29999458	0.00000000	16.22785000	7.38188900
94.49999457	0.00000000	18.50394000	10.03322000
94.69999455	0.00000000	20.04183000	10.45152000
94.89999454	0.00000000	20.41708000	8.91978400
95.09999453	0.00000000	19.62352000	5.80093500
95.29999452	0.00000000	17.29823000	1.62401600
95.49999451	0.00000000	14.22859000	-2.18380900
95.69999449	0.00000000	11.15896000	-4.09079700
95.89999448	0.00000000	8.79060000	-3.76476400
96.09999447	0.00000000	7.66486200	-1.48868100
96.29999446	0.00000000	7.67101300	1.58095500
96.49999445	0.00000000	9.62106200	4.68750000
96.69999444	0.00000000	12.69070000	7.33882900
96.89999442	0.00000000	16.22785000	8.50147600
97.09999441	0.00000000	20.04183000	7.80019600
97.29999440	0.00000000	22.74237000	6.26845500
97.49999439	0.00000000	23.53592000	4.31840500
97.69999438	0.00000000	22.78543000	1.99311000
97.89999436	0.00000000	20.41708000	0.13533460
98.09999435	0.00000000	16.92298000	-0.69512790
98.29999434	0.00000000	12.69070000	-0.32603340
98.49999433	0.00000000	8.83366100	0.41830710
98.69999432	0.00000000	6.50221400	1.62401600
98.89999430	0.00000000	5.71481200	3.11269700
99.09999429	0.00000000	6.92052100	4.26919300
99.29999428	0.00000000	9.99630800	4.69365100
99.49999427	0.00000000	14.18553000	4.73671200
99.69999426	0.00000000	18.04257000	4.73671200
99.89999425	0.00000000	20.41708000	4.73671200
100.09999423	0.00000000	21.62278000	4.73671200
100.29999422	0.00000000	21.62278000	4.73671200
100.49999421	0.00000000	20.46014000	4.73671200
100.69999420	0.00000000	18.46087000	4.69365100
100.89999419	0.00000000	15.39124000	4.26919300
101.09999417	0.00000000	11.95251000	3.11269700
101.29999416	0.00000000	9.62106200	1.57480300
101.49999415	0.00000000	8.41535400	0.04306102
101.69999414	0.00000000	8.41535400	-1.06422200
101.89999413	0.00000000	9.57800100	-1.06422200
102.09999411	0.00000000	11.48499000	0.09227362
102.29999410	0.00000000	13.85334000	1.99311000
102.49999409	0.00000000	16.14173000	4.36146600
102.69999408	0.00000000	18.08563000	6.64370100
102.89999407	0.00000000	18.87918000	8.58759800
103.09999406	0.00000000	18.92839000	9.33809000
103.29999404	0.00000000	18.50394000	8.91978400
103.49999403	0.00000000	17.29823000	6.96358300
103.69999402	0.00000000	15.39124000	3.57406500
103.89999401	0.00000000	13.11516000	0.51058070
104.09999400	0.00000000	11.57726000	-1.48868100
104.29999398	0.00000000	11.06668000	-2.64517700
104.49999397	0.00000000	10.73450000	-2.60211600
104.69999396	0.00000000	10.78986000	-1.07037400
104.89999395	0.00000000	12.31545000	1.62401600
105.09999394	0.00000000	14.18553000	4.68750000
105.29999392	0.00000000	15.76649000	7.38188900
105.49999391	0.00000000	16.87992000	8.87672100
105.69999390	0.00000000	16.92298000	8.54453700
105.89999389	0.00000000	16.18479000	6.64370100
106.09999388	0.00000000	15.39124000	4.36146600
106.29999387	0.00000000	14.22859000	1.99311000
106.49999385	0.00000000	13.11516000	0.13533460
106.69999384	0.00000000	12.73991000	-0.69512790
106.89999383	0.00000000	13.06594000	-0.28297240
107.09999382	0.00000000	13.85334000	0.83661410
107.29999381	0.00000000	14.60384000	2.78051200
107.49999379	0.00000000	15.39124000	4.64443900
107.69999378	0.00000000	15.76649000	5.80093500
107.89999377	0.00000000	15.76649000	5.85014700
108.09999376	0.00000000	15.34203000	5.11195900
108.29999375	0.00000000	14.18553000	4.26919300
108.49999374	0.00000000	12.73991000	2.73745100
108.69999372	0.00000000	11.95251000	0.87967510
108.89999371	0.00000000	12.27239000	0.13533460
109.09999370	0.00000000	12.64764000	0.46136810
109.29999369	0.00000000	13.11516000	1.62401600
109.49999368	0.00000000	14.27165000	3.15575800
109.69999366	0.00000000	15.76649000	4.68750000
109.89999365	0.00000000	16.92298000	5.85014700
110.09999364	0.00000000	17.29823000	6.21924200
110.29999363	0.00000000	16.92298000	5.85014700
110.49999362	0.00000000	15.76649000	4.68750000
110.69999360	0.00000000	14.27165000	3.15575800
110.89999359	0.00000000	13.11516000	1.62401600
111.09999358	0.00000000	12.69070000	0.46136810
111.29999357	0.00000000	12.64764000	0.09227362
111.49999356	0.00000000	12.69070000	0.41830710
111.69999355	0.00000000	13.06594000	1.19955700
111.89999353	0.00000000	13.85334000	1.95004900
112.09999352	0.00000000	14.60384000	2.78051200
112.29999351	0.00000000	15.39124000	3.53100400
112.49999350	0.00000000	15.76649000	4.31840500
112.69999349	0.00000000	15.80955000	4.69365100
112.89999347	0.00000000	15.76649000	4.69365100
113.09999346	0.00000000	15.39124000	4.31840500
113.29999345	0.00000000	14.64690000	3.57406500
113.49999344	0.00000000	14.22859000	3.19881900
113.69999343	0.00000000	13.85334000	3.15575800
113.89999341	0.00000000	13.48425000	3.11269700
114.09999340	0.00000000	13.85334000	2.73745100
114.29999339	0.00000000	14.18553000	1.99311000
114.49999338	0.00000000	14.22859000	1.61786400
114.69999337	0.00000000	14.22859000	1.57480300
114.89999336	0.00000000	14.27165000	1.57480300
115.09999334	0.00000000	14.64690000	1.57480300
115.29999333	0.00000000	15.39124000	1.61786400
115.49999332	0.00000000	15.71727000	1.99311000
115.69999331	0.00000000	15.43430000	2.78051200
115.89999330	0.00000000	15.02214000	3.53100400
116.09999328	0.00000000	14.97293000	4.31840500
116.29999327	0.00000000	14.18553000	4.69365100
116.49999326	0.00000000	13.11516000	4.73671200
116.69999325	0.00000000	12.73991000	4.69365100
116.89999324	0.00000000	13.06594000	4.31840500
117.09999322	0.00000000	13.81028000	3.53100400
117.29999321	0.00000000	14.27165000	2.73745100
117.49999320	0.00000000	15.02214000	1.57480300
117.69999319	0.00000000	16.17864000	0.51058070
117.89999318	0.00000000	16.51698000	0.46136810
118.09999317	0.00000000	16.59695000	1.15649600
118.29999315	0.00000000	16.14173000	1.57480300
118.49999314	0.00000000	15.39124000	1.99311000
118.69999313	0.00000000	14.22859000	2.78051200
118.89999312	0.00000000	13.06594000	3.53100400
119.09999311	0.00000000	12.27239000	4.31840500
119.29999309	0.00000000	11.53420000	4.69365100
119.49999308	0.00000000	11.53420000	4.69365100
119.69999307	0.00000000	12.27239000	4.36146600
119.89999306	0.00000000	13.06594000	3.94931100
120.09999305	0.00000000	14.27165000	3.94315900
120.29999303	0.00000000	15.76649000	3.53100400
120.49999302	0.00000000	16.92298000	3.15575800
120.69999301	0.00000000	17.34744000	2.73745100
120.89999300	0.00000000	17.34744000	1.99311000
121.09999299	0.00000000	16.92298000	1.61786400
121.29999298	0.00000000	15.76649000	1.57480300
121.49999296	0.00000000	14.22859000	1.57480300
121.69999295	0.00000000	12.69070000	1.61786400
121.89999294	0.00000000	11.53420000	1.99311000
122.09999293	0.00000000	11.15896000	2.73745100
122.29999292	0.00000000	11.48499000	3.11269700
122.49999290	0.00000000	12.27239000	3.19881900
122.69999289	0.00000000	13.06594000	3.57406500
122.89999288	0.00000000	14.22859000	4.31840500
123.09999287	0.00000000	15.39124000	4.64443900
123.29999286	0.00000000	16.14173000	4.31840500
123.49999284	0.00000000	16.55389000	3.57406500
123.69999283	0.00000000	16.18479000	3.15575800
123.89999282	0.00000000	15.80955000	2.73745100
124.09999281	0.00000000	15.39124000	1.99311000
124.29999280	0.00000000	14.60384000	1.61786400
124.49999279	0.00000000	13.89641000	1.61786400
124.69999277	0.00000000	13.44119000	1.99311000
124.89999276	0.00000000	13.43504000	2.73745100
125.09999275	0.00000000	13.02288000	3.11269700
125.29999274	0.00000000	12.69070000	3.19881900
125.49999273	0.00000000	12.69070000	3.57406500
125.69999271	0.00000000	13.11516000	4.31840500
125.89999270	0.00000000	14.22859000	4.69365100
126.09999269	0.00000000	15.39124000	4.73671200
126.29999268	0.00000000	16.18479000	4.69365100
126.49999267	0.00000000	16.92298000	4.31840500
126.69999265	0.00000000	16.92298000	3.57406500
126.89999264	0.00000000	16.18479000	3.15575800
127.09999263	0.00000000	15.39124000	2.73745100
127.29999262	0.00000000	14.22859000	1.99311000
127.49999261	0.00000000	13.06594000	1.61786400
127.69999260	0.00000000	12.31545000	1.61786400
127.89999258	0.00000000	11.90330000	1.99311000
128.09999257	0.00000000	12.31545000	2.73745100
128.29999256	0.00000000	13.02288000	3.11269700
128.49999255	0.00000000	13.85334000	3.15575800
128.69999254	0.00000000	14.60384000	3.15575800
128.89999252	0.00000000	15.39124000	3.15575800
129.09999251	0.00000000	15.76649000	3.15575800
129.29999250	0.00000000	15.76649000	3.11269700
129.49999249	0.00000000	15.34203000	2.73745100
129.69999248	0.00000000	14.22859000	2.04232300
129.89999246	0.00000000	13.11516000	1.99311000
130.09999245	0.00000000	12.69070000	2.36220500
130.29999244	0.00000000	12.64764000	2.36835600
130.49999243	0.00000000	12.64764000	2.78051200
130.69999242	0.00000000	12.69070000	3.11269700
130.89999241	0.00000000	13.11516000	3.15575800
131.09999239	0.00000000	14.22859000	3.15575800
131.29999238	0.00000000	15.34203000	3.11269700
131.49999237	0.00000000	15.76649000	2.73745100
131.69999236	0.00000000	15.76649000	1.99311000
131.89999235	0.00000000	15.39124000	1.61786400
132.09999233	0.00000000	14.60384000	1.57480300
132.29999232	0.00000000	13.85334000	1.57480300
132.49999231	0.00000000	13.06594000	1.61786400
132.69999230	0.00000000	12.69070000	1.99311000
132.89999229	0.00000000	12.69070000	2.78051200
133.09999227	0.00000000	13.06594000	3.53100400
133.29999226	0.00000000	13.81028000	4.31840500
133.49999225	0.00000000	14.18553000	4.69365100
133.69999224	0.00000000	14.22859000	4.69365100
133.89999223	0.00000000	14.22859000	4.31840500
134.09999222	0.00000000	14.22859000	3.57406500
134.29999220	0.00000000	14.22859000	3.15575800
134.49999219	0.00000000	14.22859000	2.73745100
134.69999218	0.00000000	14.22859000	1.99311000
134.89999217	0.00000000	14.22859000	1.61786400
135.09999216	0.00000000	14.27165000	1.57480300
135.29999214	0.00000000	14.60384000	1.57480300
135.49999213	0.00000000	14.97293000	1.61786400
135.69999212	0.00000000	14.60384000	1.99311000
135.89999211	0.00000000	14.22859000	2.73745100
136.09999210	0.00000000	13.81028000	3.11269700
136.29999208	0.00000000	13.06594000	3.19881900
136.49999207	0.00000000	12.69070000	3.53100400
136.69999206	0.00000000	12.64764000	3.90009800
136.89999205	0.00000000	12.69070000	3.53100400
137.09999204	0.00000000	13.06594000	3.15575800
137.29999203	0.00000000	13.85334000	2.73745100
137.49999201	0.00000000	14.60384000	1.99311000
137.69999200	0.00000000	15.39124000	1.61786400
137.89999199	0.00000000	15.71727000	1.57480300
138.09999198	0.00000000	15.39124000	1.57480300
138.29999197	0.00000000	14.64690000	1.57480300
138.49999195	0.00000000	14.22859000	1.57480300
138.69999194	0.00000000	13.81028000	1.61786400
138.89999193	0.00000000	13.06594000	1.99311000
139.09999192	0.00000000	12.69070000	2.73745100
139.29999191	0.00000000	12.64764000	3.15575800
139.49999189	0.00000000	12.69070000	3.53100400
139.69999188	0.00000000	13.06594000	3.90009800
139.89999187	0.00000000	13.81028000	3.53100400
140.09999186	0.00000000	14.18553000	3.15575800
140.29999185	0.00000000	14.22859000	2.73745100
140.49999184	0.00000000	14.22859000	1.99311000
140.69999182	0.00000000	14.18553000	1.57480300
140.89999181	0.00000000	13.81028000	1.15649600
141.09999180	0.00000000	13.06594000	0.46136810
141.29999179	0.00000000	12.69070000	0.46136810
141.49999178	0.00000000	12.64764000	1.19955700
141.69999176	0.00000000	12.69070000	1.99311000
141.89999175	0.00000000	13.06594000	3.15575800
142.09999174	0.00000000	13.81028000	4.26919300
142.29999173	0.00000000	14.22859000	4.69365100
142.49999172	0.00000000	14.60384000	4.73671200
142.69999170	0.00000000	14.97293000	4.69365100
142.89999169	0.00000000	14.60384000	4.26919300
143.09999168	0.00000000	14.27165000	3.15575800
143.29999167	0.00000000	14.18553000	1.99311000
143.49999166	0.00000000	13.81028000	1.19955700
143.69999165	0.00000000	13.06594000	0.46136810
143.89999163	0.00000000	12.73991000	0.46136810
144.09999162	0.00000000	13.06594000	1.19955700
144.29999161	0.00000000	13.81028000	1.95004900
144.49999160	0.00000000	14.18553000	2.78051200
144.69999159	0.00000000	14.22859000	3.53100400
144.89999157	0.00000000	14.22859000	4.31840500
145.09999156	0.00000000	14.22859000	4.64443900
145.29999155	0.00000000	14.18553000	4.31840500
145.49999154	0.00000000	13.81028000	3.53100400
145.69999153	0.00000000	13.06594000	2.78051200
145.89999151	0.00000000	12.69070000	1.99311000
146.09999150	0.00000000	12.64764000	1.61786400
146.29999149	0.00000000	12.69070000	1.57480300
146.49999148	0.00000000	13.06594000	1.57480300
146.69999147	0.00000000	13.81028000	1.57480300
146.89999146	0.00000000	14.18553000	1.61786400
147.09999144	0.00000000	14.22859000	1.99311000
147.29999143	0.00000000	14.22859000	2.73745100
147.49999142	0.00000000	14.22859000	3.11269700
147.69999141	0.00000000	14.22859000	3.11269700
147.89999140	0.00000000	14.18553000	2.82357300
148.09999138	0.00000000	13.81028000	2.78666300
148.29999137	0.00000000	13.06594000	3.52485200
148.49999136	0.00000000	12.69070000	3.48794300
148.69999135	0.00000000	12.69070000	3.15575800
148.89999134	0.00000000	13.06594000	2.73745100
149.09999132	0.00000000	13.81028000	1.99311000
149.29999131	0.00000000	14.18553000	1.61786400
149.49999130	0.00000000	14.27165000	1.57480300
149.69999129	0.00000000	14.60384000	1.61786400
149.89999128	0.00000000	14.97293000	1.99311000
150.09999127	0.00000000	14.60384000	2.73745100
150.29999125	0.00000000	14.27165000	3.11269700
150.49999124	0.00000000	14.18553000	3.15575800
150.69999123	0.00000000	13.81028000	3.15575800
150.89999122	0.00000000	13.06594000	3.15575800
151.09999121	0.00000000	12.69070000	3.15575800
151.29999119	0.00000000	12.64764000	3.15575800
151.49999118	0.00000000	12.69070000	3.15575800
151.69999117	0.00000000	13.06594000	3.11269700
151.89999116	0.00000000	13.81028000	2.73745100
152.09999115	0.00000000	14.18553000	1.99311000
152.29999113	0.00000000	14.22859000	1.61786400
152.49999112	0.00000000	14.22859000	1.61786400
152.69999111	0.00000000	14.22859000	1.99311000
152.89999110	0.00000000	14.22859000	2.73745100
153.09999109	0.00000000	14.22859000	3.11269700
153.29999108	0.00000000	14.22859000	3.15575800
153.49999106	0.00000000	14.22859000	3.15575800
153.69999105	0.00000000	14.18553000	3.15575800
153.89999104	0.00000000	13.81028000	3.15575800
154.09999103	0.00000000	13.06594000	3.15575800
154.29999102	0.00000000	12.69070000	3.15575800
154.49999100	0.00000000	12.64764000	3.15575800
154.69999099	0.00000000	12.69070000	3.15575800
154.89999098	0.00000000	13.06594000	3.15575800
155.09999097	0.00000000	13.81028000	3.11269700
155.29999096	0.00000000	14.18553000	2.73745100
155.49999094	0.00000000	14.22859000	1.99311000
155.69999093	0.00000000	14.22859000	1.66707700
155.89999092	0.00000000	14.22859000	1.99311000
156.09999091	0.00000000	14.22859000	2.73745100
156.29999090	0.00000000	14.18553000	3.11269700
156.49999089	0.00000000	13.81028000	3.15575800
156.69999087	0.00000000	13.06594000	3.15575800
156.89999086	0.00000000	12.69070000	3.15575800
157.09999085	0.00000000	12.64764000	3.15575800
157.29999084	0.00000000	12.64764000	3.15575800
157.49999083	0.00000000	12.69070000	3.15575800
157.69999081	0.00000000	13.06594000	3.15575800
157.89999080	0.00000000	13.81028000	3.11269700
158.09999079	0.00000000	14.18553000	2.73745100
158.29999078	0.00000000	14.22859000	1.99311000
158.49999077	0.00000000	14.22859000	1.61786400
158.69999075	0.00000000	14.22859000	1.57480300
158.89999074	0.00000000	14.22859000	1.61786400
159.09999073	0.00000000	14.22859000	1.99311000
159.29999072	0.00000000	14.18553000	2.73745100
159.49999071	0.00000000	13.81028000	3.11269700
159.69999070	0.00000000	13.06594000	3.19881900
159.89999068	0.00000000	12.69070000	3.53100400
160.09999067	0.00000000	12.69070000	3.90009800
160.29999066	0.00000000	13.02288000	3.53100400
160.49999065	0.00000000	13.39198000	3.15575800
160.69999064	0.00000000	13.06594000	2.73745100
160.89999062	0.00000000	13.11516000	1.99311000
161.09999061	0.00000000	13.81028000	1.61786400
161.29999060	0.00000000	14.18553000	1.57480300
161.49999059	0.00000000	14.22859000	1.57480300
161.69999058	0.00000000	14.22859000	1.61786400
161.89999056	0.00000000	14.22859000	1.99311000
162.09999055	0.00000000	14.22859000	2.73745100
162.29999054	0.00000000	14.22859000	3.11269700
162.49999053	0.00000000	14.22859000	3.15575800
162.69999052	0.00000000	14.18553000	3.15575800
162.89999051	0.00000000	13.81028000	3.15575800
163.09999049	0.00000000	13.06594000	3.15575800
163.29999048	0.00000000	12.69070000	3.15575800
163.49999047	0.00000000	12.64764000	3.15575800
163.69999046	0.00000000	12.64764000	3.15575800
163.89999045	0.00000000	12.64764000	3.11269700
164.09999043	0.00000000	12.69070000	2.78051200
164.29999042	0.00000000	13.06594000	2.36835600
164.49999041	0.00000000	13.81028000	2.36220500
164.69999040	0.00000000	14.18553000	1.99311000
164.89999039	0.00000000	14.22859000	2.04232300
165.09999037	0.00000000	14.22859000	2.73745100
165.29999036	0.00000000	14.22859000	3.11269700
165.49999035	0.00000000	14.22859000	3.15575800
165.69999034	0.00000000	14.22859000	3.15575800
165.89999033	0.00000000	14.18553000	3.15575800
166.09999032	0.00000000	13.85334000	3.15575800
166.29999030	0.00000000	13.44119000	3.15575800
166.49999029	0.00000000	13.43504000	3.15575800
166.69999028	0.00000000	13.02288000	3.11269700
166.89999027	0.00000000	12.69070000	2.78051200
167.09999026	0.00000000	12.69070000	2.36835600
167.29999024	0.00000000	13.06594000	2.40526600
167.49999023	0.00000000	13.81028000	2.36835600
167.69999022	0.00000000	14.18553000	2.78051200
167.89999021	0.00000000	14.22859000	3.06348400
168.09999020	0.00000000	14.22859000	2.78051200
168.29999018	0.00000000	14.22859000	2.36835600
168.49999017	0.00000000	14.22859000	2.40526600
168.69999016	0.00000000	14.22859000	2.36835600
168.89999015	0.00000000	14.18553000	2.73745100
169.09999014	0.00000000	13.81028000	2.73745100
169.29999013	0.00000000	13.06594000	2.41141700
169.49999011	0.00000000	12.69070000	2.73745100
169.69999010	0.00000000	12.64764000	2.73745100
169.89999009	0.00000000	12.64764000	2.41141700
170.09999008	0.00000000	12.64764000	2.78051200
170.29999007	0.00000000	12.64764000	3.11269700
170.49999005	0.00000000	12.69070000	3.15575800
170.69999004	0.00000000	13.06594000	3.15575800
170.89999003	0.00000000	13.81028000	3.15575800
171.09999002	0.00000000	14.18553000	3.15575800
171.29999001	0.00000000	14.22859000	3.11269700
171.49998999	0.00000000	14.22859000	2.78051200
171.69998998	0.00000000	14.18553000	2.36835600
171.89998997	0.00000000	13.81028000	2.36220500
172.09998996	0.00000000	13.06594000	1.99311000
172.29998995	0.00000000	12.73991000	2.04232300
172.49998994	0.00000000	13.02288000	2.73745100
172.69998992	0.00000000	13.39198000	3.11269700
172.89998991	0.00000000	13.06594000	3.15575800
173.09998990	0.00000000	13.06594000	3.15575800
173.29998989	0.00000000	13.39198000	3.15575800
173.49998988	0.00000000	13.02288000	3.15575800
173.69998986	0.00000000	12.73991000	3.11269700
173.89998985	0.00000000	13.02288000	2.73745100
174.09998984	0.00000000	13.43504000	1.99311000
174.29998983	0.00000000	13.39813000	1.61786400
174.49998982	0.00000000	13.43504000	1.57480300
174.69998980	0.00000000	13.02288000	1.57480300
174.89998979	0.00000000	12.69070000	1.57480300
175.09998978	0.00000000	12.64764000	1.57480300
175.29998977	0.00000000	12.64764000	1.61786400
175.49998976	0.00000000	12.64764000	1.99311000
175.69998975	0.00000000	12.69070000	2.73745100
175.89998973	0.00000000	13.06594000	3.11269700
176.09998972	0.00000000	13.76107000	3.15575800
176.29998971	0.00000000	13.81028000	3.15575800
176.49998970	0.00000000	13.48425000	3.15575800
176.69998969	0.00000000	13.81028000	3.15575800
176.89998967	0.00000000	13.81028000	3.15575800
177.09998966	0.00000000	13.44119000	3.11269700
177.29998965	0.00000000	13.43504000	2.73745100
177.49998964	0.00000000	13.02288000	1.99311000
177.69998963	0.00000000	12.69070000	1.61786400
177.89998961	0.00000000	12.64764000	1.57480300
178.09998960	0.00000000	12.64764000	1.61786400
178.29998959	0.00000000	12.64764000	1.99311000
178.49998958	0.00000000	12.64764000	2.73745100
178.69998957	0.00000000	12.69070000	3.11269700
178.89998956	0.00000000	13.02288000	3.15575800
179.09998954	0.00000000	13.39198000	3.15575800
179.29998953	0.00000000	13.06594000	3.11269700
179.49998952	0.00000000	13.06594000	2.73745100
179.69998951	0.00000000	13.39198000	1.99311000
179.89998950	0.00000000	13.02288000	1.61786400
180.09998948	0.00000000	12.69070000	1.61786400
180.29998947	0.00000000	12.64764000	1.95004900
180.49998946	0.00000000	12.64764000	2.31914400
180.69998945	0.00000000	12.64764000	1.99311000
180.89998944	0.00000000	12.64764000	1.99311000
181.09998942	0.00000000	12.64764000	2.36220500
181.29998941	0.00000000	12.69070000	2.36835600
181.49998940	0.00000000	13.02288000	2.78051200
181.69998939	0.00000000	13.39198000	3.11269700
181.89998938	0.00000000	13.06594000	3.15575800
182.09998937	0.00000000	13.11516000	3.15575800
182.29998935	0.00000000	13.81028000	3.15575800
182.49998934	0.00000000	14.13632000	3.11269700
182.69998933	0.00000000	13.85334000	2.78051200
182.89998932	0.00000000	13.48425000	2.41141700
183.09998931	0.00000000	13.85334000	2.73745100
183.29998929	0.00000000	14.13632000	2.68823800
183.49998928	0.00000000	13.81028000	1.99311000
183.69998927	0.00000000	13.06594000	1.61786400
183.89998926	0.00000000	12.69070000	1.57480300
184.09998925	0.00000000	12.64764000	1.61786400
184.29998923	0.00000000	12.64764000	1.99311000
184.49998922	0.00000000	12.64764000	2.73745100
184.69998921	0.00000000	12.64764000	3.11269700
184.89998920	0.00000000	12.64764000	3.15575800
185.09998919	0.00000000	12.64764000	3.11269700
185.29998918	0.00000000	12.64764000	2.78051200
185.49998916	0.00000000	12.64764000	2.36835600
185.69998915	0.00000000	12.69070000	2.36220500
185.89998914	0.00000000	13.06594000	1.95004900
186.09998913	0.00000000	13.81028000	1.61786400
186.29998912	0.00000000	14.13632000	1.57480300
186.49998910	0.00000000	13.81028000	1.57480300
186.69998909	0.00000000	13.06594000	1.57480300
186.89998908	0.00000000	12.69070000	1.61786400
187.09998907	0.00000000	12.64764000	1.99311000
187.29998906	0.00000000	12.64764000	2.73745100
187.49998904	0.00000000	12.64764000	3.11269700
187.69998903	0.00000000	12.69070000	3.15575800
187.89998902	0.00000000	13.02288000	3.15575800
188.09998901	0.00000000	13.39198000	3.15575800
188.29998900	0.00000000	13.02288000	3.11269700
188.49998899	0.00000000	12.69070000	2.73745100
188.69998897	0.00000000	12.69070000	1.99311000
188.89998896	0.00000000	13.06594000	1.61786400
189.09998895	0.00000000	13.76107000	1.57480300
189.29998894	0.00000000	13.76107000	1.57480300
189.49998893	0.00000000	13.06594000	1.57480300
189.69998891	0.00000000	12.69070000	1.57480300
189.89998890	0.00000000	12.64764000	1.57480300
190.09998889	0.00000000	12.64764000	1.61786400
190.29998888	0.00000000	12.64764000	1.99311000
190.49998887	0.00000000	12.64764000	2.73745100
190.69998885	0.00000000	12.64764000	3.11269700
190.89998884	0.00000000	12.69070000	3.15575800
191.09998883	0.00000000	13.06594000	3.15575800
191.29998882	0.00000000	13.76107000	3.11269700
191.49998881	0.00000000	13.76107000	2.73745100
191.69998880	0.00000000	13.11516000	1.99311000
191.89998878	0.00000000	13.06594000	1.61786400
192.09998877	0.00000000	13.39198000	1.57480300
192.29998876	0.00000000	13.02288000	1.57480300
192.49998875	0.00000000	12.69070000	1.57480300
192.69998874	0.00000000	12.64764000	1.57480300
192.89998872	0.00000000	12.64764000	1.61786400
193.09998871	0.00000000	12.64764000	1.99311000
193.29998870	0.00000000	12.64764000	2.68823800
193.49998869	0.00000000	12.64764000	2.73745100
193.69998868	0.00000000	12.64764000	2.41141700
193.89998866	0.00000000	12.64764000	2.78051200
194.09998865	0.00000000	12.69070000	3.11269700
194.29998864	0.00000000	13.06594000	3.15575800
194.49998863	0.00000000	13.76107000	3.15575800
194.69998862	0.00000000	13.81028000	3.15575800
194.89998861	0.00000000	13.44119000	3.15575800
195.09998859	0.00000000	13.43504000	3.11269700
195.29998858	0.00000000	13.02288000	2.73745100
195.49998857	0.00000000	12.69070000	1.99311000
195.69998856	0.00000000	12.64764000	1.66707700
195.89998855	0.00000000	12.64764000	1.95004900
196.09998853	0.00000000	12.64764000	2.31914400
