Time	Channel A	Channel B	Channel C
(us)	(V)	(mV)	(mV)

-4.49999956	0.00000000	-7.90477300	-9.47342500
-4.29999957	0.00000000	-7.90477300	-9.47342500
-4.09999958	0.00000000	-7.90477300	-9.47342500
-3.89999959	0.00000000	-7.90477300	-9.47342500
-3.69999960	0.00000000	-7.90477300	-9.47342500
-3.49999962	0.00000000	-7.90477300	-9.43036400
-3.29999963	0.00000000	-7.90477300	-9.05511800
-3.09999964	0.00000000	-7.90477300	-8.31077700
-2.89999965	0.00000000	-7.90477300	-7.93553100
-2.69999966	0.00000000	-7.90477300	-7.93553100
-2.49999968	0.00000000	-7.90477300	-8.26771600
-2.29999969	0.00000000	-7.90477300	-8.63681000
-2.09999970	0.00000000	-7.90477300	-8.31077700
-1.89999971	0.00000000	-7.90477300	-8.35998900
-1.69999972	0.00000000	-7.90477300	-9.05511800
-1.49999973	0.00000000	-7.90477300	-9.43036400
-1.29999975	0.00000000	-7.90477300	-9.47342500
-1.09999976	0.00000000	-7.90477300	-9.47342500
-0.89999977	0.00000000	-7.90477300	-9.47342500
-0.69999978	0.00000000	-7.90477300	-9.47342500
-0.49999979	0.00000000	-7.90477300	-9.47342500
-0.29999981	0.31803640	-7.90477300	-9.47342500
-0.09999982	0.63668800	-7.90477300	-9.47342500
0.10000017	0.95533960	-7.90477300	-9.47342500
0.30000016	0.95533960	-7.90477300	-9.47342500
0.50000015	0.79601380	-7.90477300	-9.47342500
0.70000013	0.15871060	-7.90477300	-9.47342500
0.90000012	-0.79601380	-7.90477300	-9.43036400
1.10000011	-1.75196900	-7.90477300	-9.09817800
1.30000010	-2.54859700	-7.90477300	-8.72908400
1.50000009	-2.70792300	-7.90477300	-9.05511800
1.70000008	-2.22994600	-7.90477300	-9.00590400
1.90000006	-0.95533960	-7.90477300	-8.31077700
2.10000005	1.11466500	-7.90477300	-7.98474400
2.30000004	3.18590100	-7.90477300	-8.31077700
2.50000003	4.77854300	-7.90477300	-9.05511800
2.70000002	5.41584600	-7.90477300	-9.43036400
2.90000000	4.45989200	-7.90477300	-9.47342500
3.09999999	2.22994600	-7.90477300	-9.51648500
3.29999998	-0.95533960	-7.90477300	-9.84867000
3.49999997	-4.30056600	-7.90477300	-10.21161000
3.69999996	-7.00848900	-7.90477300	-9.79945900
3.89999994	-7.96444400	-7.90477300	-9.09817800
4.09999993	-7.00848900	-7.90477300	-8.31077700
4.29999992	-4.14124000	-7.90477300	-7.93553100
4.49999991	0.00000000	-7.90477300	-7.89247000
4.69999990	4.45989200	-7.90477300	-7.93553100
4.89999989	7.80511800	-7.90477300	-8.31077700
5.09999987	9.39837600	-7.90477300	-9.05511800
5.29999986	8.60174700	-7.90477300	-9.43036400
5.49999985	5.57517200	-7.90477300	-9.47342500
5.69999984	1.27399100	-7.90477300	-9.47342500
5.89999983	-3.50393700	-7.90477300	-9.47342500
6.09999981	-7.32714100	-7.90477300	-9.47342500
6.29999980	-9.39837600	-7.94783400	-9.43036400
6.49999979	-8.92039900	-8.23695900	-9.05511800
6.69999978	-6.37180100	-8.27386800	-8.35998900
6.89999977	-2.38927200	-7.53567900	-8.31077700
7.09999975	2.07062000	-7.57258800	-8.67987200
7.29999974	5.57517200	-7.86171200	-8.68602300
7.49999973	7.48646600	-7.90477300	-9.09817800
7.69999972	7.48646600	-7.90477300	-9.43036400
7.89999971	5.57517200	-7.90477300	-9.47342500
8.09999970	2.70792300	-7.90477300	-9.47342500
8.29999968	-0.63668800	-7.90477300	-9.47342500
8.49999967	-3.50393700	-7.90477300	-9.47342500
8.69999966	-4.93786900	-7.90477300	-9.43036400
8.89999965	-5.09719500	-7.90477300	-9.05511800
9.09999964	-3.98191400	-7.90477300	-8.31077700
9.29999962	-2.22994600	-7.90477300	-7.93553100
9.49999961	-0.15871060	-7.90477300	-7.89247000
9.69999960	1.43331700	-7.90477300	-7.89247000
9.89999959	2.38927200	-7.90477300	-7.93553100
10.09999958	2.54859700	-7.90477300	-8.31077700
10.29999956	2.07062000	-7.90477300	-9.05511800
10.49999955	1.27399100	-7.90477300	-9.43036400
10.69999954	0.31803640	-7.90477300	-9.47342500
10.89999953	-0.31803640	-7.90477300	-9.47342500
11.09999952	-0.79601380	-7.90477300	-9.47342500
11.29999951	-0.95533960	-7.90477300	-9.47342500
11.49999949	-0.95533960	-7.90477300	-9.47342500
11.69999948	-0.63668800	-7.90477300	-9.47342500
11.89999947	-0.31803640	-7.90477300	-9.47342500
12.09999946	-0.15871060	-7.90477300	-9.47342500
12.29999945	-0.15871060	-7.90477300	-9.47342500
12.49999943	0.00000000	-7.90477300	-9.47342500
12.69999942	0.00000000	-7.90477300	-9.47342500
12.89999941	0.00000000	-7.90477300	-9.47342500
13.09999940	0.00000000	-7.90477300	-9.47342500
13.29999939	0.00000000	-7.90477300	-9.47342500
13.49999937	0.00000000	-7.90477300	-9.47342500
13.69999936	0.00000000	-7.90477300	-9.47342500
13.89999935	-0.15871060	-7.90477300	-9.47342500
14.09999934	-0.15871060	-7.90477300	-9.47342500
14.29999933	-0.15871060	-7.90477300	-9.47342500
14.49999932	-0.15871060	-7.90477300	-9.47342500
14.69999930	0.00000000	-7.90477300	-9.47342500
14.89999929	0.00000000	-7.94783400	-9.47342500
15.09999928	0.00000000	-8.28001900	-9.47342500
15.29999927	0.00000000	-8.64911400	-9.47342500
15.49999926	0.00000000	-8.28001900	-9.47342500
15.69999924	0.00000000	-7.94783400	-9.47342500
15.89999923	0.00000000	-7.90477300	-9.47342500
16.09999922	0.00000000	-7.90477300	-9.47342500
16.29999921	0.00000000	-7.90477300	-9.47342500
16.49999920	0.00000000	-7.90477300	-9.47342500
16.69999919	-0.15871060	-7.86171200	-9.47342500
16.89999917	0.00000000	-7.48646600	-9.47342500
17.09999916	0.00000000	-6.74212600	-9.47342500
17.29999915	0.00000000	-6.36687900	-9.47342500
17.49999914	0.00000000	-6.32381900	-9.47342500
17.69999913	0.00000000	-6.36687900	-9.47342500
17.89999911	0.00000000	-6.79133800	-9.47342500
18.09999910	0.00000000	-7.94783400	-9.47342500
18.29999909	0.00000000	-9.48572700	-9.47342500
18.49999908	0.00000000	-11.06668000	-9.47342500
18.69999907	0.00000000	-12.60458000	-9.51648500
18.89999905	0.00000000	-13.67495000	-9.79945900
19.09999904	0.00000000	-13.29970000	-9.83636800
19.29999903	0.00000000	-11.34966000	-9.10433000
19.49999902	0.00000000	-8.59990100	-9.14124000
19.69999901	0.00000000	-4.69980300	-9.43036400
19.89999900	0.00000000	-0.51058070	-9.47342500
20.09999898	0.00000000	2.56520700	-9.47342500
20.29999897	0.00000000	3.67864200	-9.47342500
20.49999896	0.00000000	2.09768700	-9.47342500
20.69999895	0.00000000	-2.22687000	-9.47342500
20.89999894	0.00000000	-8.83366100	-9.47342500
21.09999892	0.00000000	-16.92298000	-9.47342500
21.29999891	0.00000000	-24.18799000	-9.47342500
21.49999890	0.00000000	-28.42027000	-9.47342500
21.69999889	0.00000000	-28.37721000	-9.47342500
21.89999888	0.00000000	-23.67741000	-9.47342500
22.09999886	0.00000000	-14.70226000	-9.47342500
22.29999885	0.00000000	-2.69439000	-9.47342500
22.49999884	0.00000000	10.00246000	-9.47342500
22.69999883	0.00000000	19.96186000	-9.43036400
22.89999882	0.00000000	24.15108000	-9.14124000
23.09999881	0.00000000	21.03223000	-9.01820900
23.29999879	0.00000000	10.89444000	-8.99975300
23.49999878	0.00000000	-4.60137700	-7.48031400
23.69999877	0.00000000	-22.74237000	-6.48991100
23.89999876	0.00000000	-38.89025000	-6.72982200
24.09999875	0.00000000	-48.89272000	-7.47416300
24.29999873	0.00000000	-49.96924000	-7.93553100
24.49999872	0.00000000	-41.08022000	-8.77214500
24.69999871	0.00000000	-24.00960000	-10.67298000
24.89999870	0.00000000	-2.36835600	-12.53691000
25.09999869	0.00000000	19.62967000	-13.74262000
25.29999867	0.00000000	36.15895000	-14.11786000
25.49999866	0.00000000	43.08563000	-13.69956000
25.69999865	0.00000000	38.38583000	-12.07554000
25.89999864	0.00000000	22.57013000	-9.00590400
26.09999863	0.00000000	-0.55364170	-5.15501900
26.29999862	0.00000000	-25.30143000	-1.66707700
26.49999860	0.00000000	-46.19833000	1.07037400
26.69999859	0.00000000	-58.89518000	2.50984200
26.89999858	0.00000000	-60.05782000	1.67322800
27.09999857	0.00000000	-49.26796000	-2.22071800
27.29999856	0.00000000	-29.58292000	-8.40305000
27.49999854	0.00000000	-5.21038300	-15.74188000
27.69999853	0.00000000	18.28863000	-22.71161000
27.89999852	0.00000000	35.31619000	-27.63902000
28.09999851	0.00000000	41.92913000	-29.12155000
28.29999850	0.00000000	37.36466000	-25.59670000
28.49999848	0.00000000	23.08071000	-17.88263000
28.69999847	0.00000000	2.65132900	-7.38188900
28.89999846	0.00000000	-19.02682000	4.18307100
29.09999845	0.00000000	-37.22318000	14.16708000
29.29999844	0.00000000	-48.51747000	19.88804000
29.49999843	0.00000000	-50.84891000	19.46973000
29.69999841	0.00000000	-44.28518000	12.50000000
29.89999840	0.00000000	-30.04429000	0.46751960
30.09999839	0.00000000	-11.95251000	-14.58538000
30.29999838	0.00000000	5.12426100	-29.63213000
30.49999837	0.00000000	18.38090000	-40.79109000
30.69999835	0.00000000	25.73203000	-45.80462000
30.89999834	0.00000000	25.77510000	-43.02411000
31.09999833	0.00000000	18.84227000	-32.60949000
31.29999832	0.00000000	6.88361200	-16.76919000
31.49999831	0.00000000	-7.39419200	0.97810030
31.69999829	0.00000000	-20.55856000	16.81841000
31.89999828	0.00000000	-29.91511000	27.27608000
32.09999827	0.00000000	-34.23966000	30.34572000
32.29999826	0.00000000	-33.07701000	25.31988000
32.49999825	0.00000000	-26.93159000	12.96752000
32.69999824	0.00000000	-17.25517000	-3.66633800
32.89999822	0.00000000	-6.41609200	-21.46284000
33.09999821	0.00000000	3.63558100	-36.88484000
33.29999820	0.00000000	10.56225000	-46.13681000
33.49999819	0.00000000	12.56767000	-47.33637000
33.69999818	0.00000000	9.91018600	-40.41584000
33.89999816	0.00000000	3.72170300	-27.31299000
34.09999815	0.00000000	-4.78592500	-11.05438000
34.29999814	0.00000000	-13.63189000	5.21038300
34.49999813	0.00000000	-20.55856000	18.31324000
34.69999812	0.00000000	-23.63435000	25.23376000
34.89999810	0.00000000	-22.18258000	24.11417000
35.09999809	0.00000000	-17.25517000	15.70497000
35.29999808	0.00000000	-11.06668000	2.60211600
35.49999807	0.00000000	-4.83513700	-12.11860000
35.69999806	0.00000000	0.51673230	-25.59670000
35.89999805	0.00000000	3.16806100	-34.84252000
36.09999803	0.00000000	2.09768700	-37.21087000
36.29999802	0.00000000	-1.71628900	-33.03395000
36.49999801	0.00000000	-6.74212600	-23.78199000
36.69999800	0.00000000	-12.13706000	-11.47269000
36.89999799	0.00000000	-16.32628000	0.42445860
37.09999797	0.00000000	-17.90723000	8.92593500
37.29999796	0.00000000	-16.79380000	11.99557000
37.49999795	0.00000000	-13.67495000	8.96899500
37.69999794	0.00000000	-9.06742000	0.93503930
37.89999793	0.00000000	-4.09079700	-9.38730200
38.09999791	0.00000000	-0.59670270	-19.00221000
38.29999790	0.00000000	0.98425190	-25.09227000
38.49999789	0.00000000	0.55979330	-25.91658000
38.69999788	0.00000000	-2.09153500	-21.32751000
38.89999787	0.00000000	-5.94857300	-13.28125000
39.09999786	0.00000000	-9.86097400	-3.70939900
39.29999784	0.00000000	-13.76107000	4.27534400
39.49999783	0.00000000	-16.79380000	7.76328700
39.69999782	0.00000000	-17.95029000	6.23154500
39.89999781	0.00000000	-16.83686000	0.09227362
40.09999780	0.00000000	-14.13632000	-9.09817800
40.29999778	0.00000000	-10.59916000	-18.30093000
40.49999777	0.00000000	-6.32381900	-25.22145000
40.69999776	0.00000000	-2.13459600	-27.87278000
40.89999775	0.00000000	0.60900590	-25.17839000
41.09999774	0.00000000	1.44562000	-17.92569000
41.29999772	0.00000000	1.02731300	-8.31077700
41.49999771	0.00000000	-0.92888770	0.88582670
41.69999770	0.00000000	-4.41067900	7.48031400
41.89999769	0.00000000	-8.28001900	9.76254800
42.09999768	0.00000000	-12.18012000	7.48031400
42.29999767	0.00000000	-15.25591000	0.93503930
42.49999765	0.00000000	-16.83686000	-7.84940900
42.69999764	0.00000000	-16.83686000	-16.35089000
42.89999763	0.00000000	-15.29897000	-22.48400000
43.09999762	0.00000000	-12.60458000	-24.85236000
43.29999761	0.00000000	-9.48572700	-22.99459000
43.49999759	0.00000000	-6.41609200	-18.39321000
43.69999758	0.00000000	-4.09079700	-12.21087000
43.89999757	0.00000000	-3.29724400	-5.70866100
44.09999756	0.00000000	-3.58021600	-1.06422200
44.29999755	0.00000000	-4.32455700	0.93503930
44.49999753	0.00000000	-4.74286400	0.55979330
44.69999752	0.00000000	-5.16117100	-2.08538400
44.89999751	0.00000000	-5.90551100	-5.93626900
45.09999750	0.00000000	-6.32381900	-9.79945900
45.29999749	0.00000000	-6.79133800	-13.28125000
45.49999748	0.00000000	-7.99704600	-15.18824000
45.69999746	0.00000000	-9.95324800	-15.27436000
45.89999745	0.00000000	-12.69070000	-14.11786000
46.09999744	0.00000000	-15.71727000	-12.21087000
46.29999743	0.00000000	-17.95029000	-9.84867000
46.49999742	0.00000000	-17.90723000	-7.56643700
46.69999740	0.00000000	-15.25591000	-5.61638700
46.89999739	0.00000000	-10.97441000	-4.87204700
47.09999738	0.00000000	-5.85629900	-5.19808000
47.29999737	0.00000000	-0.09227362	-6.36072800
47.49999736	0.00000000	4.88435000	-7.93553100
47.69999734	0.00000000	7.12352300	-9.89173200
47.89999733	0.00000000	5.95472400	-12.16781000
48.09999732	0.00000000	0.89197830	-13.69956000
48.29999731	0.00000000	-6.79133800	-14.11786000
48.49999730	0.00000000	-15.29897000	-13.69956000
48.69999729	0.00000000	-22.60704000	-12.11860000
48.89999727	0.00000000	-26.83932000	-9.42421200
49.09999726	0.00000000	-26.83932000	-6.36072800
49.29999725	0.00000000	-22.55782000	-3.66633800
49.49999724	0.00000000	-14.83760000	-2.12844500
49.69999723	0.00000000	-5.21038300	-2.12844500
49.89999721	0.00000000	3.63558100	-3.70939900
50.09999720	0.00000000	9.44881800	-6.77903500
50.29999719	0.00000000	10.98671000	-10.62992000
50.49999718	0.00000000	7.86786400	-14.11786000
50.69999717	0.00000000	0.55979330	-16.81225000
50.89999715	0.00000000	-9.01820900	-17.88263000
51.09999714	0.00000000	-17.86417000	-16.39395000
51.29999713	0.00000000	-23.67741000	-12.96137000
51.49999712	0.00000000	-25.21530000	-9.09817800
51.69999711	0.00000000	-22.18258000	-5.19808000
51.89999710	0.00000000	-15.67421000	-2.12844500
52.09999708	0.00000000	-7.94783400	-0.59670270
52.29999707	0.00000000	-0.59670270	-1.01501000
52.49999706	0.00000000	4.74901600	-3.70939900
52.69999705	0.00000000	6.24384800	-7.84940900
52.89999704	0.00000000	3.21112200	-11.74951000
53.09999702	0.00000000	-3.25418300	-14.45005000
53.29999701	0.00000000	-10.55610000	-16.01870000
53.49999700	0.00000000	-16.74459000	-15.60654000
53.69999699	0.00000000	-20.55856000	-13.74262000
53.89999698	0.00000000	-20.55856000	-11.00517000
54.09999696	0.00000000	-16.79380000	-7.98474400
54.29999695	0.00000000	-11.06668000	-5.66560000
54.49999694	0.00000000	-5.25344500	-4.91510800
54.69999693	0.00000000	-0.59670270	-5.61638700
54.89999692	0.00000000	2.05462600	-7.51722400
55.09999691	0.00000000	1.67938000	-9.38115100
55.29999689	0.00000000	-1.75935000	-10.58686000
55.49999688	0.00000000	-6.74212600	-10.95595000
55.69999687	0.00000000	-12.13706000	-10.53765000
55.89999686	0.00000000	-16.32628000	-9.00590400
56.09999685	0.00000000	-17.90723000	-6.72982200
56.29999683	0.00000000	-16.79380000	-4.91510800
56.49999682	0.00000000	-13.71801000	-4.50295200
56.69999681	0.00000000	-9.48572700	-6.07160400
56.89999680	0.00000000	-5.25344500	-8.72908400
57.09999679	0.00000000	-2.17765700	-12.16166000
57.29999677	0.00000000	-0.97194880	-14.85605000
57.49999676	0.00000000	-1.75935000	-16.02485000
57.69999675	0.00000000	-4.04773600	-16.01870000
57.89999674	0.00000000	-7.48646600	-13.98253000
58.09999673	0.00000000	-10.55610000	-10.11934000
58.29999672	0.00000000	-12.51230000	-4.73671200
58.49999670	0.00000000	-13.29970000	0.55979330
58.69999669	0.00000000	-12.55536000	3.58021600
58.89999668	0.00000000	-11.06668000	3.21112200
59.09999667	0.00000000	-9.48572700	-0.59670270
59.29999666	0.00000000	-7.94783400	-6.40378900
59.49999664	0.00000000	-6.79133800	-13.00443000
59.69999663	0.00000000	-6.36687900	-19.50664000
59.89999662	0.00000000	-6.36687900	-23.64665000
60.09999661	0.00000000	-6.79133800	-23.68971000
60.29999660	0.00000000	-7.90477300	-19.88189000
60.49999658	0.00000000	-8.97514600	-13.69956000
60.69999657	0.00000000	-9.01820900	-6.31766700
60.89999656	0.00000000	-8.32308000	0.97810030
61.09999655	0.00000000	-7.90477300	6.32381900
61.29999654	0.00000000	-7.48646600	7.81250000
61.49999653	0.00000000	-6.74212600	4.78592500
61.69999651	0.00000000	-6.45915300	-1.75935000
61.89999650	0.00000000	-7.16043300	-9.84867000
62.09999649	0.00000000	-8.69217500	-17.97490000
62.29999648	0.00000000	-9.86097400	-24.06496000
62.49999647	0.00000000	-11.02362000	-26.43332000
62.69999645	0.00000000	-11.76181000	-24.48326000
62.89999644	0.00000000	-11.39887000	-19.13140000
63.09999643	0.00000000	-10.59916000	-11.42347000
63.29999642	0.00000000	-9.01820900	-3.70939900
63.49999641	0.00000000	-6.79133800	2.51599400
63.69999639	0.00000000	-5.25344500	6.32381900
63.89999638	0.00000000	-4.78592500	6.32381900
64.09999637	0.00000000	-4.78592500	2.55905500
64.29999636	0.00000000	-5.25344500	-3.24803100
64.49999635	0.00000000	-6.79133800	-9.84867000
64.69999634	0.00000000	-9.06742000	-16.39395000
64.89999632	0.00000000	-10.97441000	-20.99532000
65.09999631	0.00000000	-12.13706000	-22.61934000
65.29999630	0.00000000	-12.13706000	-21.50590000
65.49999629	0.00000000	-11.02362000	-18.39321000
65.69999628	0.00000000	-9.48572700	-13.74262000
65.89999626	0.00000000	-7.90477300	-8.40305000
66.09999625	0.00000000	-6.41609200	-4.08464600
66.29999624	0.00000000	-5.67175200	-1.33489200
66.49999623	0.00000000	-6.41609200	0.27682080
66.69999622	0.00000000	-7.90477300	0.23991140
66.89999620	0.00000000	-9.48572700	-0.87967510
67.09999619	0.00000000	-10.97441000	-3.24803100
67.29999618	0.00000000	-11.71875000	-6.31151500
67.49999617	0.00000000	-10.93135000	-9.47342500
67.69999616	0.00000000	-9.06742000	-12.58612000
67.89999615	0.00000000	-6.69906400	-15.32357000
68.09999613	0.00000000	-4.41067900	-17.27362000
68.29999612	0.00000000	-2.50984200	-18.39321000
68.49999611	0.00000000	-2.17765700	-17.92569000
68.69999610	0.00000000	-3.71555100	-15.27436000
68.89999609	0.00000000	-6.83439900	-11.42347000
69.09999607	0.00000000	-11.06668000	-7.47416300
69.29999606	0.00000000	-15.25591000	-3.20497000
69.49999605	0.00000000	-17.90723000	0.60285430
69.69999604	0.00000000	-17.95029000	2.50984200
69.89999603	0.00000000	-15.63115000	2.14074800
70.09999601	0.00000000	-11.76181000	-0.59670270
70.29999600	0.00000000	-6.65600300	-5.19808000
70.49999599	0.00000000	-1.38410400	-10.62992000
70.69999598	0.00000000	2.50984200	-15.64960000
70.89999597	0.00000000	3.26648600	-19.50664000
71.09999596	0.00000000	1.76550200	-21.04454000
71.29999594	0.00000000	-2.17765700	-19.92495000
71.49999593	0.00000000	-7.94783400	-16.81225000
71.69999592	0.00000000	-14.05020000	-12.21087000
71.89999591	0.00000000	-18.73770000	-7.19734200
72.09999590	0.00000000	-20.70005000	-3.33415300
72.29999588	0.00000000	-20.69390000	-0.97194880
72.49999587	0.00000000	-17.90723000	-0.59670270
72.69999586	0.00000000	-12.60458000	-2.08538400
72.89999585	0.00000000	-6.79133800	-4.77977300
73.09999584	0.00000000	-1.71628900	-7.84940900
73.29999582	0.00000000	2.14074800	-10.53765000
73.49999581	0.00000000	3.63558100	-12.11860000
73.69999580	0.00000000	2.14074800	-12.53691000
73.89999579	0.00000000	-1.71628900	-12.16166000
74.09999578	0.00000000	-6.69906400	-11.00517000
74.29999577	0.00000000	-11.76181000	-9.55954600
74.49999575	0.00000000	-15.58194000	-8.77829600
74.69999574	0.00000000	-17.57505000	-9.14124000
74.89999573	0.00000000	-17.21210000	-9.89173200
75.09999572	0.00000000	-15.29897000	-11.04823000
75.29999571	0.00000000	-12.22933000	-12.11860000
75.49999569	0.00000000	-8.74138700	-12.07554000
75.69999568	0.00000000	-6.04084600	-10.53765000
75.89999567	0.00000000	-4.04773600	-7.84940900
76.09999566	0.00000000	-3.34030500	-4.77977300
76.29999565	0.00000000	-4.04773600	-2.12844500
76.49999563	0.00000000	-5.90551100	-1.01501000
76.69999562	0.00000000	-7.43725300	-2.17765700
76.89999561	0.00000000	-8.28001900	-5.24729300
77.09999560	0.00000000	-9.06742000	-9.51648500
77.29999559	0.00000000	-9.44266700	-14.16708000
77.49999558	0.00000000	-9.48572700	-18.35015000
77.69999556	0.00000000	-9.48572700	-20.62008000
77.89999555	0.00000000	-9.52879000	-19.88189000
78.09999554	0.00000000	-9.90403500	-16.81225000
78.29999553	0.00000000	-10.64838000	-12.16166000
78.49999552	0.00000000	-11.02362000	-6.72982200
78.69999550	0.00000000	-11.02362000	-1.75319900
78.89999549	0.00000000	-10.59916000	1.72244100
79.09999548	0.00000000	-9.39345400	2.50984200
79.29999547	0.00000000	-7.48646600	0.97810030
79.49999546	0.00000000	-5.21038300	-2.50369100
79.69999544	0.00000000	-3.67249000	-7.51722400
79.89999543	0.00000000	-3.29724400	-12.53691000
80.09999542	0.00000000	-4.04773600	-16.81225000
80.29999541	0.00000000	-5.99163300	-19.50664000
80.49999540	0.00000000	-8.32308000	-19.93110000
80.69999539	0.00000000	-11.06668000	-18.39321000
80.89999537	0.00000000	-13.67495000	-15.27436000
81.09999536	0.00000000	-14.83760000	-11.04823000
81.29999535	0.00000000	-14.09326000	-6.82209600
81.49999534	0.00000000	-12.18012000	-3.66633800
81.69999533	0.00000000	-9.48572700	-1.71013800
81.89999531	0.00000000	-6.79133800	-0.92888770
82.09999530	0.00000000	-4.83513700	-1.66707700
82.29999529	0.00000000	-3.67249000	-3.24803100
82.49999528	0.00000000	-3.67249000	-5.61638700
82.69999527	0.00000000	-4.83513700	-9.05511800
82.89999525	0.00000000	-6.74212600	-12.16781000
83.09999524	0.00000000	-9.01820900	-14.53617000
83.29999523	0.00000000	-10.55610000	-16.48622000
83.49999522	0.00000000	-11.02362000	-17.18750000
83.69999521	0.00000000	-11.02362000	-16.48622000
83.89999520	0.00000000	-10.64838000	-14.49311000
84.09999518	0.00000000	-9.86097400	-11.79257000
84.29999517	0.00000000	-9.11048200	-8.26771600
84.49999516	0.00000000	-8.32308000	-4.82283400
84.69999515	0.00000000	-7.94783400	-2.08538400
84.89999514	0.00000000	-7.90477300	-0.55364170
85.09999512	0.00000000	-7.90477300	-0.59670270
85.29999511	0.00000000	-7.90477300	-2.50369100
85.49999510	0.00000000	-7.86171200	-6.02854300
85.69999509	0.00000000	-7.48646600	-10.26698000
85.89999508	0.00000000	-6.79133800	-14.85605000
86.09999506	0.00000000	-6.79133800	-17.92569000
86.29999505	0.00000000	-7.52952700	-18.76845000
86.49999504	0.00000000	-8.32308000	-17.97490000
86.69999503	0.00000000	-9.48572700	-15.18824000
86.89999502	0.00000000	-10.64838000	-10.62992000
87.09999501	0.00000000	-11.39887000	-5.61638700
87.29999499	0.00000000	-11.81102000	-1.80241100
87.49999498	0.00000000	-11.39887000	0.18454720
87.69999497	0.00000000	-10.59916000	-0.22145670
87.89999496	0.00000000	-9.06742000	-2.50369100
88.09999495	0.00000000	-7.16043300	-6.40378900
88.29999493	0.00000000	-5.99163300	-11.00517000
88.49999492	0.00000000	-5.21038300	-15.23130000
88.69999491	0.00000000	-5.25344500	-17.92569000
88.89999490	0.00000000	-6.36687900	-18.30093000
89.09999489	0.00000000	-7.90477300	-16.35089000
89.29999487	0.00000000	-9.48572700	-12.11860000
89.49999486	0.00000000	-10.97441000	-6.82209600
89.69999485	0.00000000	-11.76181000	-2.54675200
89.89999484	0.00000000	-11.39887000	-0.22145670
90.09999483	0.00000000	-10.64838000	0.14148620
90.29999482	0.00000000	-9.48572700	-2.17765700
90.49999480	0.00000000	-8.32308000	-6.35457700
90.69999479	0.00000000	-7.52952700	-11.00517000
90.89999478	0.00000000	-6.74212600	-15.23130000
91.09999477	0.00000000	-6.41609200	-17.88263000
91.29999476	0.00000000	-6.74212600	-17.88263000
91.49999474	0.00000000	-7.48646600	-15.23130000
91.69999473	0.00000000	-7.86171200	-11.00517000
91.89999472	0.00000000	-7.90477300	-6.40378900
92.09999471	0.00000000	-7.90477300	-2.54675200
92.29999470	0.00000000	-7.90477300	-0.63976370
92.49999468	0.00000000	-7.94783400	-1.01501000
92.69999467	0.00000000	-8.32308000	-3.75246000
92.89999466	0.00000000	-9.11048200	-8.31077700
93.09999465	0.00000000	-9.86097400	-13.28125000
93.29999464	0.00000000	-10.64838000	-16.72613000
93.49999463	0.00000000	-10.97441000	-17.92569000
93.69999461	0.00000000	-10.64838000	-16.76919000
93.89999460	0.00000000	-9.86097400	-13.69956000
94.09999459	0.00000000	-9.01820900	-9.47342500
94.29999458	0.00000000	-7.43725300	-5.24729300
94.49999457	0.00000000	-5.21038300	-2.22071800
94.69999455	0.00000000	-3.71555100	-1.43331700
94.89999454	0.00000000	-3.67249000	-3.33415300
95.09999453	0.00000000	-4.83513700	-6.72982200
95.29999452	0.00000000	-6.79133800	-10.62992000
95.49999451	0.00000000	-9.52879000	-14.07480000
95.69999449	0.00000000	-12.55536000	-16.39395000
95.89999448	0.00000000	-14.88066000	-16.71998000
96.09999447	0.00000000	-15.67421000	-14.85605000
96.29999446	0.00000000	-15.29897000	-11.42347000
96.49999445	0.00000000	-13.67495000	-7.98474400
96.69999444	0.00000000	-10.59916000	-5.24729300
96.89999442	0.00000000	-6.74212600	-3.70939900
97.09999441	0.00000000	-3.29724400	-3.70939900
97.29999440	0.00000000	-0.92888770	-5.24729300
97.49999439	0.00000000	-0.17839570	-7.89247000
97.69999438	0.00000000	-0.97194880	-10.53765000
97.89999436	0.00000000	-3.67249000	-12.11860000
98.09999435	0.00000000	-7.52952700	-12.53691000
98.29999434	0.00000000	-11.39887000	-12.21087000
98.49999433	0.00000000	-14.88066000	-11.42347000
98.69999432	0.00000000	-16.79380000	-10.62992000
98.89999430	0.00000000	-16.83686000	-9.47342500
99.09999429	0.00000000	-15.29897000	-8.35998900
99.29999428	0.00000000	-12.55536000	-7.98474400
99.49999427	0.00000000	-9.06742000	-8.26771600
99.69999426	0.00000000	-5.21038300	-8.63681000
99.89999425	0.00000000	-2.13459600	-8.26771600
100.09999423	0.00000000	-0.59670270	-7.98474400
100.29999422	0.00000000	-0.92888770	-8.22465500
100.49999421	0.00000000	-2.82972400	-8.21235200
100.69999420	0.00000000	-5.16117100	-7.14812900
100.89999419	0.00000000	-7.94783400	-6.90821800
101.09999417	0.00000000	-11.02362000	-8.35383800
101.29999416	0.00000000	-13.67495000	-10.62992000
101.49999415	0.00000000	-14.88066000	-12.53691000
101.69999414	0.00000000	-14.56078000	-13.74262000
101.89999413	0.00000000	-13.76107000	-14.07480000
102.09999411	0.00000000	-12.13706000	-13.28125000
102.29999410	0.00000000	-9.48572700	-10.96211000
102.49999409	0.00000000	-6.83439900	-7.93553100
102.69999408	0.00000000	-5.21038300	-5.19808000
102.89999407	0.00000000	-4.41067900	-3.29109200
103.09999406	0.00000000	-4.04773600	-2.50369100
103.29999404	0.00000000	-4.83513700	-3.33415300
103.49999403	0.00000000	-6.36687900	-5.61638700
103.69999402	0.00000000	-8.32308000	-9.09817800
103.89999401	0.00000000	-10.59916000	-12.49385000
104.09999400	0.00000000	-12.13706000	-14.85605000
104.29999398	0.00000000	-12.60458000	-15.64960000
104.49999397	0.00000000	-12.60458000	-15.27436000
104.69999396	0.00000000	-12.13706000	-13.69956000
104.89999395	0.00000000	-10.59916000	-11.00517000
105.09999394	0.00000000	-8.37229300	-7.93553100
105.29999392	0.00000000	-6.83439900	-5.29035400
105.49999391	0.00000000	-6.36687900	-4.08464600
105.69999390	0.00000000	-6.36687900	-4.45374000
105.89999389	0.00000000	-6.79133800	-5.61638700
106.09999388	0.00000000	-7.90477300	-7.93553100
106.29999387	0.00000000	-9.06742000	-10.58686000
106.49999385	0.00000000	-9.86097400	-12.49385000
106.69999384	0.00000000	-10.59916000	-13.28125000
106.89999383	0.00000000	-10.55610000	-12.53691000
107.09999382	0.00000000	-9.48572700	-11.04823000
107.29999381	0.00000000	-8.32308000	-9.47342500
107.49999379	0.00000000	-7.52952700	-7.93553100
107.69999378	0.00000000	-6.79133800	-6.77903500
107.89999377	0.00000000	-6.79133800	-6.40378900
108.09999376	0.00000000	-7.52952700	-6.77903500
108.29999375	0.00000000	-8.32308000	-7.93553100
108.49999374	0.00000000	-9.48572700	-9.47342500
108.69999372	0.00000000	-10.59916000	-11.00517000
108.89999371	0.00000000	-11.02362000	-12.11860000
109.09999370	0.00000000	-10.97441000	-12.11860000
109.29999369	0.00000000	-10.23007000	-11.00517000
109.49999368	0.00000000	-8.69832600	-9.47342500
109.69999366	0.00000000	-7.57258800	-7.89247000
109.89999365	0.00000000	-6.74212600	-6.40378900
110.09999364	0.00000000	-6.41609200	-5.66560000
110.29999363	0.00000000	-6.74212600	-6.36072800
110.49999362	0.00000000	-7.52952700	-7.51722400
110.69999360	0.00000000	-8.32308000	-8.68602300
110.89999359	0.00000000	-9.48572700	-10.25467000
111.09999358	0.00000000	-10.59916000	-11.38041000
111.29999357	0.00000000	-10.97441000	-12.16166000
111.49999356	0.00000000	-10.64838000	-12.16166000
111.69999355	0.00000000	-9.86097400	-11.42347000
111.89999353	0.00000000	-9.11048200	-10.62992000
112.09999352	0.00000000	-8.32308000	-9.47342500
112.29999351	0.00000000	-7.94783400	-8.35998900
112.49999350	0.00000000	-7.90477300	-7.93553100
112.69999349	0.00000000	-7.90477300	-7.89247000
112.89999347	0.00000000	-7.90477300	-7.89247000
113.09999346	0.00000000	-7.94783400	-7.89247000
113.29999345	0.00000000	-8.32308000	-7.93553100
113.49999344	0.00000000	-9.06742000	-8.31077700
113.69999343	0.00000000	-9.44266700	-9.05511800
113.89999341	0.00000000	-9.48572700	-9.43036400
114.09999340	0.00000000	-9.44266700	-9.47342500
114.29999339	0.00000000	-9.11048200	-9.47342500
114.49999338	0.00000000	-8.69832600	-9.47342500
114.69999337	0.00000000	-8.69217500	-9.47342500
114.89999336	0.00000000	-8.28001900	-9.51648500
115.09999334	0.00000000	-7.94783400	-9.89173200
115.29999333	0.00000000	-7.94783400	-10.58686000
115.49999332	0.00000000	-8.32308000	-10.58686000
115.69999331	0.00000000	-9.06742000	-9.84867000
115.89999330	0.00000000	-9.44266700	-9.09817800
116.09999328	0.00000000	-9.48572700	-8.26771600
116.29999327	0.00000000	-9.48572700	-7.51722400
116.49999326	0.00000000	-9.48572700	-6.77903500
116.69999325	0.00000000	-9.48572700	-6.77903500
116.89999324	0.00000000	-9.48572700	-7.51722400
117.09999322	0.00000000	-9.44266700	-8.31077700
117.29999321	0.00000000	-9.06742000	-9.47342500
117.49999320	0.00000000	-8.28001900	-10.58686000
117.69999319	0.00000000	-7.57258800	-11.00517000
117.89999318	0.00000000	-7.11737200	-11.04823000
118.09999317	0.00000000	-7.15428100	-11.00517000
118.29999315	0.00000000	-7.16043300	-10.62992000
118.49999314	0.00000000	-7.94783400	-9.84867000
118.69999313	0.00000000	-9.06742000	-9.09817800
118.89999312	0.00000000	-9.86097400	-8.26771600
119.09999311	0.00000000	-10.64838000	-7.51722400
119.29999309	0.00000000	-11.02362000	-6.72982200
119.49999308	0.00000000	-11.02362000	-6.40378900
119.69999307	0.00000000	-10.59916000	-6.72982200
119.89999306	0.00000000	-9.44266700	-7.51722400
120.09999305	0.00000000	-7.94783400	-8.26771600
120.29999303	0.00000000	-6.79133800	-9.05511800
120.49999302	0.00000000	-6.36687900	-9.47342500
120.69999301	0.00000000	-6.32381900	-9.89173200
120.89999300	0.00000000	-6.36687900	-10.62992000
121.09999299	0.00000000	-6.79133800	-10.95595000
121.29999298	0.00000000	-7.90477300	-10.62992000
121.49999296	0.00000000	-9.06742000	-9.89173200
121.69999295	0.00000000	-9.86097400	-9.51648500
121.89999294	0.00000000	-10.64838000	-9.47342500
122.09999293	0.00000000	-11.02362000	-9.43036400
122.29999292	0.00000000	-11.02362000	-9.05511800
122.49999290	0.00000000	-10.64838000	-8.31077700
122.69999289	0.00000000	-9.86097400	-7.93553100
122.89999288	0.00000000	-9.06742000	-7.89247000
123.09999287	0.00000000	-7.90477300	-7.89247000
123.29999286	0.00000000	-6.79133800	-7.93553100
123.49999284	0.00000000	-6.36687900	-8.31077700
123.69999283	0.00000000	-6.36687900	-9.09817800
123.89999282	0.00000000	-6.74212600	-9.84867000
124.09999281	0.00000000	-7.52952700	-10.62992000
124.29999280	0.00000000	-8.32308000	-10.95595000
124.49999279	0.00000000	-9.48572700	-10.62992000
124.69999277	0.00000000	-10.59916000	-9.89173200
124.89999276	0.00000000	-11.02362000	-9.51648500
125.09999275	0.00000000	-11.06668000	-9.43036400
125.29999274	0.00000000	-11.02362000	-9.05511800
125.49999273	0.00000000	-10.59916000	-8.31077700
125.69999271	0.00000000	-9.52879000	-7.93553100
125.89999270	0.00000000	-8.69832600	-7.89247000
126.09999269	0.00000000	-8.27386800	-7.89247000
126.29999268	0.00000000	-7.11737200	-7.89247000
126.49999267	0.00000000	-6.45915300	-7.93553100
126.69999265	0.00000000	-6.74212600	-8.31077700
126.89999264	0.00000000	-7.48646600	-9.05511800
127.09999263	0.00000000	-7.90477300	-9.43036400
127.29999262	0.00000000	-8.37229300	-9.47342500
127.49999261	0.00000000	-9.48572700	-9.47342500
127.69999260	0.00000000	-10.59916000	-9.47342500
127.89999258	0.00000000	-11.02362000	-9.47342500
128.09999257	0.00000000	-11.02362000	-9.47342500
128.29999256	0.00000000	-10.59916000	-9.43036400
128.49999255	0.00000000	-9.48572700	-9.09817800
128.69999254	0.00000000	-8.37229300	-8.72908400
128.89999252	0.00000000	-7.90477300	-9.05511800
129.09999251	0.00000000	-7.48646600	-9.05511800
129.29999250	0.00000000	-6.79133800	-8.72908400
129.49999249	0.00000000	-6.83439900	-9.09817800
129.69999248	0.00000000	-7.94783400	-9.43036400
129.89999246	0.00000000	-9.44266700	-9.47342500
130.09999245	0.00000000	-10.59916000	-9.47342500
130.29999244	0.00000000	-11.02362000	-9.47342500
130.49999243	0.00000000	-11.02362000	-9.43036400
130.69999242	0.00000000	-10.59916000	-9.05511800
130.89999241	0.00000000	-9.48572700	-8.31077700
131.09999239	0.00000000	-8.37229300	-7.98474400
131.29999238	0.00000000	-7.90477300	-8.31077700
131.49999237	0.00000000	-7.52952700	-9.05511800
131.69999236	0.00000000	-7.16043300	-9.43036400
131.89999235	0.00000000	-7.57258800	-9.51648500
132.09999233	0.00000000	-8.28001900	-9.89173200
132.29999232	0.00000000	-9.06742000	-10.58686000
132.49999231	0.00000000	-9.44266700	-10.58686000
132.69999230	0.00000000	-9.48572700	-9.89173200
132.89999229	0.00000000	-9.48572700	-9.47342500
133.09999227	0.00000000	-9.48572700	-9.05511800
133.29999226	0.00000000	-9.44266700	-8.31077700
133.49999225	0.00000000	-9.06742000	-7.93553100
133.69999224	0.00000000	-8.37229300	-7.89247000
133.89999223	0.00000000	-8.37229300	-7.93553100
134.09999222	0.00000000	-9.06742000	-8.31077700
134.29999220	0.00000000	-9.44266700	-9.09817800
134.49999219	0.00000000	-9.48572700	-9.84867000
134.69999218	0.00000000	-9.48572700	-10.62992000
134.89999217	0.00000000	-9.44266700	-11.00517000
135.09999216	0.00000000	-9.06742000	-11.00517000
135.29999214	0.00000000	-8.32308000	-10.62992000
135.49999213	0.00000000	-7.94783400	-9.89173200
135.69999212	0.00000000	-7.94783400	-9.47342500
135.89999211	0.00000000	-8.32308000	-9.05511800
136.09999210	0.00000000	-9.06742000	-8.31077700
136.29999208	0.00000000	-9.48572700	-7.93553100
136.49999207	0.00000000	-9.90403500	-7.89247000
136.69999206	0.00000000	-10.59916000	-7.93553100
136.89999205	0.00000000	-10.59916000	-8.31077700
137.09999204	0.00000000	-9.86097400	-9.05511800
137.29999203	0.00000000	-9.11048200	-9.43036400
137.49999201	0.00000000	-8.32308000	-9.51648500
137.69999200	0.00000000	-7.94783400	-9.89173200
137.89999199	0.00000000	-7.90477300	-10.62992000
138.09999198	0.00000000	-7.90477300	-11.00517000
138.29999197	0.00000000	-7.94783400	-11.00517000
138.49999195	0.00000000	-8.32308000	-10.62992000
138.69999194	0.00000000	-9.11048200	-9.84867000
138.89999193	0.00000000	-9.86097400	-9.09817800
139.09999192	0.00000000	-10.64838000	-8.31077700
139.29999191	0.00000000	-10.97441000	-7.93553100
139.49999189	0.00000000	-10.64838000	-7.89247000
139.69999188	0.00000000	-9.86097400	-7.89247000
139.89999187	0.00000000	-9.11048200	-7.93553100
140.09999186	0.00000000	-8.32308000	-8.31077700
140.29999185	0.00000000	-7.94783400	-9.09817800
140.49999184	0.00000000	-7.90477300	-9.84867000
140.69999182	0.00000000	-7.94783400	-10.62992000
140.89999181	0.00000000	-8.32308000	-11.00517000
141.09999180	0.00000000	-9.06742000	-11.04823000
141.29999179	0.00000000	-9.44266700	-11.00517000
141.49999178	0.00000000	-9.48572700	-10.58686000
141.69999176	0.00000000	-9.48572700	-9.47342500
141.89999175	0.00000000	-9.44266700	-8.31077700
142.09999174	0.00000000	-9.06742000	-7.56028500
142.29999173	0.00000000	-8.32308000	-7.14812900
142.49999172	0.00000000	-7.94783400	-7.51722400
142.69999170	0.00000000	-7.94783400	-7.89247000
142.89999169	0.00000000	-8.32308000	-8.35998900
143.09999168	0.00000000	-9.06742000	-9.47342500
143.29999167	0.00000000	-9.44266700	-10.58686000
143.49999166	0.00000000	-9.48572700	-11.00517000
143.69999165	0.00000000	-9.48572700	-11.04823000
143.89999163	0.00000000	-9.48572700	-11.00517000
144.09999162	0.00000000	-9.44266700	-10.62992000
144.29999161	0.00000000	-9.06742000	-9.89173200
144.49999160	0.00000000	-8.37229300	-9.47342500
144.69999159	0.00000000	-8.32308000	-9.05511800
144.89999157	0.00000000	-8.64911400	-8.31077700
145.09999156	0.00000000	-8.32308000	-7.93553100
145.29999155	0.00000000	-8.37229300	-7.93553100
145.49999154	0.00000000	-9.06742000	-8.31077700
145.69999153	0.00000000	-9.44266700	-9.05511800
145.89999151	0.00000000	-9.48572700	-9.47342500
146.09999150	0.00000000	-9.48572700	-9.89173200
146.29999149	0.00000000	-9.48572700	-10.62992000
146.49999148	0.00000000	-9.48572700	-10.95595000
146.69999147	0.00000000	-9.44266700	-10.62992000
146.89999146	0.00000000	-9.06742000	-9.89173200
147.09999144	0.00000000	-8.32308000	-9.47342500
147.29999143	0.00000000	-7.94783400	-9.05511800
147.49999142	0.00000000	-7.94783400	-8.31077700
147.69999141	0.00000000	-8.32308000	-7.93553100
147.89999140	0.00000000	-9.06742000	-7.89247000
148.09999138	0.00000000	-9.44266700	-7.93553100
148.29999137	0.00000000	-9.48572700	-8.31077700
148.49999136	0.00000000	-9.48572700	-9.05511800
148.69999135	0.00000000	-9.48572700	-9.43036400
148.89999134	0.00000000	-9.48572700	-9.47342500
149.09999132	0.00000000	-9.48572700	-9.51648500
149.29999131	0.00000000	-9.44266700	-9.84867000
149.49999130	0.00000000	-9.06742000	-10.21161000
149.69999129	0.00000000	-8.32308000	-9.84867000
149.89999128	0.00000000	-7.94783400	-9.51648500
150.09999127	0.00000000	-7.90477300	-9.47342500
150.29999125	0.00000000	-7.94783400	-9.43036400
150.49999124	0.00000000	-8.32308000	-9.05511800
150.69999123	0.00000000	-9.06742000	-8.31077700
150.89999122	0.00000000	-9.44266700	-7.98474400
151.09999121	0.00000000	-9.48572700	-8.31077700
151.29999119	0.00000000	-9.48572700	-9.05511800
151.49999118	0.00000000	-9.48572700	-9.43036400
151.69999117	0.00000000	-9.48572700	-9.47342500
151.89999116	0.00000000	-9.48572700	-9.47342500
152.09999115	0.00000000	-9.44266700	-9.47342500
152.29999113	0.00000000	-9.06742000	-9.47342500
152.49999112	0.00000000	-8.32308000	-9.47342500
152.69999111	0.00000000	-7.94783400	-9.47342500
152.89999110	0.00000000	-7.90477300	-9.47342500
153.09999109	0.00000000	-7.90477300	-9.43036400
153.29999108	0.00000000	-7.94783400	-9.09817800
153.49999106	0.00000000	-8.32308000	-8.72908400
153.69999105	0.00000000	-9.06742000	-9.09817800
153.89999104	0.00000000	-9.44266700	-9.38115100
154.09999103	0.00000000	-9.48572700	-9.09817800
154.29999102	0.00000000	-9.48572700	-8.72908400
154.49999100	0.00000000	-9.48572700	-9.09817800
154.69999099	0.00000000	-9.48572700	-9.43036400
154.89999098	0.00000000	-9.48572700	-9.47342500
155.09999097	0.00000000	-9.44266700	-9.47342500
155.29999096	0.00000000	-9.06742000	-9.47342500
155.49999094	0.00000000	-8.32308000	-9.47342500
155.69999093	0.00000000	-7.94783400	-9.47342500
155.89999092	0.00000000	-7.90477300	-9.47342500
156.09999091	0.00000000	-7.90477300	-9.43036400
156.29999090	0.00000000	-7.94783400	-9.05511800
156.49999089	0.00000000	-8.32308000	-8.35998900
156.69999087	0.00000000	-9.06742000	-8.31077700
156.89999086	0.00000000	-9.44266700	-8.63681000
157.09999085	0.00000000	-9.48572700	-8.31077700
157.29999084	0.00000000	-9.48572700	-8.35998900
157.49999083	0.00000000	-9.48572700	-9.00590400
157.69999081	0.00000000	-9.44266700	-9.05511800
157.89999080	0.00000000	-9.11048200	-8.72908400
158.09999079	0.00000000	-8.69832600	-9.14124000
158.29999078	0.00000000	-8.69217500	-9.79945900
158.49999077	0.00000000	-8.28001900	-10.21161000
158.69999075	0.00000000	-7.94783400	-9.84867000
158.89999074	0.00000000	-7.90477300	-9.51648500
159.09999073	0.00000000	-7.94783400	-9.43036400
159.29999072	0.00000000	-8.32308000	-9.05511800
159.49999071	0.00000000	-9.06742000	-8.31077700
159.69999070	0.00000000	-9.44266700	-7.93553100
159.89999068	0.00000000	-9.48572700	-7.89247000
160.09999067	0.00000000	-9.52879000	-7.93553100
160.29999066	0.00000000	-9.86097400	-8.26771600
160.49999065	0.00000000	-10.23007000	-8.67987200
160.69999064	0.00000000	-9.86097400	-8.68602300
160.89999062	0.00000000	-9.52879000	-9.09817800
161.09999061	0.00000000	-9.48572700	-9.43036400
161.29999060	0.00000000	-9.44266700	-9.47342500
161.49999059	0.00000000	-9.06742000	-9.47342500
161.69999058	0.00000000	-8.32308000	-9.47342500
161.89999056	0.00000000	-7.94783400	-9.47342500
162.09999055	0.00000000	-7.94783400	-9.47342500
162.29999054	0.00000000	-8.32308000	-9.43036400
162.49999053	0.00000000	-9.06742000	-9.05511800
162.69999052	0.00000000	-9.44266700	-8.31077700
162.89999051	0.00000000	-9.48572700	-7.98474400
163.09999049	0.00000000	-9.48572700	-8.31077700
163.29999048	0.00000000	-9.48572700	-9.05511800
163.49999047	0.00000000	-9.52879000	-9.43036400
163.69999046	0.00000000	-9.86097400	-9.47342500
163.89999045	0.00000000	-10.23007000	-9.47342500
164.09999043	0.00000000	-9.86097400	-9.47342500
164.29999042	0.00000000	-9.52879000	-9.47342500
164.49999041	0.00000000	-9.44266700	-9.47342500
164.69999040	0.00000000	-9.06742000	-9.47342500
164.89999039	0.00000000	-8.37229300	-9.47342500
165.09999037	0.00000000	-8.32308000	-9.47342500
165.29999036	0.00000000	-8.69217500	-9.47342500
165.49999035	0.00000000	-8.69832600	-9.47342500
165.69999034	0.00000000	-9.11048200	-9.47342500
165.89999033	0.00000000	-9.44266700	-9.47342500
166.09999032	0.00000000	-9.48572700	-9.47342500
166.29999030	0.00000000	-9.48572700	-9.47342500
166.49999029	0.00000000	-9.52879000	-9.47342500
166.69999028	0.00000000	-9.81791200	-9.47342500
166.89999027	0.00000000	-9.85482200	-9.47342500
167.09999026	0.00000000	-9.11663300	-9.47342500
167.29999024	0.00000000	-9.15354300	-9.47342500
167.49999023	0.00000000	-9.44266700	-9.47342500
167.69999022	0.00000000	-9.48572700	-9.47342500
167.89999021	0.00000000	-9.44266700	-9.47342500
168.09999020	0.00000000	-9.11048200	-9.47342500
168.29999018	0.00000000	-8.74138700	-9.47342500
168.49999017	0.00000000	-9.11048200	-9.47342500
168.69999016	0.00000000	-9.44266700	-9.47342500
168.89999015	0.00000000	-9.48572700	-9.47342500
169.09999014	0.00000000	-9.48572700	-9.47342500
169.29999013	0.00000000	-9.48572700	-9.47342500
169.49999011	0.00000000	-9.48572700	-9.47342500
169.69999010	0.00000000	-9.48572700	-9.47342500
169.89999009	0.00000000	-9.48572700	-9.43036400
170.09999008	0.00000000	-9.48572700	-9.09817800
170.29999007	0.00000000	-9.48572700	-8.72908400
170.49999005	0.00000000	-9.48572700	-9.09817800
170.69999004	0.00000000	-9.48572700	-9.43036400
170.89999003	0.00000000	-9.48572700	-9.47342500
171.09999002	0.00000000	-9.44266700	-9.47342500
171.29999001	0.00000000	-9.11048200	-9.47342500
171.49998999	0.00000000	-8.74138700	-9.47342500
171.69998998	0.00000000	-9.11048200	-9.47342500
171.89998997	0.00000000	-9.44266700	-9.47342500
172.09998996	0.00000000	-9.48572700	-9.47342500
172.29998995	0.00000000	-9.48572700	-9.47342500
172.49998994	0.00000000	-9.48572700	-9.47342500
172.69998992	0.00000000	-9.48572700	-9.47342500
172.89998991	0.00000000	-9.48572700	-9.47342500
173.09998990	0.00000000	-9.48572700	-9.47342500
173.29998989	0.00000000	-9.48572700	-9.47342500
173.49998988	0.00000000	-9.48572700	-9.47342500
173.69998986	0.00000000	-9.48572700	-9.47342500
173.89998985	0.00000000	-9.48572700	-9.47342500
174.09998984	0.00000000	-9.48572700	-9.47342500
174.29998983	0.00000000	-9.48572700	-9.47342500
174.49998982	0.00000000	-9.48572700	-9.47342500
174.69998980	0.00000000	-9.48572700	-9.47342500
174.89998979	0.00000000	-9.48572700	-9.47342500
175.09998978	0.00000000	-9.48572700	-9.47342500
175.29998977	0.00000000	-9.48572700	-9.47342500
175.49998976	0.00000000	-9.48572700	-9.47342500
175.69998975	0.00000000	-9.48572700	-9.47342500
175.89998973	0.00000000	-9.48572700	-9.43036400
176.09998972	0.00000000	-9.48572700	-9.09817800
176.29998971	0.00000000	-9.48572700	-8.72908400
176.49998970	0.00000000	-9.44266700	-9.09817800
176.69998969	0.00000000	-9.11048200	-9.43036400
176.89998967	0.00000000	-8.74138700	-9.47342500
177.09998966	0.00000000	-9.11048200	-9.47342500
177.29998965	0.00000000	-9.44266700	-9.47342500
177.49998964	0.00000000	-9.48572700	-9.47342500
177.69998963	0.00000000	-9.48572700	-9.47342500
177.89998961	0.00000000	-9.48572700	-9.47342500
178.09998960	0.00000000	-9.48572700	-9.47342500
178.29998959	0.00000000	-9.48572700	-9.47342500
178.49998958	0.00000000	-9.48572700	-9.47342500
178.69998957	0.00000000	-9.48572700	-9.43036400
178.89998956	0.00000000	-9.48572700	-9.09817800
179.09998954	0.00000000	-9.48572700	-8.72908400
179.29998953	0.00000000	-9.44266700	-9.09817800
179.49998952	0.00000000	-9.11048200	-9.43036400
179.69998951	0.00000000	-8.74138700	-9.47342500
179.89998950	0.00000000	-9.11048200	-9.47342500
180.09998948	0.00000000	-9.44266700	-9.47342500
180.29998947	0.00000000	-9.48572700	-9.47342500
180.49998946	0.00000000	-9.48572700	-9.47342500
180.69998945	0.00000000	-9.48572700	-9.47342500
180.89998944	0.00000000	-9.48572700	-9.47342500
181.09998942	0.00000000	-9.48572700	-9.43036400
181.29998941	0.00000000	-9.48572700	-9.05511800
181.49998940	0.00000000	-9.48572700	-8.31077700
181.69998939	0.00000000	-9.48572700	-7.93553100
181.89998938	0.00000000	-9.48572700	-7.89247000
182.09998937	0.00000000	-9.48572700	-7.89247000
182.29998935	0.00000000	-9.48572700	-7.93553100
182.49998934	0.00000000	-9.48572700	-8.31077700
182.69998933	0.00000000	-9.48572700	-9.05511800
182.89998932	0.00000000	-9.48572700	-9.43036400
183.09998931	0.00000000	-9.48572700	-9.47342500
183.29998929	0.00000000	-9.48572700	-9.47342500
183.49998928	0.00000000	-9.48572700	-9.51648500
183.69998927	0.00000000	-9.48572700	-9.84867000
183.89998926	0.00000000	-9.48572700	-10.21161000
184.09998925	0.00000000	-9.48572700	-9.84867000
184.29998923	0.00000000	-9.48572700	-9.51648500
184.49998922	0.00000000	-9.48572700	-9.43036400
184.69998921	0.00000000	-9.48572700	-9.05511800
184.89998920	0.00000000	-9.48572700	-8.35998900
185.09998919	0.00000000	-9.48572700	-8.31077700
185.29998918	0.00000000	-9.48572700	-8.67987200
185.49998916	0.00000000	-9.48572700	-8.68602300
185.69998915	0.00000000	-9.48572700	-9.14124000
185.89998914	0.00000000	-9.48572700	-9.79945900
186.09998913	0.00000000	-9.48572700	-10.21161000
186.29998912	0.00000000	-9.48572700	-9.84867000
186.49998910	0.00000000	-9.48572700	-9.51648500
186.69998909	0.00000000	-9.48572700	-9.47342500
186.89998908	0.00000000	-9.48572700	-9.47342500
187.09998907	0.00000000	-9.48572700	-9.47342500
187.29998906	0.00000000	-9.48572700	-9.47342500
187.49998904	0.00000000	-9.48572700	-9.43036400
187.69998903	0.00000000	-9.48572700	-9.05511800
187.89998902	0.00000000	-9.48572700	-8.35998900
188.09998901	0.00000000	-9.48572700	-8.35998900
188.29998900	0.00000000	-9.48572700	-9.05511800
188.49998899	0.00000000	-9.48572700	-9.43036400
188.69998897	0.00000000	-9.48572700	-9.47342500
188.89998896	0.00000000	-9.48572700	-9.51648500
189.09998895	0.00000000	-9.48572700	-9.84867000
189.29998894	0.00000000	-9.48572700	-10.21161000
189.49998893	0.00000000	-9.48572700	-9.84867000
189.69998891	0.00000000	-9.48572700	-9.51648500
189.89998890	0.00000000	-9.48572700	-9.47342500
190.09998889	0.00000000	-9.52879000	-9.47342500
190.29998888	0.00000000	-9.86097400	-9.47342500
190.49998887	0.00000000	-10.23007000	-9.47342500
190.69998885	0.00000000	-9.86097400	-9.47342500
190.89998884	0.00000000	-9.52879000	-9.47342500
191.09998883	0.00000000	-9.48572700	-9.47342500
191.29998882	0.00000000	-9.48572700	-9.43036400
191.49998881	0.00000000	-9.44266700	-9.09817800
191.69998880	0.00000000	-9.11048200	-8.72908400
191.89998878	0.00000000	-8.74138700	-9.09817800
192.09998877	0.00000000	-9.11048200	-9.43036400
192.29998876	0.00000000	-9.44266700	-9.47342500
192.49998875	0.00000000	-9.48572700	-9.47342500
192.69998874	0.00000000	-9.48572700	-9.47342500
192.89998872	0.00000000	-9.48572700	-9.47342500
193.09998871	0.00000000	-9.48572700	-9.47342500
193.29998870	0.00000000	-9.48572700	-9.47342500
193.49998869	0.00000000	-9.48572700	-9.47342500
193.69998868	0.00000000	-9.48572700	-9.47342500
193.89998866	0.00000000	-9.48572700	-9.47342500
194.09998865	0.00000000	-9.48572700	-9.47342500
194.29998864	0.00000000	-9.48572700	-9.47342500
194.49998863	0.00000000	-9.48572700	-9.47342500
194.69998862	0.00000000	-9.48572700	-9.47342500
194.89998861	0.00000000	-9.48572700	-9.47342500
195.09998859	0.00000000	-9.48572700	-9.47342500
195.29998858	0.00000000	-9.48572700	-9.47342500
195.49998857	0.00000000	-9.48572700	-9.47342500
195.69998856	0.00000000	-9.48572700	-9.47342500
195.89998855	0.00000000	-9.48572700	-9.47342500
196.09998853	0.00000000	-9.48572700	-9.47342500
