Time	Channel A	Channel B	Channel C
(us)	(V)	(mV)	(mV)

-4.49999956	0.00000000	-7.90477300	-9.47342500
-4.29999957	0.00000000	-7.90477300	-9.47342500
-4.09999958	0.00000000	-7.94783400	-9.47342500
-3.89999959	0.00000000	-8.28001900	-9.47342500
-3.69999960	0.00000000	-8.64911400	-9.47342500
-3.49999962	0.00000000	-8.32308000	-9.47342500
-3.29999963	0.00000000	-8.32308000	-9.43036400
-3.09999964	0.00000000	-8.64911400	-9.05511800
-2.89999965	0.00000000	-8.28001900	-8.31077700
-2.69999966	0.00000000	-7.99704600	-7.98474400
-2.49999968	0.00000000	-8.32308000	-8.26771600
-2.29999969	0.00000000	-9.01820900	-8.63681000
-2.09999970	0.00000000	-9.01820900	-8.26771600
-1.89999971	0.00000000	-8.32308000	-7.93553100
-1.69999972	0.00000000	-7.94783400	-7.93553100
-1.49999973	0.00000000	-7.90477300	-8.31077700
-1.29999975	0.00000000	-7.94783400	-9.05511800
-1.09999976	0.00000000	-8.28001900	-9.43036400
-0.89999977	0.00000000	-8.64911400	-9.47342500
-0.69999978	0.00000000	-8.32308000	-9.47342500
-0.49999979	0.00000000	-8.32308000	-9.47342500
-0.29999981	0.31803640	-8.64911400	-9.47342500
-0.09999982	0.63668800	-8.28001900	-9.47342500
0.10000017	0.95533960	-7.99704600	-9.47342500
0.30000016	0.95533960	-8.32308000	-9.47342500
0.50000015	0.79601380	-9.06742000	-9.47342500
0.70000013	0.15871060	-9.39345400	-9.47342500
0.90000012	-0.63668800	-9.06742000	-9.47342500
1.10000011	-1.59264300	-8.37229300	-9.47342500
1.30000010	-2.38927200	-8.32308000	-9.47342500
1.50000009	-2.70792300	-8.64911400	-9.43036400
1.70000008	-2.38927200	-8.32308000	-9.05511800
1.90000006	-1.11466500	-8.32308000	-8.35998900
2.10000005	0.79601380	-8.64911400	-8.35998900
2.30000004	2.86724900	-8.32308000	-9.05511800
2.50000003	4.61921700	-8.32308000	-9.43036400
2.70000002	5.41584600	-8.69217500	-9.47342500
2.90000000	4.77854300	-8.69832600	-9.47342500
3.09999999	2.70792300	-9.06742000	-9.47342500
3.29999998	-0.47736220	-9.06742000	-9.47342500
3.49999997	-3.82258900	-8.74138700	-9.47342500
3.69999996	-6.69045300	-9.06742000	-9.47342500
3.89999994	-7.96444400	-9.01820900	-9.43036400
4.09999993	-7.32714100	-8.32308000	-9.05511800
4.29999992	-4.61921700	-7.94783400	-8.31077700
4.49999991	-0.47736220	-7.94783400	-7.98474400
4.69999990	3.82258900	-8.28001900	-8.26771600
4.89999989	7.48646600	-8.64911400	-8.67987200
5.09999987	9.39837600	-8.28001900	-8.68602300
5.29999986	8.92039900	-7.99704600	-9.09817800
5.49999985	6.21247500	-8.32308000	-9.43036400
5.69999984	1.91129400	-9.01820900	-9.47342500
5.89999983	-2.86724900	-9.06742000	-9.47342500
6.09999981	-7.00848900	-8.74138700	-9.43036400
6.29999980	-9.23905000	-9.06742000	-9.05511800
6.49999979	-9.07972400	-9.01820900	-8.31077700
6.69999978	-6.84916400	-8.32308000	-7.98474400
6.89999977	-2.86724900	-7.94783400	-8.26771600
7.09999975	1.43331700	-7.90477300	-8.63681000
7.29999974	5.25652100	-7.94783400	-8.31077700
7.49999973	7.32714100	-8.28001900	-8.35998900
7.69999972	7.64579200	-8.69217500	-9.05511800
7.89999971	5.89382400	-8.69832600	-9.43036400
8.09999970	3.18590100	-9.11048200	-9.47342500
8.29999968	-0.31803640	-9.39345400	-9.47342500
8.49999967	-3.02657500	-9.11048200	-9.47342500
8.69999966	-4.77854300	-8.69832600	-9.47342500
8.89999965	-5.09719500	-8.69217500	-9.47342500
9.09999964	-4.30056600	-8.28001900	-9.43036400
9.29999962	-2.38927200	-7.99704600	-9.05511800
9.49999961	-0.47736220	-8.28001900	-8.31077700
9.69999960	1.27399100	-8.64911400	-7.98474400
9.89999959	2.22994600	-8.32308000	-8.31077700
10.09999958	2.54859700	-8.37229300	-9.05511800
10.29999956	2.07062000	-9.06742000	-9.43036400
10.49999955	1.27399100	-9.39345400	-9.47342500
10.69999954	0.47736220	-9.11048200	-9.47342500
10.89999953	-0.31803640	-8.74138700	-9.47342500
11.09999952	-0.79601380	-9.06742000	-9.47342500
11.29999951	-0.95533960	-9.06742000	-9.47342500
11.49999949	-0.95533960	-8.69832600	-9.43036400
11.69999948	-0.63668800	-8.69217500	-9.09817800
11.89999947	-0.47736220	-8.32308000	-8.72908400
12.09999946	-0.15871060	-8.37229300	-9.09817800
12.29999945	-0.15871060	-9.06742000	-9.43036400
12.49999943	0.00000000	-9.44266700	-9.47342500
12.69999942	0.00000000	-9.44266700	-9.47342500
12.89999941	0.00000000	-9.06742000	-9.47342500
13.09999940	0.00000000	-8.32308000	-9.47342500
13.29999939	0.00000000	-7.99704600	-9.47342500
13.49999937	0.00000000	-8.32308000	-9.47342500
13.69999936	0.00000000	-9.06742000	-9.47342500
13.89999935	-0.15871060	-9.39345400	-9.47342500
14.09999934	-0.15871060	-9.06742000	-9.47342500
14.29999933	-0.15871060	-8.32308000	-9.47342500
14.49999932	-0.15871060	-7.99704600	-9.43036400
14.69999930	0.00000000	-8.32308000	-9.09817800
14.89999929	0.00000000	-9.06742000	-8.72908400
15.09999928	0.00000000	-9.44266700	-9.09817800
15.29999927	0.00000000	-9.48572700	-9.43036400
15.49999926	0.00000000	-9.48572700	-9.47342500
15.69999924	0.00000000	-9.48572700	-9.47342500
15.89999923	0.00000000	-9.44266700	-9.47342500
16.09999922	0.00000000	-9.11048200	-9.47342500
16.29999921	0.00000000	-8.69832600	-9.47342500
16.49999920	-0.15871060	-8.69217500	-9.47342500
16.69999919	-0.15871060	-8.28001900	-9.43036400
16.89999917	0.00000000	-7.94783400	-9.09817800
17.09999916	0.00000000	-7.86171200	-8.72908400
17.29999915	0.00000000	-7.48646600	-9.09817800
17.49999914	0.00000000	-6.79133800	-9.38115100
17.69999913	0.00000000	-6.83439900	-9.09817800
17.89999911	0.00000000	-7.90477300	-8.72908400
18.09999910	0.00000000	-9.06742000	-9.09817800
18.29999909	0.00000000	-9.90403500	-9.43036400
18.49999908	0.00000000	-11.10974000	-9.47342500
18.69999907	0.00000000	-12.60458000	-9.47342500
18.89999905	0.00000000	-13.71801000	-9.43036400
19.09999904	0.00000000	-13.67495000	-9.05511800
19.29999903	0.00000000	-12.13706000	-8.35998900
19.49999902	0.00000000	-9.39345400	-8.35998900
19.69999901	0.00000000	-5.85629900	-9.05511800
19.89999900	0.00000000	-1.62401600	-9.43036400
20.09999898	0.00000000	2.14074800	-9.47342500
20.29999897	0.00000000	3.63558100	-9.47342500
20.49999896	0.00000000	2.09768700	-9.47342500
20.69999895	0.00000000	-2.17765700	-9.47342500
20.89999894	0.00000000	-8.41535400	-9.47342500
21.09999892	0.00000000	-15.80955000	-9.47342500
21.29999891	0.00000000	-23.11762000	-9.47342500
21.49999890	0.00000000	-28.46333000	-9.47342500
21.69999889	0.00000000	-29.90895000	-9.47342500
21.89999888	0.00000000	-26.37180000	-9.47342500
22.09999886	0.00000000	-17.81496000	-9.47342500
22.29999885	0.00000000	-5.85629900	-9.47342500
22.49999884	0.00000000	6.88361200	-9.47342500
22.69999883	0.00000000	17.26132000	-9.47342500
22.89999882	0.00000000	22.61319000	-9.43036400
23.09999881	0.00000000	20.98917000	-9.05511800
23.29999879	0.00000000	12.05709000	-8.31077700
23.49999878	0.00000000	-2.68823800	-7.93553100
23.69999877	0.00000000	-20.46629000	-7.84940900
23.89999876	0.00000000	-37.35236000	-7.51722400
24.09999875	0.00000000	-48.51747000	-7.19734200
24.29999873	0.00000000	-50.80585000	-7.93553100
24.49999872	0.00000000	-43.77460000	-9.09817800
24.69999871	0.00000000	-27.86663000	-10.31004000
24.89999870	0.00000000	-6.28075700	-12.21087000
25.09999869	0.00000000	15.72958000	-13.69956000
25.29999867	0.00000000	33.08317000	-14.16708000
25.49999866	0.00000000	41.50467000	-14.11786000
25.69999865	0.00000000	38.38583000	-13.23819000
25.89999864	0.00000000	24.10802000	-10.49459000
26.09999863	0.00000000	2.09768700	-6.31151500
26.29999862	0.00000000	-22.65010000	-2.08538400
26.49999860	0.00000000	-44.66043000	1.02116100
26.69999859	0.00000000	-58.89518000	2.50984200
26.89999858	0.00000000	-61.59571000	1.72244100
27.09999857	0.00000000	-52.01156000	-1.84547200
27.29999856	0.00000000	-33.07701000	-7.65871000
27.49999854	0.00000000	-9.11048200	-15.36663000
27.69999853	0.00000000	14.80069000	-22.66240000
27.89999852	0.00000000	32.57259000	-27.68824000
28.09999851	0.00000000	40.39124000	-29.53986000
28.29999850	0.00000000	37.36466000	-26.75935000
28.49999848	0.00000000	24.61245000	-19.42052000
28.69999847	0.00000000	5.30265700	-8.96284400
28.89999846	0.00000000	-16.37549000	2.64517700
29.09999845	0.00000000	-35.68528000	13.01058000
29.29999844	0.00000000	-48.47441000	19.51279000
29.49999843	0.00000000	-52.01156000	19.84498000
29.69999841	0.00000000	-46.29060000	13.66265000
29.89999840	0.00000000	-33.16929000	2.04847400
30.09999839	0.00000000	-15.76649000	-12.67840000
30.29999838	0.00000000	2.00541300	-27.73130000
30.49999837	0.00000000	16.37549000	-39.99754000
30.69999835	0.00000000	24.52018000	-45.76156000
30.89999834	0.00000000	25.39985000	-43.48548000
31.09999833	0.00000000	19.21752000	-34.19045000
31.29999832	0.00000000	8.04626000	-19.42052000
31.49999831	0.00000000	-5.90551100	-1.66707700
31.69999829	0.00000000	-19.44513000	15.28666000
31.89999828	0.00000000	-29.91511000	27.23302000
32.09999827	0.00000000	-35.35310000	31.45915000
32.29999826	0.00000000	-34.65797000	26.85777000
32.49999825	0.00000000	-28.83858000	14.59153000
32.69999824	0.00000000	-19.20522000	-1.66707700
32.89999822	0.00000000	-7.62795300	-18.81152000
33.09999821	0.00000000	2.42987200	-34.60876000
33.29999820	0.00000000	9.44881800	-45.33710000
33.49999819	0.00000000	12.14321000	-47.66855000
33.69999818	0.00000000	9.86712600	-41.62155000
33.89999816	0.00000000	3.72170300	-29.21998000
34.09999815	0.00000000	-4.74286400	-13.37352000
34.29999814	0.00000000	-13.25664000	3.25418300
34.49999813	0.00000000	-19.86343000	16.73228000
34.69999812	0.00000000	-23.72047000	24.11417000
34.89999810	0.00000000	-23.67741000	24.16338000
35.09999809	0.00000000	-19.48819000	17.23671000
35.29999808	0.00000000	-12.64764000	5.25344500
35.49999807	0.00000000	-5.71481200	-9.43036400
35.69999806	0.00000000	-0.64591530	-23.68971000
35.89999805	0.00000000	2.05462600	-34.05511000
36.09999803	0.00000000	1.67938000	-37.95522000
36.29999802	0.00000000	-1.75935000	-34.51648000
36.49999801	0.00000000	-6.74212600	-25.35679000
36.69999800	0.00000000	-12.13706000	-13.04749000
36.89999799	0.00000000	-16.36934000	-1.10728300
37.09999797	0.00000000	-18.32554000	7.81250000
37.29999796	0.00000000	-17.90723000	11.99557000
37.49999795	0.00000000	-14.83760000	10.13164000
37.69999794	0.00000000	-9.86097400	2.84202700
37.89999793	0.00000000	-4.87819900	-7.10506800
38.09999791	0.00000000	-0.97194880	-17.46432000
38.29999790	0.00000000	0.93503930	-24.66781000
38.49999789	0.00000000	0.60900590	-26.29183000
38.69999788	0.00000000	-1.75935000	-22.48400000
38.89999787	0.00000000	-5.57947800	-14.81299000
39.09999786	0.00000000	-10.23007000	-5.24729300
39.29999784	0.00000000	-14.09326000	3.16806100
39.49999783	0.00000000	-16.87992000	7.76943800
39.69999782	0.00000000	-18.37475000	7.34498000
39.89999781	0.00000000	-17.99951000	1.63016700
40.09999780	0.00000000	-15.67421000	-7.56643700
40.29999778	0.00000000	-12.18012000	-17.14444000
40.49999777	0.00000000	-7.90477300	-24.80315000
40.69999776	0.00000000	-3.67249000	-27.87278000
40.89999775	0.00000000	-0.55364170	-25.59670000
41.09999774	0.00000000	1.02731300	-19.04527000
41.29999772	0.00000000	0.98425190	-9.43036400
41.49999771	0.00000000	-0.92888770	0.51673230
41.69999770	0.00000000	-4.41067900	7.81250000
41.89999769	0.00000000	-8.28001900	10.50689000
42.09999768	0.00000000	-12.18012000	7.89862200
42.29999767	0.00000000	-15.25591000	1.39640700
42.49999765	0.00000000	-16.83686000	-6.72982200
42.69999764	0.00000000	-16.83686000	-15.18824000
42.89999763	0.00000000	-15.29897000	-21.73966000
43.09999762	0.00000000	-12.64764000	-24.48326000
43.29999761	0.00000000	-9.90403500	-23.73892000
43.49999759	0.00000000	-7.57258800	-19.50664000
43.69999758	0.00000000	-5.62869100	-13.00443000
43.89999757	0.00000000	-4.83513700	-6.48991100
44.09999756	0.00000000	-4.74286400	-1.43946800
44.29999755	0.00000000	-4.78592500	0.88582670
44.49999753	0.00000000	-5.16117100	0.60285430
44.69999752	0.00000000	-5.90551100	-1.71013800
44.89999751	0.00000000	-6.32381900	-5.15501900
45.09999750	0.00000000	-6.74212600	-9.05511800
45.29999749	0.00000000	-7.57258800	-12.49385000
45.49999748	0.00000000	-8.79060000	-14.81299000
45.69999746	0.00000000	-11.10974000	-15.23130000
45.89999745	0.00000000	-13.81028000	-14.11786000
46.09999744	0.00000000	-16.14173000	-12.21087000
46.29999743	0.00000000	-18.04257000	-9.89173200
46.49999742	0.00000000	-18.32554000	-7.93553100
46.69999740	0.00000000	-16.36934000	-6.36072800
46.89999739	0.00000000	-12.13706000	-5.24729300
47.09999738	0.00000000	-6.69906400	-5.24729300
47.29999737	0.00000000	-1.24877000	-6.40378900
47.49999736	0.00000000	3.72170300	-8.31077700
47.69999734	0.00000000	6.37303100	-10.58686000
47.89999733	0.00000000	5.59178100	-12.16166000
48.09999732	0.00000000	1.67938000	-13.00443000
48.29999731	0.00000000	-5.29650500	-13.74262000
48.49999730	0.00000000	-13.76107000	-13.65650000
48.69999729	0.00000000	-21.44439000	-12.11860000
48.89999727	0.00000000	-26.46407000	-9.47342500
49.09999726	0.00000000	-27.21457000	-6.72982200
49.29999725	0.00000000	-23.72047000	-4.40452700
49.49999724	0.00000000	-16.36934000	-2.50369100
49.69999723	0.00000000	-6.79133800	-2.17150600
49.89999721	0.00000000	2.09768700	-3.70939900
50.09999720	0.00000000	8.28617100	-6.77903500
50.29999719	0.00000000	10.56225000	-10.62992000
50.49999718	0.00000000	7.86786400	-14.11786000
50.69999717	0.00000000	0.93503930	-16.81225000
50.89999715	0.00000000	-8.28001900	-17.92569000
51.09999714	0.00000000	-17.48893000	-16.76919000
51.29999713	0.00000000	-23.67741000	-13.69956000
51.49999712	0.00000000	-25.67667000	-9.47342500
51.69999711	0.00000000	-23.72047000	-5.24729300
51.89999710	0.00000000	-17.95029000	-2.12844500
52.09999708	0.00000000	-9.90403500	-0.59670270
52.29999707	0.00000000	-2.22687000	-0.97194880
52.49999706	0.00000000	3.16806100	-3.29109200
52.69999705	0.00000000	4.70595500	-6.72982200
52.89999704	0.00000000	2.09768700	-10.62992000
53.09999702	0.00000000	-3.29724400	-14.07480000
53.29999701	0.00000000	-9.86097400	-16.35089000
53.49999700	0.00000000	-16.36934000	-16.35089000
53.69999699	0.00000000	-20.55856000	-14.11786000
53.89999698	0.00000000	-20.97687000	-11.09744000
54.09999696	0.00000000	-17.95029000	-8.35383800
54.29999695	0.00000000	-12.55536000	-6.40378900
54.49999694	0.00000000	-6.41609200	-5.29035400
54.69999693	0.00000000	-1.02116100	-5.66560000
54.89999692	0.00000000	2.00541300	-7.51722400
55.09999691	0.00000000	1.67938000	-9.38115100
55.29999689	0.00000000	-1.75935000	-10.58686000
55.49999688	0.00000000	-6.69906400	-10.95595000
55.69999687	0.00000000	-11.76181000	-10.53765000
55.89999686	0.00000000	-15.63115000	-9.00590400
56.09999685	0.00000000	-17.95029000	-6.77903500
56.29999683	0.00000000	-17.90723000	-5.24729300
56.49999682	0.00000000	-15.25591000	-4.87204700
56.69999681	0.00000000	-11.02362000	-5.70866100
56.89999680	0.00000000	-6.41609200	-8.40305000
57.09999679	0.00000000	-2.55290300	-12.16166000
57.29999677	0.00000000	-0.64591530	-15.27436000
57.49999676	0.00000000	-1.02116100	-17.18750000
57.69999675	0.00000000	-3.67249000	-17.50738000
57.89999674	0.00000000	-7.43725300	-15.14518000
58.09999673	0.00000000	-10.55610000	-10.53765000
58.29999672	0.00000000	-12.55536000	-4.82898600
58.49999670	0.00000000	-13.71801000	0.18454720
58.69999669	0.00000000	-13.67495000	2.88508800
58.89999668	0.00000000	-12.18012000	3.21112200
59.09999667	0.00000000	-9.90403500	0.09842519
59.29999666	0.00000000	-7.99704600	-6.02854300
59.49999664	0.00000000	-6.79133800	-12.96137000
59.69999663	0.00000000	-6.41609200	-19.50664000
59.89999662	0.00000000	-6.74212600	-23.68971000
60.09999661	0.00000000	-7.52952700	-24.10802000
60.29999660	0.00000000	-8.28001900	-20.99532000
60.49999658	0.00000000	-9.06742000	-14.81299000
60.69999657	0.00000000	-9.44266700	-6.72982200
60.89999656	0.00000000	-9.44266700	0.89197830
61.09999655	0.00000000	-9.06742000	5.94857300
61.29999654	0.00000000	-8.32308000	7.11122000
61.49999653	0.00000000	-7.94783400	4.78592500
61.69999651	0.00000000	-7.94783400	-1.02116100
61.89999650	0.00000000	-8.37229300	-9.05511800
62.09999649	0.00000000	-9.48572700	-16.81225000
62.29999648	0.00000000	-10.64838000	-22.99459000
62.49999647	0.00000000	-11.44193000	-26.42716000
62.69999645	0.00000000	-12.22933000	-25.59670000
62.89999644	0.00000000	-12.51230000	-20.62008000
63.09999643	0.00000000	-11.76181000	-12.58612000
63.29999642	0.00000000	-9.86097400	-4.17691900
63.49999641	0.00000000	-7.94783400	2.09153500
63.69999639	0.00000000	-6.36687900	5.62253900
63.89999638	0.00000000	-5.21038300	6.36687900
64.09999637	0.00000000	-4.87819900	3.62942900
64.29999636	0.00000000	-5.62869100	-2.08538400
64.49999635	0.00000000	-7.52952700	-9.00590400
64.69999634	0.00000000	-9.44266700	-15.23130000
64.89999632	0.00000000	-11.06668000	-19.88189000
65.09999631	0.00000000	-12.55536000	-22.20103000
65.29999630	0.00000000	-13.29970000	-21.46284000
65.49999629	0.00000000	-12.51230000	-18.43627000
65.69999628	0.00000000	-10.64838000	-14.16708000
65.89999626	0.00000000	-8.37229300	-9.51648500
66.09999625	0.00000000	-6.83439900	-5.24729300
66.29999624	0.00000000	-6.41609200	-2.12844500
66.49999623	0.00000000	-6.79133800	-0.51058070
66.69999622	0.00000000	-7.99704600	-0.13533460
66.89999620	0.00000000	-9.86097400	-0.92888770
67.09999619	0.00000000	-11.76181000	-3.24803100
67.29999618	0.00000000	-12.51230000	-6.31151500
67.49999617	0.00000000	-12.13706000	-9.47342500
67.69999616	0.00000000	-10.55610000	-12.53691000
67.89999615	0.00000000	-7.90477300	-14.94833000
68.09999613	0.00000000	-5.25344500	-16.53543000
68.29999612	0.00000000	-3.71555100	-18.01796000
68.49999611	0.00000000	-3.71555100	-17.92569000
68.69999610	0.00000000	-5.25344500	-15.64960000
68.89999609	0.00000000	-7.99704600	-12.21087000
69.09999607	0.00000000	-11.48499000	-8.26771600
69.29999606	0.00000000	-15.29897000	-4.36146600
69.49999605	0.00000000	-17.95029000	-0.51058070
69.69999604	0.00000000	-18.32554000	2.09153500
69.89999603	0.00000000	-16.41855000	2.14074800
70.09999601	0.00000000	-12.51230000	-0.17839570
70.29999600	0.00000000	-7.52952700	-4.04158400
70.49999599	0.00000000	-2.46678100	-9.09817800
70.69999598	0.00000000	1.35334600	-14.07480000
70.89999597	0.00000000	3.26033400	-17.97490000
71.09999596	0.00000000	2.05462600	-19.88189000
71.29999594	0.00000000	-2.13459600	-19.50664000
71.49999593	0.00000000	-7.90477300	-16.81225000
71.69999592	0.00000000	-13.76107000	-12.58612000
71.89999591	0.00000000	-18.79306000	-7.93553100
72.09999590	0.00000000	-22.23179000	-3.70939900
72.29999588	0.00000000	-22.55782000	-1.01501000
72.49999587	0.00000000	-19.53125000	-0.59670270
72.69999586	0.00000000	-14.13632000	-2.08538400
72.89999585	0.00000000	-7.99704600	-4.77977300
73.09999584	0.00000000	-2.55290300	-7.84940900
73.29999582	0.00000000	0.93503930	-10.58686000
73.49999581	0.00000000	2.14074800	-12.49385000
73.69999580	0.00000000	0.98425190	-13.28125000
73.89999579	0.00000000	-2.13459600	-12.53691000
74.09999578	0.00000000	-6.74212600	-11.04823000
74.29999577	0.00000000	-11.76181000	-9.51648500
74.49999575	0.00000000	-15.63115000	-8.40305000
74.69999574	0.00000000	-17.95029000	-8.40305000
74.89999573	0.00000000	-17.95029000	-9.51648500
75.09999572	0.00000000	-15.71727000	-11.00517000
75.29999571	0.00000000	-12.64764000	-12.11860000
75.49999569	0.00000000	-9.52879000	-12.07554000
75.69999568	0.00000000	-6.79133800	-10.53765000
75.89999567	0.00000000	-4.87819900	-7.84940900
76.09999566	0.00000000	-4.09079700	-4.77977300
76.29999565	0.00000000	-4.83513700	-2.08538400
76.49999563	0.00000000	-6.32381900	-0.63976370
76.69999562	0.00000000	-7.90477300	-1.39025600
76.89999561	0.00000000	-9.39345400	-4.49680100
77.09999560	0.00000000	-10.18086000	-8.72908400
77.29999559	0.00000000	-9.86097400	-13.79183000
77.49999558	0.00000000	-9.52879000	-18.30093000
77.69999556	0.00000000	-9.48572700	-20.66929000
77.89999555	0.00000000	-9.52879000	-20.25714000
78.09999554	0.00000000	-9.90403500	-17.59966000
78.29999553	0.00000000	-10.69144000	-12.91215000
78.49999552	0.00000000	-11.44193000	-7.56028500
78.69999550	0.00000000	-12.18012000	-2.46063000
78.89999549	0.00000000	-12.09400000	1.35334600
79.09999548	0.00000000	-10.59916000	3.25418300
79.29999547	0.00000000	-8.32308000	2.09768700
79.49999546	0.00000000	-6.36687900	-1.71013800
79.69999544	0.00000000	-4.78592500	-6.72982200
79.89999543	0.00000000	-3.71555100	-12.16166000
80.09999542	0.00000000	-4.09079700	-16.76919000
80.29999541	0.00000000	-5.99163300	-19.50664000
80.49999540	0.00000000	-8.32308000	-19.93110000
80.69999539	0.00000000	-11.06668000	-18.39321000
80.89999537	0.00000000	-13.71801000	-15.27436000
81.09999536	0.00000000	-15.21284000	-11.04823000
81.29999535	0.00000000	-14.83760000	-6.77903500
81.49999534	0.00000000	-12.60458000	-3.29109200
81.69999533	0.00000000	-9.90403500	-0.92888770
81.89999531	0.00000000	-7.52952700	-0.17839570
82.09999530	0.00000000	-5.21038300	-0.87967510
82.29999529	0.00000000	-3.71555100	-2.82972400
82.49999528	0.00000000	-3.71555100	-5.15501900
82.69999527	0.00000000	-5.21038300	-7.93553100
82.89999525	0.00000000	-7.48646600	-11.04823000
83.09999524	0.00000000	-9.44266700	-14.11786000
83.29999523	0.00000000	-11.02362000	-16.43701000
83.49999522	0.00000000	-12.13706000	-17.23056000
83.69999521	0.00000000	-12.18012000	-16.85531000
83.89999520	0.00000000	-11.39887000	-15.27436000
84.09999518	0.00000000	-10.31619000	-12.53691000
84.29999517	0.00000000	-9.11663300	-9.05511800
84.49999516	0.00000000	-8.73523500	-5.19808000
84.69999515	0.00000000	-8.32308000	-2.12844500
84.89999514	0.00000000	-8.37229300	-0.55364170
85.09999512	0.00000000	-9.01820900	-0.55364170
85.29999511	0.00000000	-9.01820900	-2.17765700
85.49999510	0.00000000	-8.32308000	-5.61638700
85.69999509	0.00000000	-7.94783400	-10.25467000
85.89999508	0.00000000	-7.90477300	-14.49311000
86.09999506	0.00000000	-7.90477300	-17.97490000
86.29999505	0.00000000	-7.94783400	-19.46358000
86.49999504	0.00000000	-8.37229300	-18.35015000
86.69999503	0.00000000	-9.52879000	-15.27436000
86.89999502	0.00000000	-11.02362000	-11.00517000
87.09999501	0.00000000	-12.18012000	-6.35457700
87.29999499	0.00000000	-12.55536000	-2.12844500
87.49999498	0.00000000	-12.18012000	0.51673230
87.69999497	0.00000000	-11.02362000	0.51673230
87.89999496	0.00000000	-9.48572700	-2.08538400
88.09999495	0.00000000	-7.90477300	-5.98548200
88.29999493	0.00000000	-6.36687900	-10.21776000
88.49999492	0.00000000	-5.25344500	-14.48696000
88.69999491	0.00000000	-5.25344500	-17.14444000
88.89999490	0.00000000	-6.36687900	-17.92569000
89.09999489	0.00000000	-7.90477300	-16.35089000
89.29999487	0.00000000	-9.48572700	-12.53691000
89.49999486	0.00000000	-11.02362000	-7.93553100
89.69999485	0.00000000	-12.13706000	-3.70939900
89.89999484	0.00000000	-12.18012000	-1.01501000
90.09999483	0.00000000	-11.44193000	-0.63976370
90.29999482	0.00000000	-10.64838000	-2.54675200
90.49999480	0.00000000	-9.48572700	-6.40378900
90.69999479	0.00000000	-8.37229300	-11.00517000
90.89999478	0.00000000	-7.94783400	-15.23130000
91.09999477	0.00000000	-7.90477300	-17.88263000
91.29999476	0.00000000	-7.94783400	-17.88263000
91.49999474	0.00000000	-8.28001900	-15.23130000
91.69999473	0.00000000	-8.69217500	-11.00517000
91.89999472	0.00000000	-8.65526600	-6.35457700
92.09999471	0.00000000	-8.73523500	-2.17765700
92.29999470	0.00000000	-8.69832600	0.09842519
92.49999468	0.00000000	-9.11048200	-0.64591530
92.69999467	0.00000000	-9.48572700	-3.62327700
92.89999466	0.00000000	-9.95324800	-7.56028500
93.09999465	0.00000000	-11.02362000	-11.79872000
93.29999464	0.00000000	-11.81102000	-15.97564000
93.49999463	0.00000000	-11.81717000	-17.83957000
93.69999461	0.00000000	-11.81102000	-16.76919000
93.89999460	0.00000000	-10.97441000	-13.69956000
94.09999459	0.00000000	-9.48572700	-9.51648500
94.29999458	0.00000000	-7.90477300	-5.61638700
94.49999457	0.00000000	-6.32381900	-2.91584600
94.69999455	0.00000000	-4.83513700	-1.43331700
94.89999454	0.00000000	-4.09079700	-2.59596400
95.09999453	0.00000000	-4.87819900	-5.98548200
95.29999452	0.00000000	-6.79133800	-9.84867000
95.49999451	0.00000000	-9.52879000	-13.69956000
95.69999449	0.00000000	-12.55536000	-16.35089000
95.89999448	0.00000000	-14.92372000	-16.76919000
96.09999447	0.00000000	-16.04946000	-15.23130000
96.29999446	0.00000000	-16.04331000	-12.16166000
96.49999445	0.00000000	-14.09326000	-8.35998900
96.69999444	0.00000000	-11.06668000	-5.29035400
96.89999442	0.00000000	-7.90477300	-3.70939900
97.09999441	0.00000000	-4.78592500	-3.70939900
97.29999440	0.00000000	-2.13459600	-5.24729300
97.49999439	0.00000000	-0.97194880	-7.89247000
97.69999438	0.00000000	-1.75935000	-10.58686000
97.89999436	0.00000000	-4.04773600	-12.49385000
98.09999435	0.00000000	-7.57258800	-13.32431000
98.29999434	0.00000000	-11.39887000	-12.96137000
98.49999433	0.00000000	-14.88066000	-12.21087000
98.69999432	0.00000000	-16.83686000	-11.00517000
98.89999430	0.00000000	-17.25517000	-9.51648500
99.09999429	0.00000000	-16.46161000	-8.35998900
99.29999428	0.00000000	-14.09326000	-7.93553100
99.49999427	0.00000000	-10.64838000	-7.89247000
99.69999426	0.00000000	-6.79133800	-7.89247000
99.89999425	0.00000000	-3.71555100	-7.89247000
100.09999423	0.00000000	-2.13459600	-7.89247000
100.29999422	0.00000000	-2.09153500	-7.84940900
100.49999421	0.00000000	-3.25418300	-7.47416300
100.69999420	0.00000000	-5.21038300	-6.77903500
100.89999419	0.00000000	-7.94783400	-6.82209600
101.09999417	0.00000000	-11.02362000	-7.93553100
101.29999416	0.00000000	-13.71801000	-9.51648500
101.49999415	0.00000000	-15.25591000	-11.42347000
101.69999414	0.00000000	-15.29897000	-13.32431000
101.89999413	0.00000000	-14.18553000	-14.03174000
102.09999411	0.00000000	-12.60458000	-13.32431000
102.29999410	0.00000000	-10.64838000	-11.38041000
102.49999409	0.00000000	-8.32308000	-9.05511800
102.69999408	0.00000000	-6.41609200	-6.31151500
102.89999407	0.00000000	-5.21038300	-3.70939900
103.09999406	0.00000000	-4.83513700	-2.54675200
103.29999404	0.00000000	-5.25344500	-3.29109200
103.49999403	0.00000000	-6.79133800	-5.19808000
103.69999402	0.00000000	-9.06742000	-7.93553100
103.89999401	0.00000000	-11.02362000	-11.00517000
104.09999400	0.00000000	-12.60458000	-13.69956000
104.29999398	0.00000000	-13.71801000	-15.23130000
104.49999397	0.00000000	-13.71801000	-15.23130000
104.69999396	0.00000000	-12.60458000	-13.69956000
104.89999395	0.00000000	-11.06668000	-11.00517000
105.09999394	0.00000000	-9.48572700	-7.93553100
105.29999392	0.00000000	-7.94783400	-5.24729300
105.49999391	0.00000000	-6.83439900	-3.70939900
105.69999390	0.00000000	-6.79133800	-3.70939900
105.89999389	0.00000000	-7.52952700	-5.24729300
106.09999388	0.00000000	-8.32308000	-7.89247000
106.29999387	0.00000000	-9.48572700	-10.53765000
106.49999385	0.00000000	-10.59916000	-12.16166000
106.69999384	0.00000000	-11.02362000	-12.96137000
106.89999383	0.00000000	-11.02362000	-13.28125000
107.09999382	0.00000000	-10.59916000	-12.11860000
107.29999381	0.00000000	-9.48572700	-9.89173200
107.49999379	0.00000000	-8.37229300	-7.98474400
107.69999378	0.00000000	-7.94783400	-6.77903500
107.89999377	0.00000000	-7.94783400	-6.44685000
108.09999376	0.00000000	-8.37229300	-7.14812900
108.29999375	0.00000000	-9.48572700	-8.67987200
108.49999374	0.00000000	-10.59916000	-9.84867000
108.69999372	0.00000000	-11.06668000	-11.04823000
108.89999371	0.00000000	-11.44193000	-12.11860000
109.09999370	0.00000000	-11.76181000	-12.11860000
109.29999369	0.00000000	-10.97441000	-11.00517000
109.49999368	0.00000000	-9.52879000	-9.47342500
109.69999366	0.00000000	-8.32308000	-7.93553100
109.89999365	0.00000000	-7.52952700	-6.77903500
110.09999364	0.00000000	-6.79133800	-6.35457700
110.29999363	0.00000000	-6.83439900	-6.35457700
110.49999362	0.00000000	-7.94783400	-6.77903500
110.69999360	0.00000000	-9.44266700	-7.93553100
110.89999359	0.00000000	-10.59916000	-9.47342500
111.09999358	0.00000000	-11.02362000	-11.00517000
111.29999357	0.00000000	-11.06668000	-12.11860000
111.49999356	0.00000000	-11.02362000	-12.16166000
111.69999355	0.00000000	-10.64838000	-11.42347000
111.89999353	0.00000000	-9.86097400	-10.62992000
112.09999352	0.00000000	-9.11048200	-9.47342500
112.29999351	0.00000000	-8.32308000	-8.35998900
112.49999350	0.00000000	-7.94783400	-7.93553100
112.69999349	0.00000000	-7.94783400	-7.89247000
112.89999347	0.00000000	-8.32308000	-7.93553100
113.09999346	0.00000000	-9.11048200	-8.31077700
113.29999345	0.00000000	-9.81791200	-9.05511800
113.49999344	0.00000000	-10.23007000	-9.43036400
113.69999343	0.00000000	-9.86097400	-9.47342500
113.89999341	0.00000000	-9.52879000	-9.47342500
114.09999340	0.00000000	-9.48572700	-9.51648500
114.29999339	0.00000000	-9.48572700	-9.89173200
114.49999338	0.00000000	-9.48572700	-10.62992000
114.69999337	0.00000000	-9.48572700	-11.00517000
114.89999336	0.00000000	-9.48572700	-11.04823000
115.09999334	0.00000000	-9.48572700	-11.04823000
115.29999333	0.00000000	-9.48572700	-11.00517000
115.49999332	0.00000000	-9.48572700	-10.62992000
115.69999331	0.00000000	-9.48572700	-9.89173200
115.89999330	0.00000000	-9.48572700	-9.47342500
116.09999328	0.00000000	-9.48572700	-9.05511800
116.29999327	0.00000000	-9.52879000	-8.26771600
116.49999326	0.00000000	-9.86097400	-7.56028500
116.69999325	0.00000000	-10.23007000	-7.14812900
116.89999324	0.00000000	-9.86097400	-7.56028500
117.09999322	0.00000000	-9.52879000	-8.26771600
117.29999321	0.00000000	-9.44266700	-9.09817800
117.49999320	0.00000000	-9.06742000	-9.84867000
117.69999319	0.00000000	-8.32308000	-10.62992000
117.89999318	0.00000000	-7.94783400	-11.00517000
118.09999317	0.00000000	-7.90477300	-11.04823000
118.29999315	0.00000000	-7.94783400	-11.00517000
118.49999314	0.00000000	-8.37229300	-10.62992000
118.69999313	0.00000000	-9.48572700	-9.84867000
118.89999312	0.00000000	-10.64838000	-9.09817800
119.09999311	0.00000000	-11.44193000	-8.31077700
119.29999309	0.00000000	-12.18012000	-7.93553100
119.49999308	0.00000000	-12.18012000	-7.89247000
119.69999307	0.00000000	-11.44193000	-7.89247000
119.89999306	0.00000000	-10.64838000	-7.89247000
120.09999305	0.00000000	-9.44266700	-7.93553100
120.29999303	0.00000000	-7.94783400	-8.31077700
120.49999302	0.00000000	-6.79133800	-9.09817800
120.69999301	0.00000000	-6.36687900	-9.84867000
120.89999300	0.00000000	-6.36687900	-10.62992000
121.09999299	0.00000000	-6.79133800	-11.00517000
121.29999298	0.00000000	-7.94783400	-11.04823000
121.49999296	0.00000000	-9.44266700	-11.00517000
121.69999295	0.00000000	-10.64838000	-10.62992000
121.89999294	0.00000000	-11.44193000	-9.89173200
122.09999293	0.00000000	-12.18012000	-9.47342500
122.29999292	0.00000000	-12.18012000	-9.05511800
122.49999290	0.00000000	-11.44193000	-8.31077700
122.69999289	0.00000000	-10.64838000	-7.93553100
122.89999288	0.00000000	-9.48572700	-7.89247000
123.09999287	0.00000000	-8.37229300	-7.89247000
123.29999286	0.00000000	-7.94783400	-7.89247000
123.49999284	0.00000000	-7.86171200	-7.93553100
123.69999283	0.00000000	-7.52952700	-8.35998900
123.89999282	0.00000000	-7.20964500	-9.47342500
124.09999281	0.00000000	-7.94783400	-10.58686000
124.29999280	0.00000000	-9.06742000	-10.95595000
124.49999279	0.00000000	-9.86097400	-10.62992000
124.69999277	0.00000000	-10.64838000	-9.89173200
124.89999276	0.00000000	-11.02362000	-9.51648500
125.09999275	0.00000000	-11.06668000	-9.47342500
125.29999274	0.00000000	-11.06668000	-9.43036400
125.49999273	0.00000000	-11.02362000	-9.05511800
125.69999271	0.00000000	-10.64838000	-8.31077700
125.89999270	0.00000000	-9.86097400	-7.93553100
126.09999269	0.00000000	-9.11048200	-7.93553100
126.29999268	0.00000000	-8.28001900	-8.26771600
126.49999267	0.00000000	-7.57258800	-8.67987200
126.69999265	0.00000000	-7.16043300	-8.68602300
126.89999264	0.00000000	-7.57258800	-9.09817800
127.09999263	0.00000000	-8.32308000	-9.43036400
127.29999262	0.00000000	-9.52879000	-9.51648500
127.49999261	0.00000000	-11.02362000	-9.84867000
127.69999260	0.00000000	-12.13706000	-10.21161000
127.89999258	0.00000000	-12.18012000	-9.84867000
128.09999257	0.00000000	-11.44193000	-9.51648500
128.29999256	0.00000000	-10.64838000	-9.47342500
128.49999255	0.00000000	-9.48572700	-9.43036400
128.69999254	0.00000000	-8.37229300	-9.05511800
128.89999252	0.00000000	-7.90477300	-8.35998900
129.09999251	0.00000000	-7.52952700	-8.35998900
129.29999250	0.00000000	-7.20964500	-9.05511800
129.49999249	0.00000000	-7.94783400	-9.43036400
129.69999248	0.00000000	-9.06742000	-9.47342500
129.89999246	0.00000000	-9.86097400	-9.47342500
130.09999245	0.00000000	-10.64838000	-9.47342500
130.29999244	0.00000000	-11.02362000	-9.47342500
130.49999243	0.00000000	-11.06668000	-9.47342500
130.69999242	0.00000000	-11.02362000	-9.43036400
130.89999241	0.00000000	-10.59916000	-9.09817800
131.09999239	0.00000000	-9.48572700	-8.72908400
131.29999238	0.00000000	-8.37229300	-9.09817800
131.49999237	0.00000000	-7.94783400	-9.43036400
131.69999236	0.00000000	-7.94783400	-9.51648500
131.89999235	0.00000000	-8.32308000	-9.89173200
132.09999233	0.00000000	-9.11048200	-10.62992000
132.29999232	0.00000000	-9.86097400	-11.00517000
132.49999231	0.00000000	-10.64838000	-11.00517000
132.69999230	0.00000000	-10.97441000	-10.62992000
132.89999229	0.00000000	-10.64838000	-9.84867000
133.09999227	0.00000000	-9.90403500	-9.09817800
133.29999226	0.00000000	-9.48572700	-8.31077700
133.49999225	0.00000000	-9.11048200	-7.93553100
133.69999224	0.00000000	-8.74138700	-7.89247000
133.89999223	0.00000000	-9.11048200	-7.93553100
134.09999222	0.00000000	-9.44266700	-8.31077700
134.29999220	0.00000000	-9.48572700	-9.09817800
134.49999219	0.00000000	-9.48572700	-9.84867000
134.69999218	0.00000000	-9.48572700	-10.62992000
134.89999217	0.00000000	-9.48572700	-11.00517000
135.09999216	0.00000000	-9.48572700	-11.04823000
135.29999214	0.00000000	-9.48572700	-11.00517000
135.49999213	0.00000000	-9.48572700	-10.62992000
135.69999212	0.00000000	-9.48572700	-9.84867000
135.89999211	0.00000000	-9.48572700	-9.09817800
136.09999210	0.00000000	-9.52879000	-8.31077700
136.29999208	0.00000000	-9.90403500	-7.93553100
136.49999207	0.00000000	-10.64838000	-7.89247000
136.69999206	0.00000000	-11.02362000	-7.93553100
136.89999205	0.00000000	-11.02362000	-8.31077700
137.09999204	0.00000000	-10.64838000	-9.05511800
137.29999203	0.00000000	-9.86097400	-9.43036400
137.49999201	0.00000000	-9.11048200	-9.51648500
137.69999200	0.00000000	-8.32308000	-9.89173200
137.89999199	0.00000000	-7.94783400	-10.62992000
138.09999198	0.00000000	-7.94783400	-11.00517000
138.29999197	0.00000000	-8.32308000	-11.00517000
138.49999195	0.00000000	-9.06742000	-10.62992000
138.69999194	0.00000000	-9.48572700	-9.84867000
138.89999193	0.00000000	-9.90403500	-9.14124000
139.09999192	0.00000000	-10.64838000	-8.68602300
139.29999191	0.00000000	-11.02362000	-8.67987200
139.49999189	0.00000000	-11.02362000	-8.26771600
139.69999188	0.00000000	-10.64838000	-7.93553100
139.89999187	0.00000000	-9.86097400	-7.93553100
140.09999186	0.00000000	-9.11048200	-8.31077700
140.29999185	0.00000000	-8.37229300	-9.09817800
140.49999184	0.00000000	-8.37229300	-9.84867000
140.69999182	0.00000000	-9.06742000	-10.62992000
140.89999181	0.00000000	-9.44266700	-11.00517000
141.09999180	0.00000000	-9.52879000	-11.04823000
141.29999179	0.00000000	-9.90403500	-11.00517000
141.49999178	0.00000000	-10.59916000	-10.58686000
141.69999176	0.00000000	-10.59916000	-9.47342500
141.89999175	0.00000000	-9.90403500	-8.35998900
142.09999174	0.00000000	-9.52879000	-7.89247000
142.29999173	0.00000000	-9.48572700	-7.51722400
142.49999172	0.00000000	-9.48572700	-7.14812900
142.69999170	0.00000000	-9.48572700	-7.56028500
142.89999169	0.00000000	-9.48572700	-8.26771600
143.09999168	0.00000000	-9.48572700	-9.09817800
143.29999167	0.00000000	-9.52879000	-9.84867000
143.49999166	0.00000000	-9.90403500	-10.62992000
143.69999165	0.00000000	-10.59916000	-11.00517000
143.89999163	0.00000000	-10.59916000	-11.00517000
144.09999162	0.00000000	-9.90403500	-10.62992000
144.29999161	0.00000000	-9.52879000	-9.84867000
144.49999160	0.00000000	-9.48572700	-9.09817800
144.69999159	0.00000000	-9.44266700	-8.31077700
144.89999157	0.00000000	-9.11048200	-7.93553100
145.09999156	0.00000000	-8.74138700	-7.89247000
145.29999155	0.00000000	-9.11048200	-7.93553100
145.49999154	0.00000000	-9.44266700	-8.31077700
145.69999153	0.00000000	-9.52879000	-9.05511800
145.89999151	0.00000000	-9.90403500	-9.47342500
146.09999150	0.00000000	-10.64838000	-9.89173200
146.29999149	0.00000000	-10.97441000	-10.58686000
146.49999148	0.00000000	-10.64838000	-10.62992000
146.69999147	0.00000000	-9.90403500	-10.26698000
146.89999146	0.00000000	-9.52879000	-10.25467000
147.09999144	0.00000000	-9.44266700	-9.79945900
147.29999143	0.00000000	-9.11048200	-9.09817800
147.49999142	0.00000000	-8.74138700	-8.31077700
147.69999141	0.00000000	-9.11048200	-7.93553100
147.89999140	0.00000000	-9.48572700	-7.89247000
148.09999138	0.00000000	-9.86097400	-7.89247000
148.29999137	0.00000000	-10.27313000	-7.93553100
148.49999136	0.00000000	-10.27928000	-8.31077700
148.69999135	0.00000000	-10.64838000	-9.05511800
148.89999134	0.00000000	-10.59916000	-9.47342500
149.09999132	0.00000000	-9.90403500	-9.84867000
149.29999131	0.00000000	-9.52879000	-10.25467000
149.49999130	0.00000000	-9.48572700	-10.21776000
149.69999129	0.00000000	-9.48572700	-10.25467000
149.89999128	0.00000000	-9.48572700	-9.84867000
150.09999127	0.00000000	-9.48572700	-9.47342500
150.29999125	0.00000000	-9.48572700	-9.05511800
150.49999124	0.00000000	-9.48572700	-8.31077700
150.69999123	0.00000000	-9.52879000	-7.93553100
150.89999122	0.00000000	-9.90403500	-7.93553100
151.09999121	0.00000000	-10.64838000	-8.31077700
151.29999119	0.00000000	-11.02362000	-9.05511800
151.49999118	0.00000000	-11.02362000	-9.43036400
151.69999117	0.00000000	-10.64838000	-9.47342500
151.89999116	0.00000000	-9.90403500	-9.51648500
152.09999115	0.00000000	-9.52879000	-9.84867000
152.29999113	0.00000000	-9.48572700	-10.21161000
152.49999112	0.00000000	-9.48572700	-9.84867000
152.69999111	0.00000000	-9.48572700	-9.51648500
152.89999110	0.00000000	-9.48572700	-9.47342500
153.09999109	0.00000000	-9.48572700	-9.47342500
153.29999108	0.00000000	-9.48572700	-9.51648500
153.49999106	0.00000000	-9.52879000	-9.84867000
153.69999105	0.00000000	-9.90403500	-10.16855000
153.89999104	0.00000000	-10.64838000	-9.47342500
154.09999103	0.00000000	-11.02362000	-8.77829600
154.29999102	0.00000000	-11.06668000	-9.09817800
154.49999100	0.00000000	-11.06668000	-9.43036400
154.69999099	0.00000000	-11.02362000	-9.47342500
154.89999098	0.00000000	-10.64838000	-9.47342500
155.09999097	0.00000000	-9.90403500	-9.47342500
155.29999096	0.00000000	-9.52879000	-9.47342500
155.49999094	0.00000000	-9.48572700	-9.47342500
155.69999093	0.00000000	-9.48572700	-9.47342500
155.89999092	0.00000000	-9.48572700	-9.47342500
156.09999091	0.00000000	-9.48572700	-9.47342500
156.29999090	0.00000000	-9.48572700	-9.43036400
156.49999089	0.00000000	-9.52879000	-9.09817800
156.69999087	0.00000000	-9.90403500	-8.68602300
156.89999086	0.00000000	-10.64838000	-8.67987200
157.09999085	0.00000000	-11.02362000	-8.26771600
157.29999084	0.00000000	-11.06668000	-7.98474400
157.49999083	0.00000000	-11.02362000	-8.31077700
157.69999081	0.00000000	-10.64838000	-9.05511800
157.89999080	0.00000000	-9.90403500	-9.47342500
158.09999079	0.00000000	-9.52879000	-9.89173200
158.29999078	0.00000000	-9.48572700	-10.62992000
158.49999077	0.00000000	-9.48572700	-11.00517000
158.69999075	0.00000000	-9.48572700	-11.00517000
158.89999074	0.00000000	-9.48572700	-10.62992000
159.09999073	0.00000000	-9.48572700	-9.89173200
159.29999072	0.00000000	-9.48572700	-9.47342500
159.49999071	0.00000000	-9.48572700	-9.05511800
159.69999070	0.00000000	-9.48572700	-8.31077700
159.89999068	0.00000000	-9.48572700	-7.93553100
160.09999067	0.00000000	-9.52879000	-7.93553100
160.29999066	0.00000000	-9.90403500	-8.31077700
160.49999065	0.00000000	-10.64838000	-9.05511800
160.69999064	0.00000000	-10.97441000	-9.43036400
160.89999062	0.00000000	-10.64838000	-9.51648500
161.09999061	0.00000000	-9.90403500	-9.84867000
161.29999060	0.00000000	-9.52879000	-10.21161000
161.49999059	0.00000000	-9.48572700	-9.84867000
161.69999058	0.00000000	-9.48572700	-9.51648500
161.89999056	0.00000000	-9.48572700	-9.47342500
162.09999055	0.00000000	-9.48572700	-9.43036400
162.29999054	0.00000000	-9.48572700	-9.05511800
162.49999053	0.00000000	-9.48572700	-8.35998900
162.69999052	0.00000000	-9.48572700	-8.35998900
162.89999051	0.00000000	-9.48572700	-9.05511800
163.09999049	0.00000000	-9.52879000	-9.43036400
163.29999048	0.00000000	-9.90403500	-9.47342500
163.49999047	0.00000000	-10.64838000	-9.47342500
163.69999046	0.00000000	-11.02362000	-9.47342500
163.89999045	0.00000000	-11.06668000	-9.47342500
164.09999043	0.00000000	-11.02362000	-9.47342500
164.29999042	0.00000000	-10.64838000	-9.47342500
164.49999041	0.00000000	-9.90403500	-9.47342500
164.69999040	0.00000000	-9.52879000	-9.47342500
164.89999039	0.00000000	-9.44266700	-9.47342500
165.09999037	0.00000000	-9.11048200	-9.47342500
165.29999036	0.00000000	-8.74138700	-9.47342500
165.49999035	0.00000000	-9.11048200	-9.47342500
165.69999034	0.00000000	-9.44266700	-9.47342500
165.89999033	0.00000000	-9.52879000	-9.47342500
166.09999032	0.00000000	-9.90403500	-9.47342500
166.29999030	0.00000000	-10.64838000	-9.47342500
166.49999029	0.00000000	-11.02362000	-9.47342500
166.69999028	0.00000000	-11.06668000	-9.47342500
166.89999027	0.00000000	-11.02362000	-9.47342500
167.09999026	0.00000000	-10.64838000	-9.47342500
167.29999024	0.00000000	-9.90403500	-9.47342500
167.49999023	0.00000000	-9.52879000	-9.47342500
167.69999022	0.00000000	-9.48572700	-9.47342500
167.89999021	0.00000000	-9.48572700	-9.47342500
168.09999020	0.00000000	-9.48572700	-9.47342500
168.29999018	0.00000000	-9.48572700	-9.47342500
168.49999017	0.00000000	-9.48572700	-9.47342500
168.69999016	0.00000000	-9.52879000	-9.47342500
168.89999015	0.00000000	-9.86097400	-9.47342500
169.09999014	0.00000000	-10.23007000	-9.47342500
169.29999013	0.00000000	-9.90403500	-9.47342500
169.49999011	0.00000000	-9.95324800	-9.47342500
169.69999010	0.00000000	-10.59916000	-9.47342500
169.89999009	0.00000000	-10.59916000	-9.47342500
170.09999008	0.00000000	-9.90403500	-9.47342500
170.29999007	0.00000000	-9.52879000	-9.47342500
170.49999005	0.00000000	-9.48572700	-9.47342500
170.69999004	0.00000000	-9.48572700	-9.47342500
170.89999003	0.00000000	-9.48572700	-9.47342500
171.09999002	0.00000000	-9.48572700	-9.47342500
171.29999001	0.00000000	-9.48572700	-9.47342500
171.49998999	0.00000000	-9.48572700	-9.47342500
171.69998998	0.00000000	-9.48572700	-9.47342500
171.89998997	0.00000000	-9.48572700	-9.47342500
172.09998996	0.00000000	-9.48572700	-9.47342500
172.29998995	0.00000000	-9.48572700	-9.47342500
172.49998994	0.00000000	-9.48572700	-9.47342500
172.69998992	0.00000000	-9.48572700	-9.47342500
172.89998991	0.00000000	-9.48572700	-9.47342500
173.09998990	0.00000000	-9.48572700	-9.47342500
173.29998989	0.00000000	-9.48572700	-9.47342500
173.49998988	0.00000000	-9.48572700	-9.47342500
173.69998986	0.00000000	-9.48572700	-9.47342500
173.89998985	0.00000000	-9.48572700	-9.47342500
174.09998984	0.00000000	-9.48572700	-9.47342500
174.29998983	0.00000000	-9.48572700	-9.47342500
174.49998982	0.00000000	-9.48572700	-9.47342500
174.69998980	0.00000000	-9.48572700	-9.47342500
174.89998979	0.00000000	-9.48572700	-9.47342500
175.09998978	0.00000000	-9.48572700	-9.47342500
175.29998977	0.00000000	-9.48572700	-9.47342500
175.49998976	0.00000000	-9.48572700	-9.47342500
175.69998975	0.00000000	-9.48572700	-9.47342500
175.89998973	0.00000000	-9.48572700	-9.47342500
176.09998972	0.00000000	-9.48572700	-9.47342500
176.29998971	0.00000000	-9.48572700	-9.47342500
176.49998970	0.00000000	-9.48572700	-9.47342500
176.69998969	0.00000000	-9.48572700	-9.47342500
176.89998967	0.00000000	-9.52879000	-9.47342500
177.09998966	0.00000000	-9.86097400	-9.47342500
177.29998965	0.00000000	-10.23007000	-9.47342500
177.49998964	0.00000000	-9.86097400	-9.47342500
177.69998963	0.00000000	-9.52879000	-9.47342500
177.89998961	0.00000000	-9.48572700	-9.47342500
178.09998960	0.00000000	-9.48572700	-9.47342500
178.29998959	0.00000000	-9.48572700	-9.47342500
178.49998958	0.00000000	-9.48572700	-9.47342500
178.69998957	0.00000000	-9.48572700	-9.43036400
178.89998956	0.00000000	-9.48572700	-9.09817800
179.09998954	0.00000000	-9.48572700	-8.72908400
179.29998953	0.00000000	-9.48572700	-9.09817800
179.49998952	0.00000000	-9.48572700	-9.43036400
179.69998951	0.00000000	-9.48572700	-9.51648500
179.89998950	0.00000000	-9.48572700	-9.84867000
180.09998948	0.00000000	-9.48572700	-10.21161000
180.29998947	0.00000000	-9.48572700	-9.84867000
180.49998946	0.00000000	-9.48572700	-9.51648500
180.69998945	0.00000000	-9.48572700	-9.47342500
180.89998944	0.00000000	-9.52879000	-9.47342500
181.09998942	0.00000000	-9.86097400	-9.43036400
181.29998941	0.00000000	-10.27313000	-9.09817800
181.49998940	0.00000000	-10.23622000	-8.68602300
181.69998939	0.00000000	-10.31619000	-8.72293300
181.89998938	0.00000000	-10.23622000	-8.64296200
182.09998937	0.00000000	-10.27313000	-8.72293300
182.29998935	0.00000000	-9.86097400	-8.68602300
182.49998934	0.00000000	-9.52879000	-9.09817800
182.69998933	0.00000000	-9.48572700	-9.43036400
182.89998932	0.00000000	-9.48572700	-9.47342500
183.09998931	0.00000000	-9.48572700	-9.47342500
183.29998929	0.00000000	-9.48572700	-9.47342500
183.49998928	0.00000000	-9.52879000	-9.47342500
183.69998927	0.00000000	-9.86097400	-9.47342500
183.89998926	0.00000000	-10.23007000	-9.43036400
184.09998925	0.00000000	-9.86097400	-9.09817800
184.29998923	0.00000000	-9.52879000	-8.68602300
184.49998922	0.00000000	-9.52879000	-8.67987200
184.69998921	0.00000000	-9.86097400	-8.26771600
184.89998920	0.00000000	-10.23007000	-7.93553100
185.09998919	0.00000000	-9.86097400	-7.93553100
185.29998918	0.00000000	-9.52879000	-8.31077700
185.49998916	0.00000000	-9.48572700	-9.05511800
185.69998915	0.00000000	-9.48572700	-9.43036400
185.89998914	0.00000000	-9.48572700	-9.51648500
186.09998913	0.00000000	-9.48572700	-9.84867000
186.29998912	0.00000000	-9.48572700	-10.21161000
186.49998910	0.00000000	-9.48572700	-9.84867000
186.69998909	0.00000000	-9.48572700	-9.51648500
186.89998908	0.00000000	-9.48572700	-9.47342500
187.09998907	0.00000000	-9.48572700	-9.43036400
187.29998906	0.00000000	-9.52879000	-9.05511800
187.49998904	0.00000000	-9.90403500	-8.31077700
187.69998903	0.00000000	-10.59916000	-7.93553100
187.89998902	0.00000000	-10.59916000	-7.89247000
188.09998901	0.00000000	-9.95324800	-7.93553100
188.29998900	0.00000000	-9.90403500	-8.31077700
188.49998899	0.00000000	-10.23007000	-9.05511800
188.69998897	0.00000000	-9.86097400	-9.43036400
188.89998896	0.00000000	-9.52879000	-9.51648500
189.09998895	0.00000000	-9.48572700	-9.84867000
189.29998894	0.00000000	-9.48572700	-10.25467000
189.49998893	0.00000000	-9.48572700	-10.21776000
189.69998891	0.00000000	-9.52879000	-10.25467000
189.89998890	0.00000000	-9.90403500	-9.84867000
190.09998889	0.00000000	-10.64838000	-9.51648500
190.29998888	0.00000000	-11.02362000	-9.47342500
190.49998887	0.00000000	-11.06668000	-9.47342500
190.69998885	0.00000000	-11.02362000	-9.43036400
190.89998884	0.00000000	-10.64838000	-9.09817800
191.09998883	0.00000000	-9.90403500	-8.72908400
191.29998882	0.00000000	-9.52879000	-9.09817800
191.49998881	0.00000000	-9.48572700	-9.43036400
191.69998880	0.00000000	-9.48572700	-9.47342500
191.89998878	0.00000000	-9.48572700	-9.47342500
192.09998877	0.00000000	-9.48572700	-9.47342500
192.29998876	0.00000000	-9.48572700	-9.47342500
192.49998875	0.00000000	-9.48572700	-9.47342500
192.69998874	0.00000000	-9.48572700	-9.47342500
192.89998872	0.00000000	-9.52879000	-9.51648500
193.09998871	0.00000000	-9.86097400	-9.84867000
193.29998870	0.00000000	-10.27313000	-10.21161000
193.49998869	0.00000000	-10.23622000	-9.84867000
193.69998868	0.00000000	-10.27313000	-9.51648500
193.89998866	0.00000000	-9.86097400	-9.47342500
194.09998865	0.00000000	-9.52879000	-9.47342500
194.29998864	0.00000000	-9.48572700	-9.47342500
194.49998863	0.00000000	-9.48572700	-9.47342500
194.69998862	0.00000000	-9.48572700	-9.47342500
194.89998861	0.00000000	-9.48572700	-9.47342500
195.09998859	0.00000000	-9.48572700	-9.47342500
195.29998858	0.00000000	-9.52879000	-9.47342500
195.49998857	0.00000000	-9.86097400	-9.47342500
195.69998856	0.00000000	-10.27313000	-9.47342500
195.89998855	0.00000000	-10.27928000	-9.47342500
196.09998853	0.00000000	-10.69144000	-9.47342500
