Time	Channel A	Channel B	Channel C
(us)	(V)	(mV)	(mV)

-4.59999956	0.00000000	-7.94783400	-9.47342500
-4.39999957	0.00000000	-8.28001900	-9.47342500
-4.19999958	0.00000000	-8.64911400	-9.47342500
-3.99999959	0.00000000	-8.32308000	-9.47342500
-3.79999960	0.00000000	-8.32308000	-9.47342500
-3.59999962	0.00000000	-8.64911400	-9.47342500
-3.39999963	0.00000000	-8.28001900	-9.47342500
-3.19999964	0.00000000	-7.94783400	-9.47342500
-2.99999965	0.00000000	-7.90477300	-9.47342500
-2.79999966	0.00000000	-7.90477300	-9.47342500
-2.59999968	0.00000000	-7.90477300	-9.47342500
-2.39999969	0.00000000	-7.90477300	-9.47342500
-2.19999970	0.00000000	-7.90477300	-9.47342500
-1.99999971	0.00000000	-7.90477300	-9.47342500
-1.79999972	0.00000000	-7.90477300	-9.47342500
-1.59999973	0.00000000	-7.90477300	-9.47342500
-1.39999975	0.00000000	-7.90477300	-9.47342500
-1.19999976	0.00000000	-7.90477300	-9.47342500
-0.99999977	0.00000000	-7.90477300	-9.47342500
-0.79999978	0.00000000	-7.90477300	-9.47342500
-0.59999979	0.00000000	-7.90477300	-9.47342500
-0.39999981	0.15871060	-7.90477300	-9.47342500
-0.19999982	0.63668800	-7.90477300	-9.47342500
0.00000017	0.79601380	-7.94783400	-9.47342500
0.20000016	0.95533960	-8.28001900	-9.47342500
0.40000015	0.95533960	-8.69217500	-9.47342500
0.60000013	0.47736220	-8.69832600	-9.47342500
0.80000012	-0.15871060	-9.11048200	-9.47342500
1.00000011	-1.11466500	-9.39345400	-9.47342500
1.20000010	-2.07062000	-9.06742000	-9.47342500
1.40000009	-2.70792300	-8.32308000	-9.43036400
1.60000008	-2.70792300	-7.94783400	-9.05511800
1.80000006	-1.75196900	-7.90477300	-8.31077700
2.00000005	-0.15871060	-7.90477300	-7.98474400
2.20000004	1.91129400	-7.90477300	-8.31077700
2.40000003	3.98191400	-7.94783400	-9.05511800
2.60000002	5.25652100	-8.32308000	-9.43036400
2.80000000	5.09719500	-9.06742000	-9.47342500
2.99999999	3.66326300	-9.44266700	-9.47342500
3.19999998	0.95533960	-9.44266700	-9.47342500
3.39999997	-2.38927200	-9.06742000	-9.47342500
3.59999996	-5.57517200	-8.37229300	-9.47342500
3.79999994	-7.64579200	-8.32308000	-9.43036400
3.99999993	-7.80511800	-8.64911400	-9.05511800
4.19999992	-6.05315000	-8.28001900	-8.31077700
4.39999991	-2.54859700	-7.94783400	-7.93553100
4.59999990	1.91129400	-7.90477300	-7.89247000
4.79999989	6.05315000	-7.94783400	-7.93553100
4.99999987	8.76107300	-8.28001900	-8.31077700
5.19999986	9.39837600	-8.64911400	-9.05511800
5.39999985	7.64579200	-8.32308000	-9.43036400
5.59999984	3.98191400	-8.37229300	-9.47342500
5.79999983	-0.79601380	-9.01820900	-9.47342500
5.99999981	-5.41584600	-9.01820900	-9.47342500
6.19999980	-8.44242100	-8.37229300	-9.47342500
6.39999979	-9.39837600	-8.32308000	-9.43036400
6.59999978	-8.12377000	-8.64911400	-9.05511800
6.79999977	-4.77854300	-8.28001900	-8.31077700
6.99999975	-0.47736220	-7.94783400	-7.98474400
7.19999974	3.66326300	-7.90477300	-8.31077700
7.39999973	6.69045300	-7.94783400	-9.05511800
7.59999972	7.80511800	-8.32308000	-9.43036400
7.79999971	7.00848900	-9.06742000	-9.47342500
7.99999970	4.45989200	-9.44266700	-9.47342500
8.19999968	1.11466500	-9.48572700	-9.47342500
8.39999967	-1.91129400	-9.44266700	-9.47342500
8.59999966	-4.14124000	-9.06742000	-9.47342500
8.79999965	-5.25652100	-8.37229300	-9.47342500
8.99999964	-4.77854300	-8.37229300	-9.43036400
9.19999962	-3.34522600	-9.01820900	-9.09817800
9.39999961	-1.27399100	-9.01820900	-8.72908400
9.59999960	0.47736220	-8.32308000	-9.09817800
9.79999959	1.91129400	-7.94783400	-9.43036400
9.99999958	2.54859700	-7.94783400	-9.47342500
10.19999956	2.38927200	-8.32308000	-9.47342500
10.39999955	1.75196900	-9.06742000	-9.47342500
10.59999954	0.79601380	-9.44266700	-9.47342500
10.79999953	0.00000000	-9.44266700	-9.47342500
10.99999952	-0.63668800	-9.11048200	-9.47342500
11.19999951	-0.95533960	-8.69832600	-9.47342500
11.39999949	-0.95533960	-8.73523500	-9.47342500
11.59999948	-0.79601380	-8.65526600	-9.43036400
11.79999947	-0.47736220	-8.69217500	-9.09817800
11.99999946	-0.15871060	-8.32308000	-8.72908400
12.19999945	-0.15871060	-8.32308000	-9.05511800
12.39999943	-0.15871060	-8.64911400	-9.05511800
12.59999942	0.00000000	-8.32308000	-8.72908400
12.79999941	0.00000000	-8.37229300	-9.09817800
12.99999940	0.00000000	-9.01820900	-9.43036400
13.19999939	0.00000000	-9.06742000	-9.47342500
13.39999937	0.00000000	-8.74138700	-9.47342500
13.59999936	0.00000000	-9.06742000	-9.47342500
13.79999935	0.00000000	-9.06742000	-9.47342500
13.99999934	-0.15871060	-8.69832600	-9.47342500
14.19999933	-0.15871060	-8.73523500	-9.47342500
14.39999932	-0.15871060	-8.65526600	-9.47342500
14.59999930	-0.15871060	-8.73523500	-9.47342500
14.79999929	0.00000000	-8.69832600	-9.47342500
14.99999928	0.00000000	-9.11048200	-9.47342500
15.19999927	0.00000000	-9.44266700	-9.47342500
15.39999926	0.00000000	-9.48572700	-9.47342500
15.59999924	0.00000000	-9.48572700	-9.47342500
15.79999923	0.00000000	-9.48572700	-9.47342500
15.99999922	0.00000000	-9.48572700	-9.47342500
16.19999921	0.00000000	-9.48572700	-9.47342500
16.39999920	-0.15871060	-9.48572700	-9.47342500
16.59999919	0.00000000	-9.44266700	-9.47342500
16.79999917	-0.15871060	-9.06742000	-9.47342500
16.99999916	0.00000000	-8.28001900	-9.47342500
17.19999915	0.00000000	-7.52952700	-9.47342500
17.39999914	0.00000000	-6.79133800	-9.47342500
17.59999913	0.00000000	-6.79133800	-9.43036400
17.79999911	0.00000000	-7.52952700	-9.09817800
17.99999910	0.00000000	-8.32308000	-8.72908400
18.19999909	0.00000000	-9.52879000	-9.09817800
18.39999908	0.00000000	-11.06668000	-9.38115100
18.59999907	0.00000000	-12.60458000	-9.09817800
18.79999905	0.00000000	-13.76107000	-8.72908400
18.99999904	0.00000000	-14.09326000	-9.09817800
19.19999903	0.00000000	-13.29970000	-9.43036400
19.39999902	0.00000000	-10.93135000	-9.47342500
19.59999901	0.00000000	-7.48646600	-9.43036400
19.79999900	0.00000000	-3.58021600	-9.09817800
19.99999898	0.00000000	-0.13533460	-8.72908400
20.19999897	0.00000000	2.18996000	-9.09817800
20.39999896	0.00000000	2.47293300	-9.43036400
20.59999895	0.00000000	0.09842519	-9.47342500
20.79999894	0.00000000	-5.33956700	-9.47342500
20.99999892	0.00000000	-12.69070000	-9.47342500
21.19999891	0.00000000	-20.41708000	-9.47342500
21.39999890	0.00000000	-26.92544000	-9.47342500
21.59999889	0.00000000	-29.95817000	-9.47342500
21.79999888	0.00000000	-28.32800000	-9.47342500
21.99999886	0.00000000	-21.72121000	-9.47342500
22.19999885	0.00000000	-10.83907000	-9.47342500
22.39999884	0.00000000	1.86392700	-9.47342500
22.59999883	0.00000000	13.81644000	-9.47342500
22.79999882	0.00000000	21.45054000	-9.47342500
22.99999881	0.00000000	22.61319000	-9.43036400
23.19999879	0.00000000	16.70768000	-9.05511800
23.39999878	0.00000000	4.28764700	-8.31077700
23.59999877	0.00000000	-12.73991000	-7.89247000
23.79999876	0.00000000	-30.46875000	-7.51722400
23.99999875	0.00000000	-44.70349000	-7.14812900
24.19999873	0.00000000	-51.59325000	-7.56028500
24.39999872	0.00000000	-48.80659000	-8.31077700
24.59999871	0.00000000	-36.38041000	-9.51648500
24.79999870	0.00000000	-16.32628000	-11.04823000
24.99999869	0.00000000	6.42224400	-12.58612000
25.19999867	0.00000000	26.15034000	-13.74262000
25.39999866	0.00000000	38.85334000	-14.07480000
25.59999865	-0.15871060	41.08636000	-13.28125000
25.79999864	0.00000000	31.45915000	-10.96211000
25.99999863	0.00000000	12.51845000	-7.84940900
26.19999862	0.00000000	-11.44193000	-4.31840500
26.39999860	0.00000000	-35.40231000	-0.51058070
26.59999859	0.00000000	-53.50024000	2.14074800
26.79999858	0.00000000	-61.63877000	2.50984200
26.99999857	0.00000000	-57.73868000	0.51673230
27.19999856	0.00000000	-42.70423000	-4.17691900
27.39999854	0.00000000	-19.95571000	-11.14050000
27.59999853	0.00000000	4.74901600	-18.85458000
27.79999852	0.00000000	25.63976000	-25.73203000
27.99999851	0.00000000	38.43504000	-29.53986000
28.19999850	0.00000000	40.39124000	-28.71555000
28.39999848	0.00000000	31.54527000	-23.27141000
28.59999847	0.00000000	14.19168000	-13.61343000
28.79999846	0.00000000	-7.43725300	-2.04232300
28.99999845	0.00000000	-28.33415000	8.78444900
29.19999844	0.00000000	-44.19291000	16.91068000
29.39999843	0.00000000	-51.59325000	20.26329000
29.59999841	0.00000000	-49.36023000	17.51968000
29.79999840	0.00000000	-38.98253000	8.18774500
29.99999839	0.00000000	-23.11762000	-5.66560000
30.19999838	0.00000000	-5.33956700	-21.17372000
30.39999837	0.00000000	10.56225000	-35.02707000
30.59999835	0.00000000	21.45054000	-44.26673000
30.79999834	0.00000000	25.73203000	-46.08759000
30.99999833	0.00000000	22.65625000	-39.57923000
31.19999832	0.00000000	13.02903000	-26.06422000
31.39999831	0.00000000	-0.41830710	-9.09817800
31.59999829	0.00000000	-14.37008000	7.99089500
31.79999828	0.00000000	-25.67667000	21.88730000
31.99999827	0.00000000	-33.12008000	29.97047000
32.19999826	0.00000000	-35.77755000	29.92126000
32.39999825	0.00000000	-32.65871000	21.46899000
32.59999824	0.00000000	-24.23105000	6.78518600
32.79999822	0.00000000	-13.06594000	-11.00517000
32.99999821	0.00000000	-2.22687000	-28.38337000
33.19999820	0.00000000	6.37303100	-41.48622000
33.39999819	0.00000000	11.35581000	-47.33637000
33.59999818	0.00000000	11.76796000	-45.06028000
33.79999816	0.00000000	7.17273600	-35.76525000
33.99999815	0.00000000	-0.51058070	-21.08760000
34.19999814	0.00000000	-9.39345400	-4.12770700
34.39999813	0.00000000	-17.48893000	10.96826000
34.59999812	0.00000000	-22.51476000	21.42593000
34.79999810	0.00000000	-23.76353000	25.27682000
34.99999809	0.00000000	-21.44439000	21.42593000
35.19999808	0.00000000	-16.41855000	11.06053000
35.39999807	0.00000000	-9.52879000	-3.24803100
35.59999806	0.00000000	-3.02042300	-18.25787000
35.79999805	0.00000000	0.84891720	-30.61023000
35.99999803	0.00000000	1.67938000	-37.16781000
36.19999802	0.00000000	-0.64591530	-36.84178000
36.39999801	0.00000000	-5.21038300	-29.91511000
36.59999800	0.00000000	-10.59916000	-18.43627000
36.79999799	0.00000000	-15.21284000	-5.75787400
36.99999797	0.00000000	-17.95029000	4.69365100
37.19999796	0.00000000	-18.32554000	10.87598000
37.39999795	0.00000000	-16.41855000	11.66339000
37.59999794	0.00000000	-12.55536000	6.64985200
37.79999793	0.00000000	-7.94783400	-2.50369100
37.99999791	0.00000000	-3.67249000	-13.23819000
38.19999790	0.00000000	-0.59670270	-22.02264000
38.39999789	0.00000000	0.55979330	-26.24877000
38.59999788	0.00000000	-0.59670270	-24.76009000
38.79999787	0.00000000	-3.67249000	-18.30093000
38.99999786	0.00000000	-7.94783400	-9.47342500
39.19999784	0.00000000	-12.55536000	-0.59670270
39.39999783	0.00000000	-16.41855000	6.23154500
39.59999782	0.00000000	-18.37475000	8.45841400
39.79999781	0.00000000	-18.41781000	4.65059000
39.99999780	0.00000000	-16.83686000	-3.70939900
40.19999778	0.00000000	-13.71801000	-13.69956000
40.39999777	0.00000000	-9.48572700	-22.48400000
40.59999776	0.00000000	-5.21038300	-27.49754000
40.79999775	0.00000000	-1.71628900	-27.13459000
40.99999774	0.00000000	0.60900590	-22.15797000
41.19999772	0.00000000	0.98425190	-13.65650000
41.39999771	0.00000000	-0.51058070	-3.70939900
41.59999770	0.00000000	-3.25418300	4.74286400
41.79999769	0.00000000	-6.74212600	9.38730200
41.99999768	0.00000000	-10.64838000	9.43036400
42.19999767	0.00000000	-14.09326000	5.16117100
42.39999765	0.00000000	-16.46161000	-2.50369100
42.59999764	0.00000000	-17.21210000	-11.70029000
42.79999763	0.00000000	-16.46161000	-19.37131000
42.99999762	0.00000000	-14.13632000	-23.68971000
43.19999761	0.00000000	-11.10974000	-24.10802000
43.39999759	0.00000000	-8.37229300	-21.08760000
43.59999758	0.00000000	-6.41609200	-15.69882000
43.79999757	0.00000000	-5.21038300	-9.51648500
43.99999756	0.00000000	-4.83513700	-3.75861200
44.19999755	0.00000000	-5.16117100	0.09227362
44.39999753	0.00000000	-5.90551100	0.93503930
44.59999752	0.00000000	-6.28075700	-0.51058070
44.79999751	0.00000000	-6.36687900	-3.24803100
44.99999750	0.00000000	-6.74212600	-6.72982200
45.19999749	0.00000000	-7.52952700	-10.58686000
45.39999748	0.00000000	-8.37229300	-13.65650000
45.59999746	0.00000000	-9.95324800	-15.18824000
45.79999745	0.00000000	-12.27239000	-14.85605000
45.99999744	0.00000000	-14.60384000	-12.95522000
46.19999743	0.00000000	-16.92298000	-10.67298000
46.39999742	0.00000000	-18.37475000	-8.31077700
46.59999740	0.00000000	-17.95029000	-6.40378900
46.79999739	0.00000000	-15.21284000	-5.19808000
46.99999738	0.00000000	-10.51304000	-4.82898600
47.19999737	0.00000000	-4.36761800	-5.19808000
47.39999736	0.00000000	1.76550200	-6.40378900
47.59999734	0.00000000	5.59178100	-8.31077700
47.79999733	0.00000000	6.37303100	-10.62992000
47.99999732	0.00000000	3.58636800	-12.53691000
48.19999731	0.00000000	-2.55290300	-13.74262000
48.39999730	0.00000000	-10.69144000	-14.07480000
48.59999729	0.00000000	-18.79306000	-13.28125000
48.79999727	0.00000000	-25.30143000	-10.96211000
48.99999726	0.00000000	-27.95275000	-7.93553100
49.19999725	0.00000000	-25.67667000	-5.19808000
49.39999724	0.00000000	-19.53125000	-3.24803100
49.59999723	0.00000000	-11.02362000	-2.12844500
49.79999721	0.00000000	-2.13459600	-2.59596400
49.99999720	0.00000000	5.21653500	-5.29035400
50.19999719	0.00000000	9.40575800	-9.43036400
50.39999718	0.00000000	8.98129900	-13.28125000
50.59999717	0.00000000	3.58636800	-15.64960000
50.79999715	0.00000000	-5.21038300	-16.85531000
50.99999714	0.00000000	-14.78838000	-16.76919000
51.19999713	0.00000000	-22.13952000	-14.81299000
51.39999712	0.00000000	-25.67667000	-11.00517000
51.59999711	0.00000000	-25.30143000	-6.77903500
51.79999710	0.00000000	-21.02608000	-3.29109200
51.99999708	0.00000000	-13.71801000	-0.97194880
52.19999707	0.00000000	-5.29650500	-0.59670270
52.39999706	0.00000000	1.63016700	-2.12844500
52.59999705	0.00000000	5.08120100	-5.19808000
52.79999704	0.00000000	4.37376900	-9.05511800
52.99999702	0.00000000	-0.22760820	-12.53691000
53.19999701	0.00000000	-6.74212600	-15.23130000
53.39999700	0.00000000	-13.67495000	-16.34473000
53.59999699	0.00000000	-19.02067000	-15.23130000
53.79999698	0.00000000	-20.97687000	-12.58612000
53.99999696	0.00000000	-19.48819000	-9.51648500
54.19999695	0.00000000	-15.21284000	-6.82209600
54.39999694	0.00000000	-9.11048200	-5.29035400
54.59999693	0.00000000	-2.97736200	-5.24729300
54.79999692	0.00000000	0.84891720	-6.40378900
54.99999691	0.00000000	1.67938000	-8.31077700
55.19999689	0.00000000	-0.59670270	-10.58686000
55.39999688	0.00000000	-4.83513700	-12.03248000
55.59999687	0.00000000	-9.86097400	-11.70029000
55.79999686	0.00000000	-14.83760000	-9.84867000
55.99999685	0.00000000	-17.90723000	-7.93553100
56.19999683	0.00000000	-18.32554000	-6.36072800
56.39999682	0.00000000	-16.41855000	-5.24729300
56.59999681	0.00000000	-12.55536000	-5.29035400
56.79999680	0.00000000	-7.94783400	-6.86515700
56.99999679	0.00000000	-3.71555100	-9.93479300
57.19999677	0.00000000	-1.02116100	-13.74262000
57.39999676	0.00000000	-0.59670270	-16.76919000
57.59999675	0.00000000	-2.13459600	-17.88263000
57.79999674	0.00000000	-5.21038300	-16.35089000
57.99999673	0.00000000	-9.01820900	-12.49385000
58.19999672	0.00000000	-12.09400000	-7.47416300
58.39999670	0.00000000	-13.71801000	-2.08538400
58.59999669	0.00000000	-14.09326000	2.09768700
58.79999668	0.00000000	-13.34276000	3.62942900
58.99999667	0.00000000	-11.44193000	2.04847400
59.19999666	0.00000000	-9.52879000	-2.59596400
59.39999664	0.00000000	-7.94783400	-9.47342500
59.59999663	0.00000000	-6.83439900	-16.39395000
59.79999662	0.00000000	-6.79133800	-21.41363000
59.99999661	0.00000000	-7.52952700	-23.68971000
60.19999660	0.00000000	-8.28001900	-22.15797000
60.39999658	0.00000000	-9.11048200	-17.14444000
60.59999657	0.00000000	-9.81791200	-10.21161000
60.79999656	0.00000000	-10.18086000	-2.50369100
60.99999655	0.00000000	-9.44266700	3.62942900
61.19999654	0.00000000	-8.37229300	6.74212600
61.39999653	0.00000000	-7.94783400	6.32381900
61.59999651	0.00000000	-7.90477300	2.04847400
61.79999650	0.00000000	-7.94783400	-5.24729300
61.99999649	0.00000000	-8.37229300	-13.69956000
62.19999648	0.00000000	-9.52879000	-20.99532000
62.39999647	0.00000000	-11.02362000	-25.27067000
62.59999645	0.00000000	-12.18012000	-25.68897000
62.79999644	0.00000000	-12.55536000	-22.57628000
62.99999643	0.00000000	-12.18012000	-16.39395000
63.19999642	0.00000000	-11.02362000	-8.35998900
63.39999641	0.00000000	-9.44266700	-1.01501000
63.59999639	0.00000000	-7.52952700	4.04773600
63.79999638	0.00000000	-5.62869100	6.36687900
63.99999637	0.00000000	-4.87819900	5.16117100
64.19999636	0.00000000	-5.25344500	0.60285430
64.39999635	0.00000000	-6.79133800	-5.94242000
64.59999634	0.00000000	-9.06742000	-12.49385000
64.79999632	0.00000000	-10.97441000	-17.97490000
64.99999631	0.00000000	-12.18012000	-21.41363000
65.19999630	0.00000000	-12.55536000	-22.24409000
65.39999629	0.00000000	-12.18012000	-20.30020000
65.59999628	0.00000000	-11.02362000	-16.48622000
65.79999626	0.00000000	-9.44266700	-11.42347000
65.99999625	0.00000000	-7.57258800	-6.44685000
66.19999624	0.00000000	-6.04699800	-2.50369100
66.39999623	0.00000000	-6.08390700	-0.17839570
66.59999622	0.00000000	-7.16043300	0.65206690
66.79999620	0.00000000	-9.11048200	-0.13533460
66.99999619	0.00000000	-10.97441000	-2.04232300
67.19999618	0.00000000	-12.18012000	-4.77977300
67.39999617	0.00000000	-12.51230000	-7.89247000
67.59999616	0.00000000	-11.71875000	-11.00517000
67.79999615	0.00000000	-9.39345400	-13.79183000
67.99999613	0.00000000	-6.41609200	-16.11712000
68.19999612	0.00000000	-4.09079700	-18.01796000
68.39999611	0.00000000	-3.34030500	-18.35015000
68.59999610	0.00000000	-4.09079700	-16.85531000
68.79999609	0.00000000	-6.45915300	-14.11786000
68.99999607	0.00000000	-9.90403500	-10.58686000
69.19999606	0.00000000	-13.76107000	-6.31151500
69.39999605	0.00000000	-16.83686000	-2.08538400
69.59999604	0.00000000	-18.37475000	0.97810030
69.79999603	0.00000000	-17.95029000	2.13459600
69.99999601	0.00000000	-15.21284000	0.97810030
70.19999600	0.00000000	-10.59916000	-2.12844500
70.39999599	0.00000000	-5.21038300	-6.77903500
70.59999598	0.00000000	-0.59670270	-12.16166000
70.79999597	0.00000000	2.09768700	-16.76919000
70.99999596	0.00000000	2.09768700	-19.50664000
71.19999594	0.00000000	-0.59670270	-19.88189000
71.39999593	0.00000000	-5.25344500	-17.97490000
71.59999592	0.00000000	-11.06668000	-14.11786000
71.79999591	0.00000000	-16.83686000	-9.51648500
71.99999590	0.00000000	-21.06914000	-5.24729300
72.19999588	0.00000000	-22.60704000	-2.12844500
72.39999587	0.00000000	-21.06914000	-0.59670270
72.59999586	0.00000000	-16.83686000	-0.97194880
72.79999585	0.00000000	-11.06668000	-3.24803100
72.99999584	0.00000000	-5.25344500	-6.31151500
73.19999582	0.00000000	-0.59670270	-9.42421200
73.39999581	0.00000000	2.09768700	-12.07554000
73.59999580	0.00000000	2.09768700	-13.23819000
73.79999579	0.00000000	-0.55364170	-12.53691000
73.99999578	0.00000000	-4.78592500	-11.04823000
74.19999577	0.00000000	-9.48572700	-9.55954600
74.39999575	0.00000000	-14.09326000	-8.77829600
74.59999574	0.00000000	-17.53199000	-9.14124000
74.79999573	0.00000000	-18.32554000	-9.89173200
74.99999572	0.00000000	-16.87992000	-11.04823000
75.19999571	0.00000000	-14.18553000	-12.16166000
75.39999569	0.00000000	-11.06668000	-12.49385000
75.59999568	0.00000000	-7.94783400	-11.70029000
75.79999567	0.00000000	-5.29650500	-9.38115100
75.99999566	0.00000000	-4.09079700	-6.36072800
76.19999565	0.00000000	-4.45989200	-3.61712600
76.39999563	0.00000000	-5.57947800	-1.71013800
76.59999562	0.00000000	-7.48646600	-1.01501000
76.79999561	0.00000000	-8.97514600	-2.59596400
76.99999560	0.00000000	-9.44266700	-6.44685000
77.19999559	0.00000000	-9.48572700	-11.42347000
77.39999558	0.00000000	-9.48572700	-16.43701000
77.59999556	0.00000000	-9.48572700	-19.88189000
77.79999555	0.00000000	-9.52879000	-21.04454000
77.99999554	0.00000000	-9.90403500	-19.46358000
78.19999553	0.00000000	-10.69144000	-15.23130000
78.39999552	0.00000000	-11.44193000	-9.47342500
78.59999550	0.00000000	-12.18012000	-3.70939900
78.79999549	0.00000000	-12.13706000	0.55979330
78.99999548	0.00000000	-11.02362000	2.50984200
79.19999547	0.00000000	-9.44266700	2.14074800
79.39999546	0.00000000	-7.48646600	-0.59670270
79.59999544	0.00000000	-5.21038300	-5.19808000
79.79999543	0.00000000	-3.71555100	-10.58686000
79.99999542	0.00000000	-3.71555100	-15.23130000
80.19999541	0.00000000	-5.21038300	-18.35015000
80.39999540	0.00000000	-7.52952700	-19.55585000
80.59999539	0.00000000	-9.86097400	-18.76845000
80.79999537	0.00000000	-12.22933000	-16.48622000
80.99999536	0.00000000	-14.09326000	-12.96137000
81.19999535	0.00000000	-14.88066000	-9.09817800
81.39999534	0.00000000	-14.09326000	-5.19808000
81.59999533	0.00000000	-12.18012000	-2.12844500
81.79999531	0.00000000	-9.48572700	-0.55364170
81.99999530	0.00000000	-6.79133800	-0.51058070
82.19999529	0.00000000	-4.87819900	-1.66707700
82.39999528	0.00000000	-4.09079700	-3.66633800
82.59999527	0.00000000	-4.83513700	-6.72982200
82.79999525	0.00000000	-6.36687900	-10.21161000
82.99999524	0.00000000	-8.32308000	-12.95522000
83.19999523	0.00000000	-10.55610000	-15.32357000
83.39999522	0.00000000	-11.76181000	-16.85531000
83.59999521	0.00000000	-11.81717000	-17.23056000
83.79999520	0.00000000	-11.81102000	-16.43701000
83.99999518	0.00000000	-11.02362000	-14.07480000
84.19999517	0.00000000	-9.95324800	-10.62992000
84.39999516	0.00000000	-9.52879000	-6.72982200
84.59999515	0.00000000	-9.48572700	-3.24803100
84.79999514	0.00000000	-9.48572700	-0.59670270
84.99999512	0.00000000	-9.48572700	0.18454720
85.19999511	0.00000000	-9.44266700	-1.33489200
85.39999510	0.00000000	-9.06742000	-4.04158400
85.59999509	0.00000000	-8.32308000	-7.98474400
85.79999508	0.00000000	-7.94783400	-12.53691000
85.99999506	0.00000000	-7.90477300	-16.43701000
86.19999505	0.00000000	-7.94783400	-18.71924000
86.39999504	0.00000000	-8.37229300	-19.13140000
86.59999503	0.00000000	-9.48572700	-17.14444000
86.79999502	0.00000000	-10.64838000	-13.32431000
86.99999501	0.00000000	-11.44193000	-8.31077700
87.19999499	0.00000000	-12.22933000	-3.70939900
87.39999498	0.00000000	-12.55536000	-0.59670270
87.59999497	0.00000000	-12.18012000	0.55979330
87.79999496	0.00000000	-10.97441000	-0.59670270
87.99999495	0.00000000	-9.06742000	-3.66633800
88.19999493	0.00000000	-6.83439900	-7.93553100
88.39999492	0.00000000	-5.67175200	-12.53691000
88.59999491	0.00000000	-5.99163300	-16.39395000
88.79999490	0.00000000	-6.74212600	-18.30093000
88.99999489	0.00000000	-7.94783400	-17.88263000
89.19999487	0.00000000	-9.48572700	-14.81299000
89.39999486	0.00000000	-11.02362000	-9.89173200
89.59999485	0.00000000	-12.18012000	-5.29035400
89.79999484	0.00000000	-12.55536000	-2.12844500
89.99999483	0.00000000	-12.18012000	-0.59670270
90.19999482	0.00000000	-11.06668000	-1.06422200
90.39999480	0.00000000	-9.90403500	-4.12770700
90.59999479	0.00000000	-9.11048200	-9.05511800
90.79999478	0.00000000	-8.32308000	-13.65650000
90.99999477	0.00000000	-7.94783400	-16.76919000
91.19999476	0.00000000	-7.94783400	-17.92569000
91.39999474	0.00000000	-8.32308000	-16.76919000
91.59999473	0.00000000	-9.01820900	-13.65650000
91.79999472	0.00000000	-9.06742000	-9.05511800
91.99999471	0.00000000	-8.74138700	-4.12770700
92.19999470	0.00000000	-9.11048200	-1.06422200
92.39999468	0.00000000	-9.44266700	-0.59670270
92.59999467	0.00000000	-9.52879000	-2.17765700
92.79999466	0.00000000	-9.95324800	-5.70866100
92.99999465	0.00000000	-11.02362000	-11.00517000
93.19999464	0.00000000	-11.81102000	-15.92642000
93.39999463	0.00000000	-11.86024000	-18.25787000
93.59999461	0.00000000	-12.22933000	-17.97490000
93.79999460	0.00000000	-12.13706000	-15.64960000
93.99999459	0.00000000	-10.97441000	-12.16166000
94.19999458	0.00000000	-9.06742000	-7.89247000
94.39999457	0.00000000	-6.74212600	-3.75246000
94.59999455	0.00000000	-4.87819900	-1.43331700
94.79999454	0.00000000	-4.09079700	-1.80241100
94.99999453	0.00000000	-4.83513700	-4.08464600
95.19999452	0.00000000	-6.36687900	-7.93553100
95.39999451	0.00000000	-8.37229300	-12.11860000
95.59999449	0.00000000	-11.06668000	-15.18824000
95.79999448	0.00000000	-13.76107000	-16.39395000
95.99999447	0.00000000	-15.67421000	-15.60654000
96.19999446	0.00000000	-16.41855000	-13.32431000
96.39999445	0.00000000	-15.25591000	-9.84867000
96.59999444	0.00000000	-12.60458000	-6.44685000
96.79999442	0.00000000	-9.44266700	-4.08464600
96.99999441	0.00000000	-5.94857300	-3.33415300
97.19999440	0.00000000	-2.50984200	-4.08464600
97.39999439	0.00000000	-0.64591530	-6.36072800
97.59999438	0.00000000	-0.97194880	-9.00590400
97.79999436	0.00000000	-3.25418300	-10.96211000
97.99999435	0.00000000	-6.36687900	-12.16166000
98.19999434	0.00000000	-9.90403500	-12.53691000
98.39999433	0.00000000	-13.76107000	-12.16166000
98.59999432	0.00000000	-16.79380000	-11.00517000
98.79999430	0.00000000	-17.99951000	-9.51648500
98.99999429	0.00000000	-17.25517000	-8.35998900
99.19999428	0.00000000	-15.29897000	-7.93553100
99.39999427	0.00000000	-12.18012000	-7.89247000
99.59999426	0.00000000	-8.32308000	-7.89247000
99.79999425	0.00000000	-4.87819900	-7.89247000
99.99999423	0.00000000	-2.50984200	-7.89247000
100.19999422	0.00000000	-1.75935000	-7.89247000
100.39999421	0.00000000	-2.46678100	-7.84940900
100.59999420	0.00000000	-4.41067900	-7.51722400
100.79999419	0.00000000	-6.74212600	-7.19734200
100.99999417	0.00000000	-9.52879000	-7.98474400
101.19999416	0.00000000	-12.55536000	-9.47342500
101.39999415	0.00000000	-14.88066000	-11.04823000
101.59999414	0.00000000	-15.67421000	-12.58612000
101.79999413	0.00000000	-15.29897000	-13.69956000
101.99999411	0.00000000	-13.71801000	-13.69956000
102.19999410	0.00000000	-11.06668000	-12.49385000
102.39999409	0.00000000	-8.37229300	-10.21161000
102.59999408	0.00000000	-6.41609200	-7.14812900
102.79999407	0.00000000	-5.21038300	-4.87204700
102.99999406	0.00000000	-4.83513700	-3.62327700
103.19999404	0.00000000	-5.21038300	-3.29109200
103.39999403	0.00000000	-6.36687900	-4.12770700
103.59999402	0.00000000	-7.90477300	-6.82209600
103.79999401	0.00000000	-9.48572700	-10.58686000
103.99999400	0.00000000	-11.06668000	-13.69956000
104.19999398	0.00000000	-12.55536000	-15.60654000
104.39999397	0.00000000	-13.34276000	-16.01870000
104.59999396	0.00000000	-12.97982000	-14.49311000
104.79999395	0.00000000	-12.18012000	-12.21087000
104.99999394	0.00000000	-10.64838000	-9.42421200
105.19999392	0.00000000	-8.74138700	-6.40378900
105.39999391	0.00000000	-7.57258800	-4.12770700
105.59999390	0.00000000	-6.79133800	-3.70939900
105.79999389	0.00000000	-6.79133800	-4.82283400
105.99999388	0.00000000	-7.57258800	-6.72982200
106.19999387	0.00000000	-8.69832600	-9.05511800
106.39999385	0.00000000	-10.23007000	-10.96211000
106.59999384	0.00000000	-10.97441000	-12.16166000
106.79999383	0.00000000	-11.06668000	-12.53691000
106.99999382	0.00000000	-11.02362000	-12.16166000
107.19999381	0.00000000	-10.59916000	-10.96211000
107.39999379	0.00000000	-9.48572700	-9.09817800
107.59999378	0.00000000	-8.37229300	-7.19734200
107.79999377	0.00000000	-7.99704600	-6.40378900
107.99999376	0.00000000	-8.32308000	-6.40378900
108.19999375	0.00000000	-9.11048200	-7.19734200
108.39999374	0.00000000	-9.86097400	-9.09817800
108.59999372	0.00000000	-10.69144000	-10.96211000
108.79999371	0.00000000	-11.39887000	-12.11860000
108.99999370	0.00000000	-11.81102000	-12.16166000
109.19999369	0.00000000	-11.39887000	-11.42347000
109.39999368	0.00000000	-10.64838000	-10.62992000
109.59999366	0.00000000	-9.44266700	-9.42421200
109.79999365	0.00000000	-7.94783400	-7.89247000
109.99999364	0.00000000	-6.83439900	-6.40378900
110.19999363	0.00000000	-6.79133800	-5.66560000
110.39999362	0.00000000	-7.57258800	-6.40378900
110.59999360	0.00000000	-8.69832600	-7.89247000
110.79999359	0.00000000	-10.23007000	-9.47342500
110.99999358	0.00000000	-10.97441000	-11.00517000
111.19999357	0.00000000	-11.06668000	-12.16166000
111.39999356	0.00000000	-11.06668000	-12.53691000
111.59999355	0.00000000	-11.02362000	-12.16166000
111.79999353	0.00000000	-10.64838000	-11.04823000
111.99999352	0.00000000	-9.86097400	-9.89173200
112.19999351	0.00000000	-9.11048200	-9.09817800
112.39999350	0.00000000	-8.32308000	-8.31077700
112.59999349	0.00000000	-7.94783400	-7.93553100
112.79999347	0.00000000	-7.94783400	-7.89247000
112.99999346	0.00000000	-8.32308000	-7.89247000
113.19999345	0.00000000	-9.06742000	-7.93553100
113.39999344	0.00000000	-9.44266700	-8.31077700
113.59999343	0.00000000	-9.48572700	-9.05511800
113.79999341	0.00000000	-9.48572700	-9.43036400
113.99999340	0.00000000	-9.48572700	-9.47342500
114.19999339	0.00000000	-9.48572700	-9.51648500
114.39999338	0.00000000	-9.48572700	-9.89173200
114.59999337	0.00000000	-9.48572700	-10.62992000
114.79999336	0.00000000	-9.44266700	-11.00517000
114.99999334	0.00000000	-9.06742000	-11.04823000
115.19999333	0.00000000	-8.37229300	-11.04823000
115.39999332	0.00000000	-8.37229300	-11.00517000
115.59999331	0.00000000	-9.06742000	-10.58686000
115.79999330	0.00000000	-9.44266700	-9.47342500
115.99999328	0.00000000	-9.52879000	-8.35998900
116.19999327	0.00000000	-9.90403500	-7.89247000
116.39999326	0.00000000	-10.64838000	-7.51722400
116.59999325	0.00000000	-10.97441000	-7.14812900
116.79999324	0.00000000	-10.64838000	-7.51722400
116.99999322	0.00000000	-9.90403500	-7.89247000
117.19999321	0.00000000	-9.48572700	-8.35998900
117.39999320	0.00000000	-9.06742000	-9.47342500
117.59999319	0.00000000	-8.32308000	-10.58686000
117.79999318	0.00000000	-7.94783400	-11.00517000
117.99999317	0.00000000	-7.90477300	-11.04823000
118.19999315	0.00000000	-7.94783400	-11.00517000
118.39999314	0.00000000	-8.37229300	-10.62992000
118.59999313	0.00000000	-9.48572700	-9.84867000
118.79999312	0.00000000	-10.64838000	-9.09817800
118.99999311	0.00000000	-11.44193000	-8.31077700
119.19999309	0.00000000	-12.22933000	-7.93553100
119.39999308	0.00000000	-12.55536000	-7.89247000
119.59999307	0.00000000	-12.18012000	-7.89247000
119.79999306	0.00000000	-11.02362000	-7.89247000
119.99999305	0.00000000	-9.52879000	-7.93553100
120.19999303	0.00000000	-8.32308000	-8.31077700
120.39999302	0.00000000	-7.52952700	-9.05511800
120.59999301	0.00000000	-6.74212600	-9.43036400
120.79999300	0.00000000	-6.36687900	-9.47342500
120.99999299	0.00000000	-6.41609200	-9.51648500
121.19999298	0.00000000	-7.20964500	-9.84867000
121.39999296	0.00000000	-9.06742000	-10.21161000
121.59999295	0.00000000	-10.59916000	-9.84867000
121.79999294	0.00000000	-11.44193000	-9.51648500
121.99999293	0.00000000	-12.22933000	-9.43036400
122.19999292	0.00000000	-12.60458000	-9.05511800
122.39999290	0.00000000	-12.55536000	-8.31077700
122.59999289	0.00000000	-11.81102000	-7.93553100
122.79999288	0.00000000	-10.27928000	-7.89247000
122.99999287	0.00000000	-9.15354300	-7.89247000
123.19999286	0.00000000	-8.32308000	-7.93553100
123.39999284	0.00000000	-7.94783400	-8.31077700
123.59999283	0.00000000	-7.90477300	-9.05511800
123.79999282	0.00000000	-7.90477300	-9.47342500
123.99999281	0.00000000	-7.94783400	-9.89173200
124.19999280	0.00000000	-8.37229300	-10.62992000
124.39999279	0.00000000	-9.48572700	-10.95595000
124.59999277	0.00000000	-10.59916000	-10.62992000
124.79999276	0.00000000	-11.02362000	-9.89173200
124.99999275	0.00000000	-11.06668000	-9.51648500
125.19999274	0.00000000	-11.06668000	-9.43036400
125.39999273	0.00000000	-11.02362000	-9.05511800
125.59999271	0.00000000	-10.69144000	-8.31077700
125.79999270	0.00000000	-10.23622000	-7.93553100
125.99999269	0.00000000	-9.85482200	-7.89247000
126.19999268	0.00000000	-8.69832600	-7.89247000
126.39999267	0.00000000	-7.94783400	-7.93553100
126.59999265	0.00000000	-7.52952700	-8.31077700
126.79999264	0.00000000	-7.20964500	-9.05511800
126.99999263	0.00000000	-7.94783400	-9.43036400
127.19999262	0.00000000	-9.06742000	-9.47342500
127.39999261	0.00000000	-9.90403500	-9.47342500
127.59999260	0.00000000	-11.06668000	-9.47342500
127.79999258	0.00000000	-12.13706000	-9.47342500
127.99999257	0.00000000	-12.18012000	-9.47342500
128.19999256	0.00000000	-11.44193000	-9.47342500
128.39999255	0.00000000	-10.64838000	-9.43036400
128.59999254	0.00000000	-9.48572700	-9.05511800
128.79999252	0.00000000	-8.37229300	-8.35998900
128.99999251	0.00000000	-7.94783400	-8.35998900
129.19999250	0.00000000	-7.90477300	-9.05511800
129.39999249	0.00000000	-7.94783400	-9.43036400
129.59999248	0.00000000	-8.37229300	-9.47342500
129.79999246	0.00000000	-9.48572700	-9.47342500
129.99999245	0.00000000	-10.59916000	-9.47342500
130.19999244	0.00000000	-11.02362000	-9.47342500
130.39999243	0.00000000	-11.06668000	-9.43036400
130.59999242	0.00000000	-11.02362000	-9.05511800
130.79999241	0.00000000	-10.64838000	-8.31077700
130.99999239	0.00000000	-9.86097400	-7.93553100
131.19999238	0.00000000	-9.11048200	-7.93553100
131.39999237	0.00000000	-8.32308000	-8.31077700
131.59999236	0.00000000	-7.94783400	-9.05511800
131.79999235	0.00000000	-7.94783400	-9.47342500
131.99999233	0.00000000	-8.32308000	-9.89173200
132.19999232	0.00000000	-9.11048200	-10.62992000
132.39999231	0.00000000	-9.86097400	-10.95595000
132.59999230	0.00000000	-10.64838000	-10.62992000
132.79999229	0.00000000	-11.02362000	-9.84867000
132.99999227	0.00000000	-11.02362000	-9.09817800
133.19999226	0.00000000	-10.64838000	-8.31077700
133.39999225	0.00000000	-9.90403500	-7.93553100
133.59999224	0.00000000	-9.52879000	-7.89247000
133.79999223	0.00000000	-9.52879000	-7.93553100
133.99999222	0.00000000	-9.86097400	-8.31077700
134.19999220	0.00000000	-10.23007000	-9.05511800
134.39999219	0.00000000	-9.86097400	-9.47342500
134.59999218	0.00000000	-9.52879000	-9.89173200
134.79999217	0.00000000	-9.48572700	-10.62992000
134.99999216	0.00000000	-9.48572700	-11.00517000
135.19999214	0.00000000	-9.48572700	-11.00517000
135.39999213	0.00000000	-9.48572700	-10.62992000
135.59999212	0.00000000	-9.48572700	-9.84867000
135.79999211	0.00000000	-9.48572700	-9.05511800
135.99999210	0.00000000	-9.52879000	-7.93553100
136.19999208	0.00000000	-9.90403500	-7.19734200
136.39999207	0.00000000	-10.64838000	-7.51722400
136.59999206	0.00000000	-11.02362000	-7.84940900
136.79999205	0.00000000	-11.06668000	-7.93553100
136.99999204	0.00000000	-11.02362000	-8.31077700
137.19999203	0.00000000	-10.59916000	-9.05511800
137.39999201	0.00000000	-9.48572700	-9.47342500
137.59999200	0.00000000	-8.37229300	-9.89173200
137.79999199	0.00000000	-7.94783400	-10.62992000
137.99999198	0.00000000	-7.90477300	-11.00517000
138.19999197	0.00000000	-7.94783400	-11.00517000
138.39999195	0.00000000	-8.37229300	-10.62992000
138.59999194	0.00000000	-9.48572700	-9.89173200
138.79999193	0.00000000	-10.59916000	-9.47342500
138.99999192	0.00000000	-11.02362000	-9.05511800
139.19999191	0.00000000	-11.06668000	-8.31077700
139.39999189	0.00000000	-11.02362000	-7.93553100
139.59999188	0.00000000	-10.64838000	-7.89247000
139.79999187	0.00000000	-9.90403500	-7.89247000
139.99999186	0.00000000	-9.48572700	-7.93553100
140.19999185	0.00000000	-9.11048200	-8.31077700
140.39999184	0.00000000	-8.74138700	-9.09817800
140.59999182	0.00000000	-9.11048200	-9.84867000
140.79999181	0.00000000	-9.48572700	-10.62992000
140.99999180	0.00000000	-9.90403500	-11.00517000
141.19999179	0.00000000	-10.64838000	-11.04823000
141.39999178	0.00000000	-11.02362000	-11.00517000
141.59999176	0.00000000	-11.02362000	-10.58686000
141.79999175	0.00000000	-10.64838000	-9.42421200
141.99999174	0.00000000	-9.90403500	-7.93553100
142.19999173	0.00000000	-9.52879000	-6.77903500
142.39999172	0.00000000	-9.48572700	-6.40378900
142.59999170	0.00000000	-9.48572700	-6.72982200
142.79999169	0.00000000	-9.48572700	-7.51722400
142.99999168	0.00000000	-9.48572700	-8.26771600
143.19999167	0.00000000	-9.48572700	-9.09817800
143.39999166	0.00000000	-9.52879000	-9.84867000
143.59999165	0.00000000	-9.90403500	-10.62992000
143.79999163	0.00000000	-10.59916000	-11.00517000
143.99999162	0.00000000	-10.59916000	-11.00517000
144.19999161	0.00000000	-9.90403500	-10.62992000
144.39999160	0.00000000	-9.52879000	-9.84867000
144.59999159	0.00000000	-9.48572700	-9.09817800
144.79999157	0.00000000	-9.48572700	-8.31077700
144.99999156	0.00000000	-9.48572700	-7.93553100
145.19999155	0.00000000	-9.48572700	-7.89247000
145.39999154	0.00000000	-9.48572700	-7.93553100
145.59999153	0.00000000	-9.52879000	-8.31077700
145.79999151	0.00000000	-9.90403500	-9.05511800
145.99999150	0.00000000	-10.59916000	-9.47342500
146.19999149	0.00000000	-10.59916000	-9.89173200
146.39999148	0.00000000	-9.90403500	-10.58686000
146.59999147	0.00000000	-9.52879000	-10.62992000
146.79999146	0.00000000	-9.44266700	-10.26698000
146.99999144	0.00000000	-9.06742000	-10.21161000
147.19999143	0.00000000	-8.37229300	-9.42421200
147.39999142	0.00000000	-8.37229300	-8.35998900
147.59999141	0.00000000	-9.06742000	-7.93553100
147.79999140	0.00000000	-9.44266700	-7.89247000
147.99999138	0.00000000	-9.52879000	-7.93553100
148.19999137	0.00000000	-9.90403500	-8.31077700
148.39999136	0.00000000	-10.64838000	-9.05511800
148.59999135	0.00000000	-10.97441000	-9.43036400
148.79999134	0.00000000	-10.64838000	-9.47342500
148.99999132	0.00000000	-9.90403500	-9.47342500
149.19999131	0.00000000	-9.52879000	-9.47342500
149.39999130	0.00000000	-9.48572700	-9.47342500
149.59999129	0.00000000	-9.48572700	-9.47342500
149.79999128	0.00000000	-9.44266700	-9.47342500
149.99999127	0.00000000	-9.11048200	-9.43036400
150.19999125	0.00000000	-8.74138700	-9.05511800
150.39999124	0.00000000	-9.11048200	-8.31077700
150.59999123	0.00000000	-9.44266700	-7.93553100
150.79999122	0.00000000	-9.52879000	-7.93553100
150.99999121	0.00000000	-9.90403500	-8.31077700
151.19999119	0.00000000	-10.64838000	-9.05511800
151.39999118	0.00000000	-10.97441000	-9.43036400
151.59999117	0.00000000	-10.69144000	-9.51648500
151.79999116	0.00000000	-10.27928000	-9.84867000
151.99999115	0.00000000	-10.27313000	-10.21161000
152.19999113	0.00000000	-9.86097400	-9.84867000
152.39999112	0.00000000	-9.52879000	-9.51648500
152.59999111	0.00000000	-9.44266700	-9.47342500
152.79999110	0.00000000	-9.11048200	-9.47342500
152.99999109	0.00000000	-8.74138700	-9.47342500
153.19999108	0.00000000	-9.11048200	-9.47342500
153.39999106	0.00000000	-9.44266700	-9.47342500
153.59999105	0.00000000	-9.52879000	-9.47342500
153.79999104	0.00000000	-9.90403500	-9.43036400
153.99999103	0.00000000	-10.64838000	-9.09817800
154.19999102	0.00000000	-11.02362000	-8.72908400
154.39999100	0.00000000	-11.06668000	-9.09817800
154.59999099	0.00000000	-11.02362000	-9.43036400
154.79999098	0.00000000	-10.64838000	-9.47342500
154.99999097	0.00000000	-9.90403500	-9.47342500
155.19999096	0.00000000	-9.52879000	-9.47342500
155.39999094	0.00000000	-9.48572700	-9.51648500
155.59999093	0.00000000	-9.48572700	-9.84867000
155.79999092	0.00000000	-9.48572700	-10.21161000
155.99999091	0.00000000	-9.48572700	-9.79945900
156.19999090	0.00000000	-9.48572700	-9.14124000
156.39999089	0.00000000	-9.52879000	-8.68602300
156.59999087	0.00000000	-9.90403500	-8.67987200
156.79999086	0.00000000	-10.64838000	-8.26771600
156.99999085	0.00000000	-11.02362000	-7.93553100
157.19999084	0.00000000	-11.06668000	-7.89247000
157.39999083	0.00000000	-11.06668000	-7.93553100
157.59999081	0.00000000	-11.02362000	-8.31077700
157.79999080	0.00000000	-10.64838000	-9.05511800
157.99999079	0.00000000	-9.90403500	-9.43036400
158.19999078	0.00000000	-9.52879000	-9.47342500
158.39999077	0.00000000	-9.44266700	-9.47342500
158.59999075	0.00000000	-9.11048200	-9.47342500
158.79999074	0.00000000	-8.74138700	-9.47342500
158.99999073	0.00000000	-9.11048200	-9.47342500
159.19999072	0.00000000	-9.44266700	-9.43036400
159.39999071	0.00000000	-9.48572700	-9.05511800
159.59999070	0.00000000	-9.48572700	-8.31077700
159.79999068	0.00000000	-9.48572700	-7.93553100
159.99999067	0.00000000	-9.52879000	-7.89247000
160.19999066	0.00000000	-9.90403500	-7.93553100
160.39999065	0.00000000	-10.64838000	-8.31077700
160.59999064	0.00000000	-10.97441000	-9.05511800
160.79999062	0.00000000	-10.64838000	-9.43036400
160.99999061	0.00000000	-9.90403500	-9.47342500
161.19999060	0.00000000	-9.52879000	-9.47342500
161.39999059	0.00000000	-9.48572700	-9.47342500
161.59999058	0.00000000	-9.48572700	-9.47342500
161.79999056	0.00000000	-9.48572700	-9.47342500
161.99999055	0.00000000	-9.48572700	-9.47342500
162.19999054	0.00000000	-9.48572700	-9.43036400
162.39999053	0.00000000	-9.48572700	-9.09817800
162.59999052	0.00000000	-9.48572700	-8.72908400
162.79999051	0.00000000	-9.52879000	-9.05511800
162.99999049	0.00000000	-9.90403500	-9.05511800
163.19999048	0.00000000	-10.64838000	-8.68602300
163.39999047	0.00000000	-11.02362000	-8.72293300
163.59999046	0.00000000	-11.06668000	-8.68602300
163.79999045	0.00000000	-11.06668000	-9.09817800
163.99999043	0.00000000	-11.02362000	-9.43036400
164.19999042	0.00000000	-10.64838000	-9.47342500
164.39999041	0.00000000	-9.90403500	-9.47342500
164.59999040	0.00000000	-9.52879000	-9.47342500
164.79999039	0.00000000	-9.48572700	-9.47342500
164.99999037	0.00000000	-9.48572700	-9.47342500
165.19999036	0.00000000	-9.48572700	-9.43036400
165.39999035	0.00000000	-9.48572700	-9.09817800
165.59999034	0.00000000	-9.48572700	-8.72908400
165.79999033	0.00000000	-9.52879000	-9.09817800
165.99999032	0.00000000	-9.90403500	-9.38115100
166.19999030	0.00000000	-10.59916000	-9.14124000
166.39999029	0.00000000	-10.64838000	-9.10433000
166.59999028	0.00000000	-10.32234000	-9.79330600
166.79999027	0.00000000	-10.64838000	-9.42421200
166.99999026	0.00000000	-10.59916000	-8.77829600
167.19999024	0.00000000	-9.90403500	-9.09817800
167.39999023	0.00000000	-9.52879000	-9.43036400
167.59999022	0.00000000	-9.48572700	-9.47342500
167.79999021	0.00000000	-9.48572700	-9.47342500
167.99999020	0.00000000	-9.48572700	-9.47342500
168.19999018	0.00000000	-9.48572700	-9.47342500
168.39999017	0.00000000	-9.48572700	-9.47342500
168.59999016	0.00000000	-9.52879000	-9.47342500
168.79999015	0.00000000	-9.86097400	-9.47342500
168.99999014	0.00000000	-10.23007000	-9.47342500
169.19999013	0.00000000	-9.86097400	-9.47342500
169.39999011	0.00000000	-9.57800100	-9.47342500
169.59999010	0.00000000	-9.86097400	-9.47342500
169.79999009	0.00000000	-10.27313000	-9.47342500
169.99999008	0.00000000	-10.23622000	-9.47342500
170.19999007	0.00000000	-10.27313000	-9.47342500
170.39999005	0.00000000	-9.86097400	-9.47342500
170.59999004	0.00000000	-9.52879000	-9.47342500
170.79999003	0.00000000	-9.48572700	-9.47342500
170.99999002	0.00000000	-9.48572700	-9.47342500
171.19999001	0.00000000	-9.48572700	-9.47342500
171.39998999	0.00000000	-9.48572700	-9.47342500
171.59998998	0.00000000	-9.48572700	-9.47342500
171.79998997	0.00000000	-9.48572700	-9.47342500
171.99998996	0.00000000	-9.48572700	-9.47342500
172.19998995	0.00000000	-9.48572700	-9.47342500
172.39998994	0.00000000	-9.48572700	-9.47342500
172.59998992	0.00000000	-9.48572700	-9.47342500
172.79998991	0.00000000	-9.48572700	-9.43036400
172.99998990	0.00000000	-9.48572700	-9.09817800
173.19998989	0.00000000	-9.48572700	-8.72908400
173.39998988	0.00000000	-9.48572700	-9.09817800
173.59998986	0.00000000	-9.48572700	-9.43036400
173.79998985	0.00000000	-9.48572700	-9.47342500
173.99998984	0.00000000	-9.48572700	-9.47342500
174.19998983	0.00000000	-9.48572700	-9.47342500
174.39998982	0.00000000	-9.48572700	-9.47342500
174.59998980	0.00000000	-9.48572700	-9.47342500
174.79998979	0.00000000	-9.48572700	-9.47342500
174.99998978	0.00000000	-9.48572700	-9.47342500
175.19998977	0.00000000	-9.48572700	-9.47342500
175.39998976	0.00000000	-9.48572700	-9.47342500
175.59998975	0.00000000	-9.48572700	-9.47342500
175.79998973	0.00000000	-9.48572700	-9.47342500
175.99998972	0.00000000	-9.48572700	-9.47342500
176.19998971	0.00000000	-9.48572700	-9.47342500
176.39998970	0.00000000	-9.48572700	-9.47342500
176.59998969	0.00000000	-9.48572700	-9.47342500
176.79998967	0.00000000	-9.48572700	-9.47342500
176.99998966	0.00000000	-9.48572700	-9.47342500
177.19998965	0.00000000	-9.48572700	-9.47342500
177.39998964	0.00000000	-9.48572700	-9.47342500
177.59998963	0.00000000	-9.48572700	-9.47342500
177.79998961	0.00000000	-9.48572700	-9.47342500
177.99998960	0.00000000	-9.48572700	-9.47342500
178.19998959	0.00000000	-9.48572700	-9.47342500
178.39998958	0.00000000	-9.52879000	-9.47342500
178.59998957	0.00000000	-9.86097400	-9.47342500
178.79998956	0.00000000	-10.23007000	-9.43036400
178.99998954	0.00000000	-9.86097400	-9.09817800
179.19998953	0.00000000	-9.52879000	-8.72908400
179.39998952	0.00000000	-9.48572700	-9.09817800
179.59998951	0.00000000	-9.48572700	-9.43036400
179.79998950	0.00000000	-9.48572700	-9.47342500
179.99998948	0.00000000	-9.48572700	-9.47342500
180.19998947	0.00000000	-9.52879000	-9.47342500
180.39998946	0.00000000	-9.90403500	-9.47342500
180.59998945	0.00000000	-10.59916000	-9.47342500
180.79998944	0.00000000	-10.59916000	-9.47342500
180.99998942	0.00000000	-9.90403500	-9.47342500
181.19998941	0.00000000	-9.52879000	-9.43036400
181.39998940	0.00000000	-9.48572700	-9.05511800
181.59998939	0.00000000	-9.52879000	-8.35998900
181.79998938	0.00000000	-9.86097400	-8.35998900
181.99998937	0.00000000	-10.23007000	-9.00590400
182.19998935	0.00000000	-9.86097400	-9.05511800
182.39998934	0.00000000	-9.52879000	-8.72908400
182.59998933	0.00000000	-9.48572700	-9.09817800
182.79998932	0.00000000	-9.48572700	-9.43036400
182.99998931	0.00000000	-9.48572700	-9.51648500
183.19998929	0.00000000	-9.48572700	-9.84867000
183.39998928	0.00000000	-9.48572700	-10.21161000
183.59998927	0.00000000	-9.48572700	-9.84867000
183.79998926	0.00000000	-9.48572700	-9.51648500
183.99998925	0.00000000	-9.48572700	-9.47342500
184.19998923	0.00000000	-9.48572700	-9.47342500
184.39998922	0.00000000	-9.48572700	-9.47342500
184.59998921	0.00000000	-9.48572700	-9.47342500
184.79998920	0.00000000	-9.48572700	-9.43036400
184.99998919	0.00000000	-9.48572700	-9.05511800
185.19998918	0.00000000	-9.48572700	-8.35998900
185.39998916	0.00000000	-9.48572700	-8.35998900
185.59998915	0.00000000	-9.48572700	-9.05511800
185.79998914	0.00000000	-9.48572700	-9.43036400
185.99998913	0.00000000	-9.48572700	-9.51648500
186.19998912	0.00000000	-9.48572700	-9.89173200
186.39998910	0.00000000	-9.52879000	-10.62992000
186.59998909	0.00000000	-9.86097400	-10.95595000
186.79998908	0.00000000	-10.23007000	-10.62992000
186.99998907	0.00000000	-9.86097400	-9.84867000
187.19998906	0.00000000	-9.52879000	-9.09817800
187.39998904	0.00000000	-9.52879000	-8.31077700
187.59998903	0.00000000	-9.90403500	-7.93553100
187.79998902	0.00000000	-10.59916000	-7.89247000
187.99998901	0.00000000	-10.59916000	-7.89247000
188.19998900	0.00000000	-9.90403500	-7.93553100
188.39998899	0.00000000	-9.52879000	-8.31077700
188.59998897	0.00000000	-9.48572700	-9.05511800
188.79998896	0.00000000	-9.48572700	-9.47342500
188.99998895	0.00000000	-9.48572700	-9.89173200
189.19998894	0.00000000	-9.48572700	-10.62992000
189.39998893	0.00000000	-9.48572700	-10.95595000
189.59998891	0.00000000	-9.48572700	-10.62992000
189.79998890	0.00000000	-9.52879000	-9.89173200
189.99998889	0.00000000	-9.90403500	-9.51648500
190.19998888	0.00000000	-10.64838000	-9.47342500
190.39998887	0.00000000	-11.02362000	-9.43036400
190.59998885	0.00000000	-11.02362000	-9.09817800
190.79998884	0.00000000	-10.64838000	-8.72908400
190.99998883	0.00000000	-9.90403500	-9.09817800
191.19998882	0.00000000	-9.52879000	-9.43036400
191.39998881	0.00000000	-9.48572700	-9.47342500
191.59998880	0.00000000	-9.48572700	-9.47342500
191.79998878	0.00000000	-9.48572700	-9.47342500
191.99998877	0.00000000	-9.48572700	-9.47342500
192.19998876	0.00000000	-9.48572700	-9.47342500
192.39998875	0.00000000	-9.48572700	-9.47342500
192.59998874	0.00000000	-9.52879000	-9.47342500
192.79998872	0.00000000	-9.90403500	-9.47342500
192.99998871	0.00000000	-10.64838000	-9.47342500
193.19998870	0.00000000	-11.02362000	-9.47342500
193.39998869	0.00000000	-11.06668000	-9.47342500
193.59998868	0.00000000	-11.02362000	-9.47342500
193.79998866	0.00000000	-10.64838000	-9.47342500
193.99998865	0.00000000	-9.90403500	-9.47342500
194.19998864	0.00000000	-9.52879000	-9.47342500
194.39998863	0.00000000	-9.48572700	-9.47342500
194.59998862	0.00000000	-9.48572700	-9.47342500
194.79998861	0.00000000	-9.48572700	-9.47342500
194.99998859	0.00000000	-9.48572700	-9.47342500
195.19998858	0.00000000	-9.48572700	-9.47342500
195.39998857	0.00000000	-9.52879000	-9.47342500
195.59998856	0.00000000	-9.90403500	-9.47342500
195.79998855	0.00000000	-10.59916000	-9.47342500
195.99998853	0.00000000	-10.64838000	-9.47342500
