Time	Channel A	Channel B	Channel C
(us)	(V)	(mV)	(mV)

-4.59999956	0.00000000	-7.90477300	-9.47342500
-4.39999957	0.00000000	-7.90477300	-9.47342500
-4.19999958	0.00000000	-7.90477300	-9.47342500
-3.99999959	0.00000000	-7.90477300	-9.43036400
-3.79999960	0.00000000	-7.90477300	-9.09817800
-3.59999962	0.00000000	-7.90477300	-8.72908400
-3.39999963	0.00000000	-7.90477300	-9.09817800
-3.19999964	0.00000000	-7.90477300	-9.43036400
-2.99999965	0.00000000	-7.90477300	-9.47342500
-2.79999966	0.00000000	-7.90477300	-9.47342500
-2.59999968	0.00000000	-7.90477300	-9.47342500
-2.39999969	0.00000000	-7.90477300	-9.47342500
-2.19999970	0.00000000	-7.90477300	-9.47342500
-1.99999971	0.00000000	-7.90477300	-9.47342500
-1.79999972	0.00000000	-7.90477300	-9.47342500
-1.59999973	0.00000000	-7.90477300	-9.47342500
-1.39999975	0.00000000	-7.90477300	-9.43036400
-1.19999976	0.00000000	-7.90477300	-9.09817800
-0.99999977	0.00000000	-7.90477300	-8.68602300
-0.79999978	0.00000000	-7.90477300	-8.72293300
-0.59999979	0.00000000	-7.90477300	-8.68602300
-0.39999981	0.15871060	-7.90477300	-9.09817800
-0.19999982	0.47736220	-7.90477300	-9.43036400
0.00000017	0.79601380	-7.90477300	-9.47342500
0.20000016	0.95533960	-7.90477300	-9.47342500
0.40000015	0.95533960	-7.94783400	-9.47342500
0.60000013	0.63668800	-8.28001900	-9.47342500
0.80000012	0.00000000	-8.64911400	-9.47342500
1.00000011	-0.95533960	-8.28001900	-9.47342500
1.20000010	-1.91129400	-7.94783400	-9.47342500
1.40000009	-2.54859700	-7.90477300	-9.43036400
1.60000008	-2.70792300	-7.90477300	-9.09817800
1.80000006	-2.07062000	-7.94783400	-8.72908400
2.00000005	-0.63668800	-8.28001900	-9.05511800
2.20000004	1.27399100	-8.64911400	-9.09817800
2.40000003	3.34522600	-8.28001900	-9.10433000
2.60000002	4.93786900	-7.94783400	-9.79330600
2.80000000	5.41584600	-7.90477300	-9.42421200
2.99999999	4.30056600	-7.94783400	-8.77829600
3.19999998	1.91129400	-8.28001900	-9.09817800
3.39999997	-1.27399100	-8.64911400	-9.43036400
3.59999996	-4.61921700	-8.28001900	-9.47342500
3.79999994	-7.16781500	-7.94783400	-9.43036400
3.99999993	-7.96444400	-7.90477300	-9.05511800
4.19999992	-6.84916400	-7.90477300	-8.31077700
4.39999991	-3.82258900	-7.90477300	-7.93553100
4.59999990	0.47736220	-7.94783400	-7.89247000
4.79999989	4.77854300	-8.28001900	-7.93553100
4.99999987	8.12377000	-8.69217500	-8.31077700
5.19999986	9.55770200	-8.69832600	-9.05511800
5.39999985	8.44242100	-9.06742000	-9.43036400
5.59999984	5.25652100	-9.06742000	-9.47342500
5.79999983	0.63668800	-8.69832600	-9.47342500
5.99999981	-3.98191400	-8.69217500	-9.47342500
6.19999980	-7.80511800	-8.28001900	-9.43036400
6.39999979	-9.39837600	-7.94783400	-9.05511800
6.59999978	-8.76107300	-7.90477300	-8.31077700
6.79999977	-5.89382400	-7.90477300	-7.93553100
6.99999975	-1.75196900	-7.90477300	-7.89247000
7.19999974	2.38927200	-7.94783400	-7.93553100
7.39999973	5.89382400	-8.28001900	-8.31077700
7.59999972	7.64579200	-8.69217500	-9.05511800
7.79999971	7.32714100	-8.69832600	-9.43036400
7.99999970	5.41584600	-9.11048200	-9.47342500
8.19999968	2.22994600	-9.39345400	-9.47342500
8.39999967	-0.95533960	-9.06742000	-9.47342500
8.59999966	-3.66326300	-8.32308000	-9.43036400
8.79999965	-5.09719500	-7.94783400	-9.09817800
8.99999964	-4.93786900	-7.90477300	-8.68602300
9.19999962	-3.82258900	-7.90477300	-8.67987200
9.39999961	-2.07062000	-7.94783400	-8.31077700
9.59999960	0.00000000	-8.28001900	-8.35998900
9.79999959	1.59264300	-8.64911400	-9.05511800
9.99999958	2.38927200	-8.32308000	-9.38115100
10.19999956	2.54859700	-8.32308000	-9.09817800
10.39999955	2.07062000	-8.64911400	-8.72908400
10.59999954	1.11466500	-8.28001900	-9.09817800
10.79999953	0.15871060	-7.94783400	-9.43036400
10.99999952	-0.47736220	-7.90477300	-9.47342500
11.19999951	-0.79601380	-7.90477300	-9.47342500
11.39999949	-0.95533960	-7.94783400	-9.47342500
11.59999948	-0.95533960	-8.28001900	-9.47342500
11.79999947	-0.63668800	-8.64911400	-9.47342500
11.99999946	-0.31803640	-8.28001900	-9.47342500
12.19999945	-0.15871060	-7.94783400	-9.47342500
12.39999943	-0.15871060	-7.90477300	-9.47342500
12.59999942	-0.15871060	-7.90477300	-9.43036400
12.79999941	0.00000000	-7.90477300	-9.09817800
12.99999940	0.00000000	-7.94783400	-8.72908400
13.19999939	0.00000000	-8.32308000	-9.09817800
13.39999937	0.00000000	-9.01820900	-9.43036400
13.59999936	0.00000000	-9.01820900	-9.47342500
13.79999935	0.00000000	-8.32308000	-9.47342500
13.99999934	0.00000000	-7.94783400	-9.47342500
14.19999933	-0.15871060	-7.90477300	-9.47342500
14.39999932	-0.15871060	-7.90477300	-9.47342500
14.59999930	-0.15871060	-7.94783400	-9.47342500
14.79999929	0.00000000	-8.32308000	-9.43036400
14.99999928	0.00000000	-9.01820900	-9.09817800
15.19999927	0.00000000	-9.06742000	-8.72908400
15.39999926	0.00000000	-8.74138700	-9.05511800
15.59999924	0.00000000	-9.11048200	-9.05511800
15.79999923	0.00000000	-9.44266700	-8.72908400
15.99999922	0.00000000	-9.48572700	-9.05511800
16.19999921	0.00000000	-9.48572700	-9.05511800
16.39999920	0.00000000	-9.44266700	-8.72908400
16.59999919	-0.15871060	-9.06742000	-9.09817800
16.79999917	-0.15871060	-8.32308000	-9.43036400
16.99999916	0.00000000	-7.90477300	-9.47342500
17.19999915	0.00000000	-7.48646600	-9.47342500
17.39999914	0.00000000	-6.74212600	-9.47342500
17.59999913	0.00000000	-6.36687900	-9.43036400
17.79999911	0.00000000	-6.36687900	-9.05511800
17.99999910	0.00000000	-6.83439900	-8.35998900
18.19999909	0.00000000	-8.32308000	-8.35998900
18.39999908	0.00000000	-10.23007000	-9.05511800
18.59999907	0.00000000	-11.44193000	-9.38115100
18.79999905	0.00000000	-12.64764000	-9.05511800
18.99999904	0.00000000	-13.67495000	-8.35998900
19.19999903	0.00000000	-13.25664000	-8.35998900
19.39999902	0.00000000	-10.97441000	-9.05511800
19.59999901	0.00000000	-7.86171200	-9.43036400
19.79999900	0.00000000	-4.32455700	-9.47342500
19.99999898	0.00000000	-0.51058070	-9.47342500
20.19999897	0.00000000	2.14074800	-9.47342500
20.39999896	0.00000000	2.51599400	-9.47342500
20.59999895	0.00000000	0.55979330	-9.47342500
20.79999894	0.00000000	-3.80782500	-9.47342500
20.99999892	0.00000000	-10.37155000	-9.47342500
21.19999891	0.00000000	-18.08563000	-9.47342500
21.39999890	0.00000000	-24.60630000	-9.47342500
21.59999889	0.00000000	-28.46333000	-9.47342500
21.79999888	0.00000000	-28.37721000	-9.47342500
21.99999886	0.00000000	-23.63435000	-9.47342500
22.19999885	0.00000000	-14.32702000	-9.47342500
22.39999884	0.00000000	-1.95620100	-9.47342500
22.59999883	0.00000000	10.37771000	-9.47342500
22.79999882	0.00000000	19.96186000	-9.43036400
22.99999881	0.00000000	23.72662000	-9.05511800
23.19999879	0.00000000	19.82652000	-8.31077700
23.39999878	0.00000000	8.98129900	-7.89247000
23.59999877	0.00000000	-6.92052100	-7.47416300
23.79999876	0.00000000	-24.65551000	-6.72982200
23.99999875	0.00000000	-40.09596000	-6.40378900
24.19999873	0.00000000	-49.26796000	-6.72982200
24.39999872	0.00000000	-49.59399000	-7.51722400
24.59999871	0.00000000	-39.87451000	-8.35998900
24.79999870	0.00000000	-22.13952000	-9.93479300
24.99999869	0.00000000	-0.46751960	-12.16781000
25.19999867	0.00000000	20.38017000	-13.69956000
25.39999866	0.00000000	35.78371000	-14.11786000
25.59999865	0.00000000	41.50467000	-13.69956000
25.79999864	0.00000000	35.69143000	-12.11860000
25.99999863	0.00000000	19.45128000	-9.38115100
26.19999862	0.00000000	-3.71555100	-5.89320800
26.39999860	0.00000000	-28.42027000	-2.04232300
26.59999859	0.00000000	-48.89272000	0.97810030
26.79999858	0.00000000	-60.47613000	2.13459600
26.99999857	0.00000000	-60.43307000	0.88582670
27.19999856	0.00000000	-48.47441000	-3.01427100
27.39999854	0.00000000	-27.30684000	-9.60875900
27.59999853	0.00000000	-2.60211600	-17.27977000
27.79999852	0.00000000	19.86959000	-24.24335000
27.99999851	0.00000000	35.73449000	-28.80167000
28.19999850	0.00000000	41.50467000	-29.53986000
28.39999848	0.00000000	35.78371000	-25.59670000
28.59999847	0.00000000	20.42938000	-17.46432000
28.79999846	0.00000000	-0.09227362	-6.22539300
28.99999845	0.00000000	-21.40133000	5.67175200
29.19999844	0.00000000	-39.54232000	15.32972000
29.39999843	0.00000000	-50.01230000	20.30635000
29.59999841	0.00000000	-50.89813000	19.46973000
29.79999840	0.00000000	-43.21481000	12.08169000
29.99999839	0.00000000	-28.93085000	-0.68897630
30.19999838	0.00000000	-11.48499000	-16.11712000
30.39999837	0.00000000	5.54256900	-31.16388000
30.59999835	0.00000000	19.07603000	-41.90453000
30.79999834	0.00000000	25.68282000	-45.80462000
30.99999833	0.00000000	24.61245000	-41.90453000
31.19999832	0.00000000	16.93528000	-31.07775000
31.39999831	0.00000000	4.56446800	-15.18824000
31.59999829	0.00000000	-9.35039300	2.55905500
31.79999828	0.00000000	-22.18873000	18.35630000
31.99999827	0.00000000	-31.49606000	28.38951000
32.19999826	0.00000000	-35.77140000	30.33957000
32.39999825	0.00000000	-34.23966000	24.16338000
32.59999824	0.00000000	-27.30684000	11.06053000
32.79999822	0.00000000	-16.87992000	-5.98548200
32.99999821	0.00000000	-5.29650500	-23.36983000
33.19999820	0.00000000	4.74901600	-38.09055000
33.39999819	0.00000000	10.98671000	-46.51205000
33.59999818	0.00000000	12.56767000	-46.96727000
33.79999816	0.00000000	9.49187900	-39.21014000
33.99999815	0.00000000	2.56520700	-25.35679000
34.19999814	0.00000000	-6.28075700	-8.35998900
34.39999813	0.00000000	-14.78838000	7.85556000
34.59999812	0.00000000	-20.97687000	19.88804000
34.79999810	0.00000000	-23.72047000	25.69513000
34.99999809	0.00000000	-22.55782000	24.11417000
35.19999808	0.00000000	-17.99951000	15.28666000
35.39999807	0.00000000	-11.44193000	1.43946800
35.59999806	0.00000000	-4.92125900	-13.61343000
35.79999805	0.00000000	0.09842519	-26.75935000
35.99999803	0.00000000	2.05462600	-35.26082000
36.19999802	0.00000000	0.93503930	-37.21087000
36.39999801	0.00000000	-2.55290300	-32.60949000
36.59999800	0.00000000	-7.94783400	-22.61934000
36.79999799	0.00000000	-13.63189000	-9.98400600
36.99999797	0.00000000	-17.48893000	1.58710600
37.19999796	0.00000000	-18.32554000	9.34424200
37.39999795	0.00000000	-16.83686000	12.03863000
37.59999794	0.00000000	-13.67495000	8.96899500
37.79999793	0.00000000	-9.06742000	0.93503930
37.99999791	0.00000000	-4.09079700	-9.38730200
38.19999790	0.00000000	-0.59670270	-18.95300000
38.39999789	0.00000000	0.98425190	-24.71703000
38.59999788	0.00000000	0.55979330	-25.13533000
38.79999787	0.00000000	-2.13459600	-20.52780000
38.99999786	0.00000000	-6.36687900	-12.11860000
39.19999784	0.00000000	-11.02362000	-2.59596400
39.39999783	0.00000000	-15.25591000	4.69980300
39.59999782	0.00000000	-17.95029000	7.76328700
39.79999781	0.00000000	-18.37475000	5.85629900
39.99999780	0.00000000	-16.87992000	-0.68897630
40.19999778	0.00000000	-14.13632000	-9.89173200
40.39999777	0.00000000	-10.64838000	-19.46358000
40.59999776	0.00000000	-6.74212600	-26.34104000
40.79999775	0.00000000	-3.25418300	-28.24803000
40.99999774	0.00000000	-0.51058070	-24.80315000
41.19999772	0.00000000	0.98425190	-16.81225000
41.39999771	-0.15871060	0.60900590	-7.19734200
41.59999770	0.00000000	-1.71628900	1.35334600
41.79999769	0.00000000	-5.21038300	7.85556000
41.99999768	0.00000000	-9.44266700	10.08243000
42.19999767	0.00000000	-13.29970000	6.69291300
42.39999765	0.00000000	-15.67421000	-0.51058070
42.59999764	0.00000000	-16.83686000	-9.00590400
42.79999763	0.00000000	-16.46161000	-16.76919000
42.99999762	0.00000000	-14.56078000	-22.52707000
43.19999761	0.00000000	-12.22933000	-24.85236000
43.39999759	0.00000000	-9.48572700	-22.95152000
43.59999758	0.00000000	-6.83439900	-18.01796000
43.79999757	0.00000000	-5.25344500	-11.46653000
43.99999756	0.00000000	-4.78592500	-5.29035400
44.19999755	0.00000000	-4.74286400	-0.64591530
44.39999753	0.00000000	-4.78592500	1.67322800
44.59999752	0.00000000	-5.16117100	0.93503930
44.79999751	0.00000000	-5.90551100	-2.04232300
44.99999750	0.00000000	-6.28075700	-5.89320800
45.19999749	0.00000000	-6.36687900	-9.42421200
45.39999748	0.00000000	-6.83439900	-12.53691000
45.59999746	0.00000000	-8.41535400	-14.81299000
45.79999745	0.00000000	-11.10974000	-15.23130000
45.99999744	0.00000000	-14.18553000	-14.11786000
46.19999743	0.00000000	-16.87992000	-12.16781000
46.39999742	0.00000000	-18.37475000	-9.47342500
46.59999740	0.00000000	-17.99951000	-6.82209600
46.79999739	0.00000000	-15.58194000	-5.24729300
46.99999738	0.00000000	-11.30044000	-4.77977300
47.19999737	0.00000000	-5.11811000	-4.82898600
47.39999736	0.00000000	0.98425190	-5.61638700
47.59999734	0.00000000	5.25959600	-7.56643700
47.79999733	0.00000000	6.74827700	-9.84867000
47.99999732	0.00000000	4.79207600	-12.16781000
48.19999731	0.00000000	-0.59670270	-13.69956000
48.39999730	0.00000000	-7.94783400	-14.11786000
48.59999729	0.00000000	-15.71727000	-13.69956000
48.79999727	0.00000000	-22.65010000	-12.07554000
48.99999726	0.00000000	-26.83932000	-9.05511800
49.19999725	0.00000000	-26.79626000	-5.61638700
49.39999724	0.00000000	-22.13952000	-3.29109200
49.59999723	0.00000000	-13.71801000	-2.12844500
49.79999721	0.00000000	-4.09079700	-2.54675200
49.99999720	0.00000000	4.05388800	-4.82283400
50.19999719	0.00000000	9.44881800	-7.93553100
50.39999718	0.00000000	10.51919000	-11.42347000
50.59999717	0.00000000	6.32997000	-14.85605000
50.79999715	0.00000000	-1.71628900	-16.76919000
50.99999714	0.00000000	-10.97441000	-16.81225000
51.19999713	0.00000000	-19.44513000	-15.23130000
51.39999712	0.00000000	-24.84006000	-12.11860000
51.59999711	0.00000000	-25.63361000	-7.89247000
51.79999710	0.00000000	-22.23179000	-3.70939900
51.99999708	0.00000000	-15.63115000	-0.97194880
52.19999707	0.00000000	-7.57258800	-0.17839570
52.39999706	0.00000000	0.09842519	-0.97194880
52.59999705	0.00000000	4.70595500	-3.70939900
52.79999704	0.00000000	5.12426100	-7.89247000
52.99999702	0.00000000	1.72244100	-12.11860000
53.19999701	0.00000000	-4.45989200	-15.18824000
53.39999700	0.00000000	-11.34966000	-16.34473000
53.59999699	0.00000000	-17.53199000	-15.27436000
53.79999698	0.00000000	-20.93381000	-13.00443000
53.99999696	0.00000000	-20.60162000	-10.62992000
54.19999695	0.00000000	-16.79380000	-7.93553100
54.39999694	0.00000000	-11.06668000	-5.66560000
54.59999693	0.00000000	-5.25344500	-4.87204700
54.79999692	0.00000000	-0.64591530	-5.24729300
54.99999691	0.00000000	1.67938000	-6.77903500
55.19999689	0.00000000	0.89197830	-9.05511800
55.39999688	0.00000000	-2.55290300	-10.91289000
55.59999687	0.00000000	-7.90477300	-11.65723000
55.79999686	0.00000000	-13.25664000	-10.53765000
55.99999685	0.00000000	-16.74459000	-8.31077700
56.19999683	0.00000000	-17.95029000	-6.40378900
56.39999682	0.00000000	-16.79380000	-5.19808000
56.59999681	0.00000000	-13.71801000	-4.91510800
56.79999680	0.00000000	-9.48572700	-6.08390700
56.99999679	0.00000000	-5.25344500	-9.14124000
57.19999677	0.00000000	-2.17765700	-12.58612000
57.39999676	0.00000000	-0.97194880	-15.64960000
57.59999675	0.00000000	-1.75935000	-17.55044000
57.79999674	0.00000000	-4.04773600	-17.09523000
57.99999673	0.00000000	-7.52952700	-14.39468000
58.19999672	0.00000000	-10.93135000	-9.38115100
58.39999670	0.00000000	-13.29970000	-3.66633800
58.59999669	0.00000000	-14.05020000	0.93503930
58.79999668	0.00000000	-13.34276000	3.25418300
58.99999667	0.00000000	-11.44193000	2.46678100
59.19999666	0.00000000	-9.52879000	-1.01501000
59.39999664	0.00000000	-7.94783400	-6.82209600
59.59999663	0.00000000	-6.79133800	-13.74262000
59.79999662	0.00000000	-6.41609200	-19.88189000
59.99999661	0.00000000	-6.74212600	-23.68971000
60.19999660	0.00000000	-7.52952700	-23.68971000
60.39999658	0.00000000	-8.28001900	-19.83883000
60.59999657	0.00000000	-9.06742000	-13.28125000
60.79999656	0.00000000	-9.44266700	-5.20423200
60.99999655	0.00000000	-9.44266700	2.09153500
61.19999654	0.00000000	-9.01820900	6.69291300
61.39999653	0.00000000	-7.94783400	7.48031400
61.59999651	0.00000000	-7.20964500	4.00467500
61.79999650	0.00000000	-7.57258800	-2.50369100
61.99999649	0.00000000	-8.32308000	-10.62992000
62.19999648	0.00000000	-9.48572700	-18.35015000
62.39999647	0.00000000	-10.64838000	-24.10802000
62.59999645	0.00000000	-11.44193000	-26.38410000
62.79999644	0.00000000	-12.18012000	-24.10802000
62.99999643	0.00000000	-12.13706000	-18.35015000
63.19999642	0.00000000	-10.97441000	-10.62992000
63.39999641	0.00000000	-9.06742000	-2.54675200
63.59999639	0.00000000	-6.79133800	3.62942900
63.79999638	0.00000000	-5.25344500	6.74212600
63.99999637	0.00000000	-4.83513700	6.36687900
64.19999636	0.00000000	-5.21038300	2.51599400
64.39999635	0.00000000	-6.36687900	-3.62327700
64.59999634	0.00000000	-7.94783400	-10.53765000
64.79999632	0.00000000	-9.90403500	-16.39395000
64.99999631	0.00000000	-12.13706000	-20.30020000
65.19999630	0.00000000	-13.25664000	-22.20103000
65.39999629	0.00000000	-12.55536000	-21.03838000
65.59999628	0.00000000	-11.06668000	-17.27362000
65.79999626	0.00000000	-9.48572700	-12.62918000
65.99999625	0.00000000	-7.94783400	-7.93553100
66.19999624	0.00000000	-6.79133800	-3.66633800
66.39999623	0.00000000	-6.41609200	-0.59670270
66.59999622	0.00000000	-6.83439900	0.64591530
66.79999620	0.00000000	-8.37229300	0.28297240
66.99999619	0.00000000	-10.59916000	-0.87967510
67.19999618	0.00000000	-12.09400000	-3.24803100
67.39999617	0.00000000	-12.13706000	-6.31151500
67.59999616	0.00000000	-10.97441000	-9.47342500
67.79999615	0.00000000	-9.06742000	-12.58612000
67.99999613	0.00000000	-6.74212600	-15.32357000
68.19999612	0.00000000	-4.83513700	-17.23056000
68.39999611	0.00000000	-3.67249000	-18.01796000
68.59999610	0.00000000	-3.71555100	-17.18750000
68.79999609	0.00000000	-5.29650500	-14.90526000
68.99999607	0.00000000	-8.37229300	-11.38041000
69.19999606	0.00000000	-12.22933000	-7.47416300
69.39999605	0.00000000	-15.71727000	-3.20497000
69.59999604	0.00000000	-18.37475000	0.60285430
69.79999603	0.00000000	-19.06988000	2.50984200
69.99999601	0.00000000	-16.74459000	2.14074800
70.19999600	0.00000000	-12.13706000	-0.59670270
70.39999599	0.00000000	-6.36687900	-5.19808000
70.59999598	0.00000000	-0.97194880	-10.62992000
70.79999597	0.00000000	2.47293300	-15.64960000
70.99999596	0.00000000	3.26033400	-19.50664000
71.19999594	0.00000000	0.93503930	-20.99532000
71.39999593	0.00000000	-3.67249000	-19.50664000
71.59999592	0.00000000	-9.48572700	-15.69882000
71.79999591	0.00000000	-15.29897000	-11.04823000
71.99999590	0.00000000	-19.90650000	-6.40378900
72.19999588	0.00000000	-22.23179000	-2.54675200
72.39999587	0.00000000	-21.44439000	-0.59670270
72.59999586	0.00000000	-17.99951000	-0.55364170
72.79999585	0.00000000	-12.60458000	-2.12844500
72.99999584	0.00000000	-6.79133800	-5.15501900
73.19999582	0.00000000	-1.75935000	-8.58759800
73.39999581	0.00000000	1.72244100	-10.91289000
73.59999580	0.00000000	2.47293300	-12.16166000
73.79999579	0.00000000	0.60900590	-12.49385000
73.99999578	0.00000000	-3.25418300	-11.74951000
74.19999577	0.00000000	-7.90477300	-9.89173200
74.39999575	0.00000000	-12.55536000	-8.44611200
74.59999574	0.00000000	-16.36934000	-8.40305000
74.79999573	0.00000000	-17.95029000	-9.47342500
74.99999572	0.00000000	-17.25517000	-10.62992000
75.19999571	0.00000000	-15.29897000	-11.42347000
75.39999569	0.00000000	-12.18012000	-12.16166000
75.59999568	0.00000000	-8.37229300	-12.07554000
75.79999567	0.00000000	-5.29650500	-10.53765000
75.99999566	0.00000000	-3.71555100	-7.84940900
76.19999565	0.00000000	-3.67249000	-4.77977300
76.39999563	0.00000000	-4.78592500	-2.12844500
76.59999562	0.00000000	-6.32381900	-1.01501000
76.79999561	0.00000000	-7.86171200	-2.17765700
76.99999560	0.00000000	-9.01820900	-5.24729300
77.19999559	0.00000000	-9.44266700	-9.51648500
77.39999558	0.00000000	-9.48572700	-14.11786000
77.59999556	0.00000000	-9.48572700	-17.97490000
77.79999555	0.00000000	-9.52879000	-19.88189000
77.99999554	0.00000000	-9.90403500	-19.46358000
78.19999553	0.00000000	-10.64838000	-16.35089000
78.39999552	0.00000000	-11.02362000	-11.00517000
78.59999550	0.00000000	-11.06668000	-5.24729300
78.79999549	0.00000000	-11.02362000	-0.55364170
78.99999548	0.00000000	-10.59916000	2.51599400
79.19999547	0.00000000	-9.44266700	3.25418300
79.39999546	0.00000000	-7.86171200	0.97810030
79.59999544	0.00000000	-5.94857300	-3.24803100
79.79999543	0.00000000	-4.09079700	-8.26771600
79.99999542	0.00000000	-3.71555100	-13.32431000
80.19999541	0.00000000	-4.83513700	-17.18750000
80.39999540	0.00000000	-6.79133800	-19.50664000
80.59999539	0.00000000	-9.48572700	-19.50664000
80.79999537	0.00000000	-12.18012000	-17.23056000
80.99999536	0.00000000	-14.09326000	-13.79183000
81.19999535	0.00000000	-14.88066000	-9.89173200
81.39999534	0.00000000	-14.09326000	-6.36072800
81.59999533	0.00000000	-12.18012000	-3.24803100
81.79999531	0.00000000	-9.48572700	-0.97194880
81.99999530	0.00000000	-6.79133800	-0.55364170
82.19999529	0.00000000	-4.87819900	-1.66707700
82.39999528	0.00000000	-4.09079700	-3.61712600
82.59999527	0.00000000	-4.83513700	-6.31151500
82.79999525	0.00000000	-6.32381900	-9.05511800
82.99999524	0.00000000	-7.90477300	-11.46653000
83.19999523	0.00000000	-9.48572700	-14.16092000
83.39999522	0.00000000	-11.02362000	-16.43701000
83.59999521	0.00000000	-12.13706000	-17.18750000
83.79999520	0.00000000	-12.13706000	-16.43701000
83.99999518	0.00000000	-11.06668000	-14.11786000
84.19999517	0.00000000	-9.90403500	-11.00517000
84.39999516	0.00000000	-9.15354300	-7.47416300
84.59999515	0.00000000	-8.69832600	-3.62327700
84.79999514	0.00000000	-8.73523500	-0.59670270
84.99999512	0.00000000	-8.65526600	0.60285430
85.19999511	0.00000000	-8.69217500	-0.17839570
85.39999510	0.00000000	-8.28001900	-2.50369100
85.59999509	0.00000000	-7.90477300	-6.40378900
85.79999508	0.00000000	-7.48646600	-11.00517000
85.99999506	0.00000000	-6.79133800	-15.27436000
86.19999505	0.00000000	-6.79133800	-18.35015000
86.39999504	0.00000000	-7.52952700	-19.50664000
86.59999503	0.00000000	-8.32308000	-18.30093000
86.79999502	0.00000000	-9.52879000	-14.85605000
86.99999501	0.00000000	-11.02362000	-9.84867000
87.19999499	0.00000000	-12.18012000	-4.87204700
87.39999498	0.00000000	-12.55536000	-1.02116100
87.59999497	0.00000000	-12.18012000	0.55979330
87.79999496	0.00000000	-10.97441000	-0.17839570
87.99999495	0.00000000	-9.11048200	-2.54675200
88.19999493	0.00000000	-7.16043300	-6.77903500
88.39999492	0.00000000	-6.04084600	-11.74336000
88.59999491	0.00000000	-5.57947800	-15.60654000
88.79999490	0.00000000	-5.99163300	-17.92569000
88.99999489	0.00000000	-6.79133800	-17.88263000
89.19999487	0.00000000	-8.37229300	-15.23130000
89.39999486	0.00000000	-10.59916000	-11.00517000
89.59999485	0.00000000	-12.13706000	-6.35457700
89.79999484	0.00000000	-12.55536000	-2.12844500
89.99999483	0.00000000	-12.18012000	0.51673230
90.19999482	0.00000000	-11.06668000	0.51673230
90.39999480	0.00000000	-9.90403500	-2.17765700
90.59999479	0.00000000	-9.11048200	-6.77903500
90.79999478	0.00000000	-8.32308000	-12.11860000
90.99999477	0.00000000	-7.94783400	-16.35089000
91.19999476	0.00000000	-7.90477300	-18.25787000
91.39999474	0.00000000	-7.90477300	-17.50738000
91.59999473	0.00000000	-7.94783400	-14.07480000
91.79999472	0.00000000	-8.32308000	-9.47342500
91.99999471	0.00000000	-9.01820900	-4.82898600
92.19999470	0.00000000	-9.06742000	-1.02116100
92.39999468	0.00000000	-8.74138700	0.51673230
92.59999467	0.00000000	-9.11048200	-0.64591530
92.79999466	0.00000000	-9.48572700	-4.08464600
92.99999465	0.00000000	-9.90403500	-9.05511800
93.19999464	0.00000000	-10.69144000	-13.65650000
93.39999463	0.00000000	-11.44193000	-16.76919000
93.59999461	0.00000000	-12.18012000	-17.88263000
93.79999460	0.00000000	-12.13706000	-16.35089000
93.99999459	0.00000000	-11.02362000	-12.58612000
94.19999458	0.00000000	-9.48572700	-8.35998900
94.39999457	0.00000000	-7.90477300	-4.82283400
94.59999455	0.00000000	-6.32381900	-2.12844500
94.79999454	0.00000000	-4.83513700	-1.05807100
94.99999453	0.00000000	-4.09079700	-2.59596400
95.19999452	0.00000000	-4.87819900	-6.35457700
95.39999451	0.00000000	-6.79133800	-10.53765000
95.59999449	0.00000000	-9.52879000	-13.69956000
95.79999448	0.00000000	-12.60458000	-15.60654000
95.99999447	0.00000000	-15.25591000	-15.97564000
96.19999446	0.00000000	-16.41855000	-14.07480000
96.39999445	0.00000000	-15.63115000	-11.04823000
96.59999444	0.00000000	-13.39198000	-7.93553100
96.79999442	0.00000000	-10.23622000	-5.24729300
96.99999441	0.00000000	-7.11122000	-3.70939900
97.19999440	0.00000000	-3.62942900	-3.70939900
97.39999439	0.00000000	-1.02116100	-5.24729300
97.59999438	0.00000000	-0.59670270	-7.89247000
97.79999436	0.00000000	-2.09153500	-10.53765000
97.99999435	0.00000000	-4.83513700	-12.11860000
98.19999434	0.00000000	-8.32308000	-12.53691000
98.39999433	0.00000000	-12.18012000	-12.16166000
98.59999432	0.00000000	-15.25591000	-11.00517000
98.79999430	0.00000000	-16.83686000	-9.51648500
98.99999429	0.00000000	-16.83686000	-8.35998900
99.19999428	0.00000000	-15.29897000	-7.93553100
99.39999427	0.00000000	-12.55536000	-7.89247000
99.59999426	0.00000000	-9.11048200	-7.89247000
99.79999425	0.00000000	-5.62869100	-7.89247000
99.99999423	0.00000000	-3.29724400	-7.89247000
100.19999422	0.00000000	-2.09153500	-7.84940900
100.39999421	0.00000000	-2.13459600	-7.47416300
100.59999420	0.00000000	-3.67249000	-6.72982200
100.79999419	0.00000000	-6.36687900	-6.40378900
100.99999417	0.00000000	-9.44266700	-6.82209600
101.19999416	0.00000000	-12.18012000	-8.31077700
101.39999415	0.00000000	-14.13632000	-10.21161000
101.59999414	0.00000000	-15.29897000	-11.38041000
101.79999413	0.00000000	-15.29897000	-12.21087000
101.99999411	0.00000000	-14.13632000	-12.53691000
102.19999410	0.00000000	-12.18012000	-12.11860000
102.39999409	0.00000000	-9.48572700	-10.53765000
102.59999408	0.00000000	-6.79133800	-7.89247000
102.79999407	0.00000000	-4.83513700	-5.24729300
102.99999406	0.00000000	-3.67249000	-3.66633800
103.19999404	0.00000000	-3.67249000	-3.29109200
103.39999403	0.00000000	-4.83513700	-4.08464600
103.59999402	0.00000000	-6.74212600	-6.40378900
103.79999401	0.00000000	-9.06742000	-9.47342500
103.99999400	0.00000000	-11.02362000	-12.53691000
104.19999398	0.00000000	-12.55536000	-14.85605000
104.39999397	0.00000000	-13.34276000	-15.64960000
104.59999396	0.00000000	-12.97982000	-15.23130000
104.79999395	0.00000000	-12.22933000	-13.28125000
104.99999394	0.00000000	-11.02362000	-9.89173200
105.19999392	0.00000000	-9.48572700	-6.82209600
105.39999391	0.00000000	-7.94783400	-4.82283400
105.59999390	0.00000000	-6.83439900	-3.66633800
105.79999389	0.00000000	-6.79133800	-3.70939900
105.99999388	0.00000000	-7.52952700	-5.24729300
106.19999387	0.00000000	-8.32308000	-7.89247000
106.39999385	0.00000000	-9.48572700	-10.58686000
106.59999384	0.00000000	-10.59916000	-12.49385000
106.79999383	0.00000000	-10.97441000	-13.28125000
106.99999382	0.00000000	-10.64838000	-12.53691000
107.19999381	0.00000000	-9.86097400	-11.04823000
107.39999379	0.00000000	-9.11048200	-9.47342500
107.59999378	0.00000000	-8.32308000	-7.93553100
107.79999377	0.00000000	-7.94783400	-6.77903500
107.99999376	0.00000000	-7.94783400	-6.40378900
108.19999375	0.00000000	-8.37229300	-6.77903500
108.39999374	0.00000000	-9.48572700	-7.93553100
108.59999372	0.00000000	-10.64838000	-9.47342500
108.79999371	0.00000000	-11.39887000	-11.00517000
108.99999370	0.00000000	-11.81102000	-12.11860000
109.19999369	0.00000000	-11.39887000	-12.11860000
109.39999368	0.00000000	-10.64838000	-10.96211000
109.59999366	0.00000000	-9.44266700	-9.09817800
109.79999365	0.00000000	-7.94783400	-7.14812900
109.99999364	0.00000000	-6.79133800	-6.02854300
110.19999363	0.00000000	-6.41609200	-5.57332700
110.39999362	0.00000000	-6.79133800	-6.02854300
110.59999360	0.00000000	-7.94783400	-7.14812900
110.79999359	0.00000000	-9.44266700	-9.09817800
110.99999358	0.00000000	-10.59916000	-10.96211000
111.19999357	0.00000000	-11.02362000	-12.16166000
111.39999356	0.00000000	-11.06668000	-12.53691000
111.59999355	0.00000000	-11.06668000	-12.21087000
111.79999353	0.00000000	-11.02362000	-11.42347000
111.99999352	0.00000000	-10.59916000	-10.62992000
112.19999351	0.00000000	-9.48572700	-9.47342500
112.39999350	0.00000000	-8.37229300	-8.35998900
112.59999349	0.00000000	-7.94783400	-7.93553100
112.79999347	0.00000000	-7.94783400	-7.89247000
112.99999346	0.00000000	-8.32308000	-7.89247000
113.19999345	0.00000000	-9.06742000	-7.93553100
113.39999344	0.00000000	-9.44266700	-8.31077700
113.59999343	0.00000000	-9.48572700	-9.05511800
113.79999341	0.00000000	-9.48572700	-9.43036400
113.99999340	0.00000000	-9.48572700	-9.47342500
114.19999339	0.00000000	-9.48572700	-9.47342500
114.39999338	0.00000000	-9.48572700	-9.51648500
114.59999337	0.00000000	-9.48572700	-9.84867000
114.79999336	0.00000000	-9.48572700	-10.25467000
114.99999334	0.00000000	-9.48572700	-10.26698000
115.19999333	0.00000000	-9.48572700	-10.67298000
115.39999332	0.00000000	-9.48572700	-10.95595000
115.59999331	0.00000000	-9.48572700	-10.62992000
115.79999330	0.00000000	-9.48572700	-9.84867000
115.99999328	0.00000000	-9.52879000	-9.09817800
116.19999327	0.00000000	-9.86097400	-8.26771600
116.39999326	0.00000000	-10.23007000	-7.51722400
116.59999325	0.00000000	-9.86097400	-6.77903500
116.79999324	0.00000000	-9.52879000	-6.77903500
116.99999322	0.00000000	-9.48572700	-7.51722400
117.19999321	0.00000000	-9.44266700	-8.26771600
117.39999320	0.00000000	-9.01820900	-9.09817800
117.59999319	0.00000000	-7.94783400	-9.84867000
117.79999318	0.00000000	-7.16043300	-10.62992000
117.99999317	0.00000000	-7.15428100	-11.00517000
118.19999315	0.00000000	-7.11737200	-11.00517000
118.39999314	0.00000000	-7.57258800	-10.62992000
118.59999313	0.00000000	-8.32308000	-9.84867000
118.79999312	0.00000000	-9.48572700	-9.09817800
118.99999311	0.00000000	-10.64838000	-8.31077700
119.19999309	0.00000000	-11.44193000	-7.93553100
119.39999308	0.00000000	-12.18012000	-7.89247000
119.59999307	0.00000000	-12.13706000	-7.89247000
119.79999306	0.00000000	-11.06668000	-7.89247000
119.99999305	0.00000000	-9.90403500	-7.89247000
120.19999303	0.00000000	-9.06742000	-7.93553100
120.39999302	0.00000000	-7.90477300	-8.31077700
120.59999301	0.00000000	-6.79133800	-9.09817800
120.79999300	0.00000000	-6.41609200	-9.84867000
120.99999299	0.00000000	-6.74212600	-10.62992000
121.19999298	0.00000000	-7.52952700	-11.00517000
121.39999296	0.00000000	-8.32308000	-11.00517000
121.59999295	0.00000000	-9.52879000	-10.62992000
121.79999294	0.00000000	-11.02362000	-9.89173200
121.99999293	0.00000000	-12.13706000	-9.51648500
122.19999292	0.00000000	-12.22933000	-9.43036400
122.39999290	0.00000000	-11.86024000	-9.05511800
122.59999289	0.00000000	-11.81102000	-8.31077700
122.79999288	0.00000000	-10.97441000	-7.93553100
122.99999287	0.00000000	-9.52879000	-7.89247000
123.19999286	0.00000000	-8.37229300	-7.93553100
123.39999284	0.00000000	-7.90477300	-8.31077700
123.59999283	0.00000000	-7.52952700	-9.05511800
123.79999282	0.00000000	-7.16043300	-9.47342500
123.99999281	0.00000000	-7.57258800	-9.89173200
124.19999280	0.00000000	-8.28001900	-10.58686000
124.39999279	0.00000000	-9.11048200	-10.62992000
124.59999277	0.00000000	-9.86097400	-10.26698000
124.79999276	0.00000000	-10.64838000	-10.25467000
124.99999275	0.00000000	-11.02362000	-9.79945900
125.19999274	0.00000000	-11.06668000	-9.09817800
125.39999273	0.00000000	-11.06668000	-8.31077700
125.59999271	0.00000000	-11.02362000	-7.93553100
125.79999270	0.00000000	-10.64838000	-7.89247000
125.99999269	0.00000000	-9.86097400	-7.89247000
126.19999268	0.00000000	-9.06742000	-7.89247000
126.39999267	0.00000000	-7.90477300	-7.89247000
126.59999265	0.00000000	-6.83439900	-7.93553100
126.79999264	0.00000000	-6.79133800	-8.31077700
126.99999263	0.00000000	-7.52952700	-9.05511800
127.19999262	0.00000000	-8.32308000	-9.43036400
127.39999261	0.00000000	-9.48572700	-9.47342500
127.59999260	0.00000000	-10.64838000	-9.47342500
127.79999258	0.00000000	-11.39887000	-9.47342500
127.99999257	0.00000000	-11.81102000	-9.47342500
128.19999256	0.00000000	-11.39887000	-9.47342500
128.39999255	0.00000000	-10.64838000	-9.43036400
128.59999254	0.00000000	-9.48572700	-9.05511800
128.79999252	0.00000000	-8.37229300	-8.31077700
128.99999251	0.00000000	-7.94783400	-7.98474400
129.19999250	0.00000000	-7.90477300	-8.31077700
129.39999249	0.00000000	-7.94783400	-9.05511800
129.59999248	0.00000000	-8.37229300	-9.43036400
129.79999246	0.00000000	-9.48572700	-9.47342500
129.99999245	0.00000000	-10.59916000	-9.47342500
130.19999244	0.00000000	-11.02362000	-9.47342500
130.39999243	0.00000000	-11.06668000	-9.47342500
130.59999242	0.00000000	-11.02362000	-9.47342500
130.79999241	0.00000000	-10.64838000	-9.43036400
130.99999239	0.00000000	-9.86097400	-9.05511800
131.19999238	0.00000000	-9.11048200	-8.35998900
131.39999237	0.00000000	-8.32308000	-8.35998900
131.59999236	0.00000000	-7.94783400	-9.05511800
131.79999235	0.00000000	-7.94783400	-9.47342500
131.99999233	0.00000000	-8.32308000	-9.89173200
132.19999232	0.00000000	-9.11048200	-10.62992000
132.39999231	0.00000000	-9.86097400	-10.95595000
132.59999230	0.00000000	-10.64838000	-10.62992000
132.79999229	0.00000000	-10.97441000	-9.84867000
132.99999227	0.00000000	-10.64838000	-9.09817800
133.19999226	0.00000000	-9.90403500	-8.31077700
133.39999225	0.00000000	-9.52879000	-7.93553100
133.59999224	0.00000000	-9.48572700	-7.89247000
133.79999223	0.00000000	-9.48572700	-7.89247000
133.99999222	0.00000000	-9.48572700	-7.93553100
134.19999220	0.00000000	-9.48572700	-8.31077700
134.39999219	0.00000000	-9.48572700	-9.09817800
134.59999218	0.00000000	-9.48572700	-9.84867000
134.79999217	0.00000000	-9.48572700	-10.62992000
134.99999216	0.00000000	-9.48572700	-11.00517000
135.19999214	0.00000000	-9.44266700	-11.04823000
135.39999213	0.00000000	-9.06742000	-11.00517000
135.59999212	0.00000000	-8.37229300	-10.62992000
135.79999211	0.00000000	-8.37229300	-9.84867000
135.99999210	0.00000000	-9.06742000	-9.09817800
136.19999208	0.00000000	-9.48572700	-8.31077700
136.39999207	0.00000000	-9.90403500	-7.93553100
136.59999206	0.00000000	-10.64838000	-7.89247000
136.79999205	0.00000000	-10.97441000	-7.93553100
136.99999204	0.00000000	-10.64838000	-8.31077700
137.19999203	0.00000000	-9.90403500	-9.05511800
137.39999201	0.00000000	-9.44266700	-9.43036400
137.59999200	0.00000000	-8.69217500	-9.51648500
137.79999199	0.00000000	-7.58489100	-9.89173200
137.99999198	0.00000000	-7.57258800	-10.62992000
138.19999197	0.00000000	-7.90477300	-11.00517000
138.39999195	0.00000000	-8.37229300	-11.00517000
138.59999194	0.00000000	-9.48572700	-10.62992000
138.79999193	0.00000000	-10.59916000	-9.84867000
138.99999192	0.00000000	-11.02362000	-9.09817800
139.19999191	0.00000000	-11.06668000	-8.31077700
139.39999189	0.00000000	-11.02362000	-7.93553100
139.59999188	0.00000000	-10.64838000	-7.89247000
139.79999187	0.00000000	-9.86097400	-7.89247000
139.99999186	0.00000000	-9.11048200	-7.93553100
140.19999185	0.00000000	-8.32308000	-8.31077700
140.39999184	0.00000000	-7.94783400	-9.09817800
140.59999182	0.00000000	-7.94783400	-9.84867000
140.79999181	0.00000000	-8.32308000	-10.62992000
140.99999180	0.00000000	-9.06742000	-11.00517000
141.19999179	0.00000000	-9.44266700	-11.04823000
141.39999178	0.00000000	-9.52879000	-11.00517000
141.59999176	0.00000000	-9.86097400	-10.58686000
141.79999175	0.00000000	-10.23007000	-9.47342500
141.99999174	0.00000000	-9.86097400	-8.31077700
142.19999173	0.00000000	-9.52879000	-7.51722400
142.39999172	0.00000000	-9.48572700	-6.77903500
142.59999170	0.00000000	-9.48572700	-6.77903500
142.79999169	0.00000000	-9.48572700	-7.51722400
142.99999168	0.00000000	-9.48572700	-8.31077700
143.19999167	0.00000000	-9.48572700	-9.47342500
143.39999166	0.00000000	-9.52879000	-10.58686000
143.59999165	0.00000000	-9.86097400	-11.00517000
143.79999163	0.00000000	-10.23007000	-11.04823000
143.99999162	0.00000000	-9.86097400	-11.00517000
144.19999161	0.00000000	-9.52879000	-10.62992000
144.39999160	0.00000000	-9.48572700	-9.84867000
144.59999159	0.00000000	-9.44266700	-9.09817800
144.79999157	0.00000000	-9.11048200	-8.31077700
144.99999156	0.00000000	-8.74138700	-7.93553100
145.19999155	0.00000000	-9.11048200	-7.89247000
145.39999154	0.00000000	-9.44266700	-7.93553100
145.59999153	0.00000000	-9.48572700	-8.31077700
145.79999151	0.00000000	-9.52879000	-9.05511800
145.99999150	0.00000000	-9.90403500	-9.43036400
146.19999149	0.00000000	-10.59916000	-9.51648500
146.39999148	0.00000000	-10.59916000	-9.84867000
146.59999147	0.00000000	-9.90403500	-10.21161000
146.79999146	0.00000000	-9.52879000	-9.84867000
146.99999144	0.00000000	-9.44266700	-9.51648500
147.19999143	0.00000000	-9.11048200	-9.43036400
147.39999142	0.00000000	-8.74138700	-9.05511800
147.59999141	0.00000000	-9.11048200	-8.31077700
147.79999140	0.00000000	-9.44266700	-7.93553100
147.99999138	0.00000000	-9.48572700	-7.89247000
148.19999137	0.00000000	-9.48572700	-7.89247000
148.39999136	0.00000000	-9.52879000	-7.93553100
148.59999135	0.00000000	-9.86097400	-8.31077700
148.79999134	0.00000000	-10.23007000	-9.05511800
148.99999132	0.00000000	-9.86097400	-9.43036400
149.19999131	0.00000000	-9.52879000	-9.47342500
149.39999130	0.00000000	-9.44266700	-9.47342500
149.59999129	0.00000000	-9.06742000	-9.47342500
149.79999128	0.00000000	-8.32308000	-9.43036400
149.99999127	0.00000000	-7.99704600	-9.05511800
150.19999125	0.00000000	-8.32308000	-8.31077700
150.39999124	0.00000000	-9.06742000	-7.93553100
150.59999123	0.00000000	-9.44266700	-7.89247000
150.79999122	0.00000000	-9.52879000	-7.93553100
150.99999121	0.00000000	-9.86097400	-8.31077700
151.19999119	0.00000000	-10.27313000	-9.05511800
151.39999118	0.00000000	-10.23622000	-9.43036400
151.59999117	0.00000000	-10.27313000	-9.47342500
151.79999116	0.00000000	-9.86097400	-9.47342500
151.99999115	0.00000000	-9.52879000	-9.47342500
152.19999113	0.00000000	-9.48572700	-9.47342500
152.39999112	0.00000000	-9.48572700	-9.47342500
152.59999111	0.00000000	-9.48572700	-9.47342500
152.79999110	0.00000000	-9.48572700	-9.47342500
152.99999109	0.00000000	-9.48572700	-9.47342500
153.19999108	0.00000000	-9.48572700	-9.43036400
153.39999106	0.00000000	-9.48572700	-9.09817800
153.59999105	0.00000000	-9.52879000	-8.72908400
153.79999104	0.00000000	-9.86097400	-9.05511800
153.99999103	0.00000000	-10.27313000	-9.00590400
154.19999102	0.00000000	-10.23622000	-8.35998900
154.39999100	0.00000000	-10.31619000	-8.31077700
154.59999099	0.00000000	-10.23622000	-8.67987200
154.79999098	0.00000000	-10.27313000	-8.68602300
154.99999097	0.00000000	-9.86097400	-9.09817800
155.19999096	0.00000000	-9.52879000	-9.43036400
155.39999094	0.00000000	-9.44266700	-9.47342500
155.59999093	0.00000000	-9.06742000	-9.47342500
155.79999092	0.00000000	-8.37229300	-9.47342500
155.99999091	0.00000000	-8.37229300	-9.47342500
156.19999090	0.00000000	-9.06742000	-9.43036400
156.39999089	0.00000000	-9.44266700	-9.05511800
156.59999087	0.00000000	-9.52879000	-8.31077700
156.79999086	0.00000000	-9.90403500	-7.93553100
156.99999085	0.00000000	-10.64838000	-7.89247000
157.19999084	0.00000000	-11.02362000	-7.89247000
157.39999083	0.00000000	-11.06668000	-7.89247000
157.59999081	0.00000000	-11.06668000	-7.93553100
157.79999080	0.00000000	-11.02362000	-8.31077700
157.99999079	0.00000000	-10.64838000	-9.05511800
158.19999078	0.00000000	-9.90403500	-9.47342500
158.39999077	0.00000000	-9.52879000	-9.84867000
158.59999075	0.00000000	-9.48572700	-10.21161000
158.79999074	0.00000000	-9.48572700	-9.84867000
158.99999073	0.00000000	-9.48572700	-9.51648500
159.19999072	0.00000000	-9.48572700	-9.43036400
159.39999071	0.00000000	-9.48572700	-9.05511800
159.59999070	0.00000000	-9.48572700	-8.31077700
159.79999068	0.00000000	-9.48572700	-7.93553100
159.99999067	0.00000000	-9.52879000	-7.89247000
160.19999066	0.00000000	-9.86097400	-7.89247000
160.39999065	0.00000000	-10.27313000	-7.89247000
160.59999064	0.00000000	-10.23622000	-7.93553100
160.79999062	0.00000000	-10.27313000	-8.35998900
160.99999061	0.00000000	-9.86097400	-9.42421200
161.19999060	0.00000000	-9.52879000	-10.16855000
161.39999059	0.00000000	-9.48572700	-9.84867000
161.59999058	0.00000000	-9.48572700	-9.51648500
161.79999056	0.00000000	-9.48572700	-9.47342500
161.99999055	0.00000000	-9.48572700	-9.47342500
162.19999054	0.00000000	-9.48572700	-9.43036400
162.39999053	0.00000000	-9.48572700	-9.05511800
162.59999052	0.00000000	-9.48572700	-8.35998900
162.79999051	0.00000000	-9.48572700	-8.35998900
162.99999049	0.00000000	-9.48572700	-9.00590400
163.19999048	0.00000000	-9.52879000	-9.05511800
163.39999047	0.00000000	-9.90403500	-8.68602300
163.59999046	0.00000000	-10.64838000	-8.72293300
163.79999045	0.00000000	-10.97441000	-8.68602300
163.99999043	0.00000000	-10.64838000	-9.09817800
164.19999042	0.00000000	-9.90403500	-9.43036400
164.39999041	0.00000000	-9.52879000	-9.47342500
164.59999040	0.00000000	-9.48572700	-9.47342500
164.79999039	0.00000000	-9.44266700	-9.47342500
164.99999037	0.00000000	-9.06742000	-9.47342500
165.19999036	0.00000000	-8.37229300	-9.47342500
165.39999035	0.00000000	-8.37229300	-9.47342500
165.59999034	0.00000000	-9.06742000	-9.47342500
165.79999033	0.00000000	-9.44266700	-9.47342500
165.99999032	0.00000000	-9.48572700	-9.47342500
166.19999030	0.00000000	-9.52879000	-9.43036400
166.39999029	0.00000000	-9.90403500	-9.09817800
166.59999028	0.00000000	-10.64838000	-8.72908400
166.79999027	0.00000000	-10.97441000	-9.09817800
166.99999026	0.00000000	-10.64838000	-9.43036400
167.19999024	0.00000000	-9.90403500	-9.47342500
167.39999023	0.00000000	-9.52879000	-9.47342500
167.59999022	0.00000000	-9.48572700	-9.47342500
167.79999021	0.00000000	-9.48572700	-9.47342500
167.99999020	0.00000000	-9.48572700	-9.47342500
168.19999018	0.00000000	-9.48572700	-9.47342500
168.39999017	0.00000000	-9.48572700	-9.47342500
168.59999016	0.00000000	-9.48572700	-9.47342500
168.79999015	0.00000000	-9.48572700	-9.47342500
168.99999014	0.00000000	-9.48572700	-9.47342500
169.19999013	0.00000000	-9.48572700	-9.47342500
169.39999011	0.00000000	-9.52879000	-9.47342500
169.59999010	0.00000000	-9.90403500	-9.47342500
169.79999009	0.00000000	-10.59916000	-9.47342500
169.99999008	0.00000000	-10.59916000	-9.47342500
170.19999007	0.00000000	-9.86097400	-9.47342500
170.39999005	0.00000000	-9.20275500	-9.47342500
170.59999004	0.00000000	-9.11663300	-9.47342500
170.79999003	0.00000000	-9.85482200	-9.47342500
170.99999002	0.00000000	-9.81791200	-9.47342500
171.19999001	0.00000000	-9.52879000	-9.47342500
171.39998999	0.00000000	-9.48572700	-9.47342500
171.59998998	0.00000000	-9.48572700	-9.47342500
171.79998997	0.00000000	-9.48572700	-9.47342500
171.99998996	0.00000000	-9.48572700	-9.47342500
172.19998995	0.00000000	-9.48572700	-9.47342500
172.39998994	0.00000000	-9.48572700	-9.47342500
172.59998992	0.00000000	-9.48572700	-9.43036400
172.79998991	0.00000000	-9.48572700	-9.09817800
172.99998990	0.00000000	-9.48572700	-8.68602300
173.19998989	0.00000000	-9.48572700	-8.72293300
173.39998988	0.00000000	-9.48572700	-8.68602300
173.59998986	0.00000000	-9.48572700	-9.09817800
173.79998985	0.00000000	-9.48572700	-9.43036400
173.99998984	0.00000000	-9.48572700	-9.47342500
174.19998983	0.00000000	-9.48572700	-9.51648500
174.39998982	0.00000000	-9.48572700	-9.84867000
174.59998980	0.00000000	-9.48572700	-10.21161000
174.79998979	0.00000000	-9.48572700	-9.79945900
174.99998978	0.00000000	-9.48572700	-9.14124000
175.19998977	0.00000000	-9.48572700	-8.72908400
175.39998976	0.00000000	-9.48572700	-9.09817800
175.59998975	0.00000000	-9.48572700	-9.43036400
175.79998973	0.00000000	-9.48572700	-9.47342500
175.99998972	0.00000000	-9.48572700	-9.47342500
176.19998971	0.00000000	-9.48572700	-9.47342500
176.39998970	0.00000000	-9.48572700	-9.47342500
176.59998969	0.00000000	-9.48572700	-9.47342500
176.79998967	0.00000000	-9.48572700	-9.47342500
176.99998966	0.00000000	-9.48572700	-9.47342500
177.19998965	0.00000000	-9.48572700	-9.47342500
177.39998964	0.00000000	-9.48572700	-9.47342500
177.59998963	0.00000000	-9.48572700	-9.47342500
177.79998961	0.00000000	-9.48572700	-9.47342500
177.99998960	0.00000000	-9.48572700	-9.47342500
178.19998959	0.00000000	-9.48572700	-9.47342500
178.39998958	0.00000000	-9.48572700	-9.47342500
178.59998957	0.00000000	-9.48572700	-9.43036400
178.79998956	0.00000000	-9.48572700	-9.09817800
178.99998954	0.00000000	-9.48572700	-8.72908400
179.19998953	0.00000000	-9.48572700	-9.09817800
179.39998952	0.00000000	-9.48572700	-9.43036400
179.59998951	0.00000000	-9.48572700	-9.47342500
179.79998950	0.00000000	-9.48572700	-9.47342500
179.99998948	0.00000000	-9.48572700	-9.47342500
180.19998947	0.00000000	-9.48572700	-9.47342500
180.39998946	0.00000000	-9.48572700	-9.47342500
180.59998945	0.00000000	-9.48572700	-9.47342500
180.79998944	0.00000000	-9.48572700	-9.47342500
180.99998942	0.00000000	-9.48572700	-9.47342500
181.19998941	0.00000000	-9.48572700	-9.47342500
181.39998940	0.00000000	-9.48572700	-9.47342500
181.59998939	0.00000000	-9.48572700	-9.43036400
181.79998938	0.00000000	-9.48572700	-9.05511800
181.99998937	0.00000000	-9.48572700	-8.35998900
182.19998935	0.00000000	-9.48572700	-8.35998900
182.39998934	0.00000000	-9.48572700	-9.05511800
182.59998933	0.00000000	-9.48572700	-9.43036400
182.79998932	0.00000000	-9.48572700	-9.47342500
182.99998931	0.00000000	-9.48572700	-9.47342500
183.19998929	0.00000000	-9.48572700	-9.47342500
183.39998928	0.00000000	-9.48572700	-9.47342500
183.59998927	0.00000000	-9.48572700	-9.47342500
183.79998926	0.00000000	-9.48572700	-9.47342500
183.99998925	0.00000000	-9.48572700	-9.47342500
184.19998923	0.00000000	-9.48572700	-9.47342500
184.39998922	0.00000000	-9.48572700	-9.43036400
184.59998921	0.00000000	-9.48572700	-9.05511800
184.79998920	0.00000000	-9.48572700	-8.31077700
184.99998919	0.00000000	-9.48572700	-7.93553100
185.19998918	0.00000000	-9.48572700	-7.93553100
185.39998916	0.00000000	-9.48572700	-8.31077700
185.59998915	0.00000000	-9.48572700	-9.05511800
185.79998914	0.00000000	-9.48572700	-9.43036400
185.99998913	0.00000000	-9.48572700	-9.51648500
186.19998912	0.00000000	-9.52879000	-9.84867000
186.39998910	0.00000000	-9.86097400	-10.25467000
186.59998909	0.00000000	-10.23007000	-10.21776000
186.79998908	0.00000000	-9.86097400	-10.21161000
186.99998907	0.00000000	-9.57800100	-9.42421200
187.19998906	0.00000000	-9.90403500	-8.35998900
187.39998904	0.00000000	-10.59916000	-7.93553100
187.59998903	0.00000000	-10.64838000	-7.89247000
187.79998902	0.00000000	-10.27928000	-7.89247000
187.99998901	0.00000000	-10.27313000	-7.89247000
188.19998900	0.00000000	-9.86097400	-7.89247000
188.39998899	0.00000000	-9.52879000	-7.93553100
188.59998897	0.00000000	-9.48572700	-8.31077700
188.79998896	0.00000000	-9.48572700	-9.05511800
188.99998895	0.00000000	-9.48572700	-9.47342500
189.19998894	0.00000000	-9.48572700	-9.84867000
189.39998893	0.00000000	-9.48572700	-10.21161000
189.59998891	0.00000000	-9.48572700	-9.84867000
189.79998890	0.00000000	-9.48572700	-9.51648500
189.99998889	0.00000000	-9.48572700	-9.47342500
190.19998888	0.00000000	-9.48572700	-9.47342500
190.39998887	0.00000000	-9.48572700	-9.47342500
190.59998885	0.00000000	-9.48572700	-9.43036400
190.79998884	0.00000000	-9.48572700	-9.09817800
190.99998883	0.00000000	-9.48572700	-8.68602300
191.19998882	0.00000000	-9.48572700	-8.72293300
191.39998881	0.00000000	-9.48572700	-8.68602300
191.59998880	0.00000000	-9.48572700	-9.09817800
191.79998878	0.00000000	-9.48572700	-9.43036400
191.99998877	0.00000000	-9.48572700	-9.47342500
192.19998876	0.00000000	-9.48572700	-9.47342500
192.39998875	0.00000000	-9.48572700	-9.47342500
192.59998874	0.00000000	-9.48572700	-9.47342500
192.79998872	0.00000000	-9.52879000	-9.47342500
192.99998871	0.00000000	-9.86097400	-9.47342500
193.19998870	0.00000000	-10.23007000	-9.47342500
193.39998869	0.00000000	-9.90403500	-9.47342500
193.59998868	0.00000000	-9.90403500	-9.47342500
193.79998866	0.00000000	-10.23007000	-9.47342500
193.99998865	0.00000000	-9.86097400	-9.47342500
194.19998864	0.00000000	-9.52879000	-9.47342500
194.39998863	0.00000000	-9.48572700	-9.47342500
194.59998862	0.00000000	-9.48572700	-9.47342500
194.79998861	0.00000000	-9.48572700	-9.47342500
194.99998859	0.00000000	-9.48572700	-9.47342500
195.19998858	0.00000000	-9.48572700	-9.47342500
195.39998857	0.00000000	-9.48572700	-9.47342500
195.59998856	0.00000000	-9.48572700	-9.47342500
195.79998855	0.00000000	-9.48572700	-9.47342500
195.99998853	0.00000000	-9.52879000	-9.47342500
