Time	Channel A	Channel B	Channel C
(us)	(V)	(mV)	(mV)

-4.49999956	0.00000000	21.75812000	5.11195900
-4.29999957	0.00000000	22.09030000	5.47490100
-4.09999958	0.00000000	22.13336000	5.11195900
-3.89999959	0.00000000	22.13336000	4.77977300
-3.69999960	0.00000000	22.13336000	4.73671200
-3.49999962	0.00000000	22.13336000	4.73671200
-3.29999963	0.00000000	22.13336000	4.73671200
-3.09999964	0.00000000	22.13336000	4.73671200
-2.89999965	0.00000000	22.13336000	4.73671200
-2.69999966	0.00000000	22.13336000	4.73671200
-2.49999968	0.00000000	22.13336000	4.73671200
-2.29999969	0.00000000	22.13336000	4.73671200
-2.09999970	0.00000000	22.13336000	4.73671200
-1.89999971	0.00000000	22.13336000	4.77977300
-1.69999972	0.00000000	22.13336000	5.15501900
-1.49999973	0.00000000	22.13336000	5.85014700
-1.29999975	0.00000000	22.13336000	5.85014700
-1.09999976	0.00000000	22.09030000	5.15501900
-0.89999977	0.00000000	21.75812000	4.77977300
-0.69999978	0.00000000	21.38902000	4.73671200
-0.49999979	0.00000000	21.75812000	4.73671200
-0.29999981	0.31803640	22.09030000	4.73671200
-0.09999982	0.63668800	22.13336000	4.73671200
0.10000017	0.95533960	22.13336000	4.73671200
0.30000016	0.95533960	22.13336000	4.73671200
0.50000015	0.79601380	22.13336000	4.73671200
0.70000013	0.15871060	22.13336000	4.73671200
0.90000012	-0.63668800	22.13336000	4.73671200
1.10000011	-1.59264300	22.13336000	4.73671200
1.30000010	-2.38927200	22.13336000	4.73671200
1.50000009	-2.86724900	22.13336000	4.77977300
1.70000008	-2.38927200	22.13336000	5.15501900
1.90000006	-1.11466500	22.13336000	5.89320800
2.10000005	0.79601380	22.13336000	6.26845500
2.30000004	2.86724900	22.13336000	6.26845500
2.50000003	4.61921700	22.13336000	5.89320800
2.70000002	5.41584600	22.13336000	5.15501900
2.90000000	4.77854300	22.13336000	4.77977300
3.09999999	2.54859700	22.13336000	4.73671200
3.29999998	-0.47736220	22.13336000	4.73671200
3.49999997	-3.98191400	22.13336000	4.73671200
3.69999996	-6.69045300	22.13336000	4.77977300
3.89999994	-7.96444400	22.13336000	5.15501900
4.09999993	-7.32714100	22.13336000	5.89320800
4.29999992	-4.61921700	22.13336000	6.26845500
4.49999991	-0.47736220	22.13336000	6.26845500
4.69999990	3.82258900	22.13336000	5.93626900
4.89999989	7.48646600	22.13336000	5.53026500
5.09999987	9.39837600	22.13336000	5.47490100
5.29999986	8.92039900	22.13336000	4.73671200
5.49999985	6.05315000	22.13336000	4.04158400
5.69999984	1.75196900	22.13336000	4.36146600
5.89999983	-2.86724900	22.13336000	4.69365100
6.09999981	-7.00848900	22.13336000	4.73671200
6.29999980	-9.23905000	22.13336000	4.77977300
6.49999979	-9.07972400	22.13336000	5.15501900
6.69999978	-6.84916400	22.13336000	5.89320800
6.89999977	-2.86724900	22.13336000	6.26845500
7.09999975	1.43331700	22.13336000	6.26845500
7.29999974	5.25652100	22.13336000	5.89320800
7.49999973	7.32714100	22.13336000	5.15501900
7.69999972	7.64579200	22.09030000	4.77977300
7.89999971	5.89382400	21.75812000	4.73671200
8.09999970	3.02657500	21.38902000	4.73671200
8.29999968	-0.31803640	21.75812000	4.73671200
8.49999967	-3.18590100	22.09030000	4.73671200
8.69999966	-4.77854300	22.13336000	4.77977300
8.89999965	-5.09719500	22.13336000	5.11195900
9.09999964	-4.30056600	22.13336000	5.47490100
9.29999962	-2.38927200	22.13336000	5.15501900
9.49999961	-0.47736220	22.13336000	5.15501900
9.69999960	1.27399100	22.13336000	5.47490100
9.89999959	2.22994600	22.13336000	5.11195900
10.09999958	2.54859700	22.13336000	4.77977300
10.29999956	2.07062000	22.13336000	4.77977300
10.49999955	1.27399100	22.13336000	5.15501900
10.69999954	0.47736220	22.13336000	5.89320800
10.89999953	-0.31803640	22.13336000	6.21924200
11.09999952	-0.79601380	22.13336000	5.93626900
11.29999951	-0.95533960	22.13336000	5.53026500
11.49999949	-0.95533960	22.13336000	5.51796200
11.69999948	-0.63668800	22.13336000	5.11195900
11.89999947	-0.31803640	22.13336000	4.77977300
12.09999946	-0.15871060	22.13336000	4.73671200
12.29999945	-0.15871060	22.09030000	4.73671200
12.49999943	-0.15871060	21.75812000	4.73671200
12.69999942	0.00000000	21.38902000	4.73671200
12.89999941	0.00000000	21.75812000	4.73671200
13.09999940	0.00000000	22.09030000	4.73671200
13.29999939	0.00000000	22.13336000	4.73671200
13.49999937	0.00000000	22.13336000	4.73671200
13.69999936	0.00000000	22.13336000	4.73671200
13.89999935	0.00000000	22.13336000	4.73671200
14.09999934	-0.15871060	22.13336000	4.73671200
14.29999933	-0.15871060	22.13336000	4.73671200
14.49999932	-0.15871060	22.13336000	4.73671200
14.69999930	0.00000000	22.13336000	4.73671200
14.89999929	0.00000000	22.13336000	4.73671200
15.09999928	0.00000000	22.13336000	4.73671200
15.29999927	0.00000000	22.13336000	4.73671200
15.49999926	0.00000000	22.09030000	4.73671200
15.69999924	0.00000000	21.75812000	4.73671200
15.89999923	0.00000000	21.38902000	4.73671200
16.09999922	0.00000000	21.75812000	4.73671200
16.29999921	0.00000000	22.09030000	4.73671200
16.49999920	-0.15871060	22.13336000	4.73671200
16.69999919	-0.15871060	22.13336000	4.73671200
16.89999917	0.00000000	22.13336000	4.73671200
17.09999916	0.00000000	22.17643000	4.73671200
17.29999915	0.00000000	22.55167000	4.73671200
17.49999914	0.00000000	23.29601000	4.73671200
17.69999913	0.00000000	23.62205000	4.73671200
17.89999911	0.00000000	23.24680000	4.73671200
18.09999910	0.00000000	22.09030000	4.73671200
18.29999909	0.00000000	20.55241000	4.73671200
18.49999908	0.00000000	18.97145000	4.73671200
18.69999907	0.00000000	17.43356000	4.73671200
18.89999905	0.00000000	16.32013000	4.73671200
19.09999904	0.00000000	16.36319000	4.73671200
19.29999903	0.00000000	17.90108000	4.73671200
19.49999902	0.00000000	20.64468000	4.73671200
19.69999901	0.00000000	24.13263000	4.73671200
19.89999900	0.00000000	27.98966000	4.73671200
20.09999898	0.00000000	31.06545000	4.73671200
20.29999897	0.00000000	32.55413000	4.73671200
20.49999896	0.00000000	31.71752000	4.73671200
20.69999895	0.00000000	27.81127000	4.73671200
20.89999894	0.00000000	21.62278000	4.73671200
21.09999892	0.00000000	14.27165000	4.73671200
21.29999891	0.00000000	7.29576700	4.73671200
21.49999890	0.00000000	2.36220500	4.73671200
21.69999889	0.00000000	0.87967510	4.73671200
21.89999888	0.00000000	4.45374000	4.73671200
22.09999886	0.00000000	12.59842000	4.73671200
22.29999885	0.00000000	24.26796000	4.73671200
22.49999884	0.00000000	37.30315000	4.73671200
22.69999883	0.00000000	48.09301000	4.77977300
22.89999882	0.00000000	53.40797000	5.15501900
23.09999881	0.00000000	51.81471000	5.89320800
23.29999879	0.00000000	42.47047000	6.26845500
23.49999878	0.00000000	27.39296000	6.35457700
23.69999877	0.00000000	9.57800100	6.68676100
23.89999876	0.00000000	-7.35728300	7.05585600
24.09999875	0.00000000	-18.84842000	6.64370100
24.29999873	0.00000000	-21.50590000	5.93626900
24.49999872	0.00000000	-14.10556000	5.06274600
24.69999871	0.00000000	2.17150600	3.90009800
24.89999870	0.00000000	24.18184000	1.99311000
25.09999869	0.00000000	46.88730000	0.51058070
25.29999867	0.00000000	64.29010000	0.04306102
25.49999866	0.00000000	72.39173000	0.09227362
25.69999865	0.00000000	69.59277000	0.97194880
25.89999864	0.00000000	55.26574000	3.70939900
26.09999863	0.00000000	32.51107000	7.89247000
26.29999862	0.00000000	7.05585600	12.11860000
26.49999860	0.00000000	-15.36048000	15.23130000
26.69999859	0.00000000	-29.23228000	16.71998000
26.89999858	0.00000000	-31.60064000	15.88336000
27.09999857	0.00000000	-21.92421000	11.98327000
27.29999856	0.00000000	-2.61441900	5.80708600
27.49999854	0.00000000	22.09030000	-1.58095500
27.69999853	0.00000000	46.41978000	-8.87057000
27.89999852	0.00000000	64.57307000	-14.21629000
28.09999851	0.00000000	72.75467000	-15.70497000
28.29999850	0.00000000	69.31594000	-12.59227000
28.49999848	0.00000000	55.81939000	-5.20423200
28.69999847	0.00000000	35.30389000	5.24729300
28.89999846	0.00000000	12.18012000	16.85531000
29.09999845	0.00000000	-7.91707600	27.26378000
29.29999844	0.00000000	-20.34326000	34.09818000
29.49999843	0.00000000	-23.12992000	34.79330000
29.69999841	0.00000000	-16.24631000	28.20497000
29.89999840	0.00000000	-1.96235200	15.88336000
30.09999839	0.00000000	16.22785000	0.41830710
30.29999838	0.00000000	34.79330000	-14.63459000
30.49999837	0.00000000	49.45251000	-26.24877000
30.69999835	0.00000000	56.88976000	-31.96973000
30.89999834	0.00000000	56.19463000	-29.97047000
31.09999833	0.00000000	48.51131000	-19.93110000
31.29999832	0.00000000	35.76525000	-4.14000900
31.49999831	0.00000000	21.06299000	13.65650000
31.69999829	0.00000000	7.48031400	29.91511000
31.89999828	-0.15871060	-2.57135800	41.48622000
32.09999827	0.00000000	-6.84670200	45.66929000
32.29999826	0.00000000	-4.61368100	41.06791000
32.49999825	0.00000000	2.73745100	28.71555000
32.69999824	0.00000000	13.53346000	11.74951000
32.89999822	0.00000000	25.48597000	-6.45915300
33.09999821	0.00000000	35.16855000	-21.88730000
33.29999820	0.00000000	41.03100000	-31.59449000
33.49999819	0.00000000	42.18750000	-33.50147000
33.69999818	0.00000000	38.37352000	-27.36220000
33.89999816	0.00000000	31.06545000	-14.63459000
34.09999815	0.00000000	22.17643000	1.62401600
34.29999814	-0.15871060	13.71186000	18.21481000
34.49999813	0.00000000	7.94168200	31.72982000
34.69999812	0.00000000	6.31766700	38.70571000
34.89999810	0.00000000	8.59375000	38.37352000
35.09999809	0.00000000	13.57652000	31.03469000
35.29999808	0.00000000	20.13410000	18.30093000
35.49999807	0.00000000	26.27953000	3.29109200
35.69999806	0.00000000	30.51181000	-10.59301000
35.89999805	0.00000000	31.66830000	-19.84498000
36.09999803	0.00000000	29.44143000	-22.67470000
36.29999802	0.00000000	25.20300000	-19.19291000
36.49999801	0.00000000	20.17716000	-10.68528000
36.69999800	0.00000000	15.20054000	1.62401600
36.89999799	0.00000000	12.13091000	14.21629000
37.09999797	0.00000000	11.71260000	23.09301000
37.29999796	0.00000000	13.66880000	26.24877000
37.49999795	0.00000000	17.90108000	23.55438000
37.69999794	0.00000000	23.24680000	15.93258000
37.89999793	0.00000000	27.86048000	5.62253900
38.09999791	0.00000000	30.59793000	-3.62942900
38.29999790	0.00000000	31.02239000	-9.80561000
38.49999789	0.00000000	29.48450000	-11.66339000
38.69999788	0.00000000	26.36565000	-7.81250000
38.89999787	0.00000000	22.13336000	0.51058070
39.09999786	0.00000000	17.85802000	10.07628000
39.29999784	0.00000000	14.36393000	17.74729000
39.49999783	0.00000000	12.08784000	21.60433000
39.69999782	0.00000000	12.08784000	20.39862000
39.89999781	0.00000000	14.32087000	14.25935000
40.09999780	0.00000000	17.39050000	4.69365100
40.29999778	0.00000000	20.55241000	-5.20423200
40.49999777	0.00000000	23.71432000	-12.12475000
40.69999776	0.00000000	26.78395000	-14.08095000
40.89999775	0.00000000	29.10925000	-11.01132000
41.09999774	0.00000000	29.85974000	-3.72170300
41.29999772	0.00000000	29.10925000	5.89320800
41.49999771	0.00000000	26.78395000	15.14518000
41.69999770	0.00000000	23.71432000	22.02264000
41.89999769	0.00000000	20.55241000	24.34178000
42.09999768	0.00000000	17.43356000	21.32136000
42.29999767	0.00000000	14.78223000	14.81299000
42.49999765	0.00000000	13.57652000	6.26845500
42.69999764	0.00000000	13.94562000	-2.51599400
42.89999763	0.00000000	15.11442000	-9.06126900
43.09999762	0.00000000	17.43356000	-11.38656000
43.29999761	0.00000000	20.08489000	-9.56569900
43.49999759	0.00000000	22.09030000	-4.55831700
43.69999758	0.00000000	23.67126000	1.95004900
43.89999757	0.00000000	24.82775000	8.54453700
44.09999756	0.00000000	25.25221000	13.52116000
44.29999755	0.00000000	25.25221000	15.88336000
44.49999753	0.00000000	24.87697000	15.14518000
44.69999752	0.00000000	24.13263000	12.11860000
44.89999751	0.00000000	23.71432000	7.89247000
45.09999750	0.00000000	23.24680000	3.66633800
45.29999749	0.00000000	22.09030000	0.51058070
45.49999748	0.00000000	20.50935000	-1.43946800
45.69999746	0.00000000	18.50394000	-2.18380900
45.89999745	0.00000000	15.80955000	-1.02116100
46.09999744	0.00000000	13.15822000	1.58095500
46.29999743	-0.15871060	11.62032000	4.31840500
46.49999742	0.00000000	11.66339000	6.64370100
46.69999740	0.00000000	13.66880000	8.63681000
46.89999739	0.00000000	17.94414000	9.75639700
47.09999738	0.00000000	23.75738000	10.11934000
47.29999737	0.00000000	29.90280000	8.91978400
47.49999736	0.00000000	34.92864000	6.31151500
47.69999734	0.00000000	37.16781000	3.61712600
47.89999733	0.00000000	35.99901000	1.62401600
48.09999732	0.00000000	30.93012000	0.09227362
48.29999731	0.00000000	23.20374000	-0.65206690
48.49999730	0.00000000	14.32087000	0.13533460
48.69999729	0.00000000	6.27460600	2.04232300
48.89999727	0.00000000	1.66092500	4.77977300
49.09999726	0.00000000	1.61786400	7.84940900
49.29999725	0.00000000	5.94242000	10.53765000
49.49999724	0.00000000	14.04404000	12.07554000
49.69999723	0.00000000	24.41560000	12.07554000
49.89999721	0.00000000	33.67372000	10.49459000
50.09999720	0.00000000	39.86835000	7.42495000
50.29999719	-0.15871060	41.76919000	3.57406500
50.49999718	0.00000000	38.28740000	0.09227362
50.69999717	0.00000000	30.60408000	-2.60211600
50.89999715	0.00000000	20.59547000	-3.71555100
51.09999714	0.00000000	11.01747000	-2.55905500
51.29999713	0.00000000	4.82283400	0.51058070
51.49999712	0.00000000	3.24188000	4.73671200
51.69999711	0.00000000	6.31766700	8.96284400
51.89999710	0.00000000	13.20128000	12.07554000
52.09999708	0.00000000	21.66585000	13.61343000
52.29999707	0.00000000	29.39837000	13.18898000
52.49999706	0.00000000	34.79330000	10.53765000
52.69999705	0.00000000	36.28814000	6.68676100
52.89999704	0.00000000	33.25541000	2.82972400
53.09999702	0.00000000	26.74089000	-0.64591530
53.29999701	0.00000000	19.10679000	-2.50984200
53.49999700	0.00000000	12.54921000	-2.18380900
53.69999699	0.00000000	9.06126900	0.09227362
53.89999698	0.00000000	9.01205700	3.11269700
54.09999696	0.00000000	12.08784000	5.85014700
54.29999695	0.00000000	17.48277000	7.75713500
54.49999694	0.00000000	23.67126000	8.54453700
54.69999693	0.00000000	29.34916000	7.80019600
54.89999692	0.00000000	32.41880000	6.31151500
55.09999691	0.00000000	31.30536000	4.73671200
55.29999689	0.00000000	27.52830000	3.24803100
55.49999688	0.00000000	22.09030000	2.50369100
55.69999687	0.00000000	16.36319000	3.29109200
55.89999686	0.00000000	12.13091000	5.15501900
56.09999685	0.00000000	10.59301000	7.43110200
56.29999683	0.00000000	12.08784000	8.91978400
56.49999682	0.00000000	15.94488000	8.91978400
56.69999681	0.00000000	20.92766000	7.38188900
56.89999680	0.00000000	25.90428000	4.68750000
57.09999679	0.00000000	29.01698000	1.62401600
57.29999677	0.00000000	29.81053000	-1.11343500
57.49999676	0.00000000	28.64173000	-2.97736200
57.69999675	0.00000000	25.20300000	-3.29724400
57.89999674	0.00000000	21.01993000	-0.93503930
58.09999673	0.00000000	17.52584000	3.66633800
58.29999672	0.00000000	15.20054000	9.42421200
58.49999670	0.00000000	14.82529000	14.76993000
58.69999669	0.00000000	16.32013000	17.79035000
58.89999668	0.00000000	18.97145000	17.42126000
59.09999667	0.00000000	21.71506000	13.56422000
59.29999666	0.00000000	24.04650000	7.43110200
59.49999664	0.00000000	25.94734000	0.46751960
59.69999663	0.00000000	26.27953000	-5.67175200
59.89999662	0.00000000	24.82775000	-9.47957600
60.09999661	0.00000000	22.55167000	-9.47957600
60.29999660	0.00000000	20.59547000	-5.67175200
60.49999658	0.00000000	19.01451000	0.51058070
60.69999657	0.00000000	17.90108000	7.84940900
60.89999656	0.00000000	17.90108000	14.76993000
61.09999655	0.00000000	19.01451000	19.37131000
61.29999654	0.00000000	20.55241000	20.48474000
61.49999653	0.00000000	22.09030000	17.42126000
61.69999651	0.00000000	23.20374000	10.91289000
61.89999650	0.00000000	23.20374000	3.19881900
62.09999649	0.00000000	22.09030000	-4.14000900
62.29999648	0.00000000	20.55241000	-9.52263600
62.49999647	0.00000000	19.01451000	-11.42962000
62.69999645	0.00000000	17.85802000	-9.52263600
62.89999644	0.00000000	17.48277000	-4.14000900
63.09999643	0.00000000	17.90108000	3.19881900
63.29999642	0.00000000	19.38976000	10.86983000
63.49999641	0.00000000	21.33981000	17.04601000
63.69999639	0.00000000	22.88386000	19.79577000
63.89999638	0.00000000	24.40945000	19.42052000
64.09999637	0.00000000	24.78469000	15.93258000
64.29999636	0.00000000	24.04650000	9.79945900
64.49999635	0.00000000	22.87770000	3.29109200
64.69999634	0.00000000	20.92766000	-2.18380900
64.89999632	0.00000000	19.06373000	-5.67175200
65.09999631	0.00000000	17.85802000	-6.87130900
65.29999630	0.00000000	17.48277000	-5.75787400
65.49999629	0.00000000	17.85802000	-3.06348400
65.69999628	0.00000000	19.01451000	0.46751960
65.89999626	0.00000000	20.55241000	4.73671200
66.09999625	0.00000000	22.04109000	8.96284400
66.29999624	0.00000000	22.82849000	12.07554000
66.49999623	0.00000000	22.41634000	13.65650000
66.69999622	0.00000000	21.29675000	13.69956000
66.89999620	0.00000000	19.38976000	12.53691000
67.09999619	0.00000000	17.94414000	10.58686000
67.29999618	0.00000000	17.90108000	7.84940900
67.49999617	0.00000000	19.01451000	4.73671200
67.69999616	0.00000000	20.59547000	1.58095500
67.89999615	0.00000000	22.55167000	-1.53174200
68.09999613	0.00000000	24.82775000	-4.22613100
68.29999612	0.00000000	26.32259000	-5.71481200
68.49999611	0.00000000	26.27953000	-5.33956700
68.69999610	0.00000000	24.36639000	-2.97736200
68.89999609	0.00000000	20.88459000	0.87967510
69.09999607	0.00000000	17.05832000	5.93626900
69.29999606	0.00000000	13.57652000	10.91289000
69.49999605	0.00000000	11.66339000	14.81299000
69.69999604	0.00000000	11.66339000	16.71998000
69.89999603	0.00000000	13.66880000	16.35089000
70.09999601	0.00000000	17.90108000	13.56422000
70.29999600	0.00000000	23.29601000	8.63681000
70.49999599	0.00000000	28.27879000	2.79281500
70.69999598	0.00000000	31.76058000	-2.18996000
70.89999597	0.00000000	32.51107000	-6.12696800
71.09999596	0.00000000	30.59793000	-7.57874000
71.29999594	0.00000000	26.32259000	-6.45300100
71.49999593	0.00000000	20.50935000	-2.60211600
71.69999592	0.00000000	14.36393000	2.73745100
71.89999591	0.00000000	9.34424200	7.80019600
72.09999590	0.00000000	7.05585600	12.03248000
72.29999588	0.00000000	7.76328700	14.30241000
72.49999587	0.00000000	11.29429000	13.60728000
72.69999586	0.00000000	16.69537000	11.00517000
72.89999585	0.00000000	23.24680000	7.89247000
73.09999584	0.00000000	29.01698000	4.77977300
73.29999582	0.00000000	32.51107000	2.08538400
73.49999581	0.00000000	33.29847000	0.55364170
73.69999580	0.00000000	30.97318000	0.51058070
73.89999579	0.00000000	26.40871000	1.66707700
74.09999578	0.00000000	20.97072000	3.53100400
74.29999577	0.00000000	15.94488000	5.38262700
74.49999575	0.00000000	12.08784000	5.75787400
74.69999574	0.00000000	10.54995000	4.68750000
74.89999573	0.00000000	11.62032000	3.15575800
75.09999572	0.00000000	14.32087000	1.66707700
75.29999571	0.00000000	17.80881000	0.92888770
75.49999569	0.00000000	21.66585000	1.71013800
75.69999568	0.00000000	24.74163000	3.61712600
75.89999567	0.00000000	26.27953000	6.36072800
76.09999566	0.00000000	25.94734000	9.38115100
76.29999565	0.00000000	24.08957000	11.70029000
76.49999563	0.00000000	22.17643000	12.40773000
76.69999562	0.00000000	20.59547000	11.23893000
76.89999561	0.00000000	19.43897000	7.75713500
77.09999560	0.00000000	19.01451000	3.15575800
77.29999559	0.00000000	19.01451000	-1.48868100
77.49999558	0.00000000	19.38976000	-5.29650500
77.69999556	0.00000000	20.13410000	-6.82824800
77.89999555	0.00000000	20.46014000	-5.71481200
78.09999554	0.00000000	20.08489000	-2.60211600
78.29999553	0.00000000	18.97145000	2.08538400
78.49999552	0.00000000	17.90108000	7.84940900
78.69999550	0.00000000	17.85802000	13.18898000
78.89999549	0.00000000	18.59621000	16.25861000
79.09999548	0.00000000	19.43897000	16.30167000
79.29999547	0.00000000	21.01993000	13.65650000
79.49999546	0.00000000	23.24680000	9.43036400
79.69999544	0.00000000	24.78469000	4.73671200
79.89999543	0.00000000	25.20300000	0.09227362
80.09999542	0.00000000	24.78469000	-3.71555100
80.29999541	0.00000000	23.20374000	-5.29650500
80.49999540	0.00000000	20.50935000	-4.60137700
80.69999539	0.00000000	17.48277000	-2.64517700
80.89999537	0.00000000	15.15748000	0.46751960
81.09999536	0.00000000	14.40699000	4.26919300
81.29999535	0.00000000	15.11442000	7.43110200
81.49999534	0.00000000	17.05832000	9.79945900
81.69999533	0.00000000	19.38976000	11.70029000
81.89999531	0.00000000	22.13336000	12.07554000
82.09999530	0.00000000	24.74163000	11.00517000
82.29999529	0.00000000	25.90428000	9.42421200
82.49999528	0.00000000	25.20300000	7.47416300
82.69999527	0.00000000	23.67126000	5.11195900
82.89999525	0.00000000	21.71506000	2.78051200
83.09999524	0.00000000	19.38976000	0.41830710
83.29999523	0.00000000	17.52584000	-1.48868100
83.49999522	0.00000000	16.69537000	-2.64517700
83.69999521	0.00000000	17.05832000	-2.60211600
83.89999520	0.00000000	17.80881000	-1.07037400
84.09999518	0.00000000	18.97145000	1.66707700
84.29999517	0.00000000	20.08489000	5.15501900
84.49999516	0.00000000	20.50935000	9.00590400
84.69999515	0.00000000	20.55241000	12.07554000
84.89999514	0.00000000	20.55241000	13.61343000
85.09999512	0.00000000	20.55241000	13.23819000
85.29999511	0.00000000	20.59547000	10.91289000
85.49999510	0.00000000	20.97072000	7.43110200
85.69999509	0.00000000	21.71506000	3.15575800
85.89999508	0.00000000	22.09030000	-1.07037400
86.09999506	0.00000000	22.09030000	-4.13385800
86.29999505	0.00000000	21.66585000	-5.29650500
86.49999504	0.00000000	20.55241000	-4.13385800
86.69999503	0.00000000	19.38976000	-1.02116100
86.89999502	0.00000000	18.59621000	3.57406500
87.09999501	0.00000000	17.80881000	8.54453700
87.29999499	0.00000000	17.48277000	12.03248000
87.49999498	0.00000000	17.85802000	13.56422000
87.69999497	0.00000000	19.01451000	12.81988000
87.89999496	0.00000000	20.55241000	9.75639700
88.09999495	0.00000000	22.09030000	5.89320800
88.29999493	0.00000000	23.24680000	1.62401600
88.49999492	0.00000000	23.62205000	-2.14074800
88.69999491	0.00000000	23.24680000	-3.71555100
88.89999490	0.00000000	22.09030000	-2.97736200
89.09999489	0.00000000	20.55241000	-0.64591530
89.29999487	0.00000000	19.01451000	3.24803100
89.49999486	0.00000000	17.85802000	7.80019600
89.69999485	0.00000000	17.43356000	11.61417000
89.89999484	0.00000000	17.43356000	13.14591000
90.09999483	0.00000000	17.85802000	12.03248000
90.29999482	0.00000000	19.01451000	8.96284400
90.49999480	0.00000000	20.50935000	4.73671200
90.69999479	0.00000000	21.66585000	0.51058070
90.89999478	0.00000000	22.09030000	-2.55905500
91.09999477	0.00000000	22.09030000	-3.71555100
91.29999476	0.00000000	21.71506000	-2.55905500
91.49999474	0.00000000	20.97072000	0.51058070
91.69999473	0.00000000	20.59547000	4.73671200
91.89999472	0.00000000	20.55241000	8.96284400
92.09999471	0.00000000	20.55241000	12.03248000
92.29999470	0.00000000	20.55241000	13.14591000
92.49999468	0.00000000	20.50935000	11.61417000
92.69999467	0.00000000	20.13410000	7.80019600
92.89999466	0.00000000	19.34670000	3.20497000
93.09999465	0.00000000	18.59621000	-1.02116100
93.29999464	0.00000000	17.76575000	-3.71555100
93.49999463	0.00000000	17.05832000	-4.09079700
93.69999461	0.00000000	16.69537000	-2.18380900
93.89999460	0.00000000	17.52584000	1.66707700
94.09999459	0.00000000	19.38976000	6.21924200
94.29999458	0.00000000	21.71506000	10.07628000
94.49999457	0.00000000	23.67126000	12.03248000
94.69999455	0.00000000	25.20300000	12.03248000
94.89999454	0.00000000	25.94734000	10.07628000
95.09999453	0.00000000	25.11688000	6.21924200
95.29999452	0.00000000	22.82849000	1.71013800
95.49999451	0.00000000	19.38976000	-1.76550200
95.69999449	0.00000000	16.27707000	-2.93430100
95.89999448	0.00000000	13.94562000	-2.22687000
96.09999447	0.00000000	12.41388000	0.09227362
96.29999446	0.00000000	12.87525000	3.15575800
96.49999445	0.00000000	15.15748000	6.26845500
96.69999444	0.00000000	19.01451000	8.96284400
96.89999442	0.00000000	23.20374000	10.45152000
97.09999441	0.00000000	26.36565000	10.11934000
97.29999440	0.00000000	28.32185000	8.17544300
97.49999439	0.00000000	29.06619000	5.56102300
97.69999438	0.00000000	27.86048000	2.82972400
97.89999436	0.00000000	24.82775000	1.33489200
98.09999435	0.00000000	20.92766000	0.83661410
98.29999434	0.00000000	17.05832000	1.24877000
98.49999433	0.00000000	13.57652000	1.99311000
98.69999432	0.00000000	11.66339000	3.19881900
98.89999430	0.00000000	11.62032000	4.68750000
99.09999429	0.00000000	13.20128000	5.85014700
99.29999428	0.00000000	16.27707000	6.21924200
99.49999427	0.00000000	20.13410000	5.93626900
99.69999426	0.00000000	23.62205000	5.57332700
99.89999425	0.00000000	26.36565000	5.93626900
100.09999423	0.00000000	27.86048000	6.26845500
100.29999422	0.00000000	27.52830000	6.31151500
100.49999421	0.00000000	25.62746000	6.31151500
100.69999420	0.00000000	23.29601000	6.26845500
100.89999419	0.00000000	20.50935000	5.85014700
101.09999417	0.00000000	17.48277000	4.68750000
101.29999416	0.00000000	15.15748000	3.15575800
101.49999415	0.00000000	14.32087000	1.62401600
101.69999414	0.00000000	14.32087000	0.51058070
101.89999413	0.00000000	15.11442000	0.51058070
102.09999411	0.00000000	17.05832000	1.66707700
102.29999410	0.00000000	19.34670000	3.61712600
102.49999409	0.00000000	21.71506000	6.31151500
102.69999408	0.00000000	23.62205000	8.96284400
102.89999407	0.00000000	24.78469000	10.49459000
103.09999406	0.00000000	24.78469000	10.49459000
103.29999404	0.00000000	23.67126000	8.96284400
103.49999403	0.00000000	22.13336000	6.26845500
103.69999402	0.00000000	20.55241000	3.19881900
103.89999401	0.00000000	18.97145000	0.51058070
104.09999400	0.00000000	17.43356000	-1.06422200
104.29999398	0.00000000	16.32013000	-1.43946800
104.49999397	0.00000000	16.32013000	-0.69512790
104.69999396	0.00000000	17.43356000	1.24877000
104.89999395	0.00000000	18.92839000	3.57406500
105.09999394	0.00000000	20.13410000	6.26845500
105.29999392	0.00000000	20.92766000	8.54453700
105.49999391	0.00000000	21.71506000	9.33809000
105.69999390	0.00000000	22.04109000	8.96284400
105.89999389	0.00000000	21.71506000	7.43110200
106.09999388	0.00000000	20.92766000	5.11195900
106.29999387	0.00000000	20.17716000	2.82972400
106.49999385	0.00000000	19.34670000	0.92888770
106.69999384	0.00000000	18.63927000	0.55364170
106.89999383	0.00000000	18.27633000	1.62401600
107.09999382	0.00000000	19.01451000	3.15575800
107.29999381	0.00000000	20.08489000	4.68750000
107.49999379	0.00000000	20.55241000	5.89320800
107.69999378	0.00000000	20.92766000	6.64370100
107.89999377	0.00000000	21.29675000	7.00664300
108.09999376	0.00000000	20.88459000	6.22539300
108.29999375	0.00000000	20.13410000	4.73671200
108.49999374	0.00000000	18.97145000	3.19881900
108.69999372	0.00000000	17.85802000	2.04232300
108.89999371	0.00000000	17.48277000	1.66707700
109.09999370	0.00000000	17.85802000	2.04232300
109.29999369	0.00000000	18.97145000	3.19881900
109.49999368	0.00000000	20.13410000	4.73671200
109.69999366	0.00000000	20.92766000	6.26845500
109.89999365	0.00000000	21.71506000	7.42495000
110.09999364	0.00000000	22.09030000	7.80019600
110.29999363	0.00000000	22.09030000	7.42495000
110.49999362	0.00000000	21.66585000	6.26845500
110.69999360	0.00000000	20.50935000	4.73671200
110.89999359	0.00000000	19.01451000	3.19881900
111.09999358	0.00000000	17.85802000	2.04232300
111.29999357	0.00000000	17.48277000	1.61786400
111.49999356	0.00000000	17.80881000	1.61786400
111.69999355	0.00000000	18.59621000	2.04232300
111.89999353	0.00000000	19.34670000	3.19881900
112.09999352	0.00000000	20.13410000	4.68750000
112.29999351	0.00000000	20.50935000	5.85014700
112.49999350	0.00000000	20.55241000	6.26845500
112.69999349	0.00000000	20.55241000	6.26845500
112.89999347	0.00000000	20.55241000	5.89320800
113.09999346	0.00000000	20.50935000	5.15501900
113.29999345	0.00000000	20.13410000	4.77977300
113.49999344	0.00000000	19.38976000	4.69365100
113.69999343	0.00000000	19.01451000	4.31840500
113.89999341	0.00000000	18.97145000	3.57406500
114.09999340	0.00000000	18.97145000	3.19881900
114.29999339	0.00000000	19.01451000	3.15575800
114.49999338	0.00000000	19.38976000	3.15575800
114.69999337	0.00000000	20.13410000	3.15575800
114.89999336	0.00000000	20.50935000	3.15575800
115.09999334	0.00000000	20.55241000	3.15575800
115.29999333	0.00000000	20.55241000	3.19881900
115.49999332	0.00000000	20.50935000	3.57406500
115.69999331	0.00000000	20.13410000	4.36146600
115.89999330	0.00000000	19.38976000	5.11195900
116.09999328	0.00000000	19.01451000	5.89320800
116.29999327	0.00000000	18.97145000	6.26845500
116.49999326	0.00000000	18.97145000	6.31151500
116.69999325	0.00000000	18.97145000	6.26845500
116.89999324	0.00000000	19.01451000	5.85014700
117.09999322	0.00000000	19.38976000	4.73671200
117.29999321	0.00000000	20.13410000	3.57406500
117.49999320	0.00000000	20.55241000	2.78051200
117.69999319	0.00000000	20.97072000	2.04232300
117.89999318	0.00000000	21.66585000	2.04232300
118.09999317	0.00000000	21.66585000	2.73745100
118.29999315	0.00000000	20.92766000	3.15575800
118.49999314	0.00000000	20.17716000	3.62327700
118.69999313	0.00000000	19.30364000	4.73671200
118.89999312	0.00000000	18.22096000	5.85014700
119.09999311	0.00000000	17.07062000	6.26845500
119.29999309	0.00000000	17.05832000	6.31151500
119.49999308	0.00000000	17.39050000	6.26845500
119.69999307	0.00000000	17.85802000	5.89320800
119.89999306	0.00000000	19.01451000	5.15501900
120.09999305	0.00000000	20.50935000	4.73671200
120.29999303	0.00000000	21.71506000	4.31840500
120.49999302	0.00000000	22.46555000	3.57406500
120.69999301	0.00000000	22.87770000	3.19881900
120.89999300	0.00000000	22.46555000	3.19881900
121.09999299	0.00000000	21.71506000	3.53100400
121.29999298	0.00000000	20.50935000	3.90009800
121.49999296	0.00000000	19.01451000	3.53100400
121.69999295	0.00000000	17.85802000	3.24803100
121.89999294	0.00000000	17.43356000	3.57406500
122.09999293	0.00000000	17.39050000	4.31840500
122.29999292	0.00000000	17.43356000	4.69365100
122.49999290	0.00000000	17.80881000	4.73671200
122.69999289	0.00000000	18.59621000	4.73671200
122.89999288	0.00000000	19.38976000	4.73671200
123.09999287	0.00000000	20.55241000	4.73671200
123.29999286	0.00000000	21.66585000	4.69365100
123.49999284	0.00000000	22.09030000	4.36146600
123.69999283	0.00000000	22.09030000	3.94931100
123.89999282	0.00000000	21.71506000	3.94315900
124.09999281	0.00000000	20.92766000	3.53100400
124.29999280	0.00000000	20.17716000	3.19881900
124.49999279	0.00000000	19.34670000	3.15575800
124.69999277	0.00000000	18.59621000	3.15575800
124.89999276	0.00000000	17.80881000	3.19881900
125.09999275	0.00000000	17.43356000	3.57406500
125.29999274	0.00000000	17.43356000	4.31840500
125.49999273	0.00000000	17.80881000	4.69365100
125.69999271	0.00000000	18.59621000	4.73671200
125.89999270	0.00000000	19.38976000	4.73671200
126.09999269	0.00000000	20.55241000	4.73671200
126.29999268	0.00000000	21.66585000	4.73671200
126.49999267	0.00000000	22.09030000	4.73671200
126.69999265	0.00000000	22.09030000	4.69365100
126.89999264	0.00000000	21.66585000	4.31840500
127.09999263	0.00000000	20.55241000	3.57406500
127.29999262	0.00000000	19.34670000	3.19881900
127.49999261	0.00000000	18.22096000	3.15575800
127.69999260	0.00000000	17.07062000	3.15575800
127.89999258	0.00000000	17.10753000	3.19881900
128.09999257	0.00000000	17.76575000	3.57406500
128.29999256	0.00000000	18.59621000	4.31840500
128.49999255	0.00000000	19.38976000	4.69365100
128.69999254	0.00000000	20.55241000	4.73671200
128.89999252	0.00000000	21.66585000	4.73671200
129.09999251	0.00000000	22.04109000	4.69365100
129.29999250	0.00000000	21.66585000	4.31840500
129.49999249	0.00000000	20.55241000	3.57406500
129.69999248	0.00000000	19.38976000	3.19881900
129.89999246	0.00000000	18.59621000	3.19881900
130.09999245	0.00000000	17.80881000	3.57406500
130.29999244	0.00000000	17.48277000	4.31840500
130.49999243	0.00000000	17.80881000	4.69365100
130.69999242	0.00000000	18.59621000	4.73671200
130.89999241	0.00000000	19.34670000	4.73671200
131.09999239	0.00000000	20.17716000	4.73671200
131.29999238	0.00000000	20.88459000	4.69365100
131.49999237	0.00000000	21.29675000	4.31840500
131.69999236	0.00000000	20.88459000	3.57406500
131.89999235	0.00000000	20.17716000	3.19881900
132.09999233	0.00000000	19.38976000	3.15575800
132.29999232	0.00000000	19.01451000	3.15575800
132.49999231	0.00000000	18.97145000	3.19881900
132.69999230	0.00000000	18.97145000	3.57406500
132.89999229	0.00000000	18.97145000	4.31840500
133.09999227	0.00000000	18.97145000	4.69365100
133.29999226	0.00000000	18.97145000	4.77977300
133.49999225	0.00000000	18.97145000	5.11195900
133.69999224	0.00000000	18.97145000	5.47490100
133.89999223	0.00000000	18.97145000	5.11195900
134.09999222	0.00000000	18.97145000	4.73671200
134.29999220	0.00000000	18.97145000	4.31840500
134.49999219	0.00000000	19.01451000	3.57406500
134.69999218	0.00000000	19.38976000	3.15575800
134.89999217	0.00000000	20.13410000	2.78051200
135.09999216	0.00000000	20.50935000	2.41141700
135.29999214	0.00000000	20.55241000	2.82357300
135.49999213	0.00000000	20.55241000	3.53100400
135.69999212	0.00000000	20.50935000	4.31840500
135.89999211	0.00000000	20.13410000	4.73671200
136.09999210	0.00000000	19.34670000	5.11195900
136.29999208	0.00000000	18.63927000	5.51796200
136.49999207	0.00000000	18.22711000	5.48105300
136.69999206	0.00000000	18.59621000	5.51796200
136.89999205	0.00000000	18.92839000	5.06274600
137.09999204	0.00000000	19.01451000	4.36146600
137.29999203	0.00000000	19.38976000	3.57406500
137.49999201	0.00000000	20.13410000	3.19881900
137.69999200	0.00000000	20.50935000	3.15575800
137.89999199	0.00000000	20.55241000	3.15575800
138.09999198	0.00000000	20.50935000	3.15575800
138.29999197	0.00000000	20.13410000	3.15575800
138.49999195	0.00000000	19.38976000	3.19881900
138.69999194	0.00000000	18.97145000	3.57406500
138.89999193	0.00000000	18.55315000	4.31840500
139.09999192	0.00000000	17.85802000	4.73671200
139.29999191	0.00000000	17.85802000	5.11195900
139.49999189	0.00000000	18.59621000	5.51796200
139.69999188	0.00000000	19.34670000	5.48105300
139.89999187	0.00000000	20.13410000	5.51796200
140.09999186	0.00000000	20.50935000	5.06274600
140.29999185	0.00000000	20.50935000	4.36146600
140.49999184	0.00000000	20.13410000	3.57406500
140.69999182	0.00000000	19.38976000	3.15575800
140.89999181	0.00000000	19.01451000	2.73745100
141.09999180	0.00000000	18.97145000	2.04232300
141.29999179	0.00000000	18.97145000	2.08538400
141.49999178	0.00000000	18.97145000	3.15575800
141.69999176	0.00000000	18.97145000	4.31840500
141.89999175	0.00000000	19.01451000	5.11195900
142.09999174	0.00000000	19.38976000	5.89320800
142.29999173	0.00000000	20.13410000	6.26845500
142.49999172	0.00000000	20.50935000	6.26845500
142.69999170	0.00000000	20.50935000	5.89320800
142.89999169	0.00000000	20.13410000	5.11195900
143.09999168	0.00000000	19.38976000	4.36146600
143.29999167	0.00000000	19.01451000	3.53100400
143.49999166	0.00000000	18.97145000	2.82357300
143.69999165	0.00000000	18.97145000	2.41141700
143.89999163	0.00000000	18.97145000	2.78051200
144.09999162	0.00000000	18.97145000	3.15575800
144.29999161	0.00000000	19.01451000	3.57406500
144.49999160	0.00000000	19.38976000	4.31840500
144.69999159	0.00000000	20.13410000	4.73671200
144.89999157	0.00000000	20.46014000	5.11195900
145.09999156	0.00000000	20.13410000	5.47490100
145.29999155	0.00000000	19.38976000	5.11195900
145.49999154	0.00000000	19.01451000	4.73671200
145.69999153	0.00000000	18.92839000	4.31840500
145.89999151	0.00000000	18.59621000	3.57406500
146.09999150	0.00000000	18.22711000	3.19881900
146.29999149	0.00000000	18.59621000	3.15575800
146.49999148	0.00000000	18.97145000	3.15575800
146.69999147	0.00000000	19.38976000	3.15575800
146.89999146	0.00000000	20.13410000	3.19881900
147.09999144	0.00000000	20.50935000	3.57406500
147.29999143	0.00000000	20.50935000	4.31840500
147.49999142	0.00000000	20.13410000	4.69365100
147.69999141	0.00000000	19.38976000	4.73671200
147.89999140	0.00000000	19.01451000	4.73671200
148.09999138	0.00000000	18.97145000	4.69365100
148.29999137	0.00000000	18.97145000	4.36146600
148.49999136	0.00000000	18.97145000	3.94931100
148.69999135	0.00000000	18.97145000	3.94315900
148.89999134	0.00000000	18.97145000	3.53100400
149.09999132	0.00000000	19.01451000	3.19881900
149.29999131	0.00000000	19.38976000	3.15575800
149.49999130	0.00000000	20.13410000	3.15575800
149.69999129	0.00000000	20.50935000	3.19881900
149.89999128	0.00000000	20.55241000	3.57406500
150.09999127	0.00000000	20.50935000	4.31840500
150.29999125	0.00000000	20.13410000	4.69365100
150.49999124	0.00000000	19.34670000	4.73671200
150.69999123	0.00000000	18.63927000	4.73671200
150.89999122	0.00000000	18.22711000	4.73671200
151.09999121	0.00000000	18.55315000	4.69365100
151.29999119	0.00000000	18.55315000	4.36146600
151.49999118	0.00000000	18.22711000	3.94931100
151.69999117	0.00000000	18.59621000	3.94315900
151.89999116	0.00000000	18.92839000	3.53100400
152.09999115	0.00000000	19.01451000	3.19881900
152.29999113	0.00000000	19.38976000	3.15575800
152.49999112	0.00000000	20.13410000	3.15575800
152.69999111	0.00000000	20.46014000	3.19881900
152.89999110	0.00000000	20.13410000	3.57406500
153.09999109	0.00000000	19.38976000	4.31840500
153.29999108	0.00000000	19.01451000	4.69365100
153.49999106	0.00000000	18.97145000	4.73671200
153.69999105	0.00000000	18.92839000	4.73671200
153.89999104	0.00000000	18.55315000	4.73671200
154.09999103	0.00000000	17.80881000	4.73671200
154.29999102	0.00000000	17.48277000	4.73671200
154.49999100	0.00000000	17.80881000	4.69365100
154.69999099	0.00000000	18.55315000	4.31840500
154.89999098	0.00000000	18.92839000	3.57406500
155.09999097	0.00000000	19.01451000	3.19881900
155.29999096	0.00000000	19.38976000	3.15575800
155.49999094	0.00000000	20.13410000	3.19881900
155.69999093	0.00000000	20.46014000	3.53100400
155.89999092	0.00000000	20.13410000	3.90009800
156.09999091	0.00000000	19.38976000	3.57406500
156.29999090	0.00000000	19.01451000	3.62327700
156.49999089	0.00000000	18.92839000	4.31840500
156.69999087	0.00000000	18.55315000	4.69365100
156.89999086	0.00000000	17.85802000	4.73671200
157.09999085	0.00000000	17.80881000	4.73671200
157.29999084	0.00000000	18.17790000	4.73671200
157.49999083	0.00000000	18.18405000	4.73671200
157.69999081	0.00000000	18.59621000	4.69365100
157.89999080	0.00000000	18.92839000	4.31840500
158.09999079	0.00000000	19.01451000	3.57406500
158.29999078	0.00000000	19.38976000	3.19881900
158.49999077	0.00000000	20.08489000	3.15575800
158.69999075	0.00000000	20.08489000	3.15575800
158.89999074	0.00000000	19.38976000	3.19881900
159.09999073	0.00000000	19.01451000	3.57406500
159.29999072	0.00000000	18.97145000	4.31840500
159.49999071	0.00000000	18.97145000	4.69365100
159.69999070	0.00000000	18.92839000	4.73671200
159.89999068	0.00000000	18.59621000	4.73671200
160.09999067	0.00000000	18.22711000	4.73671200
160.29999066	0.00000000	18.59621000	4.69365100
160.49999065	0.00000000	18.92839000	4.31840500
160.69999064	0.00000000	18.97145000	3.57406500
160.89999062	0.00000000	18.97145000	3.19881900
161.09999061	0.00000000	18.97145000	3.15575800
161.29999060	0.00000000	18.97145000	3.15575800
161.49999059	0.00000000	18.97145000	3.15575800
161.69999058	0.00000000	18.97145000	3.19881900
161.89999056	0.00000000	18.97145000	3.57406500
162.09999055	0.00000000	18.97145000	4.31840500
162.29999054	0.00000000	18.97145000	4.69365100
162.49999053	0.00000000	18.97145000	4.73671200
162.69999052	0.00000000	18.97145000	4.73671200
162.89999051	0.00000000	18.97145000	4.73671200
163.09999049	0.00000000	18.92839000	4.73671200
163.29999048	0.00000000	18.55315000	4.73671200
163.49999047	0.00000000	17.80881000	4.69365100
163.69999046	0.00000000	17.48277000	4.31840500
163.89999045	0.00000000	17.80881000	3.57406500
164.09999043	0.00000000	18.55315000	3.19881900
164.29999042	0.00000000	18.97145000	3.15575800
164.49999041	0.00000000	19.34670000	3.15575800
164.69999040	0.00000000	19.75886000	3.15575800
164.89999039	0.00000000	19.76501000	3.15575800
165.09999037	0.00000000	20.13410000	3.19881900
165.29999036	0.00000000	20.08489000	3.53100400
165.49999035	0.00000000	19.38976000	3.94315900
165.69999034	0.00000000	19.01451000	3.94931100
165.89999033	0.00000000	18.97145000	4.36146600
166.09999032	0.00000000	18.92839000	4.64443900
166.29999030	0.00000000	18.59621000	4.36146600
166.49999029	0.00000000	18.22711000	3.99237200
166.69999028	0.00000000	18.59621000	4.36146600
166.89999027	0.00000000	18.92839000	4.64443900
167.09999026	0.00000000	19.01451000	4.31840500
167.29999024	0.00000000	19.34670000	3.57406500
167.49999023	0.00000000	19.71580000	3.19881900
167.69999022	0.00000000	19.34670000	3.15575800
167.89999021	0.00000000	19.01451000	3.19881900
168.09999020	0.00000000	18.97145000	3.53100400
168.29999018	0.00000000	18.97145000	3.90009800
168.49999017	0.00000000	18.97145000	3.57406500
168.69999016	0.00000000	18.97145000	3.57406500
168.89999015	0.00000000	18.97145000	3.90009800
169.09999014	0.00000000	18.97145000	3.57406500
169.29999013	0.00000000	18.97145000	3.57406500
169.49999011	0.00000000	18.97145000	3.90009800
169.69999010	0.00000000	18.97145000	3.57406500
169.89999009	0.00000000	18.97145000	3.57406500
170.09999008	0.00000000	18.97145000	3.90009800
170.29999007	0.00000000	18.97145000	3.53100400
170.49999005	0.00000000	18.97145000	3.19881900
170.69999004	0.00000000	18.97145000	3.15575800
170.89999003	0.00000000	18.97145000	3.15575800
171.09999002	0.00000000	18.97145000	3.15575800
171.29999001	0.00000000	18.97145000	3.15575800
171.49998999	0.00000000	18.97145000	3.15575800
171.69998998	0.00000000	18.97145000	3.15575800
171.89998997	0.00000000	18.97145000	3.15575800
172.09998996	0.00000000	18.97145000	3.15575800
172.29998995	0.00000000	18.97145000	3.15575800
172.49998994	0.00000000	18.97145000	3.15575800
172.69998992	0.00000000	18.97145000	3.15575800
172.89998991	0.00000000	18.97145000	3.15575800
173.09998990	0.00000000	18.97145000	3.19881900
173.29998989	0.00000000	18.97145000	3.53100400
173.49998988	0.00000000	18.97145000	3.90009800
173.69998986	0.00000000	18.97145000	3.53100400
173.89998985	0.00000000	18.97145000	3.19881900
174.09998984	0.00000000	18.97145000	3.15575800
174.29998983	0.00000000	18.97145000	3.15575800
174.49998982	0.00000000	18.97145000	3.15575800
174.69998980	0.00000000	18.97145000	3.15575800
174.89998979	0.00000000	18.97145000	3.15575800
175.09998978	0.00000000	18.97145000	3.19881900
175.29998977	0.00000000	18.97145000	3.53100400
175.49998976	0.00000000	18.97145000	3.90009800
175.69998975	0.00000000	18.97145000	3.53100400
175.89998973	0.00000000	18.97145000	3.24803100
176.09998972	0.00000000	18.97145000	3.53100400
176.29998971	0.00000000	18.97145000	3.94315900
176.49998970	0.00000000	18.97145000	3.90625000
176.69998969	0.00000000	18.97145000	3.98622000
176.89998967	0.00000000	18.97145000	3.90625000
177.09998966	0.00000000	18.97145000	3.94315900
177.29998965	0.00000000	18.92839000	3.53100400
177.49998964	0.00000000	18.59621000	3.19881900
177.69998963	0.00000000	18.22711000	3.15575800
177.89998961	0.00000000	18.59621000	3.15575800
178.09998960	0.00000000	18.92839000	3.15575800
178.29998959	0.00000000	18.97145000	3.19881900
178.49998958	0.00000000	18.97145000	3.53100400
178.69998957	0.00000000	18.97145000	3.90009800
178.89998956	0.00000000	18.97145000	3.57406500
179.09998954	0.00000000	18.97145000	3.57406500
179.29998953	0.00000000	18.97145000	3.90009800
179.49998952	0.00000000	18.97145000	3.53100400
179.69998951	0.00000000	18.97145000	3.19881900
179.89998950	0.00000000	18.97145000	3.15575800
180.09998948	0.00000000	18.97145000	3.15575800
180.29998947	0.00000000	18.97145000	3.15575800
180.49998946	0.00000000	18.97145000	3.15575800
180.69998945	0.00000000	18.97145000	3.15575800
180.89998944	0.00000000	18.97145000	3.15575800
181.09998942	0.00000000	18.97145000	3.19881900
181.29998941	0.00000000	18.97145000	3.57406500
181.49998940	0.00000000	18.97145000	4.31840500
181.69998939	0.00000000	18.97145000	4.69365100
181.89998938	0.00000000	18.97145000	4.73671200
182.09998937	0.00000000	18.97145000	4.73671200
182.29998935	0.00000000	18.97145000	4.69365100
182.49998934	0.00000000	18.92839000	4.31840500
182.69998933	0.00000000	18.59621000	3.57406500
182.89998932	0.00000000	18.22711000	3.19881900
183.09998931	0.00000000	18.59621000	3.15575800
183.29998929	0.00000000	18.92839000	3.15575800
183.49998928	0.00000000	18.97145000	3.15575800
183.69998927	0.00000000	18.92839000	3.19881900
183.89998926	0.00000000	18.59621000	3.57406500
184.09998925	0.00000000	18.18405000	4.31840500
184.29998923	0.00000000	18.17790000	4.69365100
184.49998922	0.00000000	17.80881000	4.73671200
184.69998921	0.00000000	17.85802000	4.73671200
184.89998920	0.00000000	18.55315000	4.73671200
185.09998919	0.00000000	18.92839000	4.73671200
185.29998918	0.00000000	18.97145000	4.73671200
185.49998916	0.00000000	18.97145000	4.69365100
185.69998915	0.00000000	18.97145000	4.31840500
185.89998914	0.00000000	18.97145000	3.57406500
186.09998913	0.00000000	18.97145000	3.19881900
186.29998912	0.00000000	18.97145000	3.15575800
186.49998910	0.00000000	18.92839000	3.15575800
186.69998909	0.00000000	18.59621000	3.15575800
186.89998908	0.00000000	18.18405000	3.15575800
187.09998907	0.00000000	18.17790000	3.19881900
187.29998906	0.00000000	17.76575000	3.57406500
187.49998904	0.00000000	17.48277000	4.31840500
187.69998903	0.00000000	17.80881000	4.69365100
187.89998902	0.00000000	18.55315000	4.73671200
188.09998901	0.00000000	18.92839000	4.69365100
188.29998900	0.00000000	18.97145000	4.31840500
188.49998899	0.00000000	18.97145000	3.57406500
188.69998897	0.00000000	18.97145000	3.19881900
188.89998896	0.00000000	18.97145000	3.15575800
189.09998895	0.00000000	18.97145000	3.15575800
189.29998894	0.00000000	18.97145000	3.15575800
189.49998893	0.00000000	18.92839000	3.15575800
189.69998891	0.00000000	18.59621000	3.15575800
189.89998890	0.00000000	18.18405000	3.15575800
190.09998889	0.00000000	18.22096000	3.19881900
190.29998888	0.00000000	18.18405000	3.57406500
190.49998887	0.00000000	18.55315000	4.26919300
190.69998885	0.00000000	18.55315000	4.31840500
190.89998884	0.00000000	18.22711000	3.94931100
191.09998883	0.00000000	18.59621000	3.94315900
191.29998882	0.00000000	18.92839000	3.53100400
191.49998881	0.00000000	18.92839000	3.19881900
191.69998880	0.00000000	18.59621000	3.15575800
191.89998878	0.00000000	18.22711000	3.15575800
192.09998877	0.00000000	18.55315000	3.15575800
192.29998876	0.00000000	18.55315000	3.15575800
192.49998875	0.00000000	18.18405000	3.15575800
192.69998874	0.00000000	18.17790000	3.15575800
192.89998872	0.00000000	17.76575000	3.15575800
193.09998871	0.00000000	17.43356000	3.19881900
193.29998870	0.00000000	17.39050000	3.57406500
193.49998869	0.00000000	17.43356000	4.26919300
193.69998868	0.00000000	17.80881000	4.31840500
193.89998866	0.00000000	18.55315000	3.94931100
194.09998865	0.00000000	18.92839000	3.98622000
194.29998864	0.00000000	18.97145000	3.94931100
194.49998863	0.00000000	18.97145000	4.31840500
194.69998862	0.00000000	18.97145000	4.26919300
194.89998861	0.00000000	18.97145000	3.62327700
195.09998859	0.00000000	18.92839000	3.57406500
195.29998858	0.00000000	18.55315000	3.90009800
195.49998857	0.00000000	17.80881000	3.53100400
195.69998856	0.00000000	17.48277000	3.19881900
195.89998855	0.00000000	17.76575000	3.15575800
196.09998853	0.00000000	18.17790000	3.15575800
