Time	Channel A	Channel B	Channel C
(us)	(V)	(mV)	(mV)

-4.49999956	0.00000000	33.10777000	9.47342500
-4.29999957	0.00000000	32.82480000	9.51648500
-4.09999958	0.00000000	32.45571000	9.84867000
-3.89999959	0.00000000	32.78174000	10.25467000
-3.69999960	0.00000000	32.78174000	10.26698000
-3.49999962	0.00000000	32.45571000	10.67298000
-3.29999963	0.00000000	32.82480000	11.00517000
-3.09999964	0.00000000	33.10777000	11.04823000
-2.89999965	0.00000000	32.82480000	11.00517000
-2.69999966	0.00000000	32.41265000	10.67298000
-2.49999968	0.00000000	32.44956000	10.26698000
-2.29999969	0.00000000	32.36959000	10.30389000
-2.09999970	0.00000000	32.44956000	10.26698000
-1.89999971	0.00000000	32.41265000	10.67298000
-1.69999972	0.00000000	32.82480000	11.00517000
-1.49999973	0.00000000	33.10777000	11.04823000
-1.29999975	0.00000000	32.82480000	11.04823000
-1.09999976	0.00000000	32.45571000	11.04823000
-0.89999977	0.00000000	32.82480000	11.04823000
-0.69999978	0.00000000	33.15699000	11.04823000
-0.49999979	0.00000000	33.20005000	11.04823000
-0.29999981	0.31803640	33.20005000	11.04823000
-0.09999982	0.63668800	33.20005000	11.04823000
0.10000017	0.95533960	33.20005000	11.04823000
0.30000016	0.95533960	33.20005000	11.00517000
0.50000015	0.63668800	33.15699000	10.62992000
0.70000013	0.15871060	32.82480000	9.93479300
0.90000012	-0.79601380	32.41265000	9.93479300
1.10000011	-1.75196900	32.44956000	10.62992000
1.30000010	-2.54859700	32.41265000	11.00517000
1.50000009	-2.70792300	32.82480000	11.04823000
1.70000008	-2.22994600	33.15699000	11.04823000
1.90000006	-0.95533960	33.20005000	11.00517000
2.10000005	1.11466500	33.20005000	10.67298000
2.30000004	3.18590100	33.15699000	10.31004000
2.50000003	4.77854300	32.78174000	10.62992000
2.70000002	5.41584600	32.03740000	10.58686000
2.90000000	4.45989200	31.71137000	9.89173200
3.09999999	2.22994600	31.99434000	9.51648500
3.29999998	-1.11466500	32.36343000	9.51648500
3.49999997	-4.45989200	32.03740000	9.84867000
3.69999996	-7.00848900	32.08661000	10.25467000
3.89999994	-7.96444400	32.78174000	10.26698000
4.09999993	-7.00848900	33.15699000	10.67298000
4.29999992	-3.98191400	33.15699000	11.00517000
4.49999991	0.00000000	32.78174000	11.04823000
4.69999990	4.45989200	32.03740000	11.00517000
4.89999989	7.80511800	31.66215000	10.62992000
5.09999987	9.39837600	31.61909000	9.89173200
5.29999986	8.60174700	31.61909000	9.51648500
5.49999985	5.57517200	31.61909000	9.47342500
5.69999984	1.11466500	31.61909000	9.47342500
5.89999983	-3.66326300	31.61909000	9.47342500
6.09999981	-7.48646600	31.66215000	9.51648500
6.29999980	-9.39837600	32.03740000	9.89173200
6.49999979	-8.92039900	32.78174000	10.62992000
6.69999978	-6.37180100	33.10777000	10.95595000
6.89999977	-2.22994600	32.78174000	10.67298000
7.09999975	2.07062000	32.03740000	10.26698000
7.29999974	5.57517200	31.66215000	10.25467000
7.49999973	7.48646600	31.61909000	9.84867000
7.69999972	7.48646600	31.61909000	9.51648500
7.89999971	5.57517200	31.61909000	9.47342500
8.09999970	2.54859700	31.61909000	9.47342500
8.29999968	-0.79601380	31.61909000	9.47342500
8.49999967	-3.50393700	31.61909000	9.51648500
8.69999966	-4.93786900	31.61909000	9.89173200
8.89999965	-5.09719500	31.61909000	10.62992000
9.09999964	-3.98191400	31.61909000	10.95595000
9.29999962	-2.07062000	31.61909000	10.67298000
9.49999961	-0.15871060	31.61909000	10.26698000
9.69999960	1.43331700	31.61909000	10.25467000
9.89999959	2.38927200	31.61909000	9.84867000
10.09999958	2.54859700	31.61909000	9.56569900
10.29999956	2.07062000	31.61909000	9.84867000
10.49999955	1.11466500	31.61909000	10.21161000
10.69999954	0.31803640	31.61909000	9.84867000
10.89999953	-0.47736220	31.61909000	9.51648500
11.09999952	-0.79601380	31.61909000	9.47342500
11.29999951	-0.95533960	31.61909000	9.51648500
11.49999949	-0.95533960	31.61909000	9.84867000
11.69999948	-0.63668800	31.61909000	10.25467000
11.89999947	-0.31803640	31.61909000	10.26698000
12.09999946	-0.15871060	31.61909000	10.67298000
12.29999945	-0.15871060	31.61909000	11.00517000
12.49999943	0.00000000	31.61909000	11.04823000
12.69999942	0.00000000	31.66215000	11.00517000
12.89999941	0.00000000	31.99434000	10.67298000
13.09999940	0.00000000	32.36343000	10.26698000
13.29999939	0.00000000	31.99434000	10.25467000
13.49999937	0.00000000	31.66215000	9.89173200
13.69999936	0.00000000	31.66215000	9.89173200
13.89999935	-0.15871060	32.03740000	10.25467000
14.09999934	-0.15871060	32.73252000	10.26698000
14.29999933	-0.15871060	32.73252000	10.62992000
14.49999932	-0.15871060	32.08661000	10.62992000
14.69999930	0.00000000	32.03740000	10.26698000
14.89999929	0.00000000	32.36343000	10.25467000
15.09999928	0.00000000	31.99434000	9.89173200
15.29999927	0.00000000	31.66215000	9.93479300
15.49999926	0.00000000	31.61909000	10.62992000
15.69999924	0.00000000	31.61909000	10.95595000
15.89999923	0.00000000	31.61909000	10.62992000
16.09999922	-0.15871060	31.61909000	9.93479300
16.29999921	0.00000000	31.66215000	9.93479300
16.49999920	-0.15871060	32.03740000	10.62992000
16.69999919	-0.15871060	32.78174000	11.00517000
16.89999917	-0.15871060	33.15699000	11.04823000
17.09999916	0.00000000	33.24311000	11.04823000
17.29999915	0.00000000	33.61835000	11.04823000
17.49999914	0.00000000	34.31963000	11.04823000
17.69999913	0.00000000	34.31963000	11.04823000
17.89999911	0.00000000	33.57529000	11.04823000
18.09999910	0.00000000	32.78174000	11.04823000
18.29999909	0.00000000	31.52682000	11.00517000
18.49999908	0.00000000	29.66289000	10.62992000
18.69999907	0.00000000	27.76206000	9.89173200
18.89999905	-0.15871060	27.01156000	9.51648500
19.09999904	0.00000000	27.38681000	9.47342500
19.29999903	0.00000000	28.96776000	9.47342500
19.49999902	0.00000000	31.71137000	9.47342500
19.69999901	0.00000000	35.20546000	9.47342500
19.89999900	0.00000000	39.06250000	9.47342500
20.09999898	0.00000000	42.09522000	9.47342500
20.29999897	0.00000000	43.20866000	9.47342500
20.49999896	0.00000000	41.62770000	9.47342500
20.69999895	0.00000000	37.34621000	9.47342500
20.89999894	0.00000000	31.10851000	9.47342500
21.09999892	0.00000000	23.71432000	9.47342500
21.29999891	0.00000000	16.45546000	9.47342500
21.49999890	0.00000000	11.52190000	9.47342500
21.69999889	0.00000000	11.19587000	9.47342500
21.89999888	0.00000000	15.84646000	9.47342500
22.09999886	0.00000000	24.82775000	9.47342500
22.29999885	0.00000000	36.82948000	9.47342500
22.49999884	0.00000000	49.53248000	9.47342500
22.69999883	0.00000000	59.53494000	9.51648500
22.89999882	0.00000000	64.05019000	9.89173200
23.09999881	0.00000000	61.30044000	10.62992000
23.29999879	0.00000000	50.84276000	11.04823000
23.49999878	0.00000000	35.34695000	11.46653000
23.69999877	0.00000000	17.52584000	12.21087000
23.89999876	0.00000000	1.01501000	12.53691000
24.09999875	0.00000000	-9.31963500	12.21087000
24.29999873	0.00000000	-10.43922000	11.42347000
24.49999872	0.00000000	-1.50713600	10.62992000
24.69999871	0.00000000	15.89567000	9.38115100
24.89999870	0.00000000	37.94907000	7.51722400
25.09999869	0.00000000	59.91018000	5.61638700
25.29999867	0.00000000	76.47022000	4.87204700
25.49999866	0.00000000	82.99089000	5.24729300
25.69999865	0.00000000	78.00812000	6.86515700
25.89999864	0.00000000	62.47539000	9.98400600
26.09999863	0.00000000	39.67150000	14.21014000
26.29999862	0.00000000	14.22244000	18.43627000
26.49999860	0.00000000	-7.36343400	21.50590000
26.69999859	0.00000000	-19.74040000	22.61934000
26.89999858	0.00000000	-20.52780000	21.03838000
27.09999857	0.00000000	-9.27657400	16.76919000
27.29999856	0.00000000	11.47884000	10.53765000
27.49999854	0.00000000	36.59571000	3.15575800
27.69999853	0.00000000	59.77485000	-4.14000900
27.89999852	0.00000000	76.47022000	-9.43036400
28.09999851	0.00000000	82.99089000	-10.54995000
28.29999850	0.00000000	78.05118000	-6.69291300
28.49999848	0.00000000	62.98597000	1.06422200
28.69999847	0.00000000	41.76304000	11.55881000
28.89999846	0.00000000	18.96531000	23.17298000
29.09999845	0.00000000	0.03075787	33.49532000
29.29999844	0.00000000	-10.85753000	39.57923000
29.49999843	0.00000000	-12.10630000	38.79183000
29.69999841	0.00000000	-4.01697800	31.45300000
29.89999840	0.00000000	11.01747000	19.04527000
30.09999839	0.00000000	29.57677000	3.57406500
30.29999838	0.00000000	47.39788000	-11.43578000
30.49999837	0.00000000	60.98056000	-22.63164000
30.69999835	0.00000000	67.96260000	-27.18381000
30.89999834	0.00000000	66.84301000	-23.74508000
31.09999833	0.00000000	58.37229000	-12.88140000
31.29999832	0.00000000	44.87574000	2.97121000
31.49999831	0.00000000	29.43528000	21.13066000
31.69999829	0.00000000	15.88952000	37.30315000
31.89999828	0.00000000	6.91437000	47.76082000
32.09999827	0.00000000	3.80167300	50.44906000
32.29999826	0.00000000	6.82824800	44.64198000
32.49999825	0.00000000	14.91757000	31.53912000
32.69999824	0.00000000	25.76279000	14.16708000
32.89999822	0.00000000	37.34621000	-3.62942900
33.09999821	0.00000000	46.97957000	-18.35630000
33.29999820	0.00000000	52.04847000	-27.23302000
33.49999819	0.00000000	52.14074000	-28.34645000
33.69999818	0.00000000	47.90846000	-21.05069000
33.89999816	0.00000000	40.55733000	-7.20349400
34.09999815	0.00000000	31.71137000	9.43036400
34.29999814	0.00000000	23.61589000	25.68897000
34.49999813	-0.15871060	18.59006000	38.41658000
34.69999812	0.00000000	17.38435000	44.59892000
34.89999810	0.00000000	20.03568000	43.11023000
35.09999809	0.00000000	25.43061000	34.60876000
35.29999808	0.00000000	31.95128000	21.13066000
35.49999807	0.00000000	38.09055000	5.70866100
35.69999806	0.00000000	41.58464000	-7.76943800
35.89999805	0.00000000	42.00295000	-16.31397000
36.09999803	0.00000000	39.71457000	-18.26402000
36.29999802	0.00000000	35.07013000	-13.66265000
36.49999801	0.00000000	29.75517000	-3.67249000
36.69999800	0.00000000	25.11073000	8.96284400
36.89999799	0.00000000	22.77928000	20.53395000
37.09999797	0.00000000	22.73007000	28.29109000
37.29999796	0.00000000	24.73548000	30.98548000
37.49999795	0.00000000	28.96776000	27.87278000
37.69999794	0.00000000	34.27657000	19.50664000
37.89999793	0.00000000	38.50886000	8.82135800
38.09999791	0.00000000	40.51427000	-0.38139760
38.29999790	0.00000000	40.55733000	-5.81323800
38.49999789	0.00000000	38.97638000	-6.18848400
38.69999788	0.00000000	35.85752000	-1.58710600
38.89999787	0.00000000	31.61909000	6.82209600
39.09999786	0.00000000	27.38681000	16.35089000
39.29999784	0.00000000	24.26796000	23.64665000
39.49999783	0.00000000	22.68701000	26.71629000
39.69999782	0.00000000	22.68701000	24.76009000
39.89999781	0.00000000	24.26796000	17.83957000
40.09999780	0.00000000	27.34375000	7.94168200
40.29999778	0.00000000	31.20078000	-1.63016700
40.49999777	0.00000000	34.69488000	-7.81250000
40.69999776	0.00000000	37.48154000	-9.34424200
40.89999775	0.00000000	39.39468000	-5.85629900
41.09999774	0.00000000	40.18209000	2.22071800
41.29999772	0.00000000	39.39468000	12.53691000
41.49999771	0.00000000	37.43848000	22.15797000
41.69999770	0.00000000	34.31963000	28.29109000
41.89999769	0.00000000	30.50566000	29.49680000
42.09999768	0.00000000	27.38681000	25.68897000
42.29999767	0.00000000	25.38755000	18.39321000
42.49999765	0.00000000	24.22490000	9.51648500
42.69999764	0.00000000	24.26796000	1.06422200
42.89999763	0.00000000	25.76279000	-4.69365100
43.09999762	0.00000000	28.08194000	-6.32381900
43.29999761	0.00000000	30.41338000	-4.04773600
43.49999759	0.00000000	32.78174000	0.97194880
43.69999758	0.00000000	34.69488000	7.89247000
43.89999757	0.00000000	35.90059000	14.76993000
44.09999756	0.00000000	36.27584000	19.42052000
44.29999755	0.00000000	35.94980000	21.04454000
44.49999753	0.00000000	35.20546000	19.92495000
44.69999752	0.00000000	34.83022000	16.85531000
44.89999751	0.00000000	34.74409000	12.62918000
45.09999750	0.00000000	34.31963000	8.40305000
45.29999749	0.00000000	33.15699000	5.29035400
45.49999748	0.00000000	31.57603000	3.70939900
45.69999746	0.00000000	29.57062000	3.70939900
45.89999745	0.00000000	26.83317000	5.19808000
46.09999744	0.00000000	23.80659000	7.51722400
46.29999743	0.00000000	21.57357000	9.84867000
46.49999742	0.00000000	21.61663000	12.21087000
46.69999740	0.00000000	24.31102000	14.11786000
46.89999739	0.00000000	29.01082000	15.27436000
47.09999738	0.00000000	35.20546000	15.23130000
47.29999737	0.00000000	41.71998000	13.74262000
47.49999736	0.00000000	46.32751000	11.42347000
47.69999734	0.00000000	47.85925000	9.09817800
47.89999733	0.00000000	45.90305000	6.77903500
48.09999732	0.00000000	40.46506000	5.24729300
48.29999731	0.00000000	32.68946000	4.82898600
48.49999730	0.00000000	23.80659000	5.24729300
48.69999729	0.00000000	15.80339000	6.82209600
48.89999727	0.00000000	11.57111000	9.51648500
49.09999726	0.00000000	12.30930000	12.58612000
49.29999725	0.00000000	17.34129000	15.27436000
49.49999724	0.00000000	25.89813000	16.81225000
49.69999723	0.00000000	36.23277000	16.76919000
49.89999721	0.00000000	45.48474000	14.85605000
50.09999720	0.00000000	50.88582000	11.38041000
50.29999719	0.00000000	51.67323000	7.56028500
50.49999718	0.00000000	47.39788000	4.03543200
50.69999717	0.00000000	38.97638000	1.75319900
50.89999715	-0.15871060	28.96776000	0.97194880
51.09999714	0.00000000	20.07874000	2.22071800
51.29999713	0.00000000	14.30856000	5.66560000
51.49999712	0.00000000	13.15207000	10.58686000
51.69999711	0.00000000	16.96604000	14.81299000
51.89999710	0.00000000	24.26796000	17.18750000
52.09999708	0.00000000	33.11393000	18.01796000
52.29999707	0.00000000	41.16019000	17.18750000
52.49999706	0.00000000	45.77386000	14.85605000
52.69999705	0.00000000	45.85999000	11.00517000
52.89999704	0.00000000	42.04601000	6.82209600
53.09999702	0.00000000	35.85752000	3.75246000
53.29999701	0.00000000	28.54946000	2.54675200
53.49999700	0.00000000	22.03494000	3.29109200
53.69999699	0.00000000	18.63312000	5.19808000
53.89999698	0.00000000	19.34055000	7.89247000
54.09999696	0.00000000	23.89271000	10.58686000
54.29999695	0.00000000	30.03814000	12.49385000
54.49999694	0.00000000	36.23277000	13.28125000
54.69999693	0.00000000	41.20940000	12.53691000
54.89999692	0.00000000	43.11638000	11.04823000
55.09999691	0.00000000	41.58464000	9.47342500
55.29999689	0.00000000	37.02018000	7.98474400
55.49999688	0.00000000	30.88090000	7.24040300
55.69999687	0.00000000	25.47367000	8.02780400
55.89999686	0.00000000	21.61663000	9.89173200
56.09999685	0.00000000	20.50320000	12.11860000
56.29999683	0.00000000	22.77928000	13.28125000
56.49999682	0.00000000	27.34375000	12.91215000
56.69999681	0.00000000	32.73868000	11.74951000
56.89999680	0.00000000	37.34621000	9.38115100
57.09999679	0.00000000	40.08981000	6.31151500
57.29999677	0.00000000	40.46506000	3.29109200
57.49999676	0.00000000	38.55807000	1.43331700
57.69999675	0.00000000	34.73794000	2.22071800
57.89999674	0.00000000	30.50566000	5.29035400
58.09999673	0.00000000	27.01156000	9.93479300
58.29999672	0.00000000	24.68627000	15.32357000
58.49999670	0.00000000	24.31102000	19.88189000
58.69999669	0.00000000	25.84892000	22.15797000
58.89999668	0.00000000	28.87549000	21.03838000
59.09999667	0.00000000	32.32037000	17.18750000
59.29999666	0.00000000	34.65182000	11.70029000
59.49999664	0.00000000	35.85752000	4.82898600
59.69999663	0.00000000	35.85752000	-1.25492100
59.89999662	0.00000000	34.69488000	-4.00467500
60.09999661	0.00000000	32.78174000	-3.62942900
60.29999660	0.00000000	30.50566000	-0.09842519
60.49999658	0.00000000	28.96776000	6.44685000
60.69999657	0.00000000	28.54946000	14.11786000
60.89999656	0.00000000	28.92470000	21.03838000
61.09999655	0.00000000	30.08120000	25.27067000
61.29999654	0.00000000	31.61909000	25.63976000
61.49999653	0.00000000	33.15699000	22.15797000
61.69999651	0.00000000	34.27657000	15.23130000
61.89999650	0.00000000	34.27657000	6.82209600
62.09999649	0.00000000	33.15699000	-0.51673230
62.29999648	0.00000000	31.61909000	-5.16117100
62.49999647	0.00000000	30.03814000	-6.32381900
62.69999645	0.00000000	28.50024000	-3.62942900
62.89999644	0.00000000	27.38681000	2.12844500
63.09999643	0.00000000	27.42987000	9.47342500
63.29999642	0.00000000	28.92470000	16.76919000
63.49999641	0.00000000	31.24384000	22.20103000
63.69999639	0.00000000	33.53223000	24.53248000
63.89999638	0.00000000	35.43922000	23.78199000
64.09999637	0.00000000	35.81446000	19.93110000
64.29999636	0.00000000	34.69488000	14.16708000
64.49999635	0.00000000	32.78174000	7.98474400
64.69999634	0.00000000	30.45644000	2.55290300
64.89999632	0.00000000	28.54946000	-0.93503930
65.09999631	0.00000000	27.38681000	-2.13459600
65.29999630	0.00000000	27.38681000	-0.97810030
65.49999629	0.00000000	28.50024000	2.08538400
65.69999628	0.00000000	30.03814000	6.31151500
65.89999626	0.00000000	31.61909000	10.58686000
66.09999625	0.00000000	33.11393000	14.11786000
66.29999624	0.00000000	33.85211000	16.85531000
66.49999623	0.00000000	33.11393000	18.39321000
66.69999622	0.00000000	31.61909000	18.43627000
66.89999620	0.00000000	30.08120000	17.27362000
67.09999619	0.00000000	28.92470000	15.32357000
67.29999618	0.00000000	28.54946000	12.58612000
67.49999617	0.00000000	28.96776000	9.47342500
67.69999616	0.00000000	30.54872000	6.31151500
67.89999615	0.00000000	33.20005000	3.19881900
68.09999613	0.00000000	35.85752000	0.55364170
68.29999612	0.00000000	37.35236000	-0.60285430
68.49999611	0.00000000	36.97712000	0.17839570
68.69999610	0.00000000	34.65182000	2.50369100
68.89999609	0.00000000	31.20078000	6.44685000
69.09999607	0.00000000	27.29453000	11.46653000
69.29999606	0.00000000	23.84965000	16.85531000
69.49999605	0.00000000	21.57357000	21.03838000
69.69999604	0.00000000	21.61663000	22.61934000
69.89999603	0.00000000	24.31102000	21.46284000
70.09999601	0.00000000	28.92470000	17.97490000
70.29999600	0.00000000	34.36884000	12.58612000
70.49999599	0.00000000	39.35162000	6.77903500
70.69999598	0.00000000	42.79035000	1.71013800
70.89999597	0.00000000	43.16560000	-2.09768700
71.09999596	0.00000000	40.51427000	-3.21112200
71.29999594	0.00000000	35.85752000	-0.93503930
71.49999593	0.00000000	30.03814000	3.62327700
71.69999592	0.00000000	24.22490000	9.05511800
71.89999591	0.00000000	19.61737000	14.07480000
72.09999590	0.00000000	17.34129000	17.93184000
72.29999588	0.00000000	18.49778000	19.46358000
72.49999587	0.00000000	22.68701000	18.39321000
72.69999586	0.00000000	28.50640000	15.69882000
72.89999585	0.00000000	34.69488000	12.21087000
73.09999584	0.00000000	40.08981000	8.40305000
73.29999582	0.00000000	43.16560000	5.70866100
73.49999581	0.00000000	43.20866000	4.87204700
73.69999580	0.00000000	40.46506000	5.19808000
73.89999579	0.00000000	35.52534000	6.40378900
74.09999578	0.00000000	29.76132000	8.26771600
74.29999577	0.00000000	25.47367000	10.16855000
74.49999575	0.00000000	22.68701000	10.86983000
74.69999574	0.00000000	21.57357000	10.16855000
74.89999573	0.00000000	22.68701000	8.31077700
75.09999572	0.00000000	25.38755000	6.82209600
75.29999571	0.00000000	28.87549000	6.40378900
75.49999569	0.00000000	32.73868000	6.82209600
75.69999568	0.00000000	35.76525000	8.44611200
75.89999567	0.00000000	37.02018000	11.46653000
76.09999566	0.00000000	36.60802000	14.90526000
76.29999565	0.00000000	35.10704000	17.18750000
76.49999563	0.00000000	32.46186000	17.92569000
76.69999562	0.00000000	30.59178000	16.35089000
76.89999561	0.00000000	30.08120000	12.49385000
77.09999560	0.00000000	30.03814000	7.51722400
77.29999559	0.00000000	30.03814000	2.50369100
77.49999558	0.00000000	30.03814000	-0.93503930
77.69999556	0.00000000	30.03814000	-2.09153500
77.89999555	0.00000000	30.03814000	-0.51673230
78.09999554	0.00000000	29.99508000	3.66633800
78.29999553	0.00000000	29.57062000	9.05511800
78.49999552	0.00000000	28.50024000	14.11786000
78.69999550	0.00000000	27.80512000	18.39321000
78.89999549	0.00000000	28.54946000	21.03838000
79.09999548	0.00000000	30.08120000	21.03838000
79.29999547	0.00000000	32.03740000	18.39321000
79.49999546	0.00000000	34.31963000	14.16708000
79.69999544	0.00000000	35.81446000	9.47342500
79.89999543	0.00000000	35.85752000	4.87204700
80.09999542	0.00000000	34.69488000	1.39025600
80.29999541	0.00000000	32.73868000	0.17839570
80.49999540	0.00000000	30.03814000	0.55364170
80.69999539	0.00000000	27.34375000	2.50369100
80.89999537	0.00000000	25.43061000	5.93626900
81.09999536	0.00000000	24.64321000	9.38115100
81.29999535	0.00000000	25.43061000	12.16781000
81.49999534	0.00000000	27.34375000	14.11786000
81.69999533	0.00000000	30.08120000	15.32357000
81.89999531	0.00000000	33.11393000	15.69267000
82.09999530	0.00000000	35.43922000	15.32357000
82.29999529	0.00000000	36.23277000	14.11786000
82.49999528	0.00000000	35.85752000	12.21087000
82.69999527	0.00000000	34.27657000	9.84867000
82.89999525	0.00000000	31.61909000	7.47416300
83.09999524	0.00000000	28.96776000	4.77977300
83.29999523	0.00000000	27.38681000	2.50369100
83.49999522	0.00000000	26.96850000	1.71013800
83.69999521	0.00000000	27.34375000	2.08538400
83.89999520	0.00000000	28.45718000	3.66633800
84.09999518	0.00000000	29.61983000	6.40378900
84.29999517	0.00000000	30.41338000	9.93479300
84.49999516	0.00000000	31.20078000	14.16708000
84.69999515	0.00000000	31.57603000	17.93184000
84.89999514	0.00000000	31.61909000	19.46358000
85.09999512	0.00000000	31.61909000	18.35015000
85.29999511	0.00000000	31.61909000	15.27436000
85.49999510	0.00000000	31.61909000	11.04823000
85.69999509	0.00000000	31.61909000	6.77903500
85.89999508	0.00000000	31.61909000	3.24803100
86.09999506	0.00000000	31.57603000	0.59670270
86.29999505	0.00000000	31.20078000	-0.14148620
86.49999504	0.00000000	30.41338000	1.75935000
86.69999503	0.00000000	29.66289000	5.19808000
86.89999502	0.00000000	28.83243000	9.47342500
87.09999501	0.00000000	28.12500000	13.69956000
87.29999499	0.00000000	27.76206000	16.81225000
87.49999498	0.00000000	28.54946000	18.35015000
87.69999497	0.00000000	30.03814000	17.88263000
87.89999496	0.00000000	31.61909000	14.81299000
88.09999495	0.00000000	33.15699000	9.89173200
88.29999493	0.00000000	34.27657000	5.29035400
88.49999492	0.00000000	34.31963000	2.17765700
88.69999491	0.00000000	33.53223000	1.01501000
88.89999490	0.00000000	32.36343000	2.17765700
89.09999489	0.00000000	30.45644000	5.24729300
89.29999487	0.00000000	28.96776000	9.47342500
89.49999486	0.00000000	28.50024000	13.69956000
89.69999485	0.00000000	28.45718000	16.76919000
89.89999484	0.00000000	28.50024000	17.92569000
90.09999483	0.00000000	28.92470000	16.76919000
90.29999482	0.00000000	30.03814000	13.65650000
90.49999480	0.00000000	31.15157000	9.14124000
90.69999479	0.00000000	31.57603000	4.87819900
90.89999478	0.00000000	31.61909000	2.54060000
91.09999477	0.00000000	31.61909000	1.34719500
91.29999476	0.00000000	31.61909000	2.26377900
91.49999474	0.00000000	31.57603000	5.66560000
91.69999473	0.00000000	31.24384000	10.62992000
91.89999472	0.00000000	30.87475000	15.18824000
92.09999471	0.00000000	31.24384000	17.92569000
92.29999470	0.00000000	31.57603000	18.30093000
92.49999468	0.00000000	31.57603000	16.39395000
92.69999467	0.00000000	31.15157000	12.53691000
92.89999466	0.00000000	30.03814000	7.93553100
93.09999465	0.00000000	28.87549000	3.70939900
93.29999464	0.00000000	28.08194000	1.06422200
93.49999463	0.00000000	27.34375000	1.06422200
93.69999461	0.00000000	27.38681000	3.70939900
93.89999460	0.00000000	28.54946000	7.89247000
94.09999459	0.00000000	30.45644000	12.16166000
94.29999458	0.00000000	32.78174000	15.60654000
94.49999457	0.00000000	34.69488000	17.50738000
94.69999455	0.00000000	35.85752000	16.72613000
94.89999454	0.00000000	35.85752000	13.74262000
95.09999453	0.00000000	34.69488000	9.84867000
95.29999452	0.00000000	32.68946000	6.02854300
95.49999451	0.00000000	29.61983000	2.92199800
95.69999449	0.00000000	26.18110000	1.80241100
95.89999448	0.00000000	23.84965000	2.50369100
96.09999447	0.00000000	22.68701000	4.87204700
96.29999446	0.00000000	23.10531000	8.26771600
96.49999445	0.00000000	25.43061000	11.74951000
96.69999444	0.00000000	28.92470000	14.03174000
96.89999442	0.00000000	33.15699000	14.85605000
97.09999441	0.00000000	36.97096000	14.07480000
97.29999440	0.00000000	38.93332000	12.21087000
97.49999439	0.00000000	38.97638000	9.84867000
97.69999438	0.00000000	37.39542000	7.56643700
97.89999436	0.00000000	34.31963000	5.66560000
98.09999435	0.00000000	30.45644000	5.29035400
98.29999434	0.00000000	26.91929000	6.36072800
98.49999433	0.00000000	23.84965000	7.84940900
98.69999432	0.00000000	21.94882000	9.00590400
98.89999430	0.00000000	22.31176000	9.43036400
99.09999429	0.00000000	24.22490000	9.47342500
99.29999428	0.00000000	27.34375000	9.51648500
99.49999427	0.00000000	31.20078000	9.89173200
99.69999426	0.00000000	34.69488000	10.62992000
99.89999425	0.00000000	37.39542000	11.00517000
100.09999423	0.00000000	38.55807000	11.04823000
100.29999422	0.00000000	37.81373000	11.04823000
100.49999421	0.00000000	35.90059000	11.04823000
100.69999420	0.00000000	33.15699000	11.00517000
100.89999419	0.00000000	30.08120000	10.58686000
101.09999417	0.00000000	27.34375000	9.38115100
101.29999416	0.00000000	25.38755000	7.51722400
101.49999415	0.00000000	24.22490000	5.61638700
101.69999414	0.00000000	24.22490000	4.87204700
101.89999413	0.00000000	25.38755000	5.24729300
102.09999411	0.00000000	27.34375000	6.77903500
102.29999410	0.00000000	30.03814000	9.09817800
102.49999409	0.00000000	32.68946000	11.42347000
102.69999408	0.00000000	34.31963000	13.74262000
102.89999407	0.00000000	35.11934000	15.23130000
103.09999406	0.00000000	35.48228000	15.23130000
103.29999404	0.00000000	34.65182000	13.69956000
103.49999403	0.00000000	32.78174000	11.00517000
103.69999402	0.00000000	30.45644000	7.93553100
103.89999401	0.00000000	28.50024000	5.19808000
104.09999400	0.00000000	26.96850000	3.29109200
104.29999398	0.00000000	26.18110000	2.54675200
104.49999397	0.00000000	26.54404000	3.70939900
104.69999396	0.00000000	27.29453000	6.36072800
104.89999395	0.00000000	28.50024000	9.42421200
105.09999394	0.00000000	30.03814000	12.11860000
105.29999392	0.00000000	31.61909000	13.69956000
105.49999391	0.00000000	33.11393000	14.07480000
105.69999390	0.00000000	33.85211000	13.32431000
105.89999389	0.00000000	33.11393000	11.38041000
106.09999388	0.00000000	31.61909000	9.09817800
106.29999387	0.00000000	30.08120000	6.77903500
106.49999385	0.00000000	28.92470000	5.29035400
106.69999384	0.00000000	28.50024000	5.24729300
106.89999383	0.00000000	28.50024000	6.36072800
107.09999382	0.00000000	28.92470000	7.89247000
107.29999381	0.00000000	30.03814000	9.47342500
107.49999379	0.00000000	31.15157000	11.00517000
107.69999378	0.00000000	31.52682000	12.11860000
107.89999377	0.00000000	31.20078000	12.11860000
108.09999376	0.00000000	30.45644000	11.00517000
108.29999375	0.00000000	30.03814000	9.47342500
108.49999374	0.00000000	29.61983000	7.93553100
108.69999372	0.00000000	28.87549000	6.77903500
108.89999371	0.00000000	28.54946000	6.40378900
109.09999370	0.00000000	28.87549000	6.77903500
109.29999369	0.00000000	29.66289000	7.93553100
109.49999368	0.00000000	30.45644000	9.47342500
109.69999366	0.00000000	31.61909000	11.00517000
109.89999365	0.00000000	32.68946000	12.11860000
110.09999364	0.00000000	32.73252000	12.16166000
110.29999363	0.00000000	31.99434000	11.42347000
110.49999362	0.00000000	31.20078000	10.58686000
110.69999360	0.00000000	30.03814000	9.05511800
110.89999359	0.00000000	28.87549000	7.19734200
111.09999358	0.00000000	28.12500000	6.40378900
111.29999357	0.00000000	27.71284000	6.31151500
111.49999356	0.00000000	28.12500000	6.35457700
111.69999355	0.00000000	28.83243000	6.72982200
111.89999353	0.00000000	29.66289000	7.51722400
112.09999352	0.00000000	30.41338000	8.31077700
112.29999351	0.00000000	31.20078000	9.47342500
112.49999350	0.00000000	31.57603000	10.58686000
112.69999349	0.00000000	31.57603000	10.95595000
112.89999347	0.00000000	31.20078000	10.62992000
113.09999346	0.00000000	30.45644000	9.89173200
113.29999345	0.00000000	30.08120000	9.51648500
113.49999344	0.00000000	30.03814000	9.47342500
113.69999343	0.00000000	30.03814000	9.43036400
113.89999341	0.00000000	30.03814000	9.05511800
114.09999340	0.00000000	30.03814000	8.31077700
114.29999339	0.00000000	30.03814000	7.93553100
114.49999338	0.00000000	30.03814000	7.89247000
114.69999337	0.00000000	30.03814000	7.89247000
114.89999336	0.00000000	30.03814000	7.89247000
115.09999334	0.00000000	30.08120000	7.89247000
115.29999333	0.00000000	30.41338000	7.93553100
115.49999332	0.00000000	30.78248000	8.31077700
115.69999331	0.00000000	30.41338000	9.09817800
115.89999330	0.00000000	30.03814000	9.84867000
116.09999328	0.00000000	29.66289000	10.62992000
116.29999327	0.00000000	29.29380000	11.00517000
116.49999326	0.00000000	29.61983000	11.04823000
116.69999325	0.00000000	29.61983000	11.00517000
116.89999324	0.00000000	29.29380000	10.58686000
117.09999322	0.00000000	29.66289000	9.42421200
117.29999321	0.00000000	30.03814000	7.93553100
117.49999320	0.00000000	30.45644000	6.77903500
117.69999319	0.00000000	31.20078000	6.35457700
117.89999318	0.00000000	31.57603000	6.35457700
118.09999317	0.00000000	31.57603000	6.72982200
118.29999315	0.00000000	31.20078000	7.51722400
118.49999314	0.00000000	30.41338000	8.31077700
118.69999313	0.00000000	29.61983000	9.47342500
118.89999312	0.00000000	28.45718000	10.58686000
119.09999311	0.00000000	27.34375000	11.00517000
119.29999309	0.00000000	26.96850000	11.04823000
119.49999308	0.00000000	27.29453000	11.00517000
119.69999307	0.00000000	28.08194000	10.62992000
119.89999306	0.00000000	28.87549000	9.84867000
120.09999305	0.00000000	30.08120000	9.09817800
120.29999303	0.00000000	31.57603000	8.31077700
120.49999302	0.00000000	32.73252000	7.93553100
120.69999301	0.00000000	33.10777000	7.89247000
120.89999300	0.00000000	32.73252000	7.89247000
121.09999299	0.00000000	31.61909000	7.89247000
121.29999298	0.00000000	30.45644000	7.89247000
121.49999296	0.00000000	29.61983000	7.89247000
121.69999295	0.00000000	28.45718000	7.93553100
121.89999294	0.00000000	27.34375000	8.31077700
122.09999293	0.00000000	26.91929000	9.05511800
122.29999292	0.00000000	26.96850000	9.47342500
122.49999290	0.00000000	27.71284000	9.84867000
122.69999289	0.00000000	29.20152000	10.21161000
122.89999288	0.00000000	29.99508000	9.84867000
123.09999287	0.00000000	30.45644000	9.51648500
123.29999286	0.00000000	31.20078000	9.47342500
123.49999284	0.00000000	31.57603000	9.47342500
123.69999283	0.00000000	31.57603000	9.43036400
123.89999282	0.00000000	31.20078000	9.05511800
124.09999281	0.00000000	30.41338000	8.31077700
124.29999280	0.00000000	29.66289000	7.93553100
124.49999279	0.00000000	28.87549000	7.89247000
124.69999277	0.00000000	28.45718000	7.89247000
124.89999276	0.00000000	28.03888000	7.93553100
125.09999275	0.00000000	27.34375000	8.31077700
125.29999274	0.00000000	27.34375000	9.05511800
125.49999273	0.00000000	28.08194000	9.43036400
125.69999271	0.00000000	28.87549000	9.47342500
125.89999270	0.00000000	30.03814000	9.47342500
126.09999269	0.00000000	31.20078000	9.47342500
126.29999268	0.00000000	31.95128000	9.47342500
126.49999267	-0.15871060	32.36343000	9.47342500
126.69999265	0.00000000	31.95128000	9.43036400
126.89999264	0.00000000	31.20078000	9.05511800
127.09999263	0.00000000	30.03814000	8.31077700
127.29999262	0.00000000	28.87549000	7.93553100
127.49999261	0.00000000	28.08194000	7.89247000
127.69999260	0.00000000	27.29453000	7.93553100
127.89999258	0.00000000	26.96850000	8.31077700
128.09999257	0.00000000	27.34375000	9.05511800
128.29999256	0.00000000	28.50024000	9.43036400
128.49999255	0.00000000	29.99508000	9.47342500
128.69999254	0.00000000	31.15157000	9.47342500
128.89999252	0.00000000	31.57603000	9.47342500
129.09999251	0.00000000	31.57603000	9.47342500
129.29999250	0.00000000	31.20078000	9.47342500
129.49999249	0.00000000	30.41338000	9.43036400
129.69999248	0.00000000	29.66289000	9.05511800
129.89999246	0.00000000	28.83243000	8.31077700
130.09999245	0.00000000	28.12500000	7.98474400
130.29999244	0.00000000	27.71284000	8.31077700
130.49999243	0.00000000	28.12500000	9.05511800
130.69999242	0.00000000	28.83243000	9.43036400
130.89999241	0.00000000	29.66289000	9.47342500
131.09999239	0.00000000	30.41338000	9.47342500
131.29999238	0.00000000	31.20078000	9.43036400
131.49999237	0.00000000	31.52682000	9.05511800
131.69999236	0.00000000	31.20078000	8.31077700
131.89999235	0.00000000	30.41338000	7.93553100
132.09999233	0.00000000	29.66289000	7.89247000
132.29999232	0.00000000	28.87549000	7.89247000
132.49999231	0.00000000	28.50024000	7.93553100
132.69999230	0.00000000	28.45718000	8.31077700
132.89999229	0.00000000	28.50024000	9.05511800
133.09999227	0.00000000	28.87549000	9.47342500
133.29999226	0.00000000	29.61983000	9.89173200
133.49999225	0.00000000	29.99508000	10.58686000
133.69999224	0.00000000	30.03814000	10.58686000
133.89999223	0.00000000	30.03814000	9.89173200
134.09999222	0.00000000	30.03814000	9.47342500
134.29999220	0.00000000	30.03814000	9.05511800
134.49999219	0.00000000	30.03814000	8.26771600
134.69999218	0.00000000	30.03814000	7.51722400
134.89999217	0.00000000	30.03814000	6.77903500
135.09999216	0.00000000	30.03814000	6.77903500
135.29999214	0.00000000	30.03814000	7.47416300
135.49999213	0.00000000	30.03814000	7.89247000
135.69999212	0.00000000	29.99508000	8.31077700
135.89999211	0.00000000	29.61983000	9.05511800
136.09999210	0.00000000	28.87549000	9.43036400
136.29999208	0.00000000	28.50024000	9.47342500
136.49999207	0.00000000	28.45718000	9.47342500
136.69999206	0.00000000	28.45718000	9.47342500
136.89999205	0.00000000	28.50024000	9.47342500
137.09999204	0.00000000	28.92470000	9.43036400
137.29999203	0.00000000	29.99508000	9.05511800
137.49999201	0.00000000	30.78248000	8.31077700
137.69999200	0.00000000	30.83169000	7.93553100
137.89999199	0.00000000	31.20078000	7.89247000
138.09999198	0.00000000	31.10851000	7.89247000
138.29999197	0.00000000	30.03814000	7.89247000
138.49999195	0.00000000	28.92470000	7.89247000
138.69999194	0.00000000	28.50024000	7.93553100
138.89999193	0.00000000	28.45718000	8.31077700
139.09999192	0.00000000	28.45718000	9.09817800
139.29999191	0.00000000	28.50024000	9.79945900
139.49999189	0.00000000	28.87549000	10.21161000
139.69999188	0.00000000	29.61983000	9.84867000
139.89999187	0.00000000	29.99508000	9.47342500
140.09999186	0.00000000	30.03814000	9.05511800
140.29999185	0.00000000	30.03814000	8.31077700
140.49999184	0.00000000	30.03814000	7.93553100
140.69999182	0.00000000	29.99508000	7.84940900
140.89999181	0.00000000	29.61983000	7.47416300
141.09999180	0.00000000	28.87549000	6.77903500
141.29999179	0.00000000	28.50024000	6.82209600
141.49999178	0.00000000	28.45718000	7.89247000
141.69999176	0.00000000	28.50024000	9.05511800
141.89999175	0.00000000	28.87549000	9.84867000
142.09999174	0.00000000	29.61983000	10.62992000
142.29999173	0.00000000	29.99508000	10.95595000
142.49999172	0.00000000	30.03814000	10.62992000
142.69999170	0.00000000	30.03814000	9.84867000
142.89999169	0.00000000	29.99508000	9.09817800
143.09999168	0.00000000	29.61983000	8.26771600
143.29999167	0.00000000	28.87549000	7.51722400
143.49999166	0.00000000	28.50024000	6.77903500
143.69999165	0.00000000	28.45718000	6.77903500
143.89999163	0.00000000	28.50024000	7.47416300
144.09999162	0.00000000	28.87549000	7.89247000
144.29999161	0.00000000	29.61983000	8.31077700
144.49999160	0.00000000	29.99508000	9.05511800
144.69999159	0.00000000	30.03814000	9.43036400
144.89999157	0.00000000	30.03814000	9.47342500
145.09999156	0.00000000	29.99508000	9.47342500
145.29999155	0.00000000	29.61983000	9.43036400
145.49999154	0.00000000	28.87549000	9.05511800
145.69999153	0.00000000	28.50024000	8.31077700
145.89999151	0.00000000	28.45718000	7.89247000
146.09999150	0.00000000	28.50024000	7.51722400
146.29999149	0.00000000	28.87549000	7.14812900
146.49999148	0.00000000	29.61983000	7.51722400
146.69999147	0.00000000	29.99508000	7.84940900
146.89999146	0.00000000	30.03814000	7.93553100
147.09999144	0.00000000	30.03814000	8.31077700
147.29999143	0.00000000	30.03814000	9.05511800
147.49999142	0.00000000	29.99508000	9.43036400
147.69999141	0.00000000	29.61983000	9.47342500
147.89999140	0.00000000	28.87549000	9.47342500
148.09999138	0.00000000	28.50024000	9.47342500
148.29999137	0.00000000	28.45718000	9.43036400
148.49999136	0.00000000	28.45718000	9.05511800
148.69999135	0.00000000	28.45718000	8.31077700
148.89999134	0.00000000	28.50024000	7.93553100
149.09999132	0.00000000	28.87549000	7.89247000
149.29999131	0.00000000	29.61983000	7.89247000
149.49999130	0.00000000	29.99508000	7.89247000
149.69999129	0.00000000	30.03814000	7.93553100
149.89999128	0.00000000	29.99508000	8.31077700
150.09999127	0.00000000	29.61983000	9.05511800
150.29999125	0.00000000	28.87549000	9.43036400
150.49999124	0.00000000	28.50024000	9.47342500
150.69999123	0.00000000	28.45718000	9.47342500
150.89999122	0.00000000	28.45718000	9.47342500
151.09999121	0.00000000	28.41412000	9.47342500
151.29999119	0.00000000	28.12500000	9.43036400
151.49999118	0.00000000	28.13730000	9.05511800
151.69999117	0.00000000	29.20152000	8.31077700
151.89999116	0.00000000	29.57062000	7.93553100
152.09999115	0.00000000	29.29380000	7.89247000
152.29999113	0.00000000	29.66289000	7.89247000
152.49999112	0.00000000	29.99508000	7.89247000
152.69999111	0.00000000	30.03814000	7.89247000
152.89999110	-0.15871060	30.03814000	7.93553100
153.09999109	0.00000000	29.99508000	8.31077700
153.29999108	0.00000000	29.61983000	9.05511800
153.49999106	0.00000000	28.87549000	9.43036400
153.69999105	0.00000000	28.50024000	9.43036400
153.89999104	0.00000000	28.45718000	9.09817800
154.09999103	0.00000000	28.45718000	8.72908400
154.29999102	0.00000000	28.45718000	9.09817800
154.49999100	0.00000000	28.45718000	9.38115100
154.69999099	0.00000000	28.50024000	9.05511800
154.89999098	0.00000000	28.87549000	8.31077700
155.09999097	0.00000000	29.61983000	7.93553100
155.29999096	0.00000000	29.99508000	7.89247000
155.49999094	0.00000000	30.03814000	7.89247000
155.69999093	0.00000000	30.03814000	7.89247000
155.89999092	0.00000000	30.03814000	7.89247000
156.09999091	0.00000000	29.99508000	7.93553100
156.29999090	0.00000000	29.61983000	8.31077700
156.49999089	0.00000000	28.87549000	9.05511800
156.69999087	0.00000000	28.45718000	9.43036400
156.89999086	0.00000000	28.08194000	9.47342500
157.09999085	0.00000000	27.71284000	9.47342500
157.29999084	0.00000000	28.08194000	9.47342500
157.49999083	0.00000000	28.41412000	9.43036400
157.69999081	0.00000000	28.45718000	9.05511800
157.89999080	0.00000000	28.50024000	8.31077700
158.09999079	0.00000000	28.87549000	7.93553100
158.29999078	0.00000000	29.61983000	7.89247000
158.49999077	0.00000000	29.99508000	7.89247000
158.69999075	0.00000000	30.03814000	7.89247000
158.89999074	0.00000000	29.99508000	7.93553100
159.09999073	0.00000000	29.61983000	8.31077700
159.29999072	0.00000000	28.87549000	9.05511800
159.49999071	0.00000000	28.50024000	9.43036400
159.69999070	0.00000000	28.45718000	9.47342500
159.89999068	0.00000000	28.45718000	9.47342500
160.09999067	0.00000000	28.45718000	9.43036400
160.29999066	0.00000000	28.45718000	9.05511800
160.49999065	0.00000000	28.45718000	8.31077700
160.69999064	0.00000000	28.45718000	7.93553100
160.89999062	0.00000000	28.45718000	7.89247000
161.09999061	0.00000000	28.45718000	7.89247000
161.29999060	0.00000000	28.45718000	7.89247000
161.49999059	0.00000000	28.45718000	7.89247000
161.69999058	0.00000000	28.50024000	7.89247000
161.89999056	0.00000000	28.87549000	7.89247000
162.09999055	0.00000000	29.57062000	7.93553100
162.29999054	0.00000000	29.61983000	8.31077700
162.49999053	0.00000000	29.25074000	9.05511800
162.69999052	0.00000000	29.24459000	9.43036400
162.89999051	0.00000000	28.83243000	9.47342500
163.09999049	0.00000000	28.50024000	9.43036400
163.29999048	0.00000000	28.45718000	9.09817800
163.49999047	0.00000000	28.41412000	8.68602300
163.69999046	0.00000000	28.08194000	8.67987200
163.89999045	0.00000000	27.71284000	8.26771600
164.09999043	0.00000000	28.08194000	7.93553100
164.29999042	0.00000000	28.45718000	7.89247000
164.49999041	0.00000000	28.87549000	7.89247000
164.69999040	0.00000000	29.61983000	7.89247000
164.89999039	0.00000000	29.99508000	7.89247000
165.09999037	0.00000000	29.99508000	7.89247000
165.29999036	0.00000000	29.61983000	7.89247000
165.49999035	0.00000000	28.87549000	7.89247000
165.69999034	0.00000000	28.50024000	7.89247000
165.89999033	0.00000000	28.45718000	7.93553100
166.09999032	0.00000000	28.45718000	8.26771600
166.29999030	0.00000000	28.45718000	8.63681000
166.49999029	0.00000000	28.45718000	8.26771600
166.69999028	0.00000000	28.45718000	7.93553100
166.89999027	0.00000000	28.45718000	7.89247000
167.09999026	0.00000000	28.45718000	7.89247000
167.29999024	0.00000000	28.45718000	7.89247000
167.49999023	0.00000000	28.45718000	7.89247000
167.69999022	0.00000000	28.50024000	7.84940900
167.89999021	0.00000000	28.83243000	7.51722400
168.09999020	0.00000000	29.20152000	7.19734200
168.29999018	0.00000000	28.83243000	7.89247000
168.49999017	-0.15871060	28.50024000	8.58759800
168.69999016	0.00000000	28.45718000	8.26771600
168.89999015	0.00000000	28.45718000	7.93553100
169.09999014	0.00000000	28.45718000	7.89247000
169.29999013	0.00000000	28.45718000	7.89247000
169.49999011	0.00000000	28.45718000	7.89247000
169.69999010	0.00000000	28.45718000	7.89247000
169.89999009	0.00000000	28.45718000	7.89247000
170.09999008	0.00000000	28.45718000	7.89247000
170.29999007	0.00000000	28.45718000	7.89247000
170.49999005	0.00000000	28.45718000	7.89247000
170.69999004	0.00000000	28.45718000	7.89247000
170.89999003	0.00000000	28.45718000	7.89247000
171.09999002	0.00000000	28.45718000	7.89247000
171.29999001	0.00000000	28.45718000	7.89247000
171.49998999	0.00000000	28.45718000	7.89247000
171.69998998	0.00000000	28.45718000	7.89247000
171.89998997	0.00000000	28.45718000	7.89247000
172.09998996	0.00000000	28.45718000	7.89247000
172.29998995	0.00000000	28.45718000	7.89247000
172.49998994	0.00000000	28.45718000	7.89247000
172.69998992	0.00000000	28.45718000	7.89247000
172.89998991	0.00000000	28.45718000	7.89247000
173.09998990	0.00000000	28.45718000	7.89247000
173.29998989	0.00000000	28.45718000	7.89247000
173.49998988	0.00000000	28.45718000	7.89247000
173.69998986	0.00000000	28.45718000	7.89247000
173.89998985	0.00000000	28.45718000	7.89247000
174.09998984	0.00000000	28.45718000	7.89247000
174.29998983	0.00000000	28.45718000	7.89247000
174.49998982	0.00000000	28.45718000	7.89247000
174.69998980	0.00000000	28.45718000	7.89247000
174.89998979	0.00000000	28.45718000	7.89247000
175.09998978	0.00000000	28.45718000	7.89247000
175.29998977	0.00000000	28.45718000	7.89247000
175.49998976	0.00000000	28.45718000	7.89247000
175.69998975	0.00000000	28.45718000	7.89247000
175.89998973	0.00000000	28.45718000	7.89247000
176.09998972	0.00000000	28.45718000	7.89247000
176.29998971	0.00000000	28.45718000	7.89247000
176.49998970	0.00000000	28.45718000	7.89247000
176.69998969	0.00000000	28.45718000	7.89247000
176.89998967	0.00000000	28.45718000	7.89247000
177.09998966	0.00000000	28.45718000	7.89247000
177.29998965	0.00000000	28.45718000	7.89247000
177.49998964	0.00000000	28.45718000	7.89247000
177.69998963	0.00000000	28.45718000	7.89247000
177.89998961	0.00000000	28.45718000	7.89247000
178.09998960	0.00000000	28.45718000	7.89247000
178.29998959	0.00000000	28.45718000	7.89247000
178.49998958	0.00000000	28.45718000	7.89247000
178.69998957	0.00000000	28.45718000	7.89247000
178.89998956	0.00000000	28.45718000	7.89247000
179.09998954	0.00000000	28.45718000	7.89247000
179.29998953	0.00000000	28.45718000	7.89247000
179.49998952	0.00000000	28.45718000	7.89247000
179.69998951	0.00000000	28.45718000	7.89247000
179.89998950	0.00000000	28.45718000	7.89247000
180.09998948	0.00000000	28.45718000	7.89247000
180.29998947	0.00000000	28.45718000	7.89247000
180.49998946	0.00000000	28.45718000	7.89247000
180.69998945	0.00000000	28.45718000	7.89247000
180.89998944	0.00000000	28.45718000	7.89247000
181.09998942	0.00000000	28.45718000	7.89247000
181.29998941	0.00000000	28.45718000	7.89247000
181.49998940	0.00000000	28.45718000	7.89247000
181.69998939	0.00000000	28.45718000	7.93553100
181.89998938	0.00000000	28.45718000	8.31077700
182.09998937	0.00000000	28.45718000	9.00590400
182.29998935	0.00000000	28.45718000	9.00590400
182.49998934	0.00000000	28.45718000	8.31077700
182.69998933	0.00000000	28.45718000	7.93553100
182.89998932	0.00000000	28.45718000	7.89247000
183.09998931	0.00000000	28.45718000	7.89247000
183.29998929	0.00000000	28.45718000	7.89247000
183.49998928	0.00000000	28.45718000	7.89247000
183.69998927	0.00000000	28.45718000	7.89247000
183.89998926	0.00000000	28.45718000	7.89247000
184.09998925	0.00000000	28.45718000	7.93553100
184.29998923	0.00000000	28.45718000	8.31077700
184.49998922	0.00000000	28.45718000	9.05511800
184.69998921	0.00000000	28.45718000	9.38115100
184.89998920	0.00000000	28.45718000	9.09817800
185.09998919	0.00000000	28.45718000	8.68602300
185.29998918	0.00000000	28.45718000	8.67987200
185.49998916	0.00000000	28.45718000	8.26771600
185.69998915	0.00000000	28.45718000	7.89247000
185.89998914	0.00000000	28.45718000	7.47416300
186.09998913	0.00000000	28.45718000	6.77903500
186.29998912	0.00000000	28.45718000	6.77903500
186.49998910	0.00000000	28.45718000	7.47416300
186.69998909	0.00000000	28.41412000	7.84940900
186.89998908	0.00000000	28.08194000	7.89247000
187.09998907	0.00000000	27.66978000	7.93553100
187.29998906	0.00000000	27.70669000	8.31077700
187.49998904	0.00000000	27.66978000	9.05511800
187.69998903	0.00000000	28.08194000	9.38115100
187.89998902	0.00000000	28.41412000	9.05511800
188.09998901	0.00000000	28.45718000	8.31077700
188.29998900	0.00000000	28.45718000	7.93553100
188.49998899	0.00000000	28.45718000	7.89247000
188.69998897	0.00000000	28.45718000	7.89247000
188.89998896	0.00000000	28.45718000	7.89247000
189.09998895	0.00000000	28.45718000	7.89247000
189.29998894	0.00000000	28.45718000	7.89247000
189.49998893	0.00000000	28.45718000	7.89247000
189.69998891	0.00000000	28.45718000	7.93553100
189.89998890	0.00000000	28.45718000	8.26771600
190.09998889	0.00000000	28.45718000	8.67987200
190.29998888	0.00000000	28.45718000	8.68602300
190.49998887	0.00000000	28.45718000	9.09817800
190.69998885	0.00000000	28.45718000	9.38115100
190.89998884	0.00000000	28.45718000	9.05511800
191.09998883	0.00000000	28.45718000	8.31077700
191.29998882	0.00000000	28.45718000	7.93553100
191.49998881	0.00000000	28.45718000	7.89247000
191.69998880	0.00000000	28.45718000	7.89247000
191.89998878	0.00000000	28.45718000	7.89247000
192.09998877	0.00000000	28.45718000	7.89247000
192.29998876	0.00000000	28.45718000	7.89247000
192.49998875	0.00000000	28.41412000	7.89247000
192.69998874	0.00000000	28.03888000	7.89247000
192.89998872	0.00000000	27.29453000	7.89247000
193.09998871	0.00000000	26.91929000	7.89247000
193.29998870	0.00000000	26.87623000	7.89247000
193.49998869	0.00000000	26.91929000	7.89247000
193.69998868	0.00000000	27.29453000	7.89247000
193.89998866	0.00000000	28.03888000	7.89247000
194.09998865	0.00000000	28.41412000	7.89247000
194.29998864	0.00000000	28.45718000	7.89247000
194.49998863	0.00000000	28.45718000	7.89247000
194.69998862	0.00000000	28.45718000	7.89247000
194.89998861	0.00000000	28.45718000	7.89247000
195.09998859	0.00000000	28.45718000	7.89247000
195.29998858	0.00000000	28.45718000	7.89247000
195.49998857	0.00000000	28.41412000	7.89247000
195.69998856	0.00000000	28.03888000	7.89247000
195.89998855	0.00000000	27.29453000	7.89247000
196.09998853	0.00000000	26.96850000	7.93553100
