Time	Channel A	Channel B	Channel C
(us)	(V)	(mV)	(mV)

-4.59999956	0.00000000	29.99508000	9.47342500
-4.39999957	0.00000000	29.99508000	9.47342500
-4.19999958	0.00000000	29.66289000	9.47342500
-3.99999959	0.00000000	29.25074000	9.47342500
-3.79999960	0.00000000	29.28765000	9.47342500
-3.59999962	0.00000000	29.20767000	9.47342500
-3.39999963	0.00000000	29.28765000	9.43036400
-3.19999964	0.00000000	29.25074000	9.09817800
-2.99999965	0.00000000	29.66289000	8.72908400
-2.79999966	0.00000000	29.94586000	9.09817800
-2.59999968	0.00000000	29.61983000	9.38115100
-2.39999969	0.00000000	28.92470000	9.09817800
-2.19999970	0.00000000	28.92470000	8.72908400
-1.99999971	0.00000000	29.61983000	9.09817800
-1.79999972	0.00000000	29.99508000	9.43036400
-1.59999973	0.00000000	29.99508000	9.43036400
-1.39999975	0.00000000	29.66289000	9.05511800
-1.19999976	0.00000000	29.25074000	8.35998900
-0.99999977	0.00000000	29.24459000	8.31077700
-0.79999978	0.00000000	28.87549000	8.67987200
-0.59999979	0.00000000	28.92470000	8.64296200
-0.39999981	0.00000000	29.57062000	8.72293300
-0.19999982	0.47736220	29.61983000	8.64296200
0.00000017	0.79601380	29.25074000	8.67987200
0.20000016	0.95533960	29.24459000	8.26771600
0.40000015	0.95533960	28.83243000	7.93553100
0.60000013	0.79601380	28.50024000	7.89247000
0.80000012	0.00000000	28.50024000	7.89247000
1.00000011	-0.79601380	28.87549000	7.93553100
1.20000010	-1.91129400	29.61983000	8.31077700
1.40000009	-2.54859700	29.99508000	9.05511800
1.60000008	-2.70792300	29.99508000	9.43036400
1.80000006	-2.22994600	29.66289000	9.47342500
2.00000005	-0.79601380	29.29380000	9.47342500
2.20000004	1.27399100	29.61983000	9.47342500
2.40000003	3.34522600	29.61983000	9.43036400
2.60000002	4.93786900	29.29380000	9.05511800
2.80000000	5.25652100	29.61983000	8.31077700
2.99999999	4.30056600	29.57062000	7.93553100
3.19999998	1.91129400	28.87549000	7.89247000
3.39999997	-1.27399100	28.50024000	7.89247000
3.59999996	-4.61921700	28.50024000	7.93553100
3.79999994	-7.16781500	28.87549000	8.31077700
3.99999993	-7.96444400	29.61983000	9.05511800
4.19999992	-6.84916400	29.99508000	9.43036400
4.39999991	-3.82258900	30.03814000	9.47342500
4.59999990	0.31803640	30.03814000	9.47342500
4.79999989	4.77854300	29.99508000	9.47342500
4.99999987	8.12377000	29.61983000	9.43036400
5.19999986	9.39837600	28.87549000	9.05511800
5.39999985	8.44242100	28.50024000	8.31077700
5.59999984	5.25652100	28.45718000	7.93553100
5.79999983	0.79601380	28.45718000	7.89247000
5.99999981	-3.98191400	28.50024000	7.93553100
6.19999980	-7.64579200	28.87549000	8.31077700
6.39999979	-9.39837600	29.61983000	9.05511800
6.59999978	-8.92039900	29.99508000	9.43036400
6.79999977	-6.05315000	30.03814000	9.47342500
6.99999975	-1.91129400	29.99508000	9.47342500
7.19999974	2.38927200	29.61983000	9.47342500
7.39999973	5.89382400	28.87549000	9.43036400
7.59999972	7.64579200	28.54946000	9.05511800
7.79999971	7.32714100	28.87549000	8.31077700
7.99999970	5.41584600	29.57062000	7.93553100
8.19999968	2.22994600	29.57062000	7.89247000
8.39999967	-0.95533960	28.92470000	7.89247000
8.59999966	-3.66326300	28.87549000	7.93553100
8.79999965	-5.09719500	29.24459000	8.31077700
8.99999964	-5.09719500	29.20767000	9.05511800
9.19999962	-3.82258900	29.28765000	9.43036400
9.39999961	-1.91129400	29.25074000	9.47342500
9.59999960	0.00000000	29.66289000	9.47342500
9.79999959	1.43331700	29.99508000	9.47342500
9.99999958	2.38927200	30.03814000	9.47342500
10.19999956	2.54859700	29.99508000	9.47342500
10.39999955	1.91129400	29.61983000	9.43036400
10.59999954	1.11466500	28.87549000	9.05511800
10.79999953	0.31803640	28.50024000	8.31077700
10.99999952	-0.47736220	28.45718000	7.93553100
11.19999951	-0.79601380	28.45718000	7.89247000
11.39999949	-0.95533960	28.45718000	7.89247000
11.59999948	-0.95533960	28.45718000	7.89247000
11.79999947	-0.63668800	28.45718000	7.93553100
11.99999946	-0.31803640	28.45718000	8.26771600
12.19999945	-0.15871060	28.45718000	8.63681000
12.39999943	-0.15871060	28.45718000	8.26771600
12.59999942	0.00000000	28.45718000	7.93553100
12.79999941	0.00000000	28.45718000	7.93553100
12.99999940	0.00000000	28.45718000	8.26771600
13.19999939	0.00000000	28.45718000	8.63681000
13.39999937	0.00000000	28.45718000	8.31077700
13.59999936	0.00000000	28.45718000	8.31077700
13.79999935	0.00000000	28.45718000	8.63681000
13.99999934	-0.15871060	28.45718000	8.26771600
14.19999933	-0.15871060	28.45718000	7.93553100
14.39999932	-0.15871060	28.45718000	7.89247000
14.59999930	-0.15871060	28.45718000	7.89247000
14.79999929	0.00000000	28.45718000	7.89247000
14.99999928	0.00000000	28.45718000	7.89247000
15.19999927	0.00000000	28.45718000	7.93553100
15.39999926	0.00000000	28.45718000	8.26771600
15.59999924	0.00000000	28.45718000	8.63681000
15.79999923	0.00000000	28.45718000	8.26771600
15.99999922	0.00000000	28.45718000	7.93553100
16.19999921	0.00000000	28.45718000	7.89247000
16.39999920	-0.15871060	28.50024000	7.89247000
16.59999919	-0.15871060	28.87549000	7.89247000
16.79999917	-0.15871060	29.61983000	7.89247000
16.99999916	-0.15871060	29.99508000	7.89247000
17.19999915	0.00000000	30.03814000	7.93553100
17.39999914	0.00000000	30.03814000	8.26771600
17.59999913	0.00000000	30.03814000	8.67987200
17.79999911	0.00000000	29.99508000	8.64296200
17.99999910	0.00000000	29.57062000	8.67987200
18.19999909	0.00000000	28.41412000	8.26771600
18.39999908	0.00000000	26.87623000	7.93553100
18.59999907	0.00000000	25.33834000	7.89247000
18.79999905	0.00000000	24.18184000	7.89247000
18.99999904	-0.15871060	23.80659000	7.89247000
19.19999903	0.00000000	24.22490000	7.93553100
19.39999902	0.00000000	25.84892000	8.26771600
19.59999901	0.00000000	28.92470000	8.63681000
19.79999900	0.00000000	32.78174000	8.26771600
19.99999898	0.00000000	36.27584000	7.93553100
20.19999897	0.00000000	38.97638000	7.93553100
20.39999896	0.00000000	40.04675000	8.26771600
20.59999895	0.00000000	38.42273000	8.63681000
20.79999894	0.00000000	33.76599000	8.26771600
20.99999892	0.00000000	26.79011000	7.93553100
21.19999891	0.00000000	19.06373000	7.89247000
21.39999890	0.00000000	12.13091000	7.93553100
21.59999889	0.00000000	7.94168200	8.31077700
21.79999888	0.00000000	8.03395600	9.00590400
21.99999886	0.00000000	13.10285000	9.00590400
22.19999885	0.00000000	22.82234000	8.31077700
22.39999884	0.00000000	35.16240000	7.93553100
22.59999883	0.00000000	47.53321000	7.89247000
22.79999882	0.00000000	56.74828000	7.89247000
22.99999881	0.00000000	60.56225000	7.93553100
23.19999879	0.00000000	57.35728000	8.31077700
23.39999878	0.00000000	46.83809000	9.05511800
23.59999877	0.00000000	30.60408000	9.47342500
23.79999876	0.00000000	12.13091000	9.89173200
23.99999875	0.00000000	-3.64173200	10.58686000
24.19999873	0.00000000	-12.52461000	10.53765000
24.39999872	0.00000000	-12.48154000	9.42421200
24.59999871	0.00000000	-3.13115100	7.89247000
24.79999870	0.00000000	14.31471000	6.31151500
24.99999869	0.00000000	36.31890000	4.77977300
25.19999867	0.00000000	57.91092000	3.62327700
25.39999866	0.00000000	73.68356000	3.24803100
25.59999865	0.00000000	79.45374000	3.66633800
25.79999864	0.00000000	73.64050000	5.29035400
25.99999863	0.00000000	57.40034000	8.35998900
26.19999862	0.00000000	34.18430000	12.21087000
26.39999860	0.00000000	9.10433000	15.74188000
26.59999859	0.00000000	-12.10630000	18.76845000
26.79999858	0.00000000	-24.02190000	20.24483000
26.99999857	0.00000000	-23.68971000	18.63312000
27.19999856	0.00000000	-11.31890000	14.39468000
27.39999854	0.00000000	9.85482200	7.75713500
27.59999853	0.00000000	34.97170000	0.09227362
27.79999852	0.00000000	57.77559000	-6.87746000
27.99999851	0.00000000	73.68356000	-11.42962000
28.19999850	0.00000000	79.45374000	-12.17397000
28.39999848	0.00000000	73.73277000	-8.23080600
28.59999847	0.00000000	58.28617000	-0.09842519
28.79999846	0.00000000	37.06324000	11.14050000
28.99999845	0.00000000	14.64075000	23.08686000
29.19999844	0.00000000	-3.54945900	33.07701000
29.39999843	0.00000000	-14.06250000	38.37352000
29.59999841	0.00000000	-15.22515000	36.84178000
29.79999840	0.00000000	-6.76058000	28.71555000
29.99999839	0.00000000	9.01205700	15.93258000
30.19999838	0.00000000	27.94660000	0.41830710
30.39999837	0.00000000	45.76772000	-14.54232000
30.59999835	0.00000000	58.93824000	-25.31988000
30.79999834	0.00000000	64.80068000	-28.80782000
30.99999833	0.00000000	62.56151000	-24.58169000
31.19999832	0.00000000	53.67864000	-13.66265000
31.39999831	0.00000000	40.13287000	2.59596400
31.59999829	0.00000000	24.73548000	21.03838000
31.79999828	0.00000000	11.57111000	36.88484000
31.99999827	0.00000000	3.33415300	46.55511000
32.19999826	0.00000000	0.59055110	48.49901000
32.39999825	0.00000000	3.70939900	41.90453000
32.59999824	0.00000000	12.17397000	28.42643000
32.79999822	0.00000000	23.71432000	11.00517000
32.99999821	0.00000000	35.30389000	-6.78518600
33.19999820	0.00000000	44.23597000	-21.46899000
33.39999819	0.00000000	48.93578000	-29.92126000
33.59999818	0.00000000	48.93578000	-29.97047000
33.79999816	0.00000000	44.32209000	-21.88730000
33.99999815	0.00000000	36.27584000	-7.99089500
34.19999814	0.00000000	27.38681000	9.00590400
34.39999813	0.00000000	19.66043000	25.22145000
34.59999812	0.00000000	14.64075000	37.26009000
34.79999810	0.00000000	13.84719000	43.02411000
34.99999809	0.00000000	16.87377000	41.06791000
35.19999808	0.00000000	22.64394000	31.49606000
35.39999807	0.00000000	29.52756000	17.27362000
35.59999806	0.00000000	35.30389000	2.22071800
35.79999805	0.00000000	38.42273000	-10.54995000
35.99999803	0.00000000	38.46580000	-18.26402000
36.19999802	0.00000000	35.76525000	-19.51279000
36.39999801	0.00000000	31.15772000	-14.45620000
36.59999800	0.00000000	25.76279000	-4.45374000
36.79999799	0.00000000	21.14911000	8.54453700
36.99999797	0.00000000	18.45472000	20.06643000
37.19999796	0.00000000	18.49778000	27.08538000
37.39999795	0.00000000	21.52436000	29.02928000
37.59999794	0.00000000	26.45792000	25.17839000
37.79999793	0.00000000	31.15772000	16.76919000
37.99999791	0.00000000	35.02707000	6.44685000
38.19999790	0.00000000	37.71530000	-2.74975400
38.39999789	0.00000000	37.67839000	-7.72022600
38.59999788	0.00000000	35.43922000	-7.39419200
38.79999787	0.00000000	31.57603000	-2.04847400
38.99999786	0.00000000	27.34375000	6.36072800
39.19999784	0.00000000	23.80659000	15.18824000
39.39999783	0.00000000	21.06299000	22.06570000
39.59999782	0.00000000	19.52510000	24.71703000
39.79999781	0.00000000	19.52510000	22.06570000
39.99999780	0.00000000	21.10605000	15.14518000
40.19999778	0.00000000	24.18184000	5.93626900
40.39999777	0.00000000	28.03888000	-3.25418300
40.59999776	0.00000000	31.53297000	-9.34424200
40.79999775	0.00000000	34.31963000	-10.50074000
40.99999774	0.00000000	36.23277000	-6.27460600
41.19999772	0.00000000	36.97712000	2.12844500
41.39999771	0.00000000	35.81446000	12.11860000
41.59999770	0.00000000	33.15699000	20.95226000
41.79999769	0.00000000	30.03814000	26.38410000
41.99999768	0.00000000	26.91929000	27.13459000
42.19999767	0.00000000	24.18184000	23.31447000
42.39999765	0.00000000	22.22564000	15.60654000
42.59999764	0.00000000	21.06299000	6.44685000
42.79999763	0.00000000	21.10605000	-1.67322800
42.99999762	0.00000000	22.60088000	-6.69291300
43.19999761	0.00000000	24.92003000	-7.89862200
43.39999759	0.00000000	27.25147000	-5.20423200
43.59999758	0.00000000	29.57062000	0.51058070
43.79999757	0.00000000	31.15157000	7.43110200
43.99999756	0.00000000	31.95128000	13.61343000
44.19999755	0.00000000	32.36343000	17.88263000
44.39999753	0.00000000	31.99434000	19.46358000
44.59999752	0.00000000	31.66215000	18.35015000
44.79999751	0.00000000	31.61909000	15.27436000
44.99999750	0.00000000	31.57603000	11.00517000
45.19999749	0.00000000	31.15157000	6.40378900
45.39999748	0.00000000	29.94586000	2.54675200
45.59999746	0.00000000	27.98966000	0.63976370
45.79999745	0.00000000	25.25221000	0.92888770
45.99999744	0.00000000	22.17643000	2.82972400
46.19999743	0.00000000	19.48204000	5.15501900
46.39999742	0.00000000	17.98720000	7.89247000
46.59999740	0.00000000	18.41166000	10.58686000
46.79999739	0.00000000	21.14911000	12.49385000
46.99999738	0.00000000	25.84892000	13.28125000
47.19999737	0.00000000	32.03740000	12.53691000
47.39999736	0.00000000	38.55192000	11.00517000
47.59999734	0.00000000	43.16560000	9.05511800
47.79999733	0.00000000	44.69734000	6.68676100
47.99999732	0.00000000	42.69808000	4.40452700
48.19999731	0.00000000	36.88484000	2.50369100
48.39999730	0.00000000	28.41412000	2.12844500
48.59999729	0.00000000	19.52510000	3.24803100
48.79999727	0.00000000	12.22318000	5.24729300
48.99999726	0.00000000	8.35998900	8.31077700
49.19999725	0.00000000	9.14739100	11.74951000
49.39999724	0.00000000	14.17938000	14.03174000
49.59999723	0.00000000	22.73007000	14.90526000
49.79999721	0.00000000	33.06471000	14.45005000
49.99999720	0.00000000	42.32283000	12.90600000
50.19999719	0.00000000	47.68085000	9.75639700
50.39999718	0.00000000	48.13607000	5.98548200
50.59999717	0.00000000	43.44857000	2.46063000
50.79999715	0.00000000	35.01476000	0.17839570
50.99999714	0.00000000	24.64321000	-0.55979330
51.19999713	0.00000000	15.80339000	1.02116100
51.39999712	0.00000000	10.77756000	4.82898600
51.59999711	0.00000000	10.36540000	9.38115100
51.79999710	0.00000000	14.96063000	13.28125000
51.99999708	0.00000000	22.60088000	15.64960000
52.19999707	0.00000000	31.10851000	16.76919000
52.39999706	0.00000000	38.41658000	15.97564000
52.59999705	0.00000000	42.65502000	12.91215000
52.79999704	0.00000000	42.65502000	9.09817800
52.99999702	0.00000000	38.46580000	5.19808000
53.19999701	0.00000000	31.57603000	2.17765700
53.39999700	0.00000000	24.26796000	0.97194880
53.59999699	0.00000000	18.45472000	1.71013800
53.79999698	0.00000000	15.42815000	3.61712600
53.99999696	0.00000000	16.17864000	6.31151500
54.19999695	0.00000000	20.78002000	9.00590400
54.39999694	0.00000000	27.25147000	10.91289000
54.59999693	0.00000000	33.80905000	11.70029000
54.79999692	0.00000000	38.37352000	10.91289000
54.99999691	0.00000000	39.57923000	9.09817800
55.19999689	0.00000000	37.30315000	7.19734200
55.39999688	0.00000000	32.68946000	6.40378900
55.59999687	0.00000000	26.91929000	6.40378900
55.79999686	0.00000000	21.52436000	7.19734200
55.99999685	0.00000000	18.07948000	9.09817800
56.19999683	0.00000000	17.29208000	10.96211000
56.39999682	0.00000000	19.61737000	12.11860000
56.59999681	0.00000000	24.18184000	12.07554000
56.79999680	0.00000000	29.57677000	10.49459000
56.99999679	0.00000000	34.18430000	7.42495000
57.19999677	0.00000000	36.92790000	3.62327700
57.39999676	0.00000000	37.30315000	0.59670270
57.59999675	-0.15871060	35.39001000	-0.55979330
57.79999674	0.00000000	31.53297000	0.59670270
57.99999673	0.00000000	26.96850000	3.70939900
58.19999672	0.00000000	23.10531000	8.35998900
58.39999670	0.00000000	21.14911000	13.74262000
58.59999669	0.00000000	21.10605000	18.30093000
58.79999668	0.00000000	22.64394000	20.57702000
58.99999667	0.00000000	25.33834000	19.42052000
59.19999666	0.00000000	28.41412000	15.18824000
59.39999664	0.00000000	31.10851000	9.00590400
59.59999663	0.00000000	32.64640000	2.08538400
59.79999662	0.00000000	32.68946000	-3.67249000
59.99999661	0.00000000	31.52682000	-6.69291300
60.19999660	0.00000000	29.61983000	-5.94857300
60.39999658	0.00000000	27.29453000	-1.30413400
60.59999657	0.00000000	25.43061000	5.57332700
60.79999656	0.00000000	24.64321000	13.33046000
60.99999655	0.00000000	25.38755000	19.79577000
61.19999654	0.00000000	26.87623000	23.32062000
61.39999653	0.00000000	28.45718000	22.90846000
61.59999651	0.00000000	29.94586000	19.08834000
61.79999650	0.00000000	30.69020000	12.49385000
61.99999649	0.00000000	29.99508000	4.77977300
62.19999648	0.00000000	28.83243000	-2.51599400
62.39999647	0.00000000	27.62057000	-7.48031400
62.59999645	0.00000000	25.71358000	-8.27386800
62.79999644	0.00000000	24.22490000	-5.25344500
62.99999643	0.00000000	23.80659000	0.55364170
63.19999642	0.00000000	24.22490000	7.89247000
63.39999641	0.00000000	25.76279000	15.23130000
63.59999639	0.00000000	28.03888000	20.99532000
63.79999638	0.00000000	29.94586000	23.64665000
63.99999637	0.00000000	31.10851000	22.15797000
64.19999636	0.00000000	31.15157000	17.23056000
64.39999635	0.00000000	30.37032000	11.04823000
64.59999634	0.00000000	29.20152000	4.82898600
64.79999632	0.00000000	27.25147000	-0.55979330
64.99999631	0.00000000	25.38755000	-3.67249000
65.19999630	0.00000000	24.22490000	-4.14000900
65.39999629	0.00000000	24.22490000	-2.60211600
65.59999628	0.00000000	25.33834000	0.51058070
65.79999626	0.00000000	26.87623000	4.73671200
65.99999625	0.00000000	28.41412000	9.00590400
66.19999624	0.00000000	29.57062000	12.53691000
66.39999623	0.00000000	29.94586000	15.27436000
66.59999622	0.00000000	29.57062000	16.81225000
66.79999620	0.00000000	28.41412000	16.85531000
66.99999619	0.00000000	26.91929000	15.69882000
67.19999618	0.00000000	25.76279000	13.74262000
67.39999617	0.00000000	25.38755000	11.00517000
67.59999616	0.00000000	25.80585000	7.89247000
67.79999615	0.00000000	27.38681000	4.73671200
67.99999613	0.00000000	30.03814000	1.62401600
68.19999612	0.00000000	32.64640000	-1.07037400
68.39999611	0.00000000	33.80905000	-2.55905500
68.59999610	0.00000000	33.02165000	-2.14074800
68.79999609	0.00000000	30.73326000	0.55364170
68.99999607	0.00000000	27.20841000	4.82898600
69.19999606	0.00000000	23.38214000	9.84867000
69.39999605	0.00000000	19.90034000	14.90526000
69.59999604	0.00000000	18.03642000	18.71924000
69.79999603	0.00000000	18.41166000	20.66929000
69.99999601	0.00000000	21.14911000	19.83883000
70.19999600	0.00000000	25.80585000	16.39395000
70.39999599	0.00000000	31.53297000	10.96211000
70.59999598	0.00000000	36.55265000	4.82898600
70.79999597	0.00000000	39.25935000	-0.55979330
70.99999596	0.00000000	39.67150000	-3.67249000
71.19999594	0.00000000	37.26009000	-4.09079700
71.39999593	0.00000000	32.27116000	-2.14074800
71.59999592	0.00000000	25.71358000	2.08538400
71.79999591	0.00000000	19.56816000	7.42495000
71.99999590	0.00000000	15.29281000	12.07554000
72.19999588	0.00000000	13.75492000	15.23130000
72.39999587	0.00000000	15.29281000	16.76919000
72.59999586	0.00000000	19.52510000	16.35089000
72.79999585	0.00000000	25.33834000	13.69956000
72.99999584	0.00000000	31.53297000	9.89173200
73.19999582	0.00000000	36.92790000	6.44685000
73.39999581	0.00000000	40.00369000	4.08464600
73.59999580	0.00000000	40.04675000	3.29109200
73.79999579	0.00000000	37.34621000	3.66633800
73.99999578	0.00000000	32.68946000	5.15501900
74.19999577	0.00000000	26.91929000	7.05585600
74.39999575	0.00000000	21.57357000	8.17544300
74.59999574	0.00000000	18.45472000	8.58759800
74.79999573	0.00000000	17.98720000	7.80019600
74.99999572	0.00000000	19.48204000	6.31151500
75.19999571	0.00000000	22.22564000	4.82283400
75.39999569	0.00000000	25.71358000	4.08464600
75.59999568	0.00000000	29.57062000	4.87204700
75.79999567	0.00000000	32.60334000	6.82209600
75.99999566	0.00000000	33.80905000	9.89173200
76.19999565	0.00000000	33.06471000	13.28125000
76.39999563	0.00000000	31.20078000	15.18824000
76.59999562	0.00000000	28.87549000	15.23130000
76.79999561	0.00000000	26.96850000	13.60728000
76.99999560	0.00000000	25.76279000	10.11934000
77.19999559	0.00000000	25.38755000	5.15501900
77.39999558	0.00000000	25.71358000	0.59670270
77.59999556	0.00000000	26.45792000	-2.18380900
77.79999555	0.00000000	26.83317000	-2.93430100
77.99999554	0.00000000	26.83317000	-1.76550200
78.19999553	0.00000000	26.45792000	1.75319900
78.39999552	0.00000000	25.71358000	6.72982200
78.59999550	0.00000000	25.33834000	12.16166000
78.79999549	0.00000000	25.33834000	16.76919000
78.99999548	0.00000000	25.76279000	19.46358000
79.19999547	0.00000000	26.96850000	19.46358000
79.39999546	0.00000000	28.87549000	16.76919000
79.59999544	0.00000000	31.15157000	12.16166000
79.79999543	0.00000000	32.68946000	6.77903500
79.99999542	0.00000000	33.06471000	2.17765700
80.19999541	0.00000000	32.27116000	-0.60285430
80.39999540	0.00000000	29.94586000	-1.39640700
80.59999539	0.00000000	26.91929000	-0.64591530
80.79999537	0.00000000	24.18184000	1.66707700
80.99999536	0.00000000	22.26870000	4.73671200
81.19999535	0.00000000	21.48130000	7.84940900
81.39999534	0.00000000	22.26870000	10.58686000
81.59999533	0.00000000	24.18184000	12.58612000
81.79999531	0.00000000	26.91929000	14.11786000
81.99999530	0.00000000	29.94586000	14.85605000
82.19999529	0.00000000	32.27116000	14.07480000
82.39999528	0.00000000	33.02165000	12.21087000
82.59999527	0.00000000	32.31422000	9.84867000
82.79999525	0.00000000	30.37032000	7.51722400
82.99999524	0.00000000	28.08194000	5.11195900
83.19999523	0.00000000	25.76279000	2.82972400
83.39999522	0.00000000	24.22490000	0.87967510
83.59999521	0.00000000	23.80659000	0.13533460
83.79999520	0.00000000	24.18184000	0.51058070
83.99999518	0.00000000	25.29527000	2.12844500
84.19999517	0.00000000	26.45792000	5.19808000
84.39999516	0.00000000	27.25147000	9.05511800
84.59999515	0.00000000	28.03888000	12.53691000
84.79999514	0.00000000	28.41412000	15.27436000
84.99999512	0.00000000	28.45718000	16.76919000
85.19999511	0.00000000	28.45718000	16.35089000
85.39999510	0.00000000	28.41412000	13.65650000
85.59999509	0.00000000	28.08194000	9.43036400
85.79999508	0.00000000	27.71284000	4.77977300
85.99999506	0.00000000	28.08194000	0.55364170
86.19999505	0.00000000	28.36491000	-2.14074800
86.39999504	0.00000000	27.98966000	-2.50984200
86.59999503	0.00000000	26.83317000	-0.60285430
86.79999502	0.00000000	25.33834000	3.24803100
86.99999501	0.00000000	24.18184000	7.84940900
87.19999499	0.00000000	23.80659000	12.11860000
87.39999498	0.00000000	24.18184000	15.18824000
87.59999497	0.00000000	25.33834000	16.34473000
87.79999496	0.00000000	26.87623000	15.18824000
87.99999495	0.00000000	28.41412000	12.11860000
88.19999493	0.00000000	29.57062000	7.89247000
88.39999492	0.00000000	29.99508000	3.66633800
88.59999491	0.00000000	29.99508000	0.59670270
88.79999490	0.00000000	29.57062000	-0.55979330
88.99999489	0.00000000	28.41412000	0.59670270
89.19999487	0.00000000	26.87623000	3.66633800
89.39999486	0.00000000	25.33834000	7.89247000
89.59999485	0.00000000	24.18184000	12.11860000
89.79999484	0.00000000	23.80659000	15.18824000
89.99999483	0.00000000	24.18184000	16.34473000
90.19999482	0.00000000	25.33834000	15.14518000
90.39999480	0.00000000	26.83317000	11.70029000
90.59999479	0.00000000	27.98966000	6.77903500
90.79999478	0.00000000	28.41412000	2.54675200
90.99999477	0.00000000	28.45718000	0.17839570
91.19999476	0.00000000	28.41412000	-0.55979330
91.39999474	0.00000000	28.03888000	1.02116100
91.59999473	0.00000000	27.29453000	4.82898600
91.79999472	0.00000000	26.96850000	9.43036400
91.99999471	0.00000000	27.25147000	13.65650000
92.19999470	0.00000000	27.66363000	16.30167000
92.39999468	0.00000000	27.62672000	16.35089000
92.59999467	0.00000000	27.66363000	14.03174000
92.79999466	0.00000000	27.20841000	10.16855000
92.99999465	0.00000000	26.45792000	5.19808000
93.19999464	0.00000000	25.29527000	1.02116100
93.39999463	0.00000000	24.18184000	-0.97810030
93.59999461	0.00000000	23.80659000	-0.93503930
93.79999460	0.00000000	24.18184000	1.39025600
93.99999459	0.00000000	25.38755000	5.93626900
94.19999458	0.00000000	27.29453000	10.49459000
94.39999457	0.00000000	29.61983000	13.65650000
94.59999455	0.00000000	31.52682000	15.18824000
94.79999454	0.00000000	32.68946000	14.76993000
94.99999453	0.00000000	32.64640000	12.11860000
95.19999452	0.00000000	31.10851000	8.26771600
95.39999451	0.00000000	28.41412000	4.40452700
95.59999449	0.00000000	25.29527000	0.97194880
95.79999448	0.00000000	22.22564000	-0.51673230
95.99999447	0.00000000	19.90034000	0.55364170
96.19999446	0.00000000	19.14985000	3.24803100
96.39999445	0.00000000	19.90034000	6.68676100
96.59999444	0.00000000	22.26870000	10.16855000
96.79999442	0.00000000	25.76279000	12.45079000
96.99999441	0.00000000	29.99508000	13.28125000
97.19999440	0.00000000	33.80905000	12.49385000
97.39999439	0.00000000	35.77140000	10.58686000
97.59999438	0.00000000	35.81446000	7.89247000
97.79999436	0.00000000	34.23351000	5.24729300
97.99999435	0.00000000	31.10851000	3.70939900
98.19999434	0.00000000	26.87623000	3.62327700
98.39999433	0.00000000	22.64394000	4.36146600
98.59999432	0.00000000	19.52510000	5.15501900
98.79999430	0.00000000	17.98720000	6.36072800
98.99999429	0.00000000	18.36245000	7.84940900
99.19999428	0.00000000	20.68774000	9.00590400
99.39999427	0.00000000	24.13263000	9.38115100
99.59999426	0.00000000	28.03888000	9.09817800
99.79999425	0.00000000	31.48376000	8.72908400
99.99999423	0.00000000	33.85827000	9.09817800
100.19999422	0.00000000	34.60876000	9.43036400
100.39999421	0.00000000	33.90133000	9.47342500
100.59999420	0.00000000	31.90822000	9.43036400
100.79999419	0.00000000	29.20152000	9.05511800
100.99999417	0.00000000	25.71358000	8.22465500
101.19999416	0.00000000	22.68701000	7.05585600
101.39999415	0.00000000	21.06299000	5.15501900
101.59999414	0.00000000	20.64468000	3.66633800
101.79999413	0.00000000	21.01993000	3.24803100
101.99999411	0.00000000	22.22564000	3.62327700
102.19999410	0.00000000	24.13263000	4.82283400
102.39999409	0.00000000	26.50098000	6.77903500
102.59999408	0.00000000	28.78937000	9.47342500
102.79999407	0.00000000	30.73326000	12.11860000
102.99999406	0.00000000	31.48376000	13.65650000
103.19999404	0.00000000	31.15157000	13.65650000
103.39999403	0.00000000	29.99508000	12.11860000
103.59999402	0.00000000	28.41412000	9.42421200
103.79999401	0.00000000	26.50098000	6.36072800
103.99999400	0.00000000	24.55093000	3.61712600
104.19999398	0.00000000	23.38214000	1.71013800
104.39999397	0.00000000	22.60088000	0.97194880
104.59999396	0.00000000	22.64394000	2.12844500
104.79999395	0.00000000	23.75738000	4.77977300
104.99999394	0.00000000	25.29527000	7.84940900
105.19999392	0.00000000	26.83317000	10.53765000
105.39999391	0.00000000	28.03888000	12.11860000
105.59999390	0.00000000	28.78937000	12.49385000
105.79999389	0.00000000	29.15231000	11.70029000
105.99999388	0.00000000	28.36491000	9.42421200
106.19999387	0.00000000	26.91929000	6.77903500
106.39999385	0.00000000	25.76279000	4.82283400
106.59999384	0.00000000	25.33834000	3.66633800
106.79999383	0.00000000	25.29527000	3.66633800
106.99999382	0.00000000	25.33834000	4.77977300
107.19999381	0.00000000	25.76279000	6.31151500
107.39999379	0.00000000	26.87623000	7.89247000
107.59999378	0.00000000	27.98966000	9.38115100
107.79999377	0.00000000	28.36491000	10.16855000
107.99999376	0.00000000	28.03888000	9.79945900
108.19999375	0.00000000	27.25147000	9.00590400
108.39999374	0.00000000	26.45792000	7.47416300
108.59999372	0.00000000	25.29527000	5.61638700
108.79999371	0.00000000	24.22490000	4.82898600
108.99999370	0.00000000	24.18184000	4.77977300
109.19999369	0.00000000	24.92003000	5.19808000
109.39999368	0.00000000	25.71358000	6.36072800
109.59999366	0.00000000	26.87623000	7.89247000
109.79999365	0.00000000	27.98966000	9.42421200
109.99999364	0.00000000	28.41412000	10.53765000
110.19999363	0.00000000	28.45718000	10.58686000
110.39999362	0.00000000	28.41412000	9.84867000
110.59999360	0.00000000	27.98966000	9.05511800
110.79999359	0.00000000	26.83317000	7.84940900
110.99999358	0.00000000	25.33834000	6.36072800
111.19999357	0.00000000	24.22490000	5.19808000
111.39999356	0.00000000	24.18184000	4.77977300
111.59999355	0.00000000	24.92003000	4.77977300
111.79999353	0.00000000	25.67052000	5.15501900
111.99999352	0.00000000	26.45792000	5.93626900
112.19999351	0.00000000	26.87623000	6.72982200
112.39999350	0.00000000	27.29453000	7.89247000
112.59999349	0.00000000	27.98966000	9.00590400
112.79999347	0.00000000	27.98966000	9.38115100
112.99999346	0.00000000	27.29453000	9.05511800
113.19999345	0.00000000	26.87623000	8.31077700
113.39999344	0.00000000	26.45792000	7.93553100
113.59999343	0.00000000	25.71358000	7.84940900
113.79999341	0.00000000	25.33834000	7.47416300
113.99999340	0.00000000	25.33834000	6.72982200
114.19999339	0.00000000	25.71358000	6.35457700
114.39999338	0.00000000	26.45792000	6.31151500
114.59999337	0.00000000	26.83317000	6.26845500
114.79999336	0.00000000	26.87623000	5.93626900
114.99999334	0.00000000	26.87623000	5.57332700
115.19999333	0.00000000	26.87623000	5.93626900
115.39999332	0.00000000	26.87623000	6.31151500
115.59999331	0.00000000	26.87623000	6.72982200
115.79999330	0.00000000	26.83317000	7.51722400
115.99999328	0.00000000	26.45792000	8.26771600
116.19999327	0.00000000	25.71358000	9.05511800
116.39999326	0.00000000	25.33834000	9.43036400
116.59999325	0.00000000	25.29527000	9.43036400
116.79999324	0.00000000	25.29527000	9.05511800
116.99999322	0.00000000	25.33834000	8.26771600
117.19999321	0.00000000	25.71358000	7.51722400
117.39999320	0.00000000	26.50098000	6.68676100
117.59999319	0.00000000	27.25147000	5.93626900
117.79999318	0.00000000	28.03888000	5.15501900
117.99999317	0.00000000	28.41412000	4.82898600
118.19999315	0.00000000	28.41412000	5.15501900
118.39999314	0.00000000	27.98966000	5.93626900
118.59999313	0.00000000	26.87623000	6.68676100
118.79999312	0.00000000	25.71358000	7.51722400
118.99999311	0.00000000	24.92003000	8.26771600
119.19999309	0.00000000	24.13263000	9.05511800
119.39999308	0.00000000	23.80659000	9.38115100
119.59999307	0.00000000	24.13263000	9.00590400
119.79999306	0.00000000	24.92003000	7.93553100
119.99999305	0.00000000	25.71358000	7.14812900
120.19999303	0.00000000	26.87623000	7.09891700
120.39999302	0.00000000	27.98966000	6.68676100
120.59999301	0.00000000	28.41412000	6.35457700
120.79999300	0.00000000	28.45718000	6.31151500
120.99999299	0.00000000	28.41412000	6.31151500
121.19999298	0.00000000	27.98966000	6.31151500
121.39999296	0.00000000	26.83317000	6.31151500
121.59999295	0.00000000	25.33834000	6.31151500
121.79999294	0.00000000	24.18184000	6.31151500
121.99999293	0.00000000	23.75738000	6.35457700
122.19999292	0.00000000	23.71432000	6.72982200
122.39999290	0.00000000	23.75738000	7.47416300
122.59999289	0.00000000	24.18184000	7.84940900
122.79999288	0.00000000	25.29527000	7.89247000
122.99999287	0.00000000	26.45792000	7.89247000
123.19999286	0.00000000	27.25147000	7.89247000
123.39999284	0.00000000	28.03888000	7.89247000
123.59999283	0.00000000	28.41412000	7.84940900
123.79999282	0.00000000	28.41412000	7.47416300
123.99999281	0.00000000	28.03888000	6.72982200
124.19999280	0.00000000	27.25147000	6.35457700
124.39999279	0.00000000	26.50098000	6.31151500
124.59999277	0.00000000	25.67052000	6.31151500
124.79999276	0.00000000	24.92003000	6.35457700
124.99999275	0.00000000	24.13263000	6.72982200
125.19999274	0.00000000	23.80659000	7.47416300
125.39999273	0.00000000	24.13263000	7.84940900
125.59999271	0.00000000	24.92003000	7.89247000
125.79999270	0.00000000	25.71358000	7.89247000
125.99999269	0.00000000	26.87623000	7.89247000
126.19999268	0.00000000	27.98966000	7.89247000
126.39999267	0.00000000	28.41412000	7.89247000
126.59999265	0.00000000	28.45718000	7.89247000
126.79999264	0.00000000	28.41412000	7.84940900
126.99999263	0.00000000	27.98966000	7.47416300
127.19999262	0.00000000	26.83317000	6.72982200
127.39999261	0.00000000	25.33834000	6.35457700
127.59999260	0.00000000	24.13263000	6.31151500
127.79999258	0.00000000	23.38214000	6.31151500
127.99999257	0.00000000	23.01919000	6.35457700
128.19999256	0.00000000	23.75738000	6.72982200
128.39999255	0.00000000	24.87697000	7.47416300
128.59999254	0.00000000	25.71358000	7.84940900
128.79999252	0.00000000	26.87623000	7.89247000
128.99999251	0.00000000	27.98966000	7.89247000
129.19999250	0.00000000	28.36491000	7.84940900
129.39999249	0.00000000	27.98966000	7.47416300
129.59999248	0.00000000	26.87623000	6.77903500
129.79999246	0.00000000	25.71358000	6.72982200
129.99999245	0.00000000	24.92003000	7.09891700
130.19999244	0.00000000	24.13263000	7.10506800
130.39999243	0.00000000	23.80659000	7.51722400
130.59999242	0.00000000	24.18184000	7.84940900
130.79999241	0.00000000	25.29527000	7.89247000
130.99999239	0.00000000	26.40871000	7.89247000
131.19999238	0.00000000	26.83317000	7.84940900
131.39999237	0.00000000	26.87623000	7.47416300
131.59999236	0.00000000	26.87623000	6.72982200
131.79999235	0.00000000	26.83317000	6.31151500
131.99999233	0.00000000	26.45792000	5.93626900
132.19999232	0.00000000	25.71358000	5.57332700
132.39999231	0.00000000	25.33834000	5.93626900
132.59999230	0.00000000	25.29527000	6.26845500
132.79999229	0.00000000	25.29527000	6.35457700
132.99999227	0.00000000	25.29527000	6.72982200
133.19999226	0.00000000	25.29527000	7.47416300
133.39999225	0.00000000	25.33834000	7.84940900
133.59999224	0.00000000	25.67052000	7.84940900
133.79999223	0.00000000	26.03961000	7.51722400
133.99999222	0.00000000	25.67052000	7.10506800
134.19999220	0.00000000	25.38755000	7.09891700
134.39999219	0.00000000	25.67052000	6.68676100
134.59999218	0.00000000	26.03961000	6.31151500
134.79999217	0.00000000	25.71358000	5.89320800
134.99999216	0.00000000	25.76279000	5.19808000
135.19999214	0.00000000	26.45792000	5.19808000
135.39999213	0.00000000	26.83317000	5.93626900
135.59999212	0.00000000	26.83317000	6.68676100
135.79999211	0.00000000	26.45792000	7.47416300
135.99999210	0.00000000	25.71358000	7.84940900
136.19999208	0.00000000	25.29527000	7.89247000
136.39999207	0.00000000	24.87697000	7.89247000
136.59999206	0.00000000	24.18184000	7.84940900
136.79999205	0.00000000	24.18184000	7.51722400
136.99999204	0.00000000	24.92003000	7.10506800
137.19999203	0.00000000	25.67052000	7.09891700
137.39999201	0.00000000	26.45792000	6.68676100
137.59999200	0.00000000	26.87623000	6.35457700
137.79999199	0.00000000	27.25147000	6.31151500
137.99999198	0.00000000	27.62057000	6.31151500
138.19999197	0.00000000	27.20841000	6.31151500
138.39999195	0.00000000	26.50098000	6.31151500
138.59999194	0.00000000	25.71358000	6.31151500
138.79999193	0.00000000	25.29527000	6.35457700
138.99999192	0.00000000	24.87697000	6.72982200
139.19999191	0.00000000	24.18184000	7.47416300
139.39999189	0.00000000	24.18184000	7.84940900
139.59999188	0.00000000	24.92003000	7.89247000
139.79999187	0.00000000	25.67052000	7.89247000
139.99999186	0.00000000	26.45792000	7.89247000
140.19999185	0.00000000	26.83317000	7.84940900
140.39999184	0.00000000	26.87623000	7.47416300
140.59999182	0.00000000	26.83317000	6.68676100
140.79999181	0.00000000	26.45792000	5.93626900
140.99999180	0.00000000	25.71358000	5.15501900
141.19999179	0.00000000	25.33834000	4.82898600
141.39999178	0.00000000	25.29527000	5.15501900
141.59999176	0.00000000	25.29527000	5.93626900
141.79999175	0.00000000	25.29527000	6.68676100
141.99999174	0.00000000	25.29527000	7.51722400
142.19999173	0.00000000	25.33834000	8.26771600
142.39999172	0.00000000	25.71358000	9.05511800
142.59999170	0.00000000	26.40871000	9.38115100
142.79999169	0.00000000	26.40871000	9.00590400
142.99999168	0.00000000	25.71358000	7.89247000
143.19999167	0.00000000	25.33834000	6.72982200
143.39999166	0.00000000	25.29527000	5.93626900
143.59999165	0.00000000	25.29527000	5.15501900
143.79999163	0.00000000	25.29527000	4.82898600
143.99999162	0.00000000	25.29527000	5.15501900
144.19999161	0.00000000	25.33834000	5.93626900
144.39999160	0.00000000	25.71358000	6.68676100
144.59999159	0.00000000	26.45792000	7.47416300
144.79999157	0.00000000	26.83317000	7.84940900
144.99999156	0.00000000	26.83317000	7.89247000
145.19999155	0.00000000	26.45792000	7.89247000
145.39999154	0.00000000	25.71358000	7.84940900
145.59999153	0.00000000	25.33834000	7.47416300
145.79999151	0.00000000	25.29527000	6.72982200
145.99999150	0.00000000	25.29527000	6.31151500
146.19999149	0.00000000	25.29527000	5.89320800
146.39999148	0.00000000	25.29527000	5.19808000
146.59999147	0.00000000	25.33834000	5.19808000
146.79999146	0.00000000	25.67052000	5.89320800
146.99999144	0.00000000	26.08268000	6.31151500
147.19999143	0.00000000	26.08883000	6.72982200
147.39999142	0.00000000	26.45792000	7.47416300
147.59999141	0.00000000	26.40871000	7.84940900
147.79999140	0.00000000	25.71358000	7.84940900
147.99999138	0.00000000	25.33834000	7.51722400
148.19999137	0.00000000	25.29527000	7.10506800
148.39999136	0.00000000	25.29527000	7.09891700
148.59999135	0.00000000	25.29527000	6.68676100
148.79999134	0.00000000	25.29527000	6.35457700
148.99999132	0.00000000	25.29527000	6.31151500
149.19999131	0.00000000	25.33834000	6.31151500
149.39999130	0.00000000	25.71358000	6.31151500
149.59999129	0.00000000	26.45792000	6.31151500
149.79999128	0.00000000	26.83317000	6.31151500
149.99999127	0.00000000	26.83317000	6.35457700
150.19999125	0.00000000	26.45792000	6.72982200
150.39999124	0.00000000	25.71358000	7.47416300
150.59999123	0.00000000	25.33834000	7.84940900
150.79999122	0.00000000	25.29527000	7.89247000
150.99999121	0.00000000	25.29527000	7.89247000
151.19999119	0.00000000	25.29527000	7.84940900
151.39999118	0.00000000	25.29527000	7.47416300
151.59999117	0.00000000	25.29527000	6.72982200
151.79999116	0.00000000	25.29527000	6.35457700
151.99999115	0.00000000	25.33834000	6.31151500
152.19999113	0.00000000	25.67052000	6.31151500
152.39999112	0.00000000	26.08268000	6.31151500
152.59999111	0.00000000	26.08883000	6.31151500
152.79999110	0.00000000	26.45792000	6.31151500
152.99999109	0.00000000	26.40871000	6.35457700
153.19999108	0.00000000	25.71358000	6.72982200
153.39999106	0.00000000	25.33834000	7.47416300
153.59999105	0.00000000	25.25221000	7.84940900
153.79999104	0.00000000	24.87697000	7.89247000
153.99999103	0.00000000	24.13263000	7.89247000
154.19999102	0.00000000	23.75738000	7.84940900
154.39999100	0.00000000	23.75738000	7.47416300
154.59999099	0.00000000	24.13263000	6.72982200
154.79999098	0.00000000	24.87697000	6.35457700
154.99999097	0.00000000	25.25221000	6.31151500
155.19999096	0.00000000	25.33834000	6.31151500
155.39999094	0.00000000	25.71358000	6.31151500
155.59999093	0.00000000	26.45792000	6.31151500
155.79999092	0.00000000	26.78395000	6.31151500
155.99999091	0.00000000	26.45792000	6.31151500
156.19999090	0.00000000	25.71358000	6.35457700
156.39999089	0.00000000	25.29527000	6.72982200
156.59999087	0.00000000	24.87697000	7.47416300
156.79999086	0.00000000	24.13263000	7.84940900
156.99999085	0.00000000	23.75738000	7.84940900
157.19999084	0.00000000	23.75738000	7.51722400
157.39999083	0.00000000	24.13263000	7.10506800
157.59999081	0.00000000	24.87697000	7.09891700
157.79999080	0.00000000	25.25221000	6.68676100
157.99999079	0.00000000	25.29527000	6.35457700
158.19999078	0.00000000	25.29527000	6.31151500
158.39999077	0.00000000	25.29527000	6.31151500
158.59999075	0.00000000	25.29527000	6.31151500
158.79999074	0.00000000	25.29527000	6.31151500
158.99999073	0.00000000	25.29527000	6.31151500
159.19999072	0.00000000	25.29527000	6.35457700
159.39999071	0.00000000	25.29527000	6.72982200
159.59999070	0.00000000	25.29527000	7.47416300
159.79999068	0.00000000	25.29527000	7.84940900
159.99999067	0.00000000	25.29527000	7.89247000
160.19999066	0.00000000	25.29527000	7.84940900
160.39999065	0.00000000	25.29527000	7.47416300
160.59999064	0.00000000	25.29527000	6.72982200
160.79999062	0.00000000	25.29527000	6.35457700
160.99999061	0.00000000	25.29527000	6.31151500
161.19999060	0.00000000	25.29527000	6.31151500
161.39999059	0.00000000	25.29527000	6.31151500
161.59999058	0.00000000	25.29527000	6.31151500
161.79999056	0.00000000	25.29527000	6.31151500
161.99999055	0.00000000	25.29527000	6.31151500
162.19999054	0.00000000	25.29527000	6.35457700
162.39999053	0.00000000	25.29527000	6.72982200
162.59999052	0.00000000	25.29527000	7.47416300
162.79999051	0.00000000	25.29527000	7.80019600
162.99999049	0.00000000	25.29527000	7.51722400
163.19999048	0.00000000	25.25221000	7.10506800
163.39999047	0.00000000	24.92003000	7.09891700
163.59999046	0.00000000	24.50787000	6.68676100
163.79999045	0.00000000	24.54478000	6.35457700
163.99999043	0.00000000	24.50787000	6.31151500
164.19999042	0.00000000	24.92003000	6.31151500
164.39999041	0.00000000	25.25221000	6.31151500
164.59999040	0.00000000	25.29527000	6.31151500
164.79999039	0.00000000	25.33834000	6.31151500
164.99999037	0.00000000	25.67052000	6.31151500
165.19999036	0.00000000	26.08268000	6.31151500
165.39999035	0.00000000	26.04577000	6.31151500
165.59999034	0.00000000	26.08268000	6.31151500
165.79999033	0.00000000	25.67052000	6.31151500
165.99999032	0.00000000	25.33834000	6.35457700
166.19999030	0.00000000	25.25221000	6.68676100
166.39999029	0.00000000	24.92003000	7.05585600
166.59999028	0.00000000	24.55093000	6.68676100
166.79999027	0.00000000	24.92003000	6.35457700
166.99999026	0.00000000	25.25221000	6.31151500
167.19999024	0.00000000	25.29527000	6.31151500
167.39999023	0.00000000	25.29527000	6.31151500
167.59999022	0.00000000	25.29527000	6.31151500
167.79999021	0.00000000	25.29527000	6.31151500
167.99999020	0.00000000	25.29527000	6.31151500
168.19999018	0.00000000	25.29527000	6.31151500
168.39999017	0.00000000	25.29527000	6.31151500
168.59999016	0.00000000	25.29527000	6.31151500
168.79999015	0.00000000	25.29527000	6.31151500
168.99999014	0.00000000	25.29527000	6.31151500
169.19999013	0.00000000	25.29527000	6.31151500
169.39999011	0.00000000	25.29527000	6.31151500
169.59999010	0.00000000	25.29527000	6.31151500
169.79999009	0.00000000	25.29527000	6.31151500
169.99999008	0.00000000	25.29527000	6.31151500
170.19999007	0.00000000	25.29527000	6.31151500
170.39999005	0.00000000	25.29527000	6.31151500
170.59999004	0.00000000	25.29527000	6.31151500
170.79999003	0.00000000	25.29527000	6.31151500
170.99999002	0.00000000	25.29527000	6.31151500
171.19999001	0.00000000	25.29527000	6.31151500
171.39998999	0.00000000	25.29527000	6.31151500
171.59998998	0.00000000	25.29527000	6.31151500
171.79998997	0.00000000	25.29527000	6.31151500
171.99998996	0.00000000	25.29527000	6.31151500
172.19998995	0.00000000	25.29527000	6.31151500
172.39998994	0.00000000	25.29527000	6.31151500
172.59998992	0.00000000	25.29527000	6.31151500
172.79998991	0.00000000	25.29527000	6.31151500
172.99998990	0.00000000	25.29527000	6.31151500
173.19998989	0.00000000	25.29527000	6.31151500
173.39998988	0.00000000	25.29527000	6.31151500
173.59998986	0.00000000	25.29527000	6.31151500
173.79998985	0.00000000	25.29527000	6.31151500
173.99998984	0.00000000	25.29527000	6.31151500
174.19998983	0.00000000	25.29527000	6.31151500
174.39998982	0.00000000	25.29527000	6.31151500
174.59998980	0.00000000	25.29527000	6.31151500
174.79998979	0.00000000	25.29527000	6.31151500
174.99998978	0.00000000	25.25221000	6.31151500
175.19998977	0.00000000	24.92003000	6.31151500
175.39998976	0.00000000	24.55093000	6.31151500
175.59998975	0.00000000	24.92003000	6.31151500
175.79998973	0.00000000	25.25221000	6.31151500
175.99998972	0.00000000	25.29527000	6.35457700
176.19998971	0.00000000	25.29527000	6.68676100
176.39998970	0.00000000	25.25221000	7.05585600
176.59998969	0.00000000	24.92003000	6.68676100
176.79998967	0.00000000	24.55093000	6.35457700
176.99998966	0.00000000	24.92003000	6.31151500
177.19998965	0.00000000	25.25221000	6.31151500
177.39998964	0.00000000	25.29527000	6.31151500
177.59998963	0.00000000	25.29527000	6.31151500
177.79998961	0.00000000	25.29527000	6.31151500
177.99998960	0.00000000	25.29527000	6.31151500
178.19998959	0.00000000	25.29527000	6.31151500
178.39998958	0.00000000	25.29527000	6.31151500
178.59998957	0.00000000	25.29527000	6.31151500
178.79998956	0.00000000	25.29527000	6.31151500
178.99998954	0.00000000	25.29527000	6.31151500
179.19998953	0.00000000	25.29527000	6.31151500
179.39998952	0.00000000	25.29527000	6.31151500
179.59998951	0.00000000	25.29527000	6.31151500
179.79998950	0.00000000	25.29527000	6.31151500
179.99998948	0.00000000	25.29527000	6.31151500
180.19998947	0.00000000	25.29527000	6.31151500
180.39998946	0.00000000	25.29527000	6.31151500
180.59998945	0.00000000	25.29527000	6.31151500
180.79998944	0.00000000	25.29527000	6.31151500
180.99998942	0.00000000	25.25221000	6.31151500
181.19998941	0.00000000	24.92003000	6.31151500
181.39998940	0.00000000	24.50787000	6.35457700
181.59998939	0.00000000	24.54478000	6.72982200
181.79998938	0.00000000	24.50787000	7.42495000
181.99998937	0.00000000	24.92003000	7.42495000
182.19998935	0.00000000	25.25221000	6.72982200
182.39998934	0.00000000	25.29527000	6.35457700
182.59998933	0.00000000	25.29527000	6.31151500
182.79998932	0.00000000	25.29527000	6.31151500
182.99998931	0.00000000	25.29527000	6.31151500
183.19998929	0.00000000	25.29527000	6.31151500
183.39998928	0.00000000	25.29527000	6.31151500
183.59998927	0.00000000	25.25221000	6.31151500
183.79998926	0.00000000	24.87697000	6.31151500
183.99998925	0.00000000	24.13263000	6.31151500
184.19998923	0.00000000	23.75738000	6.35457700
184.39998922	0.00000000	23.75738000	6.72982200
184.59998921	0.00000000	24.13263000	7.47416300
184.79998920	0.00000000	24.87697000	7.84940900
184.99998919	0.00000000	25.25221000	7.89247000
185.19998918	0.00000000	25.29527000	7.84940900
185.39998916	0.00000000	25.29527000	7.47416300
185.59998915	0.00000000	25.29527000	6.72982200
185.79998914	0.00000000	25.29527000	6.31151500
185.99998913	0.00000000	25.29527000	5.93626900
186.19998912	0.00000000	25.29527000	5.57332700
186.39998910	0.00000000	25.29527000	5.93626900
186.59998909	0.00000000	25.29527000	6.26845500
186.79998908	0.00000000	25.25221000	6.31151500
186.99998907	0.00000000	24.87697000	6.31151500
187.19998906	0.00000000	24.13263000	6.35457700
187.39998904	0.00000000	23.75738000	6.72982200
187.59998903	0.00000000	23.71432000	7.47416300
187.79998902	0.00000000	23.75738000	7.84940900
187.99998901	0.00000000	24.13263000	7.84940900
188.19998900	0.00000000	24.82775000	7.47416300
188.39998899	0.00000000	24.87697000	6.72982200
188.59998897	0.00000000	24.55093000	6.35457700
188.79998896	0.00000000	24.92003000	6.31151500
188.99998895	0.00000000	25.25221000	6.31151500
189.19998894	0.00000000	25.25221000	6.31151500
189.39998893	0.00000000	24.87697000	6.31151500
189.59998891	0.00000000	24.13263000	6.31151500
189.79998890	0.00000000	23.75738000	6.31151500
189.99998889	0.00000000	23.71432000	6.31151500
190.19998888	0.00000000	23.71432000	6.31151500
190.39998887	0.00000000	23.75738000	6.35457700
190.59998885	0.00000000	24.08957000	6.68676100
190.79998884	0.00000000	24.50172000	7.09891700
190.99998883	0.00000000	24.50787000	7.06200700
191.19998882	0.00000000	24.92003000	7.09891700
191.39998881	0.00000000	25.25221000	6.68676100
191.59998880	0.00000000	25.29527000	6.35457700
191.79998878	0.00000000	25.29527000	6.31151500
191.99998877	0.00000000	25.29527000	6.31151500
192.19998876	0.00000000	25.25221000	6.31151500
192.39998875	0.00000000	24.87697000	6.31151500
192.59998874	0.00000000	24.13263000	6.31151500
192.79998872	0.00000000	23.75738000	6.31151500
192.99998871	0.00000000	23.71432000	6.31151500
193.19998870	0.00000000	23.71432000	6.31151500
193.39998869	0.00000000	23.71432000	6.31151500
193.59998868	0.00000000	23.75738000	6.35457700
193.79998866	0.00000000	24.13263000	6.68676100
193.99998865	0.00000000	24.87697000	7.05585600
194.19998864	0.00000000	25.25221000	6.68676100
194.39998863	0.00000000	25.29527000	6.35457700
194.59998862	0.00000000	25.29527000	6.31151500
194.79998861	0.00000000	25.29527000	6.31151500
194.99998859	0.00000000	25.25221000	6.31151500
195.19998858	0.00000000	24.87697000	6.31151500
195.39998857	0.00000000	24.13263000	6.31151500
195.59998856	0.00000000	23.75738000	6.31151500
195.79998855	0.00000000	23.71432000	6.31151500
195.99998853	0.00000000	23.71432000	6.31151500
