Time	Channel A	Channel B	Channel C
(us)	(V)	(mV)	(mV)

-4.49999956	0.00000000	18.97145000	3.15575800
-4.29999957	0.00000000	18.92839000	3.15575800
-4.09999958	0.00000000	18.59621000	3.15575800
-3.89999959	0.00000000	18.22711000	3.15575800
-3.69999960	0.00000000	18.59621000	3.15575800
-3.49999962	0.00000000	18.92839000	3.19881900
-3.29999963	0.00000000	18.97145000	3.53100400
-3.09999964	0.00000000	18.97145000	3.94315900
-2.89999965	0.00000000	18.97145000	3.90625000
-2.69999966	0.00000000	18.92839000	3.94315900
-2.49999968	0.00000000	18.59621000	3.53100400
-2.29999969	0.00000000	18.18405000	3.19881900
-2.09999970	0.00000000	18.22096000	3.15575800
-1.89999971	0.00000000	18.18405000	3.15575800
-1.69999972	0.00000000	18.59621000	3.15575800
-1.49999973	0.00000000	18.92839000	3.15575800
-1.29999975	0.00000000	18.97145000	3.15575800
-1.09999976	0.00000000	18.97145000	3.19881900
-0.89999977	0.00000000	18.97145000	3.53100400
-0.69999978	0.00000000	18.97145000	3.90009800
-0.49999979	0.00000000	18.97145000	3.53100400
-0.29999981	0.31803640	18.97145000	3.19881900
-0.09999982	0.63668800	18.97145000	3.15575800
0.10000017	0.95533960	18.97145000	3.15575800
0.30000016	0.95533960	18.92839000	3.15575800
0.50000015	0.79601380	18.59621000	3.15575800
0.70000013	0.31803640	18.22711000	3.15575800
0.90000012	-0.47736220	18.59621000	3.15575800
1.10000011	-1.43331700	18.87918000	3.15575800
1.30000010	-2.38927200	18.59621000	3.19881900
1.50000009	-2.86724900	18.22711000	3.57406500
1.70000008	-2.38927200	18.59621000	4.31840500
1.90000006	-1.27399100	18.92839000	4.69365100
2.10000005	0.47736220	18.92839000	4.73671200
2.30000004	2.54859700	18.59621000	4.69365100
2.50000003	4.45989200	18.18405000	4.31840500
2.70000002	5.25652100	18.17790000	3.57406500
2.90000000	4.93786900	17.76575000	3.19881900
3.09999999	3.02657500	17.43356000	3.15575800
3.29999998	0.00000000	17.43356000	3.15575800
3.49999997	-3.50393700	17.80881000	3.15575800
3.69999996	-6.37180100	18.55315000	3.19881900
3.89999994	-7.96444400	18.92839000	3.57406500
4.09999993	-7.48646600	18.97145000	4.31840500
4.29999992	-5.09719500	18.97145000	4.69365100
4.49999991	-1.11466500	18.92839000	4.73671200
4.69999990	3.34522600	18.55315000	4.69365100
4.89999989	7.00848900	17.80881000	4.31840500
5.09999987	9.23905000	17.43356000	3.57406500
5.29999986	9.07972400	17.39050000	3.19881900
5.49999985	6.69045300	17.39050000	3.15575800
5.69999984	2.38927200	17.39050000	3.15575800
5.89999983	-2.22994600	17.43356000	3.15575800
6.09999981	-6.53112700	17.76575000	3.15575800
6.29999980	-9.07972400	18.17790000	3.19881900
6.49999979	-9.23905000	18.18405000	3.57406500
6.69999978	-7.16781500	18.59621000	4.31840500
6.89999977	-3.50393700	18.92839000	4.69365100
7.09999975	0.79601380	18.97145000	4.73671200
7.29999974	4.77854300	18.92839000	4.69365100
7.49999973	7.16781500	18.55315000	4.31840500
7.69999972	7.64579200	17.80881000	3.57406500
7.89999971	6.21247500	17.48277000	3.19881900
8.09999970	3.50393700	17.76575000	3.15575800
8.29999968	0.15871060	18.13484000	3.15575800
8.49999967	-2.70792300	17.80881000	3.15575800
8.69999966	-4.77854300	17.85802000	3.15575800
8.89999965	-5.25652100	18.55315000	3.19881900
9.09999964	-4.45989200	18.87918000	3.53100400
9.29999962	-2.70792300	18.55315000	3.90009800
9.49999961	-0.79601380	17.85802000	3.53100400
9.69999960	1.11466500	17.80881000	3.19881900
9.89999959	2.22994600	18.13484000	3.15575800
10.09999958	2.54859700	17.76575000	3.15575800
10.29999956	2.22994600	17.43356000	3.15575800
10.49999955	1.43331700	17.39050000	3.15575800
10.69999954	0.47736220	17.39050000	3.15575800
10.89999953	-0.15871060	17.43356000	3.15575800
11.09999952	-0.79601380	17.76575000	3.15575800
11.29999951	-0.95533960	18.17790000	3.15575800
11.49999949	-0.95533960	18.18405000	3.15575800
11.69999948	-0.79601380	18.59621000	3.15575800
11.89999947	-0.47736220	18.92839000	3.15575800
12.09999946	-0.15871060	18.92839000	3.15575800
12.29999945	-0.15871060	18.59621000	3.15575800
12.49999943	0.00000000	18.18405000	3.15575800
12.69999942	0.00000000	18.17790000	3.15575800
12.89999941	0.00000000	17.76575000	3.15575800
13.09999940	0.00000000	17.48277000	3.15575800
13.29999939	0.00000000	17.76575000	3.19881900
13.49999937	0.00000000	18.17790000	3.53100400
13.69999936	0.00000000	18.18405000	3.90009800
13.89999935	0.00000000	18.55315000	3.53100400
14.09999934	-0.15871060	18.55315000	3.19881900
14.29999933	-0.15871060	18.22711000	3.15575800
14.49999932	-0.15871060	18.55315000	3.19881900
14.69999930	0.00000000	18.50394000	3.53100400
14.89999929	0.00000000	17.80881000	3.90009800
15.09999928	0.00000000	17.43356000	3.53100400
15.29999927	0.00000000	17.39050000	3.24803100
15.49999926	0.00000000	17.39050000	3.57406500
15.69999924	0.00000000	17.39050000	4.26919300
15.89999923	0.00000000	17.39050000	4.26919300
16.09999922	0.00000000	17.39050000	3.57406500
16.29999921	-0.15871060	17.39050000	3.19881900
16.49999920	-0.15871060	17.43356000	3.15575800
16.69999919	-0.15871060	17.80881000	3.15575800
16.89999917	-0.15871060	18.55315000	3.15575800
17.09999916	0.00000000	18.97145000	3.15575800
17.29999915	0.00000000	19.38976000	3.15575800
17.49999914	0.00000000	20.13410000	3.15575800
17.69999913	0.00000000	20.46014000	3.15575800
17.89999911	0.00000000	20.08489000	3.15575800
18.09999910	0.00000000	18.92839000	3.15575800
18.29999909	0.00000000	17.39050000	3.15575800
18.49999908	0.00000000	15.80955000	3.15575800
18.69999907	0.00000000	14.27165000	3.15575800
18.89999905	-0.15871060	13.15822000	3.15575800
19.09999904	0.00000000	13.15822000	3.15575800
19.29999903	0.00000000	14.36393000	3.19881900
19.49999902	0.00000000	16.69537000	3.53100400
19.69999901	0.00000000	20.22022000	3.90009800
19.89999900	0.00000000	24.04650000	3.53100400
20.09999898	0.00000000	27.52830000	3.19881900
20.29999897	0.00000000	29.39222000	3.15575800
20.49999896	0.00000000	28.97392000	3.15575800
20.69999895	0.00000000	25.81201000	3.15575800
20.89999894	0.00000000	19.95571000	3.15575800
21.09999892	0.00000000	12.22933000	3.15575800
21.29999891	0.00000000	4.18307100	3.15575800
21.49999890	0.00000000	-1.54404500	3.15575800
21.69999889	0.00000000	-3.08193900	3.15575800
21.89999888	0.00000000	0.07997046	3.15575800
22.09999886	0.00000000	7.89862200	3.15575800
22.29999885	0.00000000	19.48204000	3.15575800
22.49999884	0.00000000	32.22810000	3.15575800
22.69999883	0.00000000	43.03026000	3.15575800
22.89999882	0.00000000	49.49557000	3.19881900
23.09999881	0.00000000	48.98499000	3.57406500
23.29999879	0.00000000	40.47121000	4.31840500
23.49999878	0.00000000	25.76895000	4.69365100
23.69999877	0.00000000	7.99704600	4.77977300
23.89999876	0.00000000	-8.98129900	5.11195900
24.09999875	0.00000000	-20.89690000	5.47490100
24.29999873	0.00000000	-24.71087000	5.06274600
24.49999872	0.00000000	-18.80536000	4.31840500
24.69999871	0.00000000	-3.72785400	3.06348400
24.89999870	0.00000000	17.52584000	1.20570900
25.09999869	0.00000000	39.91141000	-0.69512790
25.29999867	0.00000000	58.42765000	-1.48253000
25.49999866	-0.15871060	68.38705000	-1.48253000
25.69999865	0.00000000	66.80610000	-0.60285430
25.89999864	-0.15871060	53.68479000	2.08538400
26.09999863	0.00000000	32.04970000	5.93626900
26.29999862	0.00000000	6.92052100	9.79945900
26.49999860	0.00000000	-16.24631000	13.28125000
26.69999859	0.00000000	-32.01895000	15.14518000
26.89999858	0.00000000	-36.30044000	14.72072000
27.09999857	0.00000000	-28.20497000	11.56496000
27.29999856	0.00000000	-10.05167000	5.75787400
27.49999854	-0.15871060	14.27780000	-1.58095500
27.69999853	0.00000000	38.98253000	-8.91978400
27.89999852	0.00000000	58.33538000	-14.67766000
28.09999851	0.00000000	68.38705000	-17.28592000
28.29999850	0.00000000	66.84916000	-15.28666000
28.49999848	0.00000000	54.19537000	-8.32308000
28.69999847	0.00000000	34.14124000	2.12844500
28.89999846	0.00000000	11.71260000	14.11786000
29.09999845	0.00000000	-8.42765700	25.27067000
29.29999844	0.00000000	-22.01033000	32.52337000
29.49999843	0.00000000	-26.66708000	33.67987000
29.69999841	0.00000000	-21.68430000	28.20497000
29.89999840	0.00000000	-8.19389700	16.95374000
30.09999839	0.00000000	9.90403500	1.53174200
30.29999838	0.00000000	28.51255000	-14.25935000
30.49999837	0.00000000	43.63311000	-26.62401000
30.69999835	0.00000000	52.56520000	-33.16929000
30.89999834	0.00000000	53.77091000	-31.96973000
31.09999833	0.00000000	47.21949000	-23.09301000
31.29999832	0.00000000	34.92864000	-8.36614100
31.49999831	0.00000000	19.81422000	9.38115100
31.69999829	0.00000000	5.52411400	26.38410000
31.89999828	0.00000000	-5.35802100	38.74877000
32.09999827	0.00000000	-10.38386000	44.13755000
32.29999826	0.00000000	-8.93823700	40.97564000
32.49999825	0.00000000	-2.00541300	29.45374000
32.69999824	0.00000000	8.41535400	12.49385000
32.89999822	0.00000000	20.04183000	-5.67175200
33.09999821	0.00000000	30.46875000	-21.55512000
33.29999820	0.00000000	37.40157000	-32.01279000
33.49999819	0.00000000	39.02559000	-35.12549000
33.69999818	0.00000000	35.62992000	-30.43184000
33.89999816	0.00000000	29.06619000	-18.49163000
34.09999815	0.00000000	20.55241000	-1.95004900
34.29999814	0.00000000	12.08784000	14.68381000
34.49999813	0.00000000	5.89936000	28.29109000
34.69999812	0.00000000	3.19881900	36.74950000
34.89999810	0.00000000	4.69365100	37.91216000
35.09999809	0.00000000	9.62106200	31.36073000
35.29999808	0.00000000	15.80955000	19.04527000
35.49999807	0.00000000	21.99803000	3.62327700
35.69999806	0.00000000	26.97465000	-10.96826000
35.89999805	0.00000000	28.88164000	-21.05069000
36.09999803	0.00000000	27.39296000	-24.58169000
36.29999802	0.00000000	23.16068000	-21.55512000
36.49999801	0.00000000	17.43356000	-13.10285000
36.69999800	-0.15871060	12.08784000	-1.53174200
36.89999799	0.00000000	8.96899500	10.40846000
37.09999797	0.00000000	8.55068800	20.02337000
37.29999796	0.00000000	10.45768000	24.62475000
37.49999795	0.00000000	14.32087000	23.13607000
37.69999794	0.00000000	18.92839000	16.25861000
37.89999793	0.00000000	23.20374000	6.31151500
38.09999791	0.00000000	26.27953000	-3.67249000
38.29999790	0.00000000	27.43602000	-10.92520000
38.49999789	0.00000000	26.27953000	-13.19513000
38.69999788	0.00000000	23.20374000	-9.43036400
38.89999787	0.00000000	18.97145000	-1.43946800
39.09999786	0.00000000	14.69611000	7.75713500
39.29999784	0.00000000	11.20202000	15.84030000
39.49999783	0.00000000	8.87672100	20.39862000
39.69999782	0.00000000	8.50147600	19.97416000
39.89999781	0.00000000	9.99630800	14.21629000
40.09999780	0.00000000	12.69070000	4.69365100
40.29999778	0.00000000	15.85261000	-5.25344500
40.49999777	0.00000000	19.34670000	-12.59227000
40.69999776	0.00000000	22.82849000	-15.66191000
40.89999775	0.00000000	25.15994000	-13.70571000
41.09999774	0.00000000	26.32259000	-6.78518600
41.29999772	0.00000000	25.94734000	3.15575800
41.49999771	0.00000000	23.99729000	13.14591000
41.69999770	0.00000000	21.29675000	20.48474000
41.89999769	0.00000000	17.76575000	23.55438000
42.09999768	0.00000000	14.32087000	21.64739000
42.29999767	0.00000000	11.57726000	15.14518000
42.49999765	0.00000000	10.03937000	6.31151500
42.69999764	0.00000000	10.03937000	-2.55905500
42.89999763	0.00000000	11.53420000	-9.52263600
43.09999762	0.00000000	13.85334000	-12.96752000
43.29999761	0.00000000	16.18479000	-12.21703000
43.49999759	0.00000000	18.55315000	-7.25270600
43.69999758	0.00000000	20.46014000	-0.04306102
43.89999757	0.00000000	21.62278000	6.87746000
44.09999756	0.00000000	21.66585000	11.56496000
44.29999755	0.00000000	20.97072000	13.61343000
44.49999753	0.00000000	20.59547000	13.61343000
44.69999752	0.00000000	20.55241000	11.65723000
44.89999751	0.00000000	20.50935000	7.80019600
45.09999750	0.00000000	20.13410000	3.24803100
45.29999749	0.00000000	19.30364000	-0.64591530
45.49999748	0.00000000	18.08563000	-2.97736200
45.69999746	0.00000000	15.71727000	-3.76476400
45.89999745	0.00000000	12.69070000	-2.60211600
46.09999744	0.00000000	9.95324800	0.00000000
46.29999743	0.00000000	8.04010800	2.73745100
46.49999742	0.00000000	7.34498000	5.11195900
46.69999740	0.00000000	8.92593500	7.38188900
46.89999739	0.00000000	12.82603000	8.54453700
47.09999738	0.00000000	18.27633000	8.17544300
47.29999737	0.00000000	24.82775000	7.05585600
47.49999736	0.00000000	30.55487000	5.06274600
47.69999734	0.00000000	33.63066000	2.78051200
47.89999733	0.00000000	33.21235000	0.41830710
48.09999732	0.00000000	28.93085000	-1.43946800
48.29999731	0.00000000	21.57972000	-2.22687000
48.49999730	0.00000000	12.69070000	-1.48868100
48.69999729	0.00000000	4.22613100	0.09227362
48.89999727	0.00000000	-1.50098400	2.41141700
49.09999726	0.00000000	-2.61441900	5.51796200
49.29999725	0.00000000	1.57480300	8.17544300
49.49999724	0.00000000	9.66412400	10.11934000
49.69999723	0.00000000	19.34670000	10.45152000
49.89999721	0.00000000	28.97392000	8.91978400
50.09999720	0.00000000	35.86368000	5.85014700
50.29999719	0.00000000	37.81988000	1.99311000
50.49999718	0.00000000	34.75024000	-1.48868100
50.69999717	-0.15871060	27.44217000	-4.18307100
50.89999715	0.00000000	17.80881000	-5.29650500
51.09999714	0.00000000	8.55068800	-4.18307100
51.29999713	0.00000000	1.61786400	-1.44562000
51.49999712	0.00000000	-1.07652500	2.41756900
51.69999711	0.00000000	1.29183100	7.00664300
51.89999710	0.00000000	8.09547100	10.45152000
52.09999708	0.00000000	17.33514000	12.03248000
52.29999707	0.00000000	25.39985000	11.65723000
52.49999706	0.00000000	31.20694000	9.33809000
52.69999705	0.00000000	32.70177000	5.89320800
52.89999704	0.00000000	29.34916000	2.04232300
53.09999702	0.00000000	23.20374000	-1.02116100
53.29999701	0.00000000	15.85261000	-2.60211600
53.49999700	0.00000000	8.96899500	-2.60211600
53.69999699	0.00000000	4.73671200	-1.07037400
53.89999698	0.00000000	4.31840500	1.58095500
54.09999696	0.00000000	7.38804100	4.26919300
54.29999695	0.00000000	13.15822000	6.17618100
54.49999694	0.00000000	20.04183000	6.96358300
54.69999693	0.00000000	25.76895000	6.22539300
54.89999692	0.00000000	28.50640000	4.73671200
55.09999691	0.00000000	27.76821000	3.15575800
55.29999689	0.00000000	24.32333000	1.66707700
55.49999688	0.00000000	18.92839000	0.92888770
55.69999687	0.00000000	13.20128000	1.71013800
55.89999686	0.00000000	8.96899500	3.57406500
56.09999685	0.00000000	7.38804100	5.85014700
56.29999683	0.00000000	8.55068800	7.38188900
56.49999682	0.00000000	11.99557000	7.75713500
56.69999681	0.00000000	17.01525000	6.92052100
56.89999680	0.00000000	21.95497000	4.22613100
57.09999679	0.00000000	25.47982000	0.41830710
57.29999677	0.00000000	26.60556000	-3.02042300
57.49999676	0.00000000	25.47982000	-5.29650500
57.69999675	0.00000000	22.04109000	-5.24729300
57.89999674	0.00000000	17.80881000	-2.55905500
58.09999673	0.00000000	13.94562000	2.08538400
58.29999672	0.00000000	10.88213000	7.80019600
58.49999670	0.00000000	10.13164000	12.77067000
58.69999669	0.00000000	11.57726000	15.09596000
58.89999668	0.00000000	14.27165000	14.72072000
59.09999667	0.00000000	17.34744000	11.60802000
59.29999666	0.00000000	20.04183000	6.17618100
59.49999664	0.00000000	21.62278000	-0.33218500
59.69999663	0.00000000	21.99803000	-6.50221400
59.89999662	0.00000000	21.24754000	-10.31619000
60.09999661	0.00000000	19.30364000	-11.05438000
60.29999660	0.00000000	17.05832000	-7.94783400
60.49999658	0.00000000	15.11442000	-1.44562000
60.69999657	0.00000000	14.36393000	6.22539300
60.89999656	0.00000000	14.69611000	13.18898000
61.09999655	0.00000000	15.85261000	17.79650000
61.29999654	0.00000000	17.39050000	18.95300000
61.49999653	0.00000000	18.92839000	16.25861000
61.69999651	0.00000000	20.08489000	10.45152000
61.89999650	0.00000000	20.41708000	2.78051200
62.09999649	0.00000000	19.66658000	-4.92125900
62.29999648	0.00000000	17.76575000	-10.31619000
62.49999647	0.00000000	15.90182000	-12.63533000
62.69999645	0.00000000	14.69611000	-11.10359000
62.89999644	0.00000000	14.27165000	-6.13312000
63.09999643	0.00000000	14.32087000	0.46751960
63.29999642	0.00000000	15.11442000	7.80019600
63.49999641	0.00000000	17.01525000	14.30241000
63.69999639	0.00000000	18.92839000	17.79035000
63.89999638	0.00000000	20.46014000	17.83957000
64.09999637	0.00000000	21.24754000	14.72687000
64.29999636	0.00000000	20.83538000	9.00590400
64.49999635	0.00000000	19.71580000	2.46063000
64.69999634	0.00000000	17.76575000	-2.97736200
64.89999632	0.00000000	15.85261000	-6.92052100
65.09999631	0.00000000	14.32087000	-8.82750900
65.29999630	0.00000000	13.57652000	-8.45226300
65.49999629	0.00000000	14.32087000	-5.75787400
65.69999628	0.00000000	15.80955000	-1.53174200
65.89999626	0.00000000	17.39050000	3.11269700
66.09999625	0.00000000	18.87918000	7.38188900
66.29999624	0.00000000	19.62352000	10.49459000
66.49999623	0.00000000	18.87918000	12.07554000
66.69999622	0.00000000	17.39050000	12.11860000
66.89999620	0.00000000	15.85261000	11.00517000
67.09999619	0.00000000	14.69611000	9.42421200
67.29999618	0.00000000	14.32087000	7.38188900
67.49999617	0.00000000	14.73917000	4.26919300
67.69999616	0.00000000	16.27707000	0.46751960
67.89999615	0.00000000	18.59621000	-2.69439000
68.09999613	0.00000000	20.88459000	-5.06274600
68.29999612	0.00000000	22.78543000	-6.92052100
68.49999611	0.00000000	23.11762000	-6.87746000
68.69999610	0.00000000	21.57972000	-4.60137700
68.89999609	0.00000000	18.46087000	-1.07037400
69.09999607	0.00000000	14.27165000	3.62327700
69.29999606	0.00000000	10.45768000	8.96284400
69.49999605	0.00000000	8.50147600	13.18898000
69.69999604	0.00000000	8.50147600	15.18824000
69.89999603	0.00000000	10.45768000	15.18824000
70.09999601	0.00000000	14.36393000	13.14591000
70.29999600	0.00000000	19.34670000	8.50147600
70.49999599	0.00000000	24.36639000	2.04232300
70.69999598	0.00000000	27.81127000	-3.76476400
70.89999597	0.00000000	28.97392000	-7.67101300
71.09999596	0.00000000	27.39296000	-9.56569900
71.29999594	0.00000000	23.16068000	-8.36614100
71.49999593	0.00000000	17.39050000	-4.22613100
71.69999592	0.00000000	11.57726000	1.15649600
71.89999591	0.00000000	6.92052100	6.17618100
72.09999590	0.00000000	4.22613100	10.07628000
72.29999588	0.00000000	4.26919300	12.03248000
72.49999587	0.00000000	7.34498000	12.03248000
72.69999586	0.00000000	12.73991000	10.11934000
72.89999585	0.00000000	18.87918000	6.68676100
73.09999584	0.00000000	24.32333000	3.24803100
73.29999582	0.00000000	27.81127000	0.51058070
73.49999581	0.00000000	28.97392000	-1.02116100
73.69999580	0.00000000	27.43602000	-1.06422200
73.89999579	0.00000000	23.57899000	0.09227362
74.09999578	0.00000000	18.55315000	1.95004900
74.29999577	0.00000000	13.15822000	3.85088600
74.49999575	0.00000000	8.92593500	4.55831700
74.69999574	0.00000000	6.96973400	3.85088600
74.89999573	0.00000000	7.29576700	1.99311000
75.09999572	0.00000000	9.66412400	0.51058070
75.29999571	0.00000000	13.44119000	0.09227362
75.49999569	0.00000000	17.71038000	0.51058070
75.69999568	0.00000000	20.79232000	2.08538400
75.89999567	0.00000000	22.78543000	4.77977300
76.09999566	0.00000000	23.11762000	7.84940900
76.29999565	0.00000000	21.66585000	10.49459000
76.49999563	0.00000000	19.38976000	11.60802000
76.69999562	0.00000000	17.43356000	10.45152000
76.89999561	0.00000000	15.90182000	7.38188900
77.09999560	0.00000000	15.11442000	3.11269700
77.29999559	0.00000000	15.47736000	-1.53174200
77.49999558	0.00000000	16.18479000	-5.71481200
77.69999556	0.00000000	16.97219000	-7.99089500
77.89999555	0.00000000	17.29823000	-7.25270600
78.09999554	0.00000000	16.92298000	-4.18307100
78.29999553	0.00000000	15.80955000	0.46136810
78.49999552	0.00000000	14.69611000	5.89320800
78.69999550	0.00000000	14.32087000	10.86983000
78.89999549	0.00000000	14.69611000	14.34547000
79.09999548	0.00000000	15.85261000	15.09596000
79.29999547	0.00000000	17.43356000	13.23819000
79.49999546	0.00000000	19.34670000	9.33809000
79.69999544	0.00000000	21.24754000	4.31840500
79.89999543	0.00000000	21.99803000	-1.06422200
80.09999542	0.00000000	21.62278000	-5.24729300
80.29999541	0.00000000	20.04183000	-6.87130900
80.49999540	0.00000000	17.34744000	-6.17618100
80.69999539	0.00000000	14.27165000	-4.22613100
80.89999537	0.00000000	11.62032000	-1.11343500
81.09999536	0.00000000	10.45768000	2.69439000
81.29999535	0.00000000	11.20202000	5.85014700
81.49999534	0.00000000	13.11516000	8.21850300
81.69999533	0.00000000	15.85261000	10.11934000
81.89999531	0.00000000	18.92839000	10.49459000
82.09999530	0.00000000	21.57972000	9.42421200
82.29999529	0.00000000	22.74237000	7.89247000
82.49999528	0.00000000	22.04109000	6.26845500
82.69999527	0.00000000	20.50935000	4.26919300
82.89999525	0.00000000	18.55315000	1.58095500
83.09999524	0.00000000	16.22785000	-1.11343500
83.29999523	0.00000000	14.32087000	-3.06348400
83.49999522	0.00000000	13.15822000	-4.22613100
83.69999521	0.00000000	13.20128000	-4.18307100
83.89999520	0.00000000	14.60384000	-2.64517700
84.09999518	0.00000000	16.12943000	0.04306102
84.29999517	0.00000000	16.60310000	3.19881900
84.49999516	0.00000000	17.39050000	6.68676100
84.69999515	0.00000000	18.08563000	10.11934000
84.89999514	0.00000000	17.76575000	11.98327000
85.09999512	0.00000000	17.43356000	11.65723000
85.29999511	0.00000000	17.39050000	9.38115100
85.49999510	0.00000000	17.39050000	6.22539300
85.69999509	0.00000000	17.43356000	2.31914400
85.89999508	0.00000000	17.80881000	-2.27608300
86.09999506	0.00000000	18.50394000	-5.67175200
86.29999505	0.00000000	18.46087000	-6.87130900
86.49999504	0.00000000	17.34744000	-5.71481200
86.69999503	0.00000000	15.85261000	-2.64517700
86.89999502	0.00000000	14.64690000	1.62401600
87.09999501	0.00000000	13.89641000	6.21924200
87.29999499	0.00000000	13.48425000	10.07628000
87.49999498	0.00000000	13.94562000	11.98327000
87.69999497	0.00000000	15.06521000	11.61417000
87.89999496	0.00000000	16.97219000	8.91978400
88.09999495	0.00000000	18.50394000	4.73671200
88.29999493	0.00000000	19.34670000	0.46751960
88.49999492	0.00000000	20.08489000	-3.02042300
88.69999491	0.00000000	20.04183000	-5.29650500
88.89999490	0.00000000	18.92839000	-5.24729300
89.09999489	0.00000000	17.39050000	-2.55905500
89.29999487	0.00000000	15.85261000	1.99311000
89.49999486	0.00000000	14.69611000	6.96358300
89.69999485	0.00000000	14.32087000	10.45152000
89.89999484	0.00000000	14.64690000	12.03248000
90.09999483	0.00000000	15.43430000	11.61417000
90.29999482	0.00000000	16.18479000	8.91978400
90.49999480	0.00000000	17.01525000	4.69365100
90.69999479	0.00000000	17.76575000	0.09227362
90.89999478	0.00000000	18.50394000	-3.76476400
91.09999477	0.00000000	18.50394000	-5.62253900
91.29999476	0.00000000	17.80881000	-4.87204700
91.49999474	0.00000000	17.43356000	-1.43946800
91.69999473	0.00000000	17.39050000	3.11269700
91.89999472	0.00000000	17.39050000	7.38188900
92.09999471	0.00000000	17.39050000	10.45152000
92.29999470	0.00000000	17.39050000	11.60802000
92.49999468	0.00000000	17.39050000	10.45152000
92.69999467	0.00000000	17.34744000	7.38188900
92.89999466	0.00000000	16.92298000	3.11269700
93.09999465	0.00000000	15.76649000	-1.43946800
93.29999464	0.00000000	14.32087000	-4.87204700
93.49999463	0.00000000	13.53346000	-5.67175200
93.69999461	0.00000000	13.89641000	-4.13385800
93.89999460	0.00000000	14.64690000	-0.64591530
94.09999459	0.00000000	15.90182000	4.27534400
94.29999458	0.00000000	17.80881000	8.45226300
94.49999457	0.00000000	20.08489000	10.45152000
94.69999455	0.00000000	21.62278000	10.49459000
94.89999454	0.00000000	22.04109000	8.91978400
95.09999453	0.00000000	21.62278000	5.80093500
95.29999452	0.00000000	19.99877000	1.62401600
95.49999451	0.00000000	16.92298000	-2.18380900
95.69999449	0.00000000	13.11516000	-4.14000900
95.89999448	0.00000000	10.03937000	-4.14000900
96.09999447	0.00000000	8.50147600	-2.22687000
96.29999446	0.00000000	8.87672100	1.20570900
96.49999445	0.00000000	11.20202000	4.64443900
96.69999444	0.00000000	14.64690000	7.38188900
96.89999442	0.00000000	18.55315000	8.91978400
97.09999441	0.00000000	22.04109000	8.91978400
97.29999440	0.00000000	24.74163000	7.38188900
97.49999439	0.00000000	25.85507000	4.73671200
97.69999438	0.00000000	24.74163000	2.04232300
97.89999436	0.00000000	22.04109000	0.13533460
98.09999435	0.00000000	18.50394000	-0.69512790
98.29999434	0.00000000	14.27165000	-0.32603340
98.49999433	0.00000000	10.45768000	0.41830710
98.69999432	0.00000000	8.45841400	1.62401600
98.89999430	0.00000000	8.04010800	3.06348400
99.09999429	0.00000000	8.87672100	3.90009800
99.29999428	0.00000000	11.62032000	3.94931100
99.49999427	0.00000000	15.80955000	4.36146600
99.69999426	0.00000000	20.04183000	4.69365100
99.89999425	0.00000000	23.16068000	4.73671200
100.09999423	0.00000000	24.74163000	4.73671200
100.29999422	0.00000000	24.74163000	4.73671200
100.49999421	0.00000000	23.20374000	4.73671200
100.69999420	0.00000000	20.50935000	4.69365100
100.89999419	0.00000000	17.39050000	4.26919300
101.09999417	0.00000000	14.27165000	3.11269700
101.29999416	0.00000000	11.57726000	1.57480300
101.49999415	0.00000000	10.03937000	0.04306102
101.69999414	0.00000000	10.03937000	-1.06422200
101.89999413	0.00000000	11.53420000	-1.06422200
102.09999411	0.00000000	13.85334000	0.09227362
102.29999410	0.00000000	16.18479000	2.04232300
102.49999409	0.00000000	18.55315000	4.73671200
102.69999408	0.00000000	20.46014000	7.38188900
102.89999407	0.00000000	21.62278000	8.96284400
103.09999406	0.00000000	21.62278000	9.33809000
103.29999404	0.00000000	20.50935000	8.54453700
103.49999403	0.00000000	18.92839000	6.22539300
103.69999402	0.00000000	16.97219000	3.15575800
103.89999401	0.00000000	14.69611000	0.04306102
104.09999400	0.00000000	13.15822000	-2.60211600
104.29999398	0.00000000	12.69070000	-3.76476400
104.49999397	0.00000000	12.69070000	-2.97736200
104.69999396	0.00000000	13.11516000	-0.69512790
104.89999395	0.00000000	14.27165000	2.73745100
105.09999394	0.00000000	15.80955000	5.80093500
105.29999392	0.00000000	17.34744000	7.75713500
105.49999391	0.00000000	18.50394000	8.54453700
105.69999390	0.00000000	18.87918000	7.75713500
105.89999389	0.00000000	18.50394000	5.89320800
106.09999388	0.00000000	17.39050000	3.57406500
106.29999387	0.00000000	16.22785000	1.62401600
106.49999385	0.00000000	15.43430000	0.09227362
106.69999384	0.00000000	14.69611000	-0.65206690
106.89999383	0.00000000	14.73917000	0.09227362
107.09999382	0.00000000	15.80955000	1.57480300
107.29999381	0.00000000	16.97219000	3.15575800
107.49999379	0.00000000	17.72268000	4.68750000
107.69999378	0.00000000	18.13484000	5.80093500
107.89999377	0.00000000	17.76575000	5.80093500
108.09999376	0.00000000	17.39050000	4.68750000
108.29999375	0.00000000	16.92298000	3.15575800
108.49999374	0.00000000	15.80955000	1.62401600
108.69999372	0.00000000	14.69611000	0.46136810
108.89999371	0.00000000	14.27165000	0.09227362
109.09999370	0.00000000	14.27165000	0.46136810
109.29999369	0.00000000	14.69611000	1.62401600
109.49999368	0.00000000	15.85261000	3.15575800
109.69999366	0.00000000	17.34744000	4.68750000
109.89999365	0.00000000	18.50394000	5.85014700
110.09999364	0.00000000	18.87918000	6.21924200
110.29999363	0.00000000	18.55315000	5.85014700
110.49999362	0.00000000	17.76575000	4.68750000
110.69999360	0.00000000	16.97219000	3.15575800
110.89999359	0.00000000	15.80955000	1.62401600
111.09999358	0.00000000	14.69611000	0.46136810
111.29999357	0.00000000	14.27165000	0.04306102
111.49999356	0.00000000	14.27165000	0.04306102
111.69999355	0.00000000	14.64690000	0.46136810
111.89999353	0.00000000	15.43430000	1.57480300
112.09999352	0.00000000	16.18479000	2.73745100
112.29999351	0.00000000	16.97219000	3.53100400
112.49999350	0.00000000	17.34744000	4.31840500
112.69999349	0.00000000	17.39050000	4.69365100
112.89999347	0.00000000	17.34744000	4.69365100
113.09999346	0.00000000	16.97219000	4.31840500
113.29999345	0.00000000	16.22785000	3.57406500
113.49999344	0.00000000	15.85261000	3.19881900
113.69999343	0.00000000	15.80955000	3.11269700
113.89999341	0.00000000	15.80955000	2.78051200
114.09999340	0.00000000	15.80955000	2.36835600
114.29999339	0.00000000	15.80955000	2.36220500
114.49999338	0.00000000	15.85261000	1.95004900
114.69999337	0.00000000	16.18479000	1.61786400
114.89999336	0.00000000	16.59695000	1.57480300
115.09999334	0.00000000	16.60310000	1.57480300
115.29999333	0.00000000	17.01525000	1.61786400
115.49999332	0.00000000	17.29823000	1.99311000
115.69999331	0.00000000	16.97219000	2.73745100
115.89999330	0.00000000	16.22785000	3.15575800
116.09999328	0.00000000	15.85261000	3.57406500
116.29999327	0.00000000	15.76649000	4.31840500
116.49999326	0.00000000	15.43430000	4.69365100
116.69999325	0.00000000	15.06521000	4.69365100
116.89999324	0.00000000	15.43430000	4.26919300
117.09999322	0.00000000	15.80955000	3.15575800
117.29999321	0.00000000	16.22785000	1.99311000
117.49999320	0.00000000	17.01525000	1.19955700
117.69999319	0.00000000	17.76575000	0.46136810
117.89999318	0.00000000	18.50394000	0.46136810
118.09999317	0.00000000	18.50394000	1.15649600
118.29999315	0.00000000	17.76575000	1.57480300
118.49999314	0.00000000	16.97219000	1.99311000
118.69999313	0.00000000	15.80955000	2.78051200
118.89999312	0.00000000	14.69611000	3.53100400
119.09999311	0.00000000	14.22859000	4.31840500
119.29999309	0.00000000	13.85334000	4.69365100
119.49999308	0.00000000	13.53346000	4.69365100
119.69999307	0.00000000	14.32087000	4.31840500
119.89999306	0.00000000	15.76649000	3.57406500
120.09999305	0.00000000	16.97219000	3.15575800
120.29999303	0.00000000	17.76575000	2.78051200
120.49999302	0.00000000	18.55315000	2.36835600
120.69999301	0.00000000	18.92839000	2.36220500
120.89999300	0.00000000	18.92839000	1.95004900
121.09999299	0.00000000	18.50394000	1.61786400
121.29999298	0.00000000	17.34744000	1.61786400
121.49999296	0.00000000	15.85261000	1.99311000
121.69999295	0.00000000	14.64690000	2.73745100
121.89999294	0.00000000	13.89641000	3.11269700
122.09999293	0.00000000	13.48425000	3.15575800
122.29999292	0.00000000	13.85334000	3.15575800
122.49999290	0.00000000	14.22859000	3.19881900
122.69999289	0.00000000	14.69611000	3.53100400
122.89999288	0.00000000	15.80955000	3.90009800
123.09999287	0.00000000	16.97219000	3.53100400
123.29999286	0.00000000	17.76575000	3.19881900
123.49999284	0.00000000	18.55315000	3.15575800
123.69999283	0.00000000	18.87918000	3.11269700
123.89999282	0.00000000	18.55315000	2.73745100
124.09999281	0.00000000	17.76575000	1.99311000
124.29999280	0.00000000	17.01525000	1.61786400
124.49999279	0.00000000	16.18479000	1.57480300
124.69999277	0.00000000	15.43430000	1.61786400
124.89999276	0.00000000	14.64690000	1.99311000
125.09999275	0.00000000	14.27165000	2.73745100
125.29999274	0.00000000	14.22859000	3.11269700
125.49999273	0.00000000	14.27165000	3.15575800
125.69999271	0.00000000	14.69611000	3.19881900
125.89999270	0.00000000	15.80955000	3.57406500
126.09999269	0.00000000	16.97219000	4.26919300
126.29999268	0.00000000	17.76575000	4.26919300
126.49999267	0.00000000	18.55315000	3.57406500
126.69999265	0.00000000	18.87918000	3.19881900
126.89999264	0.00000000	18.50394000	3.11269700
127.09999263	0.00000000	17.34744000	2.73745100
127.29999262	0.00000000	15.85261000	1.99311000
127.49999261	0.00000000	14.64690000	1.61786400
127.69999260	0.00000000	13.89641000	1.61786400
127.89999258	0.00000000	13.48425000	1.99311000
128.09999257	0.00000000	13.89641000	2.73745100
128.29999256	0.00000000	14.64690000	3.11269700
128.49999255	0.00000000	15.80955000	3.15575800
128.69999254	0.00000000	16.97219000	3.15575800
128.89999252	0.00000000	17.76575000	3.15575800
129.09999251	0.00000000	18.50394000	3.15575800
129.29999250	0.00000000	18.50394000	3.15575800
129.49999249	0.00000000	17.72268000	3.11269700
129.69999248	0.00000000	16.59695000	2.73745100
129.89999246	0.00000000	15.06521000	1.99311000
130.09999245	0.00000000	14.32087000	1.61786400
130.29999244	0.00000000	14.22859000	1.61786400
130.49999243	0.00000000	14.22859000	1.99311000
130.69999242	0.00000000	14.27165000	2.73745100
130.89999241	0.00000000	14.69611000	3.11269700
131.09999239	0.00000000	15.80955000	3.15575800
131.29999238	0.00000000	16.92298000	3.15575800
131.49999237	0.00000000	17.34744000	3.11269700
131.69999236	0.00000000	17.34744000	2.73745100
131.89999235	0.00000000	16.97219000	1.99311000
132.09999233	0.00000000	16.22785000	1.61786400
132.29999232	0.00000000	15.85261000	1.57480300
132.49999231	0.00000000	15.80955000	1.57480300
132.69999230	0.00000000	15.80955000	1.61786400
132.89999229	0.00000000	15.80955000	2.04232300
133.09999227	0.00000000	15.80955000	3.15575800
133.29999226	0.00000000	15.85261000	4.26919300
133.49999225	0.00000000	16.18479000	4.69365100
133.69999224	0.00000000	16.55389000	4.69365100
133.89999223	0.00000000	16.18479000	4.31840500
134.09999222	0.00000000	15.85261000	3.53100400
134.29999220	0.00000000	15.80955000	2.78051200
134.49999219	0.00000000	15.80955000	1.99311000
134.69999218	0.00000000	15.85261000	1.57480300
134.89999217	0.00000000	16.22785000	1.19955700
135.09999216	0.00000000	16.97219000	0.83661410
135.29999214	0.00000000	17.34744000	1.19955700
135.49999213	0.00000000	17.34744000	1.57480300
135.69999212	0.00000000	16.97219000	1.99311000
135.89999211	0.00000000	16.18479000	2.78051200
136.09999210	0.00000000	15.43430000	3.53100400
136.29999208	0.00000000	14.64690000	4.26919300
136.49999207	0.00000000	14.27165000	4.26919300
136.69999206	0.00000000	14.27165000	3.57406500
136.89999205	0.00000000	14.64690000	3.15575800
137.09999204	0.00000000	15.43430000	2.73745100
137.29999203	0.00000000	16.18479000	1.99311000
137.49999201	0.00000000	16.97219000	1.61786400
137.69999200	0.00000000	17.34744000	1.57480300
137.89999199	0.00000000	17.39050000	1.57480300
138.09999198	0.00000000	17.34744000	1.57480300
138.29999197	0.00000000	16.97219000	1.57480300
138.49999195	0.00000000	16.18479000	1.61786400
138.69999194	0.00000000	15.43430000	1.99311000
138.89999193	0.00000000	14.64690000	2.73745100
139.09999192	0.00000000	14.32087000	3.15575800
139.29999191	0.00000000	14.60384000	3.57406500
139.49999189	0.00000000	15.01599000	4.31840500
139.69999188	0.00000000	15.06521000	4.69365100
139.89999187	0.00000000	15.85261000	4.69365100
140.09999186	0.00000000	16.92298000	4.31840500
140.29999185	-0.15871060	17.34744000	3.53100400
140.49999184	0.00000000	17.34744000	2.78051200
140.69999182	0.00000000	16.97219000	1.95004900
140.89999181	0.00000000	16.18479000	1.19955700
141.09999180	0.00000000	15.47736000	0.46136810
141.29999179	0.00000000	15.06521000	0.46136810
141.49999178	0.00000000	15.43430000	1.19955700
141.69999176	0.00000000	15.76649000	1.99311000
141.89999175	0.00000000	15.80955000	3.15575800
142.09999174	0.00000000	15.85261000	4.26919300
142.29999173	0.00000000	16.22785000	4.69365100
142.49999172	0.00000000	16.92298000	4.69365100
142.69999170	0.00000000	16.92298000	4.31840500
142.89999169	0.00000000	16.22785000	3.53100400
143.09999168	0.00000000	15.85261000	2.73745100
143.29999167	0.00000000	15.80955000	1.62401600
143.49999166	0.00000000	15.80955000	0.83661410
143.69999165	0.00000000	15.80955000	0.83046260
143.89999163	0.00000000	15.80955000	0.79355310
144.09999162	0.00000000	15.80955000	1.24877000
144.29999161	0.00000000	15.80955000	1.95004900
144.49999160	0.00000000	15.80955000	2.78051200
144.69999159	0.00000000	15.80955000	3.53100400
144.89999157	0.00000000	15.80955000	4.31840500
145.09999156	0.00000000	15.80955000	4.64443900
145.29999155	0.00000000	15.76649000	4.31840500
145.49999154	0.00000000	15.39124000	3.53100400
145.69999153	0.00000000	14.69611000	2.78051200
145.89999151	0.00000000	14.69611000	1.99311000
146.09999150	0.00000000	15.39124000	1.61786400
146.29999149	0.00000000	15.76649000	1.57480300
146.49999148	0.00000000	15.80955000	1.57480300
146.69999147	0.00000000	15.80955000	1.57480300
146.89999146	0.00000000	15.85261000	1.61786400
147.09999144	0.00000000	16.18479000	1.99311000
147.29999143	0.00000000	16.55389000	2.73745100
147.49999142	0.00000000	16.18479000	3.11269700
147.69999141	0.00000000	15.85261000	3.19881900
147.89999140	0.00000000	15.80955000	3.57406500
148.09999138	0.00000000	15.76649000	4.26919300
148.29999137	0.00000000	15.43430000	4.22613100
148.49999136	0.00000000	15.06521000	3.15575800
148.69999135	0.00000000	15.43430000	2.04232300
148.89999134	0.00000000	15.76649000	1.61786400
149.09999132	0.00000000	15.85261000	1.57480300
149.29999131	0.00000000	16.18479000	1.57480300
149.49999130	0.00000000	16.59695000	1.61786400
149.69999129	0.00000000	16.56004000	1.99311000
149.89999128	0.00000000	16.59695000	2.73745100
150.09999127	0.00000000	16.18479000	3.11269700
150.29999125	0.00000000	15.85261000	3.15575800
150.49999124	0.00000000	15.80955000	3.15575800
150.69999123	0.00000000	15.76649000	3.15575800
150.89999122	0.00000000	15.39124000	3.15575800
151.09999121	0.00000000	14.64690000	3.15575800
151.29999119	0.00000000	14.27165000	3.11269700
151.49999118	0.00000000	14.27165000	2.73745100
151.69999117	0.00000000	14.64690000	1.99311000
151.89999116	0.00000000	15.39124000	1.66707700
152.09999115	0.00000000	15.76649000	1.95004900
152.29999113	0.00000000	15.80955000	2.36220500
152.49999112	0.00000000	15.85261000	2.36835600
152.69999111	0.00000000	16.18479000	2.78051200
152.89999110	0.00000000	16.55389000	3.11269700
153.09999109	0.00000000	16.18479000	3.15575800
153.29999108	0.00000000	15.85261000	3.15575800
153.49999106	0.00000000	15.76649000	3.15575800
153.69999105	0.00000000	15.39124000	3.15575800
153.89999104	0.00000000	14.64690000	3.15575800
154.09999103	0.00000000	14.27165000	3.15575800
154.29999102	0.00000000	14.27165000	3.15575800
154.49999100	0.00000000	14.64690000	3.15575800
154.69999099	0.00000000	15.39124000	3.11269700
154.89999098	0.00000000	15.76649000	2.73745100
155.09999097	0.00000000	15.80955000	1.99311000
155.29999096	0.00000000	15.85261000	1.61786400
155.49999094	0.00000000	16.22785000	1.57480300
155.69999093	0.00000000	16.92298000	1.61786400
155.89999092	0.00000000	16.92298000	1.99311000
156.09999091	0.00000000	16.22785000	2.73745100
156.29999090	0.00000000	15.85261000	3.11269700
156.49999089	0.00000000	15.76649000	3.15575800
156.69999087	0.00000000	15.39124000	3.15575800
156.89999086	0.00000000	14.64690000	3.15575800
157.09999085	0.00000000	14.27165000	3.15575800
157.29999084	0.00000000	14.27165000	3.15575800
157.49999083	0.00000000	14.64690000	3.15575800
157.69999081	0.00000000	15.39124000	3.11269700
157.89999080	0.00000000	15.76649000	2.73745100
158.09999079	0.00000000	15.80955000	1.99311000
158.29999078	0.00000000	15.80955000	1.61786400
158.49999077	0.00000000	15.80955000	1.57480300
158.69999075	0.00000000	15.80955000	1.61786400
158.89999074	0.00000000	15.80955000	1.99311000
159.09999073	0.00000000	15.80955000	2.73745100
159.29999072	0.00000000	15.76649000	3.11269700
159.49999071	0.00000000	15.43430000	3.15575800
159.69999070	0.00000000	15.02214000	3.15575800
159.89999068	0.00000000	15.05905000	3.15575800
160.09999067	0.00000000	14.97908000	3.15575800
160.29999066	0.00000000	15.05905000	3.15575800
160.49999065	0.00000000	15.02214000	3.11269700
160.69999064	0.00000000	15.43430000	2.73745100
160.89999062	0.00000000	15.76649000	1.99311000
161.09999061	0.00000000	15.80955000	1.61786400
161.29999060	0.00000000	15.80955000	1.57480300
161.49999059	0.00000000	15.80955000	1.57480300
161.69999058	0.00000000	15.80955000	1.61786400
161.89999056	0.00000000	15.80955000	1.99311000
162.09999055	0.00000000	15.80955000	2.73745100
162.29999054	0.00000000	15.80955000	3.11269700
162.49999053	0.00000000	15.80955000	3.15575800
162.69999052	0.00000000	15.80955000	3.15575800
162.89999051	0.00000000	15.80955000	3.15575800
163.09999049	0.00000000	15.76649000	3.15575800
163.29999048	0.00000000	15.39124000	3.15575800
163.49999047	0.00000000	14.64690000	3.15575800
163.69999046	0.00000000	14.27165000	3.15575800
163.89999045	0.00000000	14.27165000	3.15575800
164.09999043	0.00000000	14.64690000	3.11269700
164.29999042	0.00000000	15.39124000	2.73745100
164.49999041	0.00000000	15.76649000	1.99311000
164.69999040	0.00000000	15.80955000	1.61786400
164.89999039	0.00000000	15.80955000	1.57480300
165.09999037	0.00000000	15.80955000	1.61786400
165.29999036	0.00000000	15.80955000	1.99311000
165.49999035	0.00000000	15.80955000	2.73745100
165.69999034	0.00000000	15.76649000	3.11269700
165.89999033	0.00000000	15.39124000	3.15575800
166.09999032	0.00000000	14.64690000	3.15575800
166.29999030	0.00000000	14.27165000	3.15575800
166.49999029	0.00000000	14.22859000	3.15575800
166.69999028	0.00000000	14.22859000	3.11269700
166.89999027	0.00000000	14.27165000	2.78051200
167.09999026	0.00000000	14.64690000	2.36835600
167.29999024	0.00000000	15.39124000	2.36220500
167.49999023	0.00000000	15.76649000	1.95004900
167.69999022	0.00000000	15.80955000	1.66707700
167.89999021	0.00000000	15.80955000	1.95004900
168.09999020	0.00000000	15.80955000	2.36220500
168.29999018	0.00000000	15.76649000	2.36835600
168.49999017	0.00000000	15.43430000	2.78051200
168.69999016	0.00000000	15.06521000	3.11269700
168.89999015	0.00000000	15.43430000	3.15575800
169.09999014	0.00000000	15.76649000	3.15575800
169.29999013	0.00000000	15.76649000	3.15575800
169.49999011	0.00000000	15.39124000	3.15575800
169.69999010	0.00000000	14.64690000	3.15575800
169.89999009	0.00000000	14.32087000	3.15575800
170.09999008	0.00000000	14.64690000	3.15575800
170.29999007	0.00000000	15.39124000	3.15575800
170.49999005	0.00000000	15.76649000	3.11269700
170.69999004	0.00000000	15.80955000	2.78051200
170.89999003	0.00000000	15.80955000	2.41141700
171.09999002	0.00000000	15.76649000	2.78051200
171.29999001	0.00000000	15.43430000	3.11269700
171.49998999	0.00000000	15.06521000	3.11269700
171.69998998	0.00000000	15.43430000	2.73745100
171.89998997	0.00000000	15.76649000	1.99311000
172.09998996	0.00000000	15.80955000	1.61786400
172.29998995	0.00000000	15.76649000	1.61786400
172.49998994	0.00000000	15.43430000	1.99311000
172.69998992	0.00000000	15.06521000	2.73745100
172.89998991	0.00000000	15.43430000	3.11269700
173.09998990	0.00000000	15.76649000	3.15575800
173.29998989	0.00000000	15.80955000	3.15575800
173.49998988	0.00000000	15.80955000	3.15575800
173.69998986	0.00000000	15.80955000	3.15575800
173.89998985	0.00000000	15.80955000	3.15575800
174.09998984	0.00000000	15.76649000	3.15575800
174.29998983	0.00000000	15.43430000	3.15575800
174.49998982	0.00000000	15.06521000	3.15575800
174.69998980	0.00000000	15.43430000	3.11269700
174.89998979	0.00000000	15.71727000	2.73745100
175.09998978	0.00000000	15.43430000	2.04232300
175.29998977	0.00000000	15.06521000	2.04232300
175.49998976	0.00000000	15.43430000	2.73745100
175.69998975	0.00000000	15.76649000	3.11269700
175.89998973	0.00000000	15.80955000	3.15575800
176.09998972	0.00000000	15.80955000	3.15575800
176.29998971	0.00000000	15.80955000	3.15575800
176.49998970	0.00000000	15.80955000	3.15575800
176.69998969	0.00000000	15.80955000	3.11269700
176.89998967	0.00000000	15.80955000	2.78051200
177.09998966	0.00000000	15.80955000	2.36835600
177.29998965	0.00000000	15.80955000	2.36220500
177.49998964	0.00000000	15.80955000	1.95004900
177.69998963	0.00000000	15.80955000	1.61786400
177.89998961	0.00000000	15.76649000	1.57480300
178.09998960	0.00000000	15.43430000	1.57480300
178.29998959	0.00000000	15.06521000	1.61786400
178.49998958	0.00000000	15.43430000	1.99311000
178.69998957	0.00000000	15.76649000	2.73745100
178.89998956	0.00000000	15.80955000	3.11269700
179.09998954	0.00000000	15.80955000	3.15575800
179.29998953	0.00000000	15.80955000	3.15575800
179.49998952	0.00000000	15.76649000	3.11269700
179.69998951	0.00000000	15.43430000	2.73745100
179.89998950	0.00000000	15.11442000	2.04232300
180.09998948	0.00000000	15.76649000	1.99311000
180.29998947	0.00000000	16.08637000	2.31914400
180.49998946	0.00000000	15.06521000	1.95004900
180.69998945	0.00000000	14.69611000	1.61786400
180.89998944	0.00000000	14.97293000	1.57480300
181.09998942	0.00000000	14.64690000	1.61786400
181.29998941	0.00000000	14.69611000	1.99311000
181.49998940	0.00000000	15.34203000	2.73745100
181.69998939	0.00000000	15.39124000	3.11269700
181.89998938	0.00000000	15.06521000	3.15575800
182.09998937	0.00000000	15.43430000	3.15575800
182.29998935	0.00000000	15.76649000	3.11269700
182.49998934	0.00000000	15.80955000	2.78051200
182.69998933	0.00000000	15.76649000	2.36835600
182.89998932	0.00000000	15.43430000	2.36220500
183.09998931	0.00000000	15.06521000	1.95004900
183.29998929	0.00000000	15.43430000	1.61786400
183.49998928	0.00000000	15.71727000	1.57480300
183.69998927	0.00000000	15.39124000	1.57480300
183.89998926	0.00000000	14.64690000	1.61786400
184.09998925	0.00000000	14.27165000	1.99311000
184.29998923	0.00000000	14.22859000	2.73745100
184.49998922	0.00000000	14.22859000	3.11269700
184.69998921	0.00000000	14.22859000	3.15575800
184.89998920	0.00000000	14.27165000	3.15575800
185.09998919	0.00000000	14.64690000	3.15575800
185.29998918	0.00000000	15.39124000	3.11269700
185.49998916	0.00000000	15.76649000	2.73745100
185.69998915	0.00000000	15.80955000	1.99311000
185.89998914	0.00000000	15.80955000	1.61786400
186.09998913	0.00000000	15.80955000	1.57480300
186.29998912	0.00000000	15.76649000	1.57480300
186.49998910	0.00000000	15.43430000	1.57480300
186.69998909	0.00000000	15.02214000	1.57480300
186.89998908	0.00000000	15.01599000	1.61786400
187.09998907	0.00000000	14.60384000	1.99311000
187.29998906	0.00000000	14.27165000	2.73745100
187.49998904	0.00000000	14.22859000	3.11269700
187.69998903	0.00000000	14.22859000	3.15575800
187.89998902	0.00000000	14.27165000	3.15575800
188.09998901	0.00000000	14.64690000	3.15575800
188.29998900	0.00000000	15.39124000	3.11269700
188.49998899	0.00000000	15.76649000	2.73745100
188.69998897	0.00000000	15.80955000	1.99311000
188.89998896	0.00000000	15.80955000	1.61786400
189.09998895	0.00000000	15.80955000	1.57480300
189.29998894	0.00000000	15.76649000	1.57480300
189.49998893	0.00000000	15.39124000	1.57480300
189.69998891	0.00000000	14.64690000	1.61786400
189.89998890	0.00000000	14.32087000	1.99311000
190.09998889	0.00000000	14.60384000	2.73745100
190.29998888	0.00000000	14.97293000	3.11269700
190.49998887	0.00000000	14.60384000	3.15575800
190.69998885	0.00000000	14.32087000	3.15575800
190.89998884	0.00000000	14.64690000	3.15575800
191.09998883	0.00000000	15.39124000	3.15575800
191.29998882	0.00000000	15.76649000	3.11269700
191.49998881	0.00000000	15.80955000	2.73745100
191.69998880	0.00000000	15.80955000	1.99311000
191.89998878	0.00000000	15.80955000	1.61786400
192.09998877	0.00000000	15.76649000	1.57480300
192.29998876	0.00000000	15.39124000	1.57480300
192.49998875	0.00000000	14.64690000	1.57480300
192.69998874	0.00000000	14.27165000	1.57480300
192.89998872	0.00000000	14.22859000	1.57480300
193.09998871	0.00000000	14.22859000	1.61786400
193.29998870	0.00000000	14.22859000	1.99311000
193.49998869	0.00000000	14.22859000	2.73745100
193.69998868	0.00000000	14.22859000	3.11269700
193.89998866	0.00000000	14.27165000	3.15575800
194.09998865	0.00000000	14.64690000	3.15575800
194.29998864	0.00000000	15.39124000	3.15575800
194.49998863	0.00000000	15.76649000	3.15575800
194.69998862	0.00000000	15.80955000	3.11269700
194.89998861	0.00000000	15.76649000	2.73745100
195.09998859	0.00000000	15.39124000	1.99311000
195.29998858	0.00000000	14.64690000	1.61786400
195.49998857	0.00000000	14.27165000	1.57480300
195.69998856	0.00000000	14.22859000	1.57480300
195.89998855	0.00000000	14.22859000	1.57480300
196.09998853	0.00000000	14.22859000	1.57480300
