Time	Channel A	Channel B	Channel C
(us)	(V)	(mV)	(mV)

-4.49999956	0.00000000	28.45718000	7.89247000
-4.29999957	0.00000000	28.45718000	7.89247000
-4.09999958	0.00000000	28.45718000	7.89247000
-3.89999959	0.00000000	28.41412000	7.89247000
-3.69999960	0.00000000	28.08194000	7.89247000
-3.49999962	0.00000000	27.66978000	7.89247000
-3.29999963	0.00000000	27.66363000	7.89247000
-3.09999964	0.00000000	27.29453000	7.89247000
-2.89999965	0.00000000	27.29453000	7.89247000
-2.69999966	0.00000000	27.66363000	7.89247000
-2.49999968	0.00000000	27.66978000	7.89247000
-2.29999969	0.00000000	28.03888000	7.89247000
-2.09999970	0.00000000	28.03888000	7.89247000
-1.89999971	0.00000000	27.71284000	7.89247000
-1.69999972	0.00000000	28.08194000	7.89247000
-1.49999973	0.00000000	28.41412000	7.89247000
-1.29999975	0.00000000	28.45718000	7.89247000
-1.09999976	0.00000000	28.45718000	7.89247000
-0.89999977	0.00000000	28.45718000	7.89247000
-0.69999978	0.00000000	28.45718000	7.89247000
-0.49999979	0.00000000	28.41412000	7.89247000
-0.29999981	0.31803640	28.08194000	7.89247000
-0.09999982	0.63668800	27.71284000	7.89247000
0.10000017	0.95533960	28.03888000	7.89247000
0.30000016	0.95533960	27.98966000	7.89247000
0.50000015	0.79601380	27.29453000	7.89247000
0.70000013	0.31803640	26.91929000	7.89247000
0.90000012	-0.47736220	26.87623000	7.89247000
1.10000011	-1.43331700	26.91929000	7.89247000
1.30000010	-2.38927200	27.25147000	7.89247000
1.50000009	-2.86724900	27.66363000	7.89247000
1.70000008	-2.54859700	27.66978000	7.93553100
1.90000006	-1.27399100	28.08194000	8.26771600
2.10000005	0.47736220	28.41412000	8.63681000
2.30000004	2.70792300	28.41412000	8.26771600
2.50000003	4.45989200	28.03888000	7.93553100
2.70000002	5.41584600	27.29453000	7.84940900
2.90000000	4.93786900	26.96850000	7.51722400
3.09999999	3.02657500	27.29453000	7.14812900
3.29999998	0.00000000	28.03888000	7.51722400
3.49999997	-3.50393700	28.36491000	7.84940900
3.69999996	-6.37180100	28.08194000	7.93553100
3.89999994	-7.96444400	27.71284000	8.31077700
4.09999993	-7.48646600	28.08194000	9.05511800
4.29999992	-5.09719500	28.41412000	9.38115100
4.49999991	-1.11466500	28.41412000	9.05511800
4.69999990	3.34522600	28.03888000	8.31077700
4.89999989	7.16781500	27.29453000	7.89247000
5.09999987	9.23905000	26.91929000	7.47416300
5.29999986	9.07972400	26.87623000	6.72982200
5.49999985	6.53112700	26.87623000	6.35457700
5.69999984	2.38927200	26.87623000	6.35457700
5.89999983	-2.38927200	26.87623000	6.72982200
6.09999981	-6.53112700	26.87623000	7.47416300
6.29999980	-9.07972400	26.91929000	7.84940900
6.49999979	-9.23905000	27.29453000	7.89247000
6.69999978	-7.16781500	28.03888000	7.89247000
6.89999977	-3.50393700	28.41412000	7.89247000
7.09999975	0.79601380	28.41412000	7.89247000
7.29999974	4.77854300	28.03888000	7.89247000
7.49999973	7.16781500	27.29453000	7.84940900
7.69999972	7.64579200	26.91929000	7.51722400
7.89999971	6.21247500	26.87623000	7.14812900
8.09999970	3.50393700	26.87623000	7.51722400
8.29999968	0.15871060	26.87623000	7.80019600
8.49999967	-2.86724900	26.91929000	7.51722400
8.69999966	-4.77854300	27.25147000	7.14812900
8.89999965	-5.25652100	27.66363000	7.51722400
9.09999964	-4.45989200	27.62672000	7.84940900
9.29999962	-2.70792300	27.70669000	7.89247000
9.49999961	-0.63668800	27.62672000	7.89247000
9.69999960	1.11466500	27.66363000	7.89247000
9.89999959	2.22994600	27.25147000	7.89247000
10.09999958	2.54859700	26.91929000	7.89247000
10.29999956	2.22994600	26.87623000	7.89247000
10.49999955	1.43331700	26.87623000	7.89247000
10.69999954	0.63668800	26.91929000	7.89247000
10.89999953	-0.15871060	27.25147000	7.89247000
11.09999952	-0.79601380	27.62057000	7.89247000
11.29999951	-0.95533960	27.25147000	7.89247000
11.49999949	-0.95533960	26.91929000	7.89247000
11.69999948	-0.79601380	26.87623000	7.89247000
11.89999947	-0.47736220	26.87623000	7.89247000
12.09999946	-0.15871060	26.87623000	7.89247000
12.29999945	-0.15871060	26.87623000	7.89247000
12.49999943	-0.15871060	26.87623000	7.89247000
12.69999942	0.00000000	26.87623000	7.89247000
12.89999941	0.00000000	26.87623000	7.89247000
13.09999940	0.00000000	26.87623000	7.89247000
13.29999939	0.00000000	26.87623000	7.89247000
13.49999937	0.00000000	26.91929000	7.89247000
13.69999936	0.00000000	27.25147000	7.89247000
13.89999935	0.00000000	27.62057000	7.89247000
14.09999934	-0.15871060	27.25147000	7.89247000
14.29999933	-0.15871060	26.91929000	7.89247000
14.49999932	-0.15871060	26.87623000	7.89247000
14.69999930	0.00000000	26.87623000	7.89247000
14.89999929	0.00000000	26.87623000	7.89247000
15.09999928	0.00000000	26.87623000	7.89247000
15.29999927	0.00000000	26.87623000	7.89247000
15.49999926	0.00000000	26.87623000	7.89247000
15.69999924	0.00000000	26.87623000	7.89247000
15.89999923	0.00000000	26.87623000	7.89247000
16.09999922	0.00000000	26.87623000	7.89247000
16.29999921	-0.15871060	26.87623000	7.89247000
16.49999920	-0.15871060	26.87623000	7.89247000
16.69999919	-0.15871060	26.91929000	7.89247000
16.89999917	-0.15871060	27.29453000	7.89247000
17.09999916	0.00000000	28.08194000	7.89247000
17.29999915	0.00000000	28.78937000	7.89247000
17.49999914	0.00000000	29.20152000	7.89247000
17.69999913	0.00000000	28.83243000	7.89247000
17.89999911	0.00000000	28.41412000	7.89247000
18.09999910	0.00000000	27.62057000	7.89247000
18.29999909	0.00000000	26.04577000	7.89247000
18.49999908	0.00000000	24.54478000	7.89247000
18.69999907	0.00000000	22.96998000	7.89247000
18.89999905	-0.15871060	22.22564000	7.89247000
19.09999904	0.00000000	22.22564000	7.89247000
19.29999903	0.00000000	23.10531000	7.89247000
19.49999902	0.00000000	25.84892000	7.89247000
19.69999901	0.00000000	29.99508000	7.89247000
19.89999900	0.00000000	33.90133000	7.89247000
20.09999898	0.00000000	36.65108000	7.89247000
20.29999897	0.00000000	38.50886000	7.89247000
20.49999896	0.00000000	38.04749000	7.89247000
20.69999895	0.00000000	34.51648000	7.89247000
20.89999894	0.00000000	28.69094000	7.89247000
21.09999892	0.00000000	20.92766000	7.89247000
21.29999891	0.00000000	13.29355000	7.89247000
21.49999890	0.00000000	7.89862200	7.89247000
21.69999889	0.00000000	6.40378900	7.89247000
21.89999888	0.00000000	9.56569900	7.89247000
22.09999886	0.00000000	17.38435000	7.89247000
22.29999885	0.00000000	28.96776000	7.84940900
22.49999884	0.00000000	41.71383000	7.51722400
22.69999883	0.00000000	52.46678000	7.14812900
22.89999882	0.00000000	58.60605000	7.51722400
23.09999881	0.00000000	57.72638000	7.89247000
23.29999879	0.00000000	49.58169000	8.31077700
23.49999878	0.00000000	35.21161000	9.05511800
23.69999877	0.00000000	17.48277000	9.43036400
23.89999876	0.00000000	0.50442900	9.47342500
24.09999875	0.00000000	-11.41117000	9.43036400
24.29999873	0.00000000	-15.22515000	9.00590400
24.49999872	0.00000000	-9.31963500	7.84940900
24.69999871	0.00000000	5.75787400	6.31151500
24.89999870	0.00000000	27.01156000	4.73671200
25.09999869	0.00000000	49.35408000	3.19881900
25.29999867	0.00000000	67.54428000	2.08538400
25.49999866	0.00000000	77.13459000	2.12844500
25.69999865	0.00000000	75.91657000	3.66633800
25.89999864	0.00000000	63.12745000	6.40378900
26.09999863	0.00000000	41.53543000	9.89173200
26.29999862	0.00000000	16.41240000	13.79183000
26.49999860	0.00000000	-6.76058000	17.18750000
26.69999859	0.00000000	-22.52707000	19.13140000
26.89999858	0.00000000	-26.80856000	18.67618000
27.09999857	0.00000000	-18.71924000	15.88336000
27.29999856	0.00000000	-0.56594490	10.03322000
27.49999854	0.00000000	23.76353000	1.99311000
27.69999853	-0.15871060	48.46825000	-5.67175200
27.89999852	0.00000000	67.82726000	-11.10359000
28.09999851	0.00000000	77.87278000	-12.96752000
28.29999850	0.00000000	76.29182000	-10.64222000
28.49999848	0.00000000	63.30585000	-3.95546200
28.69999847	0.00000000	42.83957000	6.08390700
28.89999846	0.00000000	20.40477000	18.06717000
29.09999845	0.00000000	-0.14763780	28.80167000
29.29999844	0.00000000	-13.97638000	35.77140000
29.49999843	0.00000000	-17.96875000	37.21087000
29.69999841	0.00000000	-11.87254000	32.14813000
29.89999840	0.00000000	1.61786400	20.90305000
30.09999839	0.00000000	19.43897000	5.85014700
30.29999838	0.00000000	37.99828000	-9.94709500
30.49999837	0.00000000	53.07578000	-22.67470000
30.69999835	0.00000000	61.67569000	-29.18307000
30.89999834	0.00000000	62.46924000	-28.01427000
31.09999833	0.00000000	55.95472000	-18.73154000
31.29999832	0.00000000	43.58390000	-3.67249000
31.49999831	0.00000000	28.54946000	14.11786000
31.69999829	0.00000000	14.22244000	31.07775000
31.89999828	0.00000000	3.75246000	43.06717000
32.09999827	0.00000000	-0.94119090	47.71161000
32.29999826	0.00000000	0.54749010	44.22367000
32.49999825	0.00000000	7.48031400	32.98474000
32.69999824	0.00000000	17.90108000	16.43701000
32.89999822	0.00000000	29.48450000	-1.76550200
33.09999821	0.00000000	39.53617000	-17.61196000
33.29999820	0.00000000	45.77386000	-28.43258000
33.49999819	0.00000000	47.35482000	-31.50221000
33.69999818	0.00000000	44.27903000	-26.16265000
33.89999816	0.00000000	37.34621000	-14.17323000
34.09999815	0.00000000	28.50640000	2.04232300
34.29999814	0.00000000	20.03568000	19.04527000
34.49999813	0.00000000	14.22244000	32.94168000
34.69999812	0.00000000	12.22318000	41.11097000
34.89999810	0.00000000	13.75492000	41.86147000
35.09999809	0.00000000	18.36245000	35.34695000
35.29999808	0.00000000	24.87697000	22.99459000
35.49999807	0.00000000	31.02239000	7.98474400
35.69999806	0.00000000	35.30389000	-6.32381900
35.89999805	0.00000000	36.84178000	-16.73228000
36.09999803	0.00000000	35.34695000	-21.00148000
36.29999802	0.00000000	31.48376000	-18.31324000
36.49999801	0.00000000	26.50098000	-9.52263600
36.69999800	0.00000000	21.52436000	2.78051200
36.89999799	0.00000000	18.45472000	15.05290000
37.09999797	0.00000000	17.98720000	24.34178000
37.29999796	0.00000000	19.56816000	28.20497000
37.49999795	0.00000000	23.06225000	26.34104000
37.69999794	0.00000000	28.03888000	19.42052000
37.89999793	0.00000000	32.60334000	9.47342500
38.09999791	0.00000000	35.39001000	-0.46751960
38.29999790	0.00000000	36.14050000	-7.38804100
38.49999789	0.00000000	34.97170000	-9.30118100
38.69999788	0.00000000	31.53297000	-5.85629900
38.89999787	0.00000000	27.29453000	2.12844500
39.09999786	0.00000000	23.38214000	11.65723000
39.29999784	0.00000000	19.90034000	19.37131000
39.49999783	0.00000000	17.98720000	23.60359000
39.69999782	0.00000000	17.94414000	23.18528000
39.89999781	0.00000000	19.48204000	17.79650000
40.09999780	0.00000000	22.17643000	8.96284400
40.29999778	0.00000000	25.33834000	-0.97810030
40.49999777	0.00000000	28.83243000	-9.01205700
40.69999776	0.00000000	32.27116000	-12.41388000
40.89999775	0.00000000	34.23351000	-10.13164000
41.09999774	0.00000000	34.69488000	-2.46678100
41.29999772	0.00000000	34.27657000	7.80634800
41.49999771	0.00000000	32.68946000	17.46432000
41.69999770	0.00000000	29.99508000	24.06496000
41.89999769	0.00000000	26.87623000	26.75935000
42.09999768	0.00000000	23.75738000	24.80315000
42.29999767	0.00000000	21.06299000	18.30093000
42.49999765	0.00000000	19.52510000	9.47342500
42.69999764	0.00000000	19.48204000	0.64591530
42.89999763	0.00000000	20.64468000	-5.90551100
43.09999762	0.00000000	22.60088000	-8.27386800
43.29999761	0.00000000	25.29527000	-6.82824800
43.49999759	0.00000000	27.94660000	-2.55905500
43.69999758	0.00000000	29.52756000	3.62327700
43.89999757	0.00000000	30.03814000	10.49459000
44.09999756	0.00000000	30.41338000	15.88336000
44.29999755	0.00000000	30.78248000	18.30093000
44.49999753	0.00000000	30.41338000	18.30093000
44.69999752	0.00000000	30.08120000	15.97564000
44.89999751	0.00000000	29.99508000	11.42347000
45.09999750	0.00000000	29.57062000	6.82209600
45.29999749	0.00000000	28.41412000	3.29109200
45.49999748	0.00000000	26.83317000	0.97194880
45.69999746	0.00000000	24.82775000	0.55364170
45.89999745	0.00000000	22.09030000	1.66707700
46.09999744	0.00000000	19.06373000	3.61712600
46.29999743	0.00000000	16.78149000	6.31151500
46.49999742	0.00000000	16.45546000	9.00590400
46.69999740	0.00000000	18.41166000	10.96211000
46.89999739	0.00000000	22.68701000	12.16166000
47.09999738	0.00000000	28.50640000	12.49385000
47.29999737	0.00000000	34.69488000	11.70029000
47.49999736	0.00000000	40.08981000	9.42421200
47.69999734	0.00000000	43.07332000	6.77903500
47.89999733	0.00000000	42.27977000	4.77977300
48.09999732	0.00000000	37.26009000	3.19881900
48.29999731	0.00000000	29.57677000	2.08538400
48.49999730	0.00000000	21.01993000	2.12844500
48.69999729	0.00000000	13.29355000	3.66633800
48.89999727	0.00000000	7.94168200	6.36072800
49.09999726	0.00000000	6.82824800	9.42421200
49.29999725	0.00000000	10.68528000	12.16781000
49.49999724	0.00000000	18.41166000	14.07480000
49.69999723	0.00000000	28.41412000	14.76993000
49.89999721	0.00000000	38.04749000	13.23819000
50.09999720	0.00000000	44.61122000	9.79945900
50.29999719	0.00000000	46.93036000	5.93626900
50.49999718	0.00000000	44.19291000	2.08538400
50.69999717	0.00000000	36.88484000	-0.60285430
50.89999715	-0.15871060	26.92544000	-1.39640700
51.09999714	0.00000000	17.29208000	-0.60285430
51.29999713	0.00000000	10.72835000	2.12844500
51.49999712	0.00000000	8.40920300	6.31151500
51.69999711	0.00000000	11.06053000	10.53765000
51.89999710	0.00000000	17.61811000	13.65650000
52.09999708	0.00000000	26.04577000	15.23130000
52.29999707	0.00000000	34.51033000	15.18824000
52.49999706	0.00000000	39.86835000	13.23819000
52.69999705	0.00000000	41.11712000	9.43036400
52.89999704	0.00000000	38.41658000	5.24729300
53.09999702	0.00000000	32.64640000	2.12844500
53.29999701	0.00000000	25.33834000	0.55364170
53.49999700	0.00000000	18.45472000	0.55364170
53.69999699	0.00000000	14.22244000	2.08538400
53.89999698	0.00000000	13.80413000	4.77977300
54.09999696	0.00000000	16.87377000	7.80019600
54.29999695	0.00000000	22.64394000	10.11934000
54.49999694	0.00000000	29.52756000	10.91289000
54.69999693	0.00000000	35.25467000	10.53765000
54.89999692	0.00000000	37.95522000	9.00590400
55.09999691	0.00000000	36.88484000	6.77903500
55.29999689	0.00000000	33.02165000	5.24729300
55.49999688	0.00000000	27.66363000	4.82898600
55.69999687	0.00000000	21.85654000	5.24729300
55.89999686	0.00000000	17.66117000	6.77903500
56.09999685	0.00000000	15.71112000	9.05511800
56.29999683	0.00000000	16.87377000	10.91289000
56.49999682	0.00000000	20.68774000	11.65723000
56.69999681	0.00000000	25.67052000	10.49459000
56.89999680	0.00000000	30.69020000	7.84940900
57.09999679	0.00000000	34.14124000	4.73671200
57.29999677	0.00000000	35.34695000	1.66707700
57.49999676	0.00000000	34.18430000	-0.60285430
57.69999675	0.00000000	31.10851000	-0.88582670
57.89999674	0.00000000	26.87623000	1.43946800
58.09999673	0.00000000	22.68701000	6.40378900
58.29999672	0.00000000	19.99262000	12.11860000
58.49999670	0.00000000	19.52510000	16.76919000
58.69999669	0.00000000	20.64468000	19.46358000
58.89999668	0.00000000	22.64394000	19.42052000
59.09999667	0.00000000	25.71358000	16.30167000
59.29999666	0.00000000	29.10925000	10.53765000
59.49999664	0.00000000	31.02239000	3.62327700
59.69999663	0.00000000	31.10851000	-2.51599400
59.89999662	0.00000000	29.94586000	-6.36687900
60.09999661	0.00000000	28.03888000	-6.74212600
60.29999660	0.00000000	25.76279000	-3.67249000
60.49999658	0.00000000	24.18184000	2.12844500
60.69999657	0.00000000	23.38214000	9.47342500
60.89999656	0.00000000	23.01919000	16.76919000
61.09999655	0.00000000	23.84965000	22.10876000
61.29999654	0.00000000	25.67052000	23.60359000
61.49999653	0.00000000	27.57136000	20.57702000
61.69999651	0.00000000	28.36491000	14.07480000
61.89999650	0.00000000	28.41412000	6.36072800
62.09999649	0.00000000	27.98966000	-1.02116100
62.29999648	0.00000000	26.78395000	-6.78518600
62.49999647	0.00000000	24.92003000	-9.43036400
62.69999645	0.00000000	23.01919000	-7.89862200
62.89999644	0.00000000	22.26870000	-2.55905500
63.09999643	0.00000000	22.60088000	4.73671200
63.29999642	0.00000000	23.80659000	12.11860000
63.49999641	0.00000000	25.71358000	18.25787000
63.69999639	0.00000000	27.98966000	21.73966000
63.89999638	0.00000000	29.52756000	21.37057000
64.09999637	0.00000000	29.94586000	17.97490000
64.29999636	0.00000000	29.57062000	12.53691000
64.49999635	0.00000000	28.36491000	6.36072800
64.69999634	0.00000000	26.45792000	0.55364170
64.89999632	0.00000000	24.18184000	-3.67249000
65.09999631	0.00000000	22.68701000	-5.25344500
65.29999630	0.00000000	22.64394000	-4.13385800
65.49999629	0.00000000	23.75738000	-1.07037400
65.69999628	0.00000000	25.29527000	3.15575800
65.89999626	0.00000000	26.83317000	7.43110200
66.09999625	0.00000000	27.98966000	10.96211000
66.29999624	0.00000000	28.36491000	13.69956000
66.49999623	0.00000000	27.98966000	15.27436000
66.69999622	0.00000000	26.83317000	15.69267000
66.89999620	0.00000000	25.29527000	15.27436000
67.09999619	0.00000000	23.80659000	13.69956000
67.29999618	0.00000000	23.06225000	11.00517000
67.49999617	0.00000000	23.80659000	7.89247000
67.69999616	0.00000000	25.33834000	4.73671200
67.89999615	0.00000000	27.29453000	1.62401600
68.09999613	0.00000000	29.57062000	-1.07037400
68.29999612	0.00000000	31.06545000	-2.60211600
68.49999611	0.00000000	31.06545000	-2.55905500
68.69999610	0.00000000	29.52756000	-0.60285430
68.89999609	0.00000000	26.78395000	3.24803100
69.09999607	0.00000000	23.29601000	7.89247000
69.29999606	0.00000000	19.48204000	12.58612000
69.49999605	0.00000000	16.83071000	16.81225000
69.69999604	0.00000000	16.45546000	19.46358000
69.89999603	0.00000000	18.41166000	19.46358000
70.09999601	0.00000000	22.64394000	16.76919000
70.29999600	0.00000000	28.03888000	12.11860000
70.49999599	0.00000000	33.06471000	6.31151500
70.69999598	0.00000000	36.92790000	0.55364170
70.89999597	0.00000000	38.42273000	-3.67249000
71.09999596	0.00000000	36.88484000	-5.25344500
71.29999594	0.00000000	32.64640000	-4.09079700
71.49999593	0.00000000	26.83317000	-0.60285430
71.69999592	0.00000000	20.64468000	4.73671200
71.89999591	0.00000000	15.24975000	10.11934000
72.09999590	0.00000000	12.22318000	14.03174000
72.29999588	0.00000000	12.54921000	16.35089000
72.49999587	0.00000000	16.03715000	16.35089000
72.69999586	0.00000000	21.43824000	14.07480000
72.89999585	0.00000000	27.99582000	10.62992000
73.09999584	0.00000000	33.76599000	6.77903500
73.29999582	0.00000000	37.30315000	3.75246000
73.49999581	0.00000000	38.46580000	2.50369100
73.69999580	0.00000000	36.88484000	2.87278500
73.89999579	0.00000000	32.64640000	3.99237200
74.09999578	0.00000000	26.91929000	5.93626900
74.29999577	0.00000000	21.48130000	7.75713500
74.49999575	0.00000000	17.61811000	8.54453700
74.69999574	0.00000000	15.66806000	7.80019600
74.89999573	0.00000000	16.40625000	6.31151500
75.09999572	0.00000000	19.06373000	4.77977300
75.29999571	0.00000000	22.55167000	3.66633800
75.49999569	0.00000000	26.40871000	3.70939900
75.69999568	0.00000000	29.48450000	5.24729300
75.89999567	0.00000000	31.10851000	7.93553100
76.09999566	0.00000000	31.48376000	11.00517000
76.29999565	0.00000000	30.73326000	13.65650000
76.49999563	0.00000000	28.78937000	14.76993000
76.69999562	0.00000000	26.54404000	13.60728000
76.89999561	0.00000000	24.64321000	10.53765000
77.09999560	0.00000000	24.22490000	6.26845500
77.29999559	0.00000000	24.87697000	1.66707700
77.49999558	0.00000000	25.25221000	-2.18380900
77.69999556	0.00000000	25.29527000	-4.09079700
77.89999555	0.00000000	25.29527000	-3.67249000
78.09999554	0.00000000	25.25221000	-0.55979330
78.29999553	0.00000000	24.87697000	4.77977300
78.49999552	0.00000000	24.13263000	10.53765000
78.69999550	0.00000000	23.80659000	15.23130000
78.89999549	0.00000000	24.18184000	18.30093000
79.09999548	0.00000000	25.33834000	19.08834000
79.29999547	0.00000000	26.91929000	17.14444000
79.49999546	0.00000000	28.83243000	13.32431000
79.69999544	0.00000000	30.73326000	8.26771600
79.89999543	0.00000000	31.44069000	3.24803100
80.09999542	0.00000000	30.69020000	-0.97810030
80.29999541	0.00000000	28.36491000	-3.29724400
80.49999540	0.00000000	25.33834000	-2.97736200
80.69999539	0.00000000	22.60088000	-1.07037400
80.89999537	0.00000000	20.64468000	2.04232300
81.09999536	0.00000000	19.52510000	5.89320800
81.29999535	0.00000000	19.90034000	9.38115100
81.49999534	0.00000000	21.80118000	12.11860000
81.69999533	0.00000000	24.13263000	13.69956000
81.89999531	0.00000000	26.87623000	14.11786000
82.09999530	0.00000000	29.52756000	13.69956000
82.29999529	0.00000000	31.06545000	12.16781000
82.49999528	0.00000000	31.06545000	9.84867000
82.69999527	0.00000000	29.52756000	7.51722400
82.89999525	0.00000000	26.87623000	5.15501900
83.09999524	0.00000000	24.22490000	3.15575800
83.29999523	0.00000000	22.64394000	1.20570900
83.49999522	0.00000000	22.17643000	-0.64591530
83.69999521	0.00000000	22.22564000	-0.97810030
83.89999520	0.00000000	22.96998000	0.51058070
84.09999518	0.00000000	24.45866000	3.24803100
84.29999517	0.00000000	25.25221000	6.72982200
84.49999516	0.00000000	25.71358000	10.58686000
84.69999515	0.00000000	26.45792000	13.65650000
84.89999514	0.00000000	26.83317000	15.23130000
85.09999512	0.00000000	26.87623000	15.23130000
85.29999511	0.00000000	26.87623000	13.65650000
85.49999510	0.00000000	26.87623000	10.49459000
85.69999509	0.00000000	26.87623000	5.93626900
85.89999508	0.00000000	26.87623000	1.34719500
86.09999506	0.00000000	26.87623000	-1.35334600
86.29999505	0.00000000	26.83317000	-2.18380900
86.49999504	0.00000000	26.40871000	-0.97810030
86.69999503	0.00000000	25.25221000	2.08538400
86.89999502	0.00000000	23.75738000	6.31151500
87.09999501	0.00000000	22.60088000	10.58686000
87.29999499	0.00000000	22.22564000	14.03174000
87.49999498	0.00000000	22.60088000	15.97564000
87.69999497	0.00000000	23.75738000	15.56348000
87.89999496	0.00000000	25.29527000	13.28125000
88.09999495	0.00000000	26.83317000	9.38115100
88.29999493	0.00000000	27.98966000	4.82898600
88.49999492	0.00000000	28.36491000	0.97194880
88.69999491	0.00000000	27.98966000	-0.97810030
88.89999490	0.00000000	26.83317000	-0.97810030
89.09999489	0.00000000	25.29527000	0.97194880
89.29999487	0.00000000	23.75738000	4.82898600
89.49999486	0.00000000	22.60088000	9.38115100
89.69999485	0.00000000	22.22564000	13.23819000
89.89999484	0.00000000	22.60088000	15.14518000
90.09999483	0.00000000	23.71432000	14.76993000
90.29999482	0.00000000	24.87697000	12.07554000
90.49999480	0.00000000	25.67052000	7.89247000
90.69999479	0.00000000	26.45792000	3.62327700
90.89999478	0.00000000	26.83317000	0.17839570
91.09999477	0.00000000	26.87623000	-1.67322800
91.29999476	0.00000000	26.83317000	-0.55979330
91.49999474	0.00000000	26.45792000	2.87278500
91.69999473	0.00000000	25.76279000	7.10506800
91.89999472	0.00000000	25.76279000	11.74336000
92.09999471	0.00000000	26.40871000	15.14518000
92.29999470	0.00000000	26.40871000	16.30167000
92.49999468	0.00000000	25.67052000	14.76993000
92.69999467	0.00000000	24.96309000	10.95595000
92.89999466	0.00000000	24.50787000	6.35457700
93.09999465	0.00000000	24.45866000	2.08538400
93.29999464	0.00000000	23.67126000	-0.93503930
93.49999463	0.00000000	22.60088000	-1.71628900
93.69999461	0.00000000	22.26870000	0.17839570
93.89999460	0.00000000	23.01919000	3.62327700
94.09999459	0.00000000	24.92003000	7.89247000
94.29999458	0.00000000	26.83317000	12.07554000
94.49999457	0.00000000	28.45718000	14.72072000
94.69999455	0.00000000	29.94586000	14.76993000
94.89999454	0.00000000	30.69020000	12.49385000
95.09999453	0.00000000	29.90280000	9.05511800
95.29999452	0.00000000	27.98966000	5.15501900
95.49999451	0.00000000	25.25221000	1.75935000
95.69999449	0.00000000	22.17643000	-0.18454720
95.89999448	0.00000000	19.48204000	0.17839570
96.09999447	0.00000000	17.94414000	2.04232300
96.29999446	0.00000000	17.94414000	4.77977300
96.49999445	0.00000000	19.56816000	7.89247000
96.69999444	0.00000000	23.01919000	10.91289000
96.89999442	0.00000000	27.62057000	12.81373000
97.09999441	0.00000000	31.44069000	12.45079000
97.29999440	0.00000000	33.85827000	10.62992000
97.49999439	0.00000000	34.60876000	8.26771600
97.69999438	0.00000000	33.80905000	5.98548200
97.89999436	0.00000000	31.06545000	4.03543200
98.09999435	0.00000000	26.87623000	3.29109200
98.29999434	0.00000000	22.60088000	3.57406500
98.49999433	0.00000000	19.10679000	4.40452700
98.69999432	0.00000000	16.78149000	5.53026500
98.89999430	0.00000000	16.40625000	7.05585600
99.09999429	0.00000000	17.94414000	7.80019600
99.29999428	0.00000000	21.01993000	7.89247000
99.49999427	0.00000000	24.87697000	7.89247000
99.69999426	0.00000000	28.36491000	7.89247000
99.89999425	0.00000000	31.10851000	7.93553100
100.09999423	0.00000000	32.64640000	8.31077700
100.29999422	0.00000000	32.64640000	9.05511800
100.49999421	0.00000000	31.10851000	9.43036400
100.69999420	0.00000000	28.41412000	9.38115100
100.89999419	0.00000000	25.33834000	8.58759800
101.09999417	0.00000000	22.60088000	6.68676100
101.29999416	0.00000000	20.64468000	4.77977300
101.49999415	0.00000000	19.43897000	3.19881900
101.69999414	0.00000000	19.10679000	2.08538400
101.89999413	0.00000000	19.90034000	2.08538400
102.09999411	0.00000000	22.17643000	3.24803100
102.29999410	0.00000000	24.82775000	5.19808000
102.49999409	0.00000000	26.83317000	7.89247000
102.69999408	0.00000000	28.41412000	10.53765000
102.89999407	0.00000000	29.57062000	12.11860000
103.09999406	0.00000000	29.94586000	12.49385000
103.29999404	0.00000000	29.52756000	11.70029000
103.49999403	0.00000000	27.98966000	9.38115100
103.69999402	0.00000000	25.71358000	6.31151500
103.89999401	0.00000000	23.75738000	3.24803100
104.09999400	0.00000000	22.17643000	0.97194880
104.29999398	0.00000000	21.06299000	0.55364170
104.49999397	0.00000000	21.06299000	1.66707700
104.69999396	0.00000000	22.17643000	3.61712600
104.89999395	0.00000000	23.71432000	6.31151500
105.09999394	0.00000000	25.25221000	9.00590400
105.29999392	0.00000000	26.45792000	10.91289000
105.49999391	0.00000000	27.20841000	11.70029000
105.69999390	0.00000000	27.62057000	10.96211000
105.89999389	0.00000000	27.20841000	9.47342500
106.09999388	0.00000000	26.45792000	7.84940900
106.29999387	0.00000000	25.29527000	5.93626900
106.49999385	0.00000000	24.18184000	4.03543200
106.69999384	0.00000000	23.75738000	3.29109200
106.89999383	0.00000000	23.75738000	3.62327700
107.09999382	0.00000000	24.13263000	4.82283400
107.29999381	0.00000000	24.92003000	6.68676100
107.49999379	0.00000000	25.67052000	8.58759800
107.69999378	0.00000000	26.45792000	9.33809000
107.89999377	0.00000000	26.78395000	9.05511800
108.09999376	0.00000000	26.40871000	8.26771600
108.29999375	0.00000000	25.29527000	7.42495000
108.49999374	0.00000000	24.13263000	5.89320800
108.69999372	0.00000000	23.33907000	4.03543200
108.89999371	0.00000000	22.60088000	3.29109200
109.09999370	0.00000000	22.64394000	3.62327700
109.29999369	0.00000000	23.75738000	4.77977300
109.49999368	0.00000000	25.25221000	6.31151500
109.69999366	0.00000000	26.40871000	7.89247000
109.89999365	0.00000000	26.83317000	9.38115100
110.09999364	0.00000000	26.87623000	10.16855000
110.29999363	0.00000000	26.83317000	9.75639700
110.49999362	0.00000000	26.40871000	8.67987200
110.69999360	0.00000000	25.29527000	7.10506800
110.89999359	0.00000000	24.13263000	5.93626900
111.09999358	0.00000000	23.38214000	4.73671200
111.29999357	0.00000000	22.96998000	3.66633800
111.49999356	0.00000000	23.33907000	3.62327700
111.69999355	0.00000000	23.71432000	4.36146600
111.89999353	0.00000000	24.18184000	5.15501900
112.09999352	0.00000000	25.29527000	6.31151500
112.29999351	0.00000000	26.40871000	7.42495000
112.49999350	0.00000000	26.78395000	7.84940900
112.69999349	0.00000000	26.45792000	7.89247000
112.89999347	0.00000000	25.71358000	7.89247000
113.09999346	0.00000000	25.33834000	7.89247000
113.29999345	0.00000000	25.25221000	7.84940900
113.49999344	0.00000000	24.87697000	7.47416300
113.69999343	0.00000000	24.18184000	6.72982200
113.89999341	0.00000000	24.18184000	6.35457700
114.09999340	0.00000000	24.87697000	6.31151500
114.29999339	0.00000000	25.25221000	6.26845500
114.49999338	0.00000000	25.29527000	5.89320800
114.69999337	0.00000000	25.29527000	5.15501900
114.89999336	0.00000000	25.29527000	4.77977300
115.09999334	0.00000000	25.29527000	4.77977300
115.29999333	0.00000000	25.29527000	5.15501900
115.49999332	0.00000000	25.29527000	5.93626900
115.69999331	0.00000000	25.25221000	6.68676100
115.89999330	0.00000000	24.87697000	7.47416300
116.09999328	0.00000000	24.13263000	7.89247000
116.29999327	0.00000000	23.75738000	8.26771600
116.49999326	0.00000000	23.71432000	8.63681000
116.69999325	0.00000000	23.71432000	8.22465500
116.89999324	0.00000000	23.75738000	7.51722400
117.09999322	0.00000000	24.13263000	6.68676100
117.29999321	0.00000000	24.92003000	5.93626900
117.49999320	0.00000000	25.67052000	5.15501900
117.69999319	0.00000000	26.45792000	4.77977300
117.89999318	0.00000000	26.83317000	4.73671200
118.09999317	0.00000000	26.83317000	4.77977300
118.29999315	0.00000000	26.45792000	5.15501900
118.49999314	0.00000000	25.67052000	5.93626900
118.69999313	0.00000000	24.87697000	6.68676100
118.89999312	0.00000000	23.71432000	7.47416300
119.09999311	0.00000000	22.60088000	7.84940900
119.29999309	0.00000000	22.17643000	7.89247000
119.49999308	0.00000000	22.17643000	7.89247000
119.69999307	0.00000000	22.60088000	7.84940900
119.89999306	0.00000000	23.75738000	7.47416300
120.09999305	0.00000000	25.25221000	6.72982200
120.29999303	0.00000000	26.40871000	6.31151500
120.49999302	0.00000000	26.87623000	5.89320800
120.69999301	0.00000000	27.25147000	5.15501900
120.89999300	0.00000000	27.57136000	4.82898600
121.09999299	0.00000000	26.78395000	5.15501900
121.29999298	0.00000000	25.33834000	5.89320800
121.49999296	0.00000000	24.13263000	6.26845500
121.69999295	0.00000000	23.33907000	6.31151500
121.89999294	0.00000000	22.55167000	6.35457700
122.09999293	0.00000000	22.17643000	6.72982200
122.29999292	0.00000000	22.17643000	7.47416300
122.49999290	0.00000000	22.60088000	7.84940900
122.69999289	0.00000000	23.71432000	7.89247000
122.89999288	0.00000000	24.87697000	7.89247000
123.09999287	0.00000000	25.67052000	7.84940900
123.29999286	0.00000000	26.45792000	7.47416300
123.49999284	0.00000000	26.83317000	6.72982200
123.69999283	0.00000000	26.83317000	6.35457700
123.89999282	0.00000000	26.45792000	6.31151500
124.09999281	0.00000000	25.71358000	6.26845500
124.29999280	0.00000000	25.29527000	5.89320800
124.49999279	0.00000000	24.87697000	5.19808000
124.69999277	0.00000000	24.08957000	5.19808000
124.89999276	0.00000000	23.38214000	5.89320800
125.09999275	0.00000000	22.96998000	6.26845500
125.29999274	0.00000000	23.33907000	6.35457700
125.49999273	0.00000000	23.67126000	6.72982200
125.69999271	0.00000000	23.75738000	7.47416300
125.89999270	0.00000000	24.18184000	7.84940900
126.09999269	0.00000000	25.29527000	7.89247000
126.29999268	0.00000000	26.40871000	7.84940900
126.49999267	0.00000000	26.83317000	7.47416300
126.69999265	0.00000000	26.83317000	6.72982200
126.89999264	0.00000000	26.40871000	6.35457700
127.09999263	0.00000000	25.29527000	6.31151500
127.29999262	0.00000000	24.13263000	6.31151500
127.49999261	0.00000000	23.33907000	6.31151500
127.69999260	0.00000000	22.55167000	6.31151500
127.89999258	0.00000000	22.22564000	6.31151500
128.09999257	0.00000000	22.55167000	6.35457700
128.29999256	0.00000000	23.33907000	6.68676100
128.49999255	0.00000000	24.13263000	7.09891700
128.69999254	0.00000000	25.29527000	7.06200700
128.89999252	0.00000000	26.40871000	7.09891700
129.09999251	0.00000000	26.78395000	6.68676100
129.29999250	0.00000000	26.45792000	6.35457700
129.49999249	0.00000000	25.67052000	6.31151500
129.69999248	0.00000000	24.87697000	6.31151500
129.89999246	0.00000000	23.71432000	6.31151500
130.09999245	0.00000000	22.60088000	6.31151500
130.29999244	0.00000000	22.22564000	6.31151500
130.49999243	0.00000000	22.55167000	6.35457700
130.69999242	0.00000000	23.33907000	6.68676100
130.89999241	0.00000000	24.08957000	7.05585600
131.09999239	0.00000000	24.92003000	6.68676100
131.29999238	0.00000000	25.62746000	6.35457700
131.49999237	0.00000000	26.03961000	6.31151500
131.69999236	0.00000000	25.67052000	6.31151500
131.89999235	0.00000000	25.29527000	6.26845500
132.09999233	0.00000000	24.87697000	5.89320800
132.29999232	0.00000000	24.13263000	5.15501900
132.49999231	0.00000000	23.75738000	4.82898600
132.69999230	0.00000000	23.71432000	5.15501900
132.89999229	0.00000000	23.71432000	5.93626900
133.09999227	0.00000000	23.71432000	6.68676100
133.29999226	0.00000000	23.75738000	7.47416300
133.49999225	0.00000000	24.13263000	7.84940900
133.69999224	0.00000000	24.82775000	7.89247000
133.89999223	0.00000000	24.82775000	7.84940900
134.09999222	0.00000000	24.13263000	7.47416300
134.29999220	0.00000000	23.75738000	6.68676100
134.49999219	0.00000000	23.75738000	5.93626900
134.69999218	0.00000000	24.13263000	5.15501900
134.89999217	0.00000000	24.87697000	4.77977300
135.09999216	0.00000000	25.25221000	4.73671200
135.29999214	0.00000000	25.29527000	4.77977300
135.49999213	0.00000000	25.29527000	5.15501900
135.69999212	0.00000000	25.25221000	5.93626900
135.89999211	0.00000000	24.87697000	6.68676100
136.09999210	0.00000000	24.13263000	7.47416300
136.29999208	0.00000000	23.75738000	7.84940900
136.49999207	0.00000000	23.67126000	7.84940900
136.69999206	0.00000000	23.33907000	7.47416300
136.89999205	0.00000000	22.96998000	6.72982200
137.09999204	0.00000000	23.38214000	6.35457700
137.29999203	0.00000000	24.08957000	6.26845500
137.49999201	0.00000000	24.92003000	5.93626900
137.69999200	0.00000000	25.62746000	5.53026500
137.89999199	0.00000000	26.03961000	5.56717500
138.09999198	0.00000000	25.67052000	5.53026500
138.29999197	0.00000000	25.29527000	5.93626900
138.49999195	0.00000000	24.87697000	6.26845500
138.69999194	0.00000000	24.13263000	6.31151500
138.89999193	0.00000000	23.71432000	6.35457700
139.09999192	0.00000000	23.33907000	6.72982200
139.29999191	0.00000000	22.96998000	7.47416300
139.49999189	0.00000000	23.38214000	7.84940900
139.69999188	0.00000000	24.08957000	7.89247000
139.89999187	0.00000000	24.87697000	7.89247000
140.09999186	0.00000000	25.25221000	7.84940900
140.29999185	0.00000000	25.29527000	7.47416300
140.49999184	0.00000000	25.25221000	6.68676100
140.69999182	0.00000000	24.87697000	5.93626900
140.89999181	0.00000000	24.13263000	5.15501900
141.09999180	0.00000000	23.75738000	4.77977300
141.29999179	0.00000000	23.71432000	4.77977300
141.49999178	0.00000000	23.71432000	5.19808000
141.69999176	0.00000000	23.71432000	6.31151500
141.89999175	0.00000000	23.75738000	7.42495000
142.09999174	0.00000000	24.13263000	7.84940900
142.29999173	0.00000000	24.87697000	7.89247000
142.49999172	0.00000000	25.25221000	7.89247000
142.69999170	0.00000000	25.25221000	7.84940900
142.89999169	0.00000000	24.87697000	7.47416300
143.09999168	0.00000000	24.13263000	6.68676100
143.29999167	0.00000000	23.75738000	5.93626900
143.49999166	0.00000000	23.71432000	5.15501900
143.69999165	0.00000000	23.71432000	4.77977300
143.89999163	0.00000000	23.71432000	4.77977300
144.09999162	0.00000000	23.75738000	5.15501900
144.29999161	0.00000000	24.13263000	5.93626900
144.49999160	0.00000000	24.87697000	6.68676100
144.69999159	0.00000000	25.25221000	7.47416300
144.89999157	0.00000000	25.29527000	7.84940900
145.09999156	0.00000000	25.25221000	7.84940900
145.29999155	0.00000000	24.87697000	7.47416300
145.49999154	0.00000000	24.13263000	6.72982200
145.69999153	0.00000000	23.75738000	6.35457700
145.89999151	0.00000000	23.71432000	6.26845500
146.09999150	0.00000000	23.71432000	5.89320800
146.29999149	0.00000000	23.71432000	5.15501900
146.49999148	0.00000000	23.75738000	4.82898600
146.69999147	0.00000000	24.08957000	5.15501900
146.89999146	0.00000000	24.50172000	5.89320800
147.09999144	0.00000000	24.50787000	6.26845500
147.29999143	0.00000000	24.92003000	6.35457700
147.49999142	0.00000000	25.20300000	6.68676100
147.69999141	0.00000000	24.87697000	7.05585600
147.89999140	0.00000000	24.13263000	6.68676100
148.09999138	0.00000000	23.75738000	6.35457700
148.29999137	0.00000000	23.71432000	6.31151500
148.49999136	0.00000000	23.71432000	6.31151500
148.69999135	0.00000000	23.71432000	6.26845500
148.89999134	0.00000000	23.71432000	5.93626900
149.09999132	0.00000000	23.75738000	5.57332700
149.29999131	0.00000000	24.13263000	5.93626900
149.49999130	0.00000000	24.87697000	6.26845500
149.69999129	0.00000000	25.25221000	6.31151500
149.89999128	0.00000000	25.29527000	6.31151500
150.09999127	0.00000000	25.25221000	6.31151500
150.29999125	0.00000000	24.87697000	6.35457700
150.49999124	0.00000000	24.13263000	6.72982200
150.69999123	0.00000000	23.75738000	7.47416300
150.89999122	0.00000000	23.71432000	7.80019600
151.09999121	0.00000000	23.71432000	7.47416300
151.29999119	0.00000000	23.71432000	6.72982200
151.49999118	0.00000000	23.71432000	6.35457700
151.69999117	0.00000000	23.71432000	6.31151500
151.89999116	0.00000000	23.75738000	6.31151500
152.09999115	0.00000000	24.13263000	6.31151500
152.29999113	0.00000000	24.87697000	6.26845500
152.49999112	0.00000000	25.25221000	5.93626900
152.69999111	0.00000000	25.25221000	5.57332700
152.89999110	0.00000000	24.87697000	5.93626900
153.09999109	0.00000000	24.13263000	6.26845500
153.29999108	0.00000000	23.75738000	6.31151500
153.49999106	0.00000000	23.71432000	6.35457700
153.69999105	0.00000000	23.71432000	6.68676100
153.89999104	0.00000000	23.71432000	7.05585600
154.09999103	0.00000000	23.71432000	6.68676100
154.29999102	0.00000000	23.71432000	6.35457700
154.49999100	0.00000000	23.71432000	6.31151500
154.69999099	0.00000000	23.71432000	6.31151500
154.89999098	0.00000000	23.75738000	6.31151500
155.09999097	0.00000000	24.13263000	6.31151500
155.29999096	0.00000000	24.82775000	6.26845500
155.49999094	0.00000000	24.87697000	5.89320800
155.69999093	0.00000000	24.55093000	5.19808000
155.89999092	0.00000000	24.87697000	5.19808000
156.09999091	0.00000000	24.82775000	5.89320800
156.29999090	0.00000000	24.13263000	6.26845500
156.49999089	0.00000000	23.75738000	6.35457700
156.69999087	0.00000000	23.67126000	6.68676100
156.89999086	0.00000000	23.29601000	7.05585600
157.09999085	0.00000000	22.60088000	6.68676100
157.29999084	0.00000000	22.60088000	6.35457700
157.49999083	0.00000000	23.29601000	6.31151500
157.69999081	0.00000000	23.67126000	6.31151500
157.89999080	0.00000000	23.71432000	6.26845500
158.09999079	0.00000000	23.75738000	5.89320800
158.29999078	0.00000000	24.13263000	5.19808000
158.49999077	0.00000000	24.82775000	5.19808000
158.69999075	0.00000000	24.82775000	5.89320800
158.89999074	0.00000000	24.13263000	6.26845500
159.09999073	0.00000000	23.75738000	6.31151500
159.29999072	0.00000000	23.71432000	6.31151500
159.49999071	0.00000000	23.71432000	6.35457700
159.69999070	0.00000000	23.71432000	6.68676100
159.89999068	0.00000000	23.71432000	7.05585600
160.09999067	0.00000000	23.71432000	6.68676100
160.29999066	0.00000000	23.71432000	6.35457700
160.49999065	0.00000000	23.71432000	6.31151500
160.69999064	0.00000000	23.71432000	6.26845500
160.89999062	0.00000000	23.71432000	5.89320800
161.09999061	0.00000000	23.71432000	5.15501900
161.29999060	0.00000000	23.71432000	4.77977300
161.49999059	0.00000000	23.75738000	4.77977300
161.69999058	0.00000000	24.08957000	5.11195900
161.89999056	0.00000000	24.45866000	5.51796200
162.09999055	0.00000000	24.08957000	5.53026500
162.29999054	0.00000000	23.75738000	5.93626900
162.49999053	0.00000000	23.71432000	6.26845500
162.69999052	0.00000000	23.71432000	6.31151500
162.89999051	0.00000000	23.71432000	6.31151500
163.09999049	0.00000000	23.71432000	6.31151500
163.29999048	0.00000000	23.67126000	6.31151500
163.49999047	0.00000000	23.29601000	6.31151500
163.69999046	0.00000000	22.60088000	6.31151500
163.89999045	0.00000000	22.60088000	6.31151500
164.09999043	0.00000000	23.29601000	6.31151500
164.29999042	0.00000000	23.71432000	6.31151500
164.49999041	0.00000000	24.08957000	6.31151500
164.69999040	0.00000000	24.50172000	6.31151500
164.89999039	0.00000000	24.46481000	6.31151500
165.09999037	0.00000000	24.50172000	6.31151500
165.29999036	0.00000000	24.08957000	6.31151500
165.49999035	0.00000000	23.75738000	6.31151500
165.69999034	0.00000000	23.71432000	6.31151500
165.89999033	0.00000000	23.71432000	6.31151500
166.09999032	0.00000000	23.67126000	6.31151500
166.29999030	0.00000000	23.33907000	6.35457700
166.49999029	0.00000000	22.96998000	6.68676100
166.69999028	0.00000000	23.33907000	7.05585600
166.89999027	0.00000000	23.67126000	6.68676100
167.09999026	0.00000000	23.71432000	6.35457700
167.29999024	0.00000000	23.71432000	6.31151500
167.49999023	0.00000000	23.71432000	6.31151500
167.69999022	0.00000000	23.71432000	6.31151500
167.89999021	0.00000000	23.71432000	6.31151500
168.09999020	0.00000000	23.71432000	6.31151500
168.29999018	0.00000000	23.71432000	6.31151500
168.49999017	0.00000000	23.71432000	6.31151500
168.69999016	0.00000000	23.71432000	6.31151500
168.89999015	0.00000000	23.71432000	6.31151500
169.09999014	0.00000000	23.71432000	6.31151500
169.29999013	0.00000000	23.71432000	6.31151500
169.49999011	0.00000000	23.71432000	6.31151500
169.69999010	0.00000000	23.71432000	6.31151500
169.89999009	0.00000000	23.71432000	6.31151500
170.09999008	0.00000000	23.71432000	6.31151500
170.29999007	0.00000000	23.71432000	6.31151500
170.49999005	0.00000000	23.71432000	6.31151500
170.69999004	0.00000000	23.71432000	6.31151500
170.89999003	0.00000000	23.71432000	6.31151500
171.09999002	0.00000000	23.71432000	6.31151500
171.29999001	0.00000000	23.71432000	6.31151500
171.49998999	0.00000000	23.71432000	6.31151500
171.69998998	0.00000000	23.71432000	6.31151500
171.89998997	0.00000000	23.71432000	6.31151500
172.09998996	0.00000000	23.71432000	6.31151500
172.29998995	0.00000000	23.71432000	6.31151500
172.49998994	0.00000000	23.71432000	6.31151500
172.69998992	0.00000000	23.71432000	6.31151500
172.89998991	0.00000000	23.71432000	6.31151500
173.09998990	0.00000000	23.71432000	6.31151500
173.29998989	0.00000000	23.71432000	6.31151500
173.49998988	0.00000000	23.71432000	6.31151500
173.69998986	0.00000000	23.71432000	6.31151500
173.89998985	0.00000000	23.71432000	6.31151500
174.09998984	0.00000000	23.71432000	6.31151500
174.29998983	0.00000000	23.71432000	6.31151500
174.49998982	0.00000000	23.71432000	6.31151500
174.69998980	0.00000000	23.71432000	6.31151500
174.89998979	0.00000000	23.71432000	6.31151500
175.09998978	0.00000000	23.71432000	6.31151500
175.29998977	0.00000000	23.71432000	6.31151500
175.49998976	0.00000000	23.71432000	6.31151500
175.69998975	0.00000000	23.71432000	6.31151500
175.89998973	0.00000000	23.71432000	6.31151500
176.09998972	0.00000000	23.71432000	6.31151500
176.29998971	0.00000000	23.71432000	6.31151500
176.49998970	0.00000000	23.71432000	6.31151500
176.69998969	0.00000000	23.71432000	6.31151500
176.89998967	0.00000000	23.71432000	6.31151500
177.09998966	0.00000000	23.71432000	6.31151500
177.29998965	0.00000000	23.71432000	6.31151500
177.49998964	0.00000000	23.71432000	6.26845500
177.69998963	0.00000000	23.71432000	5.93626900
177.89998961	0.00000000	23.71432000	5.57332700
178.09998960	0.00000000	23.71432000	5.93626900
178.29998959	0.00000000	23.71432000	6.26845500
178.49998958	0.00000000	23.71432000	6.31151500
178.69998957	0.00000000	23.71432000	6.31151500
178.89998956	0.00000000	23.71432000	6.31151500
179.09998954	0.00000000	23.71432000	6.31151500
179.29998953	0.00000000	23.71432000	6.31151500
179.49998952	0.00000000	23.71432000	6.31151500
179.69998951	0.00000000	23.71432000	6.31151500
179.89998950	0.00000000	23.71432000	6.31151500
180.09998948	0.00000000	23.71432000	6.26845500
180.29998947	0.00000000	23.71432000	5.89320800
180.49998946	0.00000000	23.71432000	5.19808000
180.69998945	0.00000000	23.71432000	5.19808000
180.89998944	0.00000000	23.71432000	5.89320800
181.09998942	0.00000000	23.71432000	6.26845500
181.29998941	0.00000000	23.71432000	6.31151500
181.49998940	0.00000000	23.71432000	6.31151500
181.69998939	0.00000000	23.71432000	6.31151500
181.89998938	0.00000000	23.71432000	6.31151500
182.09998937	0.00000000	23.71432000	6.31151500
182.29998935	0.00000000	23.71432000	6.31151500
182.49998934	0.00000000	23.71432000	6.31151500
182.69998933	0.00000000	23.71432000	6.26845500
182.89998932	0.00000000	23.71432000	5.93626900
183.09998931	0.00000000	23.71432000	5.53026500
183.29998929	0.00000000	23.71432000	5.56717500
183.49998928	0.00000000	23.71432000	5.48105300
183.69998927	0.00000000	23.71432000	5.56717500
183.89998926	0.00000000	23.71432000	5.53026500
184.09998925	0.00000000	23.71432000	5.93626900
184.29998923	0.00000000	23.71432000	6.26845500
184.49998922	0.00000000	23.71432000	6.31151500
184.69998921	0.00000000	23.71432000	6.31151500
184.89998920	0.00000000	23.71432000	6.31151500
185.09998919	0.00000000	23.71432000	6.31151500
185.29998918	0.00000000	23.71432000	6.31151500
185.49998916	0.00000000	23.71432000	6.26845500
185.69998915	0.00000000	23.71432000	5.93626900
185.89998914	0.00000000	23.71432000	5.53026500
186.09998913	0.00000000	23.71432000	5.51796200
186.29998912	0.00000000	23.71432000	5.11195900
186.49998910	-0.15871060	23.71432000	4.77977300
186.69998909	0.00000000	23.67126000	4.77977300
186.89998908	0.00000000	23.29601000	5.15501900
187.09998907	0.00000000	22.60088000	5.89320800
187.29998906	0.00000000	22.60088000	6.26845500
187.49998904	0.00000000	23.29601000	6.31151500
187.69998903	0.00000000	23.67126000	6.31151500
187.89998902	0.00000000	23.71432000	6.31151500
188.09998901	0.00000000	23.71432000	6.31151500
188.29998900	0.00000000	23.71432000	6.31151500
188.49998899	0.00000000	23.71432000	6.31151500
188.69998897	0.00000000	23.75738000	6.31151500
188.89998896	0.00000000	24.08957000	6.26845500
189.09998895	0.00000000	24.45866000	5.89320800
189.29998894	-0.15871060	24.08957000	5.15501900
189.49998893	0.00000000	23.75738000	4.77977300
189.69998891	0.00000000	23.71432000	4.77977300
189.89998890	0.00000000	23.71432000	5.15501900
190.09998889	0.00000000	23.67126000	5.89320800
190.29998888	0.00000000	23.33907000	6.26845500
190.49998887	0.00000000	22.96998000	6.31151500
190.69998885	0.00000000	23.33907000	6.31151500
190.89998884	0.00000000	23.67126000	6.31151500
191.09998883	0.00000000	23.71432000	6.31151500
191.29998882	0.00000000	23.71432000	6.31151500
191.49998881	0.00000000	23.71432000	6.26845500
191.69998880	0.00000000	23.71432000	5.93626900
191.89998878	0.00000000	23.71432000	5.53026500
192.09998877	0.00000000	23.71432000	5.56717500
192.29998876	0.00000000	23.71432000	5.48105300
192.49998875	0.00000000	23.67126000	5.56717500
192.69998874	0.00000000	23.29601000	5.48105300
192.89998872	0.00000000	22.55167000	5.56717500
193.09998871	0.00000000	22.22564000	5.53026500
193.29998870	0.00000000	22.50861000	5.93626900
193.49998869	0.00000000	22.87770000	6.26845500
193.69998868	0.00000000	22.55167000	6.31151500
193.89998866	0.00000000	22.60088000	6.31151500
194.09998865	0.00000000	23.29601000	6.31151500
194.29998864	0.00000000	23.67126000	6.31151500
194.49998863	0.00000000	23.71432000	6.31151500
194.69998862	0.00000000	23.71432000	6.31151500
194.89998861	0.00000000	23.71432000	6.31151500
195.09998859	0.00000000	23.67126000	6.31151500
195.29998858	0.00000000	23.29601000	6.31151500
195.49998857	0.00000000	22.55167000	6.31151500
195.69998856	0.00000000	22.17643000	6.31151500
195.89998855	0.00000000	22.17643000	6.31151500
196.09998853	0.00000000	22.50861000	6.31151500
