Time	Channel A	Channel B	Channel C
(us)	(V)	(mV)	(mV)

-4.59999956	0.00000000	20.55241000	4.73671200
-4.39999957	0.00000000	20.55241000	4.73671200
-4.19999958	0.00000000	20.55241000	4.73671200
-3.99999959	0.00000000	20.55241000	4.73671200
-3.79999960	0.00000000	20.55241000	4.73671200
-3.59999962	0.00000000	20.55241000	4.73671200
-3.39999963	0.00000000	20.55241000	4.73671200
-3.19999964	0.00000000	20.55241000	4.73671200
-2.99999965	0.00000000	20.55241000	4.73671200
-2.79999966	0.00000000	20.55241000	4.73671200
-2.59999968	0.00000000	20.55241000	4.73671200
-2.39999969	0.00000000	20.55241000	4.73671200
-2.19999970	0.00000000	20.55241000	4.73671200
-1.99999971	0.00000000	20.55241000	4.73671200
-1.79999972	0.00000000	20.55241000	4.73671200
-1.59999973	0.00000000	20.55241000	4.73671200
-1.39999975	0.00000000	20.59547000	4.73671200
-1.19999976	0.00000000	20.92766000	4.73671200
-0.99999977	0.00000000	21.29675000	4.73671200
-0.79999978	0.00000000	20.92766000	4.73671200
-0.59999979	0.00000000	20.59547000	4.73671200
-0.39999981	0.15871060	20.55241000	4.73671200
-0.19999982	0.47736220	20.55241000	4.73671200
0.00000017	0.79601380	20.55241000	4.73671200
0.20000016	0.95533960	20.55241000	4.73671200
0.40000015	0.95533960	20.55241000	4.73671200
0.60000013	0.47736220	20.55241000	4.73671200
0.80000012	-0.31803640	20.55241000	4.73671200
1.00000011	-1.27399100	20.55241000	4.73671200
1.20000010	-2.22994600	20.55241000	4.73671200
1.40000009	-2.70792300	20.55241000	4.73671200
1.60000008	-2.70792300	20.55241000	4.73671200
1.80000006	-1.59264300	20.55241000	4.73671200
2.00000005	0.00000000	20.55241000	4.73671200
2.20000004	2.07062000	20.55241000	4.73671200
2.40000003	3.98191400	20.55241000	4.73671200
2.60000002	5.25652100	20.55241000	4.73671200
2.80000000	5.09719500	20.55241000	4.73671200
2.99999999	3.50393700	20.55241000	4.73671200
3.19999998	0.63668800	20.55241000	4.73671200
3.39999997	-2.70792300	20.55241000	4.73671200
3.59999996	-5.89382400	20.55241000	4.73671200
3.79999994	-7.80511800	20.55241000	4.73671200
3.99999993	-7.80511800	20.55241000	4.77977300
4.19999992	-5.73449800	20.55241000	5.15501900
4.39999991	-2.22994600	20.59547000	5.85014700
4.59999990	2.22994600	20.92766000	5.85014700
4.79999989	6.37180100	21.29675000	5.15501900
4.99999987	8.92039900	20.92766000	4.73671200
5.19999986	9.39837600	20.59547000	4.31840500
5.39999985	7.48646600	20.55241000	3.57406500
5.59999984	3.50393700	20.55241000	3.24803100
5.79999983	-1.27399100	20.55241000	3.57406500
5.99999981	-5.73449800	20.55241000	4.31840500
6.19999980	-8.76107300	20.55241000	4.69365100
6.39999979	-9.39837600	20.55241000	4.73671200
6.59999978	-7.96444400	20.55241000	4.73671200
6.79999977	-4.45989200	20.55241000	4.73671200
6.99999975	0.00000000	20.55241000	4.73671200
7.19999974	3.98191400	20.55241000	4.73671200
7.39999973	6.84916400	20.55241000	4.73671200
7.59999972	7.80511800	20.55241000	4.69365100
7.79999971	6.69045300	20.55241000	4.36146600
7.99999970	4.14124000	20.55241000	3.99237200
8.19999968	0.95533960	20.55241000	4.36146600
8.39999967	-2.22994600	20.55241000	4.69365100
8.59999966	-4.45989200	20.55241000	4.73671200
8.79999965	-5.25652100	20.55241000	4.73671200
8.99999964	-4.61921700	20.55241000	4.73671200
9.19999962	-3.18590100	20.55241000	4.73671200
9.39999961	-1.11466500	20.55241000	4.73671200
9.59999960	0.63668800	20.55241000	4.73671200
9.79999959	1.91129400	20.55241000	4.73671200
9.99999958	2.54859700	20.55241000	4.73671200
10.19999956	2.38927200	20.55241000	4.73671200
10.39999955	1.59264300	20.55241000	4.73671200
10.59999954	0.79601380	20.55241000	4.73671200
10.79999953	0.00000000	20.55241000	4.73671200
10.99999952	-0.63668800	20.55241000	4.73671200
11.19999951	-0.95533960	20.55241000	4.73671200
11.39999949	-0.95533960	20.55241000	4.73671200
11.59999948	-0.79601380	20.55241000	4.73671200
11.79999947	-0.47736220	20.55241000	4.73671200
11.99999946	-0.31803640	20.55241000	4.73671200
12.19999945	-0.15871060	20.55241000	4.73671200
12.39999943	-0.15871060	20.55241000	4.73671200
12.59999942	0.00000000	20.55241000	4.73671200
12.79999941	0.00000000	20.55241000	4.73671200
12.99999940	0.00000000	20.55241000	4.73671200
13.19999939	0.00000000	20.55241000	4.73671200
13.39999937	0.00000000	20.55241000	4.73671200
13.59999936	0.00000000	20.55241000	4.73671200
13.79999935	0.00000000	20.55241000	4.73671200
13.99999934	-0.15871060	20.55241000	4.73671200
14.19999933	-0.15871060	20.55241000	4.73671200
14.39999932	-0.15871060	20.55241000	4.73671200
14.59999930	0.00000000	20.55241000	4.73671200
14.79999929	0.00000000	20.55241000	4.73671200
14.99999928	0.00000000	20.55241000	4.73671200
15.19999927	0.00000000	20.55241000	4.73671200
15.39999926	0.00000000	20.55241000	4.73671200
15.59999924	0.00000000	20.55241000	4.73671200
15.79999923	0.00000000	20.55241000	4.73671200
15.99999922	0.00000000	20.55241000	4.73671200
16.19999921	-0.15871060	20.55241000	4.73671200
16.39999920	-0.15871060	20.55241000	4.73671200
16.59999919	-0.15871060	20.59547000	4.73671200
16.79999917	-0.15871060	20.97072000	4.73671200
16.99999916	0.00000000	21.71506000	4.73671200
17.19999915	0.00000000	22.09030000	4.73671200
17.39999914	0.00000000	22.13336000	4.73671200
17.59999913	0.00000000	22.09030000	4.73671200
17.79999911	0.00000000	21.71506000	4.73671200
17.99999910	0.00000000	20.88459000	4.73671200
18.19999909	0.00000000	19.75886000	4.73671200
18.39999908	0.00000000	18.14099000	4.73671200
18.59999907	0.00000000	16.64001000	4.73671200
18.79999905	0.00000000	15.11442000	4.73671200
18.99999904	0.00000000	14.78223000	4.73671200
19.19999903	0.00000000	15.94488000	4.73671200
19.39999902	0.00000000	18.27633000	4.73671200
19.59999901	0.00000000	21.80118000	4.73671200
19.79999900	0.00000000	25.62746000	4.73671200
19.99999898	0.00000000	29.15231000	4.73671200
20.19999897	0.00000000	31.39149000	4.73671200
20.39999896	0.00000000	31.71752000	4.73671200
20.59999895	0.00000000	28.93085000	4.73671200
20.79999894	0.00000000	23.16068000	4.73671200
20.99999892	0.00000000	15.80955000	4.73671200
21.19999891	0.00000000	8.45841400	4.73671200
21.39999890	0.00000000	2.68823800	4.73671200
21.59999889	0.00000000	0.07997046	4.73671200
21.79999888	0.00000000	2.08538400	4.73671200
21.99999886	0.00000000	9.06126900	4.73671200
22.19999885	0.00000000	19.56816000	4.73671200
22.39999884	0.00000000	31.95128000	4.73671200
22.59999883	0.00000000	43.81151000	4.73671200
22.79999882	0.00000000	51.07652000	4.73671200
22.99999881	0.00000000	51.45177000	4.73671200
23.19999879	0.00000000	44.79576000	4.77977300
23.39999878	0.00000000	31.58218000	5.15501900
23.59999877	0.00000000	14.22859000	5.89320800
23.79999876	0.00000000	-3.16806100	6.26845500
23.99999875	0.00000000	-16.61540000	6.26845500
24.19999873	0.00000000	-22.71161000	5.89320800
24.39999872	0.00000000	-18.76230000	5.06274600
24.59999871	0.00000000	-5.26574800	3.90009800
24.79999870	0.00000000	14.87451000	1.95004900
24.99999869	0.00000000	37.30315000	0.09227362
25.19999867	0.00000000	57.31422000	-1.06422200
25.39999866	0.00000000	69.59277000	-1.06422200
25.59999865	0.00000000	70.34325000	0.13533460
25.79999864	0.00000000	59.54109000	2.46063000
25.99999863	0.00000000	39.44390000	5.98548200
26.19999862	0.00000000	14.69611000	9.84867000
26.39999860	0.00000000	-9.22121000	13.69956000
26.59999859	0.00000000	-26.94390000	16.30167000
26.79999858	0.00000000	-33.50763000	16.30167000
26.99999857	0.00000000	-27.78666000	13.56422000
27.19999856	0.00000000	-11.54650000	8.45226300
27.39999854	0.00000000	11.66954000	1.11343500
27.59999853	0.00000000	36.74950000	-6.92052100
27.79999852	0.00000000	57.96013000	-13.10285000
27.99999851	0.00000000	69.96801000	-16.16634000
28.19999850	0.00000000	70.43552000	-15.28666000
28.39999848	0.00000000	60.05167000	-9.43036400
28.59999847	0.00000000	41.49237000	0.59670270
28.79999846	0.00000000	19.10679000	12.58612000
28.99999845	0.00000000	-2.19611200	24.10802000
29.19999844	0.00000000	-17.64272000	32.19119000
29.39999843	0.00000000	-24.29257000	34.47342000
29.59999841	0.00000000	-20.85384000	30.56717000
29.79999840	0.00000000	-8.93823700	20.44168000
29.99999839	0.00000000	8.45841400	5.85014700
30.19999838	0.00000000	27.39296000	-9.65797200
30.39999837	0.00000000	43.67618000	-22.77313000
30.59999835	0.00000000	54.14616000	-31.21924000
30.79999834	0.00000000	56.88976000	-31.92052000
30.99999833	0.00000000	51.53789000	-24.62475000
31.19999832	0.00000000	39.99754000	-11.06053000
31.39999831	0.00000000	25.29527000	6.31766700
31.59999829	0.00000000	10.59301000	23.68971000
31.79999828	0.00000000	-1.03346500	37.21087000
31.99999827	0.00000000	-7.26500900	44.13755000
32.19999826	0.00000000	-7.31422200	42.59965000
32.39999825	0.00000000	-1.54404500	32.94168000
32.59999824	0.00000000	8.50147600	17.51353000
32.79999822	0.00000000	20.41708000	-0.69512790
32.99999821	0.00000000	31.25615000	-17.66117000
33.19999820	0.00000000	38.23819000	-30.05659000
33.39999819	0.00000000	40.65575000	-35.03321000
33.59999818	0.00000000	38.33046000	-31.63755000
33.79999816	0.00000000	32.18504000	-20.81693000
33.99999815	0.00000000	23.71432000	-5.38262700
34.19999814	0.00000000	15.24975000	11.65723000
34.39999813	0.00000000	9.01205700	26.66708000
34.59999812	0.00000000	5.89936000	36.37426000
34.79999810	0.00000000	6.31766700	38.70571000
34.99999809	0.00000000	10.50689000	33.72293000
35.19999808	0.00000000	16.97219000	22.53322000
35.39999807	0.00000000	23.16068000	7.89247000
35.59999806	0.00000000	27.81127000	-6.78518600
35.79999805	0.00000000	30.08735000	-18.35630000
35.99999803	0.00000000	28.97392000	-24.11417000
36.19999802	0.00000000	25.20300000	-22.62549000
36.39999801	0.00000000	20.55241000	-14.59153000
36.59999800	0.00000000	15.90182000	-2.69439000
36.79999799	0.00000000	12.08784000	9.99015700
36.99999797	0.00000000	10.54995000	20.02337000
37.19999796	-0.15871060	11.71260000	25.08612000
37.39999795	0.00000000	15.15748000	24.71703000
37.59999794	0.00000000	20.13410000	18.95300000
37.79999793	0.00000000	24.74163000	9.38730200
37.99999791	0.00000000	27.90354000	-0.93503930
38.19999790	0.00000000	29.44143000	-8.96899500
38.39999789	0.00000000	29.01698000	-12.03863000
38.59999788	0.00000000	26.32259000	-9.43036400
38.79999787	0.00000000	22.13336000	-2.55905500
38.99999786	0.00000000	17.85802000	6.26845500
39.19999784	0.00000000	14.36393000	14.72072000
39.39999783	0.00000000	11.99557000	20.39862000
39.59999782	0.00000000	11.24508000	21.13681000
39.79999781	0.00000000	11.99557000	16.16634000
39.99999780	0.00000000	14.36393000	7.43110200
40.19999778	0.00000000	17.80881000	-2.18380900
40.39999777	0.00000000	21.71506000	-9.89788300
40.59999776	0.00000000	25.20300000	-14.12401000
40.79999775	0.00000000	27.90354000	-13.66265000
40.99999774	0.00000000	29.06619000	-7.89862200
41.19999772	0.00000000	28.32185000	1.66707700
41.39999771	0.00000000	26.40871000	11.98327000
41.59999770	0.00000000	23.67126000	20.06643000
41.79999769	0.00000000	20.55241000	23.55438000
41.99999768	0.00000000	17.43356000	22.06570000
42.19999767	0.00000000	14.73917000	16.30167000
42.39999765	0.00000000	13.15822000	7.89247000
42.59999764	0.00000000	12.78297000	-0.60285430
42.79999763	0.00000000	13.53346000	-7.20349400
42.99999762	0.00000000	15.47736000	-11.05438000
43.19999761	0.00000000	17.76575000	-11.05438000
43.39999759	0.00000000	20.13410000	-7.24655500
43.59999758	0.00000000	22.04109000	-1.11343500
43.79999757	0.00000000	23.29601000	5.80708600
43.99999756	0.00000000	24.04650000	11.56496000
44.19999755	0.00000000	24.45866000	14.72072000
44.39999753	0.00000000	24.08957000	15.14518000
44.59999752	0.00000000	23.75738000	13.23819000
44.79999751	0.00000000	23.67126000	9.38115100
44.99999750	0.00000000	23.24680000	4.82898600
45.19999749	0.00000000	22.09030000	0.92888770
45.39999748	0.00000000	20.50935000	-1.39640700
45.59999746	0.00000000	18.50394000	-2.22687000
45.79999745	0.00000000	15.76649000	-1.43946800
45.99999744	0.00000000	12.73991000	0.46751960
46.19999743	0.00000000	10.45768000	3.15575800
46.39999742	0.00000000	10.08243000	5.85014700
46.59999740	0.00000000	11.66339000	7.80019600
46.79999739	0.00000000	15.20054000	9.00590400
46.99999738	0.00000000	20.64468000	9.38115100
47.19999737	0.00000000	26.78395000	8.96284400
47.39999736	0.00000000	32.22810000	7.38188900
47.59999734	0.00000000	35.62992000	4.73671200
47.79999733	0.00000000	35.95595000	2.04232300
47.99999732	0.00000000	32.04970000	0.09227362
48.19999731	0.00000000	24.78469000	-1.06422200
48.39999730	-0.15871060	16.22785000	-1.02116100
48.59999729	0.00000000	8.13238100	0.51058070
48.79999727	0.00000000	1.99311000	3.19881900
48.99999726	0.00000000	0.12918310	6.31151500
49.19999725	0.00000000	3.15575800	9.38115100
49.39999724	0.00000000	10.13164000	11.65723000
49.59999723	0.00000000	19.43897000	12.03248000
49.79999721	0.00000000	29.44143000	10.53765000
49.99999720	0.00000000	37.48769000	7.80019600
50.19999719	0.00000000	40.93873000	4.31840500
50.39999718	0.00000000	39.02559000	0.46751960
50.59999717	0.00000000	32.09276000	-2.60211600
50.79999715	0.00000000	22.17643000	-4.14000900
50.99999714	0.00000000	12.50615000	-3.71555100
51.19999713	0.00000000	5.52411400	-1.02116100
51.39999712	0.00000000	2.03617100	3.15575800
51.59999711	0.00000000	3.24188000	7.43110200
51.79999710	0.00000000	8.96899500	10.91289000
51.99999708	0.00000000	17.39050000	13.18898000
52.19999707	0.00000000	25.85507000	13.18898000
52.39999706	0.00000000	32.04970000	10.91289000
52.59999705	0.00000000	34.75024000	7.47416300
52.79999704	0.00000000	33.21235000	3.57406500
52.99999702	0.00000000	27.86048000	0.13533460
53.19999701	0.00000000	20.59547000	-2.18380900
53.39999700	0.00000000	13.61959000	-2.55905500
53.59999699	0.00000000	8.63681000	-1.07037400
53.79999698	0.00000000	6.73597400	1.62401600
53.99999696	0.00000000	9.06126900	4.68750000
54.19999695	0.00000000	14.73917000	7.33882900
54.39999694	0.00000000	21.62278000	8.50147600
54.59999693	0.00000000	27.39296000	7.80019600
54.79999692	0.00000000	30.51181000	6.31151500
54.99999691	0.00000000	30.51181000	4.73671200
55.19999689	0.00000000	27.43602000	3.19881900
55.39999688	0.00000000	22.09030000	2.08538400
55.59999687	0.00000000	16.32013000	2.12844500
55.79999686	0.00000000	11.71260000	3.61712600
55.99999685	0.00000000	9.38730200	5.89320800
56.19999683	0.00000000	10.13164000	7.80019600
56.39999682	0.00000000	13.20128000	8.91978400
56.59999681	0.00000000	17.85802000	8.50147600
56.79999680	0.00000000	23.20374000	6.17618100
56.99999679	0.00000000	27.43602000	2.73745100
57.19999677	0.00000000	29.34916000	-1.07037400
57.39999676	0.00000000	28.64173000	-3.71555100
57.59999675	0.00000000	25.57825000	-4.09079700
57.79999674	0.00000000	21.71506000	-2.14074800
57.99999673	0.00000000	17.43356000	2.08538400
58.19999672	0.00000000	13.66880000	7.47416300
58.39999670	0.00000000	12.13091000	12.45079000
58.59999669	0.00000000	13.20128000	15.88336000
58.79999668	0.00000000	15.85261000	16.25861000
58.99999667	0.00000000	18.92839000	13.61343000
59.19999666	0.00000000	21.66585000	8.91978400
59.39999664	0.00000000	23.62205000	2.73745100
59.59999663	0.00000000	24.74163000	-3.76476400
59.79999662	0.00000000	24.36639000	-8.36614100
59.99999661	0.00000000	22.46555000	-9.89788300
60.19999660	0.00000000	20.22022000	-7.94783400
60.39999658	0.00000000	18.22711000	-2.55905500
60.59999657	0.00000000	17.10753000	4.73671200
60.79999656	0.00000000	16.69537000	12.07554000
60.99999655	0.00000000	17.48277000	17.79035000
61.19999654	0.00000000	18.97145000	20.11565000
61.39999653	0.00000000	20.50935000	18.21481000
61.59999651	0.00000000	21.66585000	13.18898000
61.79999650	0.00000000	22.04109000	5.85014700
61.99999649	0.00000000	21.66585000	-2.18380900
62.19999648	0.00000000	20.50935000	-8.36614100
62.39999647	0.00000000	18.97145000	-11.47884000
62.59999645	0.00000000	17.43356000	-11.06053000
62.79999644	0.00000000	16.32013000	-6.82824800
62.99999643	0.00000000	16.32013000	0.04306102
63.19999642	0.00000000	17.43356000	7.38188900
63.39999641	0.00000000	19.01451000	13.61343000
63.59999639	0.00000000	20.92766000	17.83957000
63.79999638	0.00000000	22.82849000	18.95300000
63.99999637	0.00000000	23.57899000	16.30167000
64.19999636	0.00000000	23.24680000	10.96211000
64.39999635	0.00000000	22.09030000	4.77977300
64.59999634	0.00000000	20.55241000	-1.02116100
64.79999632	0.00000000	18.97145000	-5.29650500
64.99999631	0.00000000	17.43356000	-7.24655500
65.19999630	0.00000000	16.32013000	-6.92052100
65.39999629	0.00000000	16.32013000	-4.60137700
65.59999628	0.00000000	17.43356000	-1.11343500
65.79999626	0.00000000	18.97145000	3.15575800
65.99999625	0.00000000	20.50935000	7.38188900
66.19999624	0.00000000	21.62278000	10.53765000
66.39999623	0.00000000	21.62278000	12.49385000
66.59999622	0.00000000	20.50935000	13.28125000
66.79999620	0.00000000	18.97145000	12.53691000
66.99999619	0.00000000	17.48277000	11.00517000
67.19999618	0.00000000	16.69537000	9.00590400
67.39999617	0.00000000	17.10753000	6.22539300
67.59999616	0.00000000	18.27633000	2.78051200
67.79999615	0.00000000	20.59547000	-0.73818890
67.99999613	0.00000000	23.20374000	-3.43873000
68.19999612	0.00000000	24.74163000	-5.38262700
68.39999611	0.00000000	24.78469000	-5.71481200
68.59999610	0.00000000	23.57899000	-4.18307100
68.79999609	0.00000000	21.20448000	-1.02116100
68.99999607	0.00000000	17.34744000	3.62327700
69.19999606	0.00000000	13.20128000	9.00590400
69.39999605	0.00000000	10.50689000	13.61343000
69.59999604	0.00000000	10.08243000	16.35089000
69.79999603	0.00000000	11.66339000	16.71998000
69.99999601	0.00000000	15.15748000	14.76993000
70.19999600	0.00000000	20.17716000	10.49459000
70.39999599	0.00000000	25.15994000	4.73671200
70.59999598	0.00000000	29.06619000	-1.06422200
70.79999597	0.00000000	30.93012000	-5.71481200
70.99999596	0.00000000	30.17962000	-8.36614100
71.19999594	0.00000000	26.69783000	-7.99089500
71.39999593	0.00000000	21.66585000	-4.55831700
71.59999592	0.00000000	15.85261000	0.41830710
71.79999591	0.00000000	10.45768000	5.85014700
71.99999590	0.00000000	7.01279500	10.49459000
72.19999588	0.00000000	6.22539300	13.56422000
72.39999587	0.00000000	8.59375000	14.35162000
72.59999586	0.00000000	13.57652000	12.45079000
72.79999585	0.00000000	20.08489000	9.05511800
72.99999584	0.00000000	25.90428000	5.19808000
73.19999582	0.00000000	29.81053000	2.08538400
73.39999581	0.00000000	31.71752000	0.13533460
73.59999580	0.00000000	30.55487000	-0.60285430
73.79999579	0.00000000	26.74089000	0.51058070
73.99999578	0.00000000	21.71506000	2.69439000
74.19999577	0.00000000	16.32013000	4.22613100
74.39999575	0.00000000	12.08784000	4.64443900
74.59999574	0.00000000	10.08243000	4.26919300
74.79999573	0.00000000	10.08243000	3.11269700
74.99999572	0.00000000	12.03863000	1.62401600
75.19999571	0.00000000	15.85261000	0.51058070
75.39999569	0.00000000	20.04183000	0.55364170
75.59999568	0.00000000	23.20374000	2.08538400
75.79999567	0.00000000	25.15994000	4.77977300
75.99999566	0.00000000	25.90428000	7.84940900
76.19999565	0.00000000	24.78469000	10.53765000
76.39999563	0.00000000	22.55167000	12.03248000
76.59999562	0.00000000	20.59547000	11.61417000
76.79999561	0.00000000	19.01451000	8.91978400
76.99999560	0.00000000	17.90108000	4.69365100
77.19999559	0.00000000	17.85802000	0.04306102
77.39999558	0.00000000	18.55315000	-4.18307100
77.59999556	0.00000000	18.92839000	-6.82824800
77.79999555	0.00000000	18.97145000	-6.82824800
77.99999554	0.00000000	18.92839000	-4.14000900
78.19999553	0.00000000	18.50394000	0.51058070
78.39999552	0.00000000	17.43356000	6.26845500
78.59999550	0.00000000	16.69537000	11.65723000
78.79999549	0.00000000	17.05832000	15.14518000
78.99999548	0.00000000	17.85802000	16.30167000
79.19999547	0.00000000	19.43897000	14.76993000
79.39999546	0.00000000	21.71506000	10.91289000
79.59999544	0.00000000	23.62205000	5.93626900
79.79999543	0.00000000	24.78469000	0.87967510
79.99999542	0.00000000	24.74163000	-2.97736200
80.19999541	0.00000000	23.20374000	-5.33956700
80.39999540	0.00000000	20.50935000	-5.71481200
80.59999539	0.00000000	17.43356000	-4.18307100
80.79999537	0.00000000	14.73917000	-1.11343500
80.99999536	0.00000000	13.24434000	2.73745100
81.19999535	0.00000000	13.57652000	6.22539300
81.39999534	0.00000000	15.47736000	8.96284400
81.59999533	0.00000000	17.80881000	10.53765000
81.79999531	0.00000000	20.55241000	10.95595000
81.99999530	0.00000000	23.20374000	10.58686000
82.19999529	0.00000000	24.74163000	9.42421200
82.39999528	0.00000000	24.78469000	7.84940900
82.59999527	0.00000000	23.62205000	5.85014700
82.79999525	0.00000000	21.71506000	3.15575800
82.99999524	0.00000000	19.34670000	0.41830710
83.19999523	0.00000000	17.10753000	-1.86392700
83.39999522	0.00000000	15.53273000	-3.43257800
83.59999521	0.00000000	15.52657000	-3.39566900
83.79999520	0.00000000	16.22785000	-2.27608300
83.99999518	0.00000000	17.43356000	0.13533460
84.19999517	0.00000000	18.92839000	3.57406500
84.39999516	0.00000000	20.08489000	7.47416300
84.59999515	0.00000000	20.50935000	10.91289000
84.79999514	0.00000000	20.55241000	13.23819000
84.99999512	0.00000000	20.55241000	13.61343000
85.19999511	0.00000000	20.55241000	12.07554000
85.39999510	0.00000000	20.55241000	8.96284400
85.59999509	0.00000000	20.55241000	4.69365100
85.79999508	0.00000000	20.55241000	0.09227362
85.99999506	0.00000000	20.55241000	-3.76476400
86.19999505	0.00000000	20.50935000	-5.67175200
86.39999504	0.00000000	20.08489000	-5.29650500
86.59999503	0.00000000	18.97145000	-2.60211600
86.79999502	0.00000000	17.80881000	1.62401600
86.99999501	0.00000000	17.01525000	6.26845500
87.19999499	0.00000000	16.27707000	10.45152000
87.39999498	0.00000000	16.32013000	12.77067000
87.59999497	0.00000000	17.43356000	12.45079000
87.79999496	0.00000000	18.97145000	10.53765000
87.99999495	0.00000000	20.50935000	7.38188900
88.19999493	0.00000000	21.66585000	3.15575800
88.39999492	0.00000000	22.04109000	-1.02116100
88.59999491	0.00000000	21.71506000	-3.71555100
88.79999490	0.00000000	20.92766000	-4.09079700
88.99999489	0.00000000	20.08489000	-2.18380900
89.19999487	0.00000000	18.55315000	1.66707700
89.39999486	0.00000000	16.69537000	6.21924200
89.59999485	0.00000000	15.94488000	10.07628000
89.79999484	0.00000000	16.22785000	12.03248000
89.99999483	0.00000000	17.01525000	12.03248000
90.19999482	0.00000000	17.80881000	10.07628000
90.39999480	0.00000000	18.97145000	6.21924200
90.59999479	0.00000000	20.08489000	1.66707700
90.79999478	0.00000000	20.50935000	-2.18380900
90.99999477	0.00000000	20.55241000	-4.09079700
91.19999476	0.00000000	20.50935000	-3.71555100
91.39999474	0.00000000	20.13410000	-1.02116100
91.59999473	0.00000000	19.38976000	3.20497000
91.79999472	0.00000000	19.01451000	7.80019600
91.99999471	-0.15871060	19.01451000	11.61417000
92.19999470	0.00000000	19.34670000	13.14591000
92.39999468	0.00000000	19.71580000	12.03248000
92.59999467	0.00000000	19.30364000	8.96284400
92.79999466	0.00000000	18.59621000	4.69365100
92.99999465	0.00000000	17.76575000	0.09227362
93.19999464	0.00000000	17.01525000	-3.71555100
93.39999463	0.00000000	16.22785000	-5.25344500
93.59999461	0.00000000	15.90182000	-4.09079700
93.79999460	0.00000000	16.27707000	-0.69512790
93.99999459	0.00000000	17.48277000	3.94315900
94.19999458	0.00000000	19.38976000	8.13238100
94.39999457	0.00000000	21.71506000	11.23893000
94.59999455	0.00000000	23.62205000	11.98327000
94.79999454	0.00000000	24.74163000	10.49459000
94.99999453	0.00000000	24.36639000	7.38188900
95.19999452	0.00000000	22.41634000	3.20497000
95.39999451	0.00000000	19.71580000	-0.64591530
95.59999449	0.00000000	16.22785000	-2.97736200
95.79999448	0.00000000	13.20128000	-3.71555100
95.99999447	0.00000000	11.62032000	-2.18380900
96.19999446	0.00000000	11.62032000	1.20570900
96.39999445	0.00000000	13.20128000	4.64443900
96.59999444	0.00000000	16.27707000	7.38188900
96.79999442	0.00000000	20.17716000	8.91978400
96.99999441	0.00000000	23.99729000	8.96284400
97.19999440	0.00000000	27.10999000	7.80019600
97.39999439	0.00000000	28.22958000	5.89320800
97.59999438	0.00000000	27.52830000	3.57406500
97.79999436	0.00000000	25.15994000	1.66707700
97.99999435	0.00000000	21.66585000	0.51058070
98.19999434	0.00000000	17.39050000	0.51058070
98.39999433	0.00000000	13.20128000	1.62401600
98.59999432	0.00000000	10.50689000	3.11269700
98.79999430	0.00000000	10.08243000	4.26919300
98.99999429	0.00000000	11.57726000	4.69365100
99.19999428	0.00000000	14.32087000	4.73671200
99.39999427	0.00000000	17.80881000	4.73671200
99.59999426	0.00000000	21.66585000	4.73671200
99.79999425	0.00000000	24.74163000	4.77977300
99.99999423	0.00000000	26.32259000	5.15501900
100.19999422	0.00000000	26.36565000	5.89320800
100.39999421	0.00000000	25.20300000	6.26845500
100.59999420	0.00000000	23.24680000	6.26845500
100.79999419	0.00000000	20.50935000	5.85014700
100.99999417	0.00000000	17.43356000	4.68750000
101.19999416	0.00000000	14.73917000	3.15575800
101.39999415	0.00000000	13.15822000	1.62401600
101.59999414	0.00000000	12.78297000	0.46136810
101.79999413	0.00000000	13.53346000	0.09227362
101.99999411	0.00000000	15.47736000	0.51058070
102.19999410	0.00000000	17.76575000	2.08538400
102.39999409	0.00000000	20.13410000	4.73671200
102.59999408	0.00000000	22.04109000	7.43110200
102.79999407	0.00000000	23.24680000	9.33809000
102.99999406	0.00000000	23.62205000	10.11934000
103.19999404	0.00000000	23.24680000	9.33809000
103.39999403	0.00000000	22.04109000	7.43110200
103.59999402	0.00000000	20.13410000	4.68750000
103.79999401	0.00000000	17.80881000	1.62401600
103.99999400	0.00000000	15.90182000	-1.02116100
104.19999398	0.00000000	14.73917000	-2.18380900
104.39999397	0.00000000	14.73917000	-1.43946800
104.59999396	0.00000000	15.85261000	0.46751960
104.79999395	0.00000000	17.34744000	3.15575800
104.99999394	0.00000000	18.55315000	5.85014700
105.19999392	0.00000000	19.38976000	7.80019600
105.39999391	0.00000000	20.50935000	8.96284400
105.59999390	0.00000000	21.24754000	8.96284400
105.79999389	0.00000000	20.88459000	7.80019600
105.99999388	0.00000000	20.13410000	5.85014700
106.19999387	0.00000000	18.97145000	3.19881900
106.39999385	0.00000000	17.85802000	0.92888770
106.59999384	0.00000000	17.43356000	0.13533460
106.79999383	0.00000000	17.43356000	0.46136810
106.99999382	0.00000000	17.85802000	1.62401600
107.19999381	0.00000000	18.97145000	3.15575800
107.39999379	0.00000000	20.08489000	4.73671200
107.59999378	0.00000000	20.50935000	6.22539300
107.79999377	0.00000000	20.50935000	6.96358300
107.99999376	0.00000000	20.08489000	6.22539300
108.19999375	0.00000000	18.97145000	4.73671200
108.39999374	0.00000000	17.80881000	3.19881900
108.59999372	0.00000000	17.05832000	2.04232300
108.79999371	-0.15871060	16.64616000	1.61786400
108.99999370	0.00000000	17.05832000	1.61786400
109.19999369	0.00000000	17.76575000	2.04232300
109.39999368	0.00000000	18.59621000	3.19881900
109.59999366	0.00000000	19.34670000	4.73671200
109.79999365	0.00000000	20.17716000	6.26845500
109.99999364	0.00000000	20.88459000	7.38188900
110.19999363	0.00000000	21.24754000	7.38188900
110.39999362	0.00000000	20.46014000	6.26845500
110.59999360	0.00000000	19.01451000	4.73671200
110.79999359	0.00000000	17.80881000	3.15575800
110.99999358	0.00000000	17.05832000	1.62401600
111.19999357	0.00000000	16.64616000	0.46136810
111.39999356	0.00000000	17.01525000	0.09227362
111.59999355	0.00000000	17.39050000	0.46136810
111.79999353	0.00000000	17.80881000	1.62401600
111.99999352	0.00000000	18.59621000	3.11269700
112.19999351	0.00000000	19.34670000	4.26919300
112.39999350	0.00000000	20.08489000	4.69365100
112.59999349	0.00000000	20.08489000	4.73671200
112.79999347	0.00000000	19.38976000	4.73671200
112.99999346	0.00000000	19.01451000	4.77977300
113.19999345	0.00000000	18.97145000	5.06274600
113.39999344	0.00000000	18.97145000	5.05659400
113.59999343	0.00000000	18.97145000	3.94931100
113.79999341	0.00000000	18.97145000	3.24803100
113.99999340	0.00000000	18.97145000	3.15575800
114.19999339	0.00000000	18.97145000	3.11269700
114.39999338	0.00000000	18.97145000	2.73745100
114.59999337	0.00000000	18.97145000	1.99311000
114.79999336	0.00000000	18.97145000	1.61786400
114.99999334	0.00000000	18.97145000	1.61786400
115.19999333	0.00000000	18.97145000	1.99311000
115.39999332	0.00000000	18.97145000	2.78051200
115.59999331	0.00000000	18.97145000	3.53100400
115.79999330	0.00000000	18.97145000	4.36146600
115.99999328	0.00000000	18.97145000	5.11195900
116.19999327	0.00000000	18.92839000	5.89320800
116.39999326	0.00000000	18.55315000	6.21924200
116.59999325	0.00000000	17.85802000	5.89320800
116.79999324	0.00000000	17.80881000	5.11195900
116.99999322	0.00000000	18.17790000	4.31840500
117.19999321	0.00000000	18.18405000	3.15575800
117.39999320	0.00000000	18.63927000	2.04232300
117.59999319	0.00000000	19.34670000	1.61786400
117.79999318	0.00000000	20.13410000	1.57480300
117.99999317	0.00000000	20.50935000	1.61786400
118.19999315	0.00000000	20.50935000	1.99311000
118.39999314	0.00000000	20.08489000	2.78051200
118.59999313	0.00000000	18.97145000	3.53100400
118.79999312	0.00000000	17.80881000	4.36146600
118.99999311	0.00000000	17.01525000	5.11195900
119.19999309	0.00000000	16.22785000	5.85014700
119.39999308	0.00000000	15.90182000	5.85014700
119.59999307	0.00000000	16.27707000	5.15501900
119.79999306	0.00000000	17.43356000	4.73671200
119.99999305	0.00000000	18.92839000	4.31840500
120.19999303	0.00000000	20.13410000	3.57406500
120.39999302	0.00000000	20.92766000	3.19881900
120.59999301	0.00000000	21.66585000	3.15575800
120.79999300	0.00000000	21.66585000	3.15575800
120.99999299	0.00000000	20.92766000	3.15575800
121.19999298	0.00000000	20.13410000	3.15575800
121.39999296	0.00000000	18.92839000	3.15575800
121.59999295	0.00000000	17.43356000	3.19881900
121.79999294	0.00000000	16.27707000	3.57406500
121.99999293	0.00000000	15.85261000	4.31840500
122.19999292	0.00000000	15.85261000	4.69365100
122.39999290	0.00000000	16.27707000	4.73671200
122.59999289	0.00000000	17.39050000	4.73671200
122.79999288	0.00000000	18.55315000	4.73671200
122.99999287	0.00000000	19.34670000	4.73671200
123.19999286	0.00000000	20.13410000	4.73671200
123.39999284	0.00000000	20.50935000	4.69365100
123.59999283	0.00000000	20.50935000	4.31840500
123.79999282	0.00000000	20.17716000	3.57406500
123.99999281	0.00000000	19.76501000	3.19881900
124.19999280	0.00000000	19.71580000	3.15575800
124.39999279	0.00000000	18.92839000	3.15575800
124.59999277	0.00000000	17.80881000	3.15575800
124.79999276	0.00000000	17.01525000	3.15575800
124.99999275	0.00000000	16.22785000	3.19881900
125.19999274	0.00000000	15.90182000	3.57406500
125.39999273	0.00000000	16.22785000	4.31840500
125.59999271	0.00000000	17.01525000	4.69365100
125.79999270	0.00000000	17.80881000	4.73671200
125.99999269	0.00000000	18.97145000	4.73671200
126.19999268	0.00000000	20.08489000	4.73671200
126.39999267	0.00000000	20.50935000	4.73671200
126.59999265	0.00000000	20.55241000	4.69365100
126.79999264	0.00000000	20.50935000	4.31840500
126.99999263	0.00000000	20.08489000	3.57406500
127.19999262	0.00000000	18.92839000	3.19881900
127.39999261	0.00000000	17.43356000	3.15575800
127.59999260	0.00000000	16.27707000	3.15575800
127.79999258	0.00000000	15.90182000	3.15575800
127.99999257	0.00000000	16.22785000	3.15575800
128.19999256	0.00000000	17.01525000	3.19881900
128.39999255	0.00000000	17.80881000	3.57406500
128.59999254	0.00000000	19.01451000	4.31840500
128.79999252	0.00000000	20.46014000	4.69365100
128.99999251	0.00000000	21.24754000	4.73671200
129.19999250	0.00000000	20.88459000	4.69365100
129.39999249	0.00000000	20.13410000	4.31840500
129.59999248	0.00000000	18.97145000	3.57406500
129.79999246	0.00000000	17.80881000	3.19881900
129.99999245	0.00000000	17.01525000	3.15575800
130.19999244	0.00000000	16.27707000	3.15575800
130.39999243	0.00000000	16.27707000	3.19881900
130.59999242	0.00000000	17.01525000	3.57406500
130.79999241	0.00000000	17.76575000	4.31840500
130.99999239	0.00000000	18.59621000	4.69365100
131.19999238	0.00000000	19.34670000	4.69365100
131.39999237	0.00000000	20.08489000	4.31840500
131.59999236	0.00000000	20.08489000	3.57406500
131.79999235	0.00000000	19.38976000	3.19881900
131.99999233	0.00000000	18.97145000	3.15575800
132.19999232	0.00000000	18.55315000	3.15575800
132.39999231	0.00000000	17.80881000	3.15575800
132.59999230	0.00000000	17.43356000	3.15575800
132.79999229	0.00000000	17.39050000	3.19881900
132.99999227	0.00000000	17.43356000	3.57406500
133.19999226	0.00000000	17.80881000	4.31840500
133.39999225	0.00000000	18.55315000	4.69365100
133.59999224	0.00000000	18.92839000	4.73671200
133.79999223	0.00000000	18.97145000	4.69365100
133.99999222	0.00000000	18.97145000	4.31840500
134.19999220	0.00000000	18.97145000	3.53100400
134.39999219	0.00000000	18.92839000	2.78051200
134.59999218	0.00000000	18.59621000	1.99311000
134.79999217	0.00000000	18.22711000	1.61786400
134.99999216	0.00000000	18.59621000	1.61786400
135.19999214	0.00000000	18.92839000	1.99311000
135.39999213	0.00000000	18.97145000	2.78051200
135.59999212	0.00000000	18.92839000	3.53100400
135.79999211	0.00000000	18.55315000	4.31840500
135.99999210	0.00000000	17.80881000	4.69365100
136.19999208	0.00000000	17.43356000	4.73671200
136.39999207	0.00000000	17.39050000	4.73671200
136.59999206	0.00000000	17.39050000	4.73671200
136.79999205	0.00000000	17.43356000	4.69365100
136.99999204	0.00000000	17.80881000	4.31840500
137.19999203	0.00000000	18.59621000	3.57406500
137.39999201	0.00000000	19.34670000	3.15575800
137.59999200	0.00000000	20.13410000	2.78051200
137.79999199	0.00000000	20.46014000	2.36835600
137.99999198	0.00000000	20.13410000	2.40526600
138.19999197	0.00000000	19.34670000	2.36835600
138.39999195	0.00000000	18.59621000	2.78051200
138.59999194	0.00000000	17.80881000	3.11269700
138.79999193	0.00000000	17.43356000	3.19881900
138.99999192	0.00000000	17.39050000	3.57406500
139.19999191	0.00000000	17.39050000	4.31840500
139.39999189	0.00000000	17.43356000	4.69365100
139.59999188	0.00000000	17.80881000	4.73671200
139.79999187	0.00000000	18.55315000	4.73671200
139.99999186	0.00000000	18.92839000	4.69365100
140.19999185	0.00000000	18.97145000	4.31840500
140.39999184	0.00000000	18.97145000	3.53100400
140.59999182	0.00000000	18.92839000	2.78051200
140.79999181	0.00000000	18.55315000	1.99311000
140.99999180	0.00000000	17.80881000	1.61786400
141.19999179	0.00000000	17.43356000	1.61786400
141.39999178	0.00000000	17.39050000	2.04232300
141.59999176	0.00000000	17.43356000	3.15575800
141.79999175	0.00000000	17.80881000	4.31840500
141.99999174	0.00000000	18.55315000	5.11195900
142.19999173	0.00000000	18.92839000	5.85014700
142.39999172	0.00000000	18.97145000	5.85014700
142.59999170	0.00000000	18.97145000	5.15501900
142.79999169	0.00000000	18.92839000	4.73671200
142.99999168	0.00000000	18.55315000	4.26919300
143.19999167	0.00000000	17.80881000	3.15575800
143.39999166	0.00000000	17.43356000	2.04232300
143.59999165	0.00000000	17.39050000	1.61786400
143.79999163	0.00000000	17.39050000	1.61786400
143.99999162	0.00000000	17.43356000	1.99311000
144.19999161	0.00000000	17.80881000	2.78051200
144.39999160	0.00000000	18.55315000	3.53100400
144.59999159	0.00000000	18.92839000	4.36146600
144.79999157	0.00000000	18.97145000	5.06274600
144.99999156	0.00000000	18.97145000	5.51796200
145.19999155	0.00000000	18.92839000	5.48105300
145.39999154	0.00000000	18.55315000	5.47490100
145.59999153	0.00000000	17.80881000	4.68750000
145.79999151	0.00000000	17.43356000	3.62327700
145.99999150	0.00000000	17.39050000	3.19881900
146.19999149	0.00000000	17.39050000	3.11269700
146.39999148	0.00000000	17.43356000	2.78051200
146.59999147	0.00000000	17.80881000	2.41141700
146.79999146	0.00000000	18.55315000	2.78051200
146.99999144	0.00000000	18.92839000	3.11269700
147.19999143	0.00000000	18.97145000	3.19881900
147.39999142	0.00000000	18.92839000	3.57406500
147.59999141	0.00000000	18.55315000	4.31840500
147.79999140	0.00000000	17.80881000	4.69365100
147.99999138	0.00000000	17.43356000	4.73671200
148.19999137	0.00000000	17.39050000	4.69365100
148.39999136	0.00000000	17.39050000	4.31840500
148.59999135	0.00000000	17.39050000	3.57406500
148.79999134	0.00000000	17.39050000	3.19881900
148.99999132	0.00000000	17.43356000	3.15575800
149.19999131	0.00000000	17.80881000	3.15575800
149.39999130	0.00000000	18.55315000	3.15575800
149.59999129	0.00000000	18.92839000	3.15575800
149.79999128	0.00000000	18.97145000	3.15575800
149.99999127	0.00000000	18.97145000	3.19881900
150.19999125	0.00000000	18.97145000	3.57406500
150.39999124	0.00000000	18.92839000	4.31840500
150.59999123	0.00000000	18.55315000	4.69365100
150.79999122	0.00000000	17.80881000	4.73671200
150.99999121	0.00000000	17.43356000	4.73671200
151.19999119	0.00000000	17.39050000	4.69365100
151.39999118	0.00000000	17.39050000	4.31840500
151.59999117	0.00000000	17.39050000	3.57406500
151.79999116	0.00000000	17.43356000	3.19881900
151.99999115	0.00000000	17.80881000	3.15575800
152.19999113	0.00000000	18.55315000	3.15575800
152.39999112	0.00000000	18.92839000	3.15575800
152.59999111	0.00000000	18.97145000	3.15575800
152.79999110	0.00000000	18.97145000	3.19881900
152.99999109	0.00000000	18.97145000	3.57406500
153.19999108	0.00000000	18.92839000	4.31840500
153.39999106	0.00000000	18.55315000	4.69365100
153.59999105	0.00000000	17.80881000	4.73671200
153.79999104	0.00000000	17.43356000	4.73671200
153.99999103	0.00000000	17.39050000	4.69365100
154.19999102	0.00000000	17.39050000	4.31840500
154.39999100	0.00000000	17.39050000	3.57406500
154.59999099	0.00000000	17.43356000	3.19881900
154.79999098	0.00000000	17.80881000	3.15575800
154.99999097	0.00000000	18.55315000	3.15575800
155.19999096	0.00000000	18.92839000	3.15575800
155.39999094	0.00000000	18.97145000	3.15575800
155.59999093	0.00000000	18.97145000	3.15575800
155.79999092	0.00000000	18.92839000	3.15575800
155.99999091	0.00000000	18.55315000	3.19881900
156.19999090	0.00000000	17.80881000	3.53100400
156.39999089	0.00000000	17.39050000	3.94315900
156.59999087	0.00000000	17.01525000	3.94931100
156.79999086	0.00000000	16.64616000	4.36146600
156.99999085	0.00000000	17.01525000	4.69365100
157.19999084	0.00000000	17.34744000	4.69365100
157.39999083	0.00000000	17.39050000	4.31840500
157.59999081	0.00000000	17.39050000	3.57406500
157.79999080	0.00000000	17.43356000	3.19881900
157.99999079	0.00000000	17.80881000	3.15575800
158.19999078	0.00000000	18.55315000	3.15575800
158.39999077	0.00000000	18.92839000	3.15575800
158.59999075	0.00000000	18.97145000	3.15575800
158.79999074	0.00000000	18.97145000	3.15575800
158.99999073	0.00000000	18.92839000	3.19881900
159.19999072	0.00000000	18.55315000	3.57406500
159.39999071	0.00000000	17.80881000	4.31840500
159.59999070	0.00000000	17.43356000	4.69365100
159.79999068	0.00000000	17.39050000	4.73671200
159.99999067	0.00000000	17.39050000	4.69365100
160.19999066	0.00000000	17.39050000	4.31840500
160.39999065	0.00000000	17.39050000	3.57406500
160.59999064	0.00000000	17.39050000	3.19881900
160.79999062	0.00000000	17.39050000	3.15575800
160.99999061	0.00000000	17.39050000	3.15575800
161.19999060	0.00000000	17.39050000	3.15575800
161.39999059	0.00000000	17.43356000	3.15575800
161.59999058	0.00000000	17.80881000	3.15575800
161.79999056	0.00000000	18.55315000	3.19881900
161.99999055	0.00000000	18.92839000	3.57406500
162.19999054	0.00000000	18.97145000	4.31840500
162.39999053	0.00000000	18.92839000	4.69365100
162.59999052	0.00000000	18.55315000	4.69365100
162.79999051	0.00000000	17.80881000	4.36146600
162.99999049	0.00000000	17.43356000	3.94931100
163.19999048	0.00000000	17.39050000	3.94315900
163.39999047	0.00000000	17.39050000	3.53100400
163.59999046	0.00000000	17.39050000	3.19881900
163.79999045	0.00000000	17.39050000	3.15575800
163.99999043	0.00000000	17.39050000	3.15575800
164.19999042	0.00000000	17.43356000	3.15575800
164.39999041	0.00000000	17.80881000	3.15575800
164.59999040	0.00000000	18.55315000	3.15575800
164.79999039	0.00000000	18.92839000	3.15575800
164.99999037	0.00000000	18.97145000	3.15575800
165.19999036	0.00000000	18.97145000	3.15575800
165.39999035	0.00000000	18.92839000	3.15575800
165.59999034	0.00000000	18.55315000	3.15575800
165.79999033	0.00000000	17.80881000	3.15575800
165.99999032	0.00000000	17.43356000	3.19881900
166.19999030	0.00000000	17.39050000	3.53100400
166.39999029	0.00000000	17.39050000	3.90009800
166.59999028	0.00000000	17.39050000	3.53100400
166.79999027	0.00000000	17.39050000	3.19881900
166.99999026	0.00000000	17.39050000	3.15575800
167.19999024	0.00000000	17.39050000	3.15575800
167.39999023	0.00000000	17.39050000	3.15575800
167.59999022	0.00000000	17.43356000	3.15575800
167.79999021	0.00000000	17.80881000	3.15575800
167.99999020	0.00000000	18.50394000	3.15575800
168.19999018	0.00000000	18.50394000	3.15575800
168.39999017	0.00000000	17.80881000	3.15575800
168.59999016	0.00000000	17.43356000	3.15575800
168.79999015	0.00000000	17.39050000	3.15575800
168.99999014	0.00000000	17.39050000	3.15575800
169.19999013	0.00000000	17.39050000	3.15575800
169.39999011	0.00000000	17.39050000	3.15575800
169.59999010	0.00000000	17.39050000	3.15575800
169.79999009	0.00000000	17.39050000	3.15575800
169.99999008	0.00000000	17.39050000	3.15575800
170.19999007	0.00000000	17.39050000	3.15575800
170.39999005	0.00000000	17.39050000	3.15575800
170.59999004	0.00000000	17.39050000	3.15575800
170.79999003	0.00000000	17.39050000	3.15575800
170.99999002	0.00000000	17.39050000	3.15575800
171.19999001	0.00000000	17.39050000	3.15575800
171.39998999	0.00000000	17.39050000	3.15575800
171.59998998	0.00000000	17.39050000	3.15575800
171.79998997	0.00000000	17.39050000	3.15575800
171.99998996	0.00000000	17.39050000	3.15575800
172.19998995	0.00000000	17.39050000	3.15575800
172.39998994	0.00000000	17.39050000	3.15575800
172.59998992	0.00000000	17.39050000	3.15575800
172.79998991	0.00000000	17.39050000	3.15575800
172.99998990	0.00000000	17.39050000	3.15575800
173.19998989	0.00000000	17.39050000	3.15575800
173.39998988	0.00000000	17.39050000	3.15575800
173.59998986	0.00000000	17.39050000	3.15575800
173.79998985	0.00000000	17.39050000	3.15575800
173.99998984	0.00000000	17.39050000	3.15575800
174.19998983	0.00000000	17.39050000	3.15575800
174.39998982	0.00000000	17.39050000	3.15575800
174.59998980	0.00000000	17.39050000	3.15575800
174.79998979	0.00000000	17.39050000	3.15575800
174.99998978	0.00000000	17.39050000	3.15575800
175.19998977	0.00000000	17.39050000	3.15575800
175.39998976	0.00000000	17.39050000	3.15575800
175.59998975	0.00000000	17.39050000	3.15575800
175.79998973	0.00000000	17.39050000	3.15575800
175.99998972	0.00000000	17.39050000	3.15575800
176.19998971	0.00000000	17.43356000	3.15575800
176.39998970	0.00000000	17.76575000	3.15575800
176.59998969	0.00000000	18.13484000	3.15575800
176.79998967	0.00000000	17.76575000	3.15575800
176.99998966	0.00000000	17.43356000	3.15575800
177.19998965	0.00000000	17.39050000	3.11269700
177.39998964	0.00000000	17.39050000	2.78051200
177.59998963	0.00000000	17.39050000	2.41141700
177.79998961	0.00000000	17.39050000	2.78051200
177.99998960	0.00000000	17.39050000	3.11269700
178.19998959	0.00000000	17.39050000	3.15575800
178.39998958	0.00000000	17.39050000	3.19881900
178.59998957	0.00000000	17.39050000	3.53100400
178.79998956	0.00000000	17.39050000	3.90009800
178.99998954	0.00000000	17.43356000	3.53100400
179.19998953	0.00000000	17.76575000	3.19881900
179.39998952	0.00000000	18.13484000	3.15575800
179.59998951	0.00000000	17.76575000	3.15575800
179.79998950	0.00000000	17.43356000	3.15575800
179.99998948	0.00000000	17.39050000	3.15575800
180.19998947	0.00000000	17.39050000	3.15575800
180.39998946	0.00000000	17.39050000	3.15575800
180.59998945	0.00000000	17.39050000	3.15575800
180.79998944	0.00000000	17.39050000	3.15575800
180.99998942	0.00000000	17.39050000	3.15575800
181.19998941	0.00000000	17.39050000	3.15575800
181.39998940	0.00000000	17.39050000	3.19881900
181.59998939	0.00000000	17.39050000	3.53100400
181.79998938	0.00000000	17.39050000	3.90009800
181.99998937	0.00000000	17.39050000	3.53100400
182.19998935	0.00000000	17.39050000	3.19881900
182.39998934	0.00000000	17.39050000	3.15575800
182.59998933	0.00000000	17.39050000	3.15575800
182.79998932	0.00000000	17.39050000	3.15575800
182.99998931	0.00000000	17.39050000	3.15575800
183.19998929	0.00000000	17.39050000	3.15575800
183.39998928	0.00000000	17.39050000	3.15575800
183.59998927	0.00000000	17.39050000	3.15575800
183.79998926	0.00000000	17.39050000	3.15575800
183.99998925	-0.15871060	17.39050000	3.15575800
184.19998923	0.00000000	17.39050000	3.19881900
184.39998922	0.00000000	17.39050000	3.57406500
184.59998921	0.00000000	17.39050000	4.31840500
184.79998920	0.00000000	17.39050000	4.69365100
184.99998919	0.00000000	17.43356000	4.69365100
185.19998918	0.00000000	17.76575000	4.31840500
185.39998916	0.00000000	18.13484000	3.57406500
185.59998915	0.00000000	17.80881000	3.19881900
185.79998914	0.00000000	17.85802000	3.15575800
185.99998913	0.00000000	18.50394000	3.15575800
186.19998912	0.00000000	18.50394000	3.15575800
186.39998910	0.00000000	17.80881000	3.15575800
186.59998909	0.00000000	17.43356000	3.15575800
186.79998908	0.00000000	17.39050000	3.19881900
186.99998907	0.00000000	17.39050000	3.57406500
187.19998906	0.00000000	17.39050000	4.31840500
187.39998904	0.00000000	17.39050000	4.69365100
187.59998903	0.00000000	17.39050000	4.73671200
187.79998902	0.00000000	17.39050000	4.69365100
187.99998901	0.00000000	17.43356000	4.31840500
188.19998900	0.00000000	17.76575000	3.57406500
188.39998899	0.00000000	18.13484000	3.19881900
188.59998897	0.00000000	17.76575000	3.15575800
188.79998896	0.00000000	17.43356000	3.15575800
188.99998895	0.00000000	17.39050000	3.15575800
189.19998894	0.00000000	17.39050000	3.15575800
189.39998893	0.00000000	17.39050000	3.15575800
189.59998891	0.00000000	17.39050000	3.15575800
189.79998890	0.00000000	17.39050000	3.15575800
189.99998889	0.00000000	17.39050000	3.15575800
190.19998888	0.00000000	17.39050000	3.15575800
190.39998887	0.00000000	17.39050000	3.15575800
190.59998885	0.00000000	17.39050000	3.15575800
190.79998884	0.00000000	17.39050000	3.15575800
190.99998883	0.00000000	17.39050000	3.15575800
191.19998882	0.00000000	17.39050000	3.15575800
191.39998881	0.00000000	17.39050000	3.15575800
191.59998880	0.00000000	17.39050000	3.15575800
191.79998878	0.00000000	17.39050000	3.15575800
191.99998877	0.00000000	17.39050000	3.15575800
192.19998876	0.00000000	17.39050000	3.15575800
192.39998875	0.00000000	17.39050000	3.15575800
192.59998874	0.00000000	17.39050000	3.15575800
192.79998872	0.00000000	17.39050000	3.15575800
192.99998871	0.00000000	17.34744000	3.11269700
193.19998870	0.00000000	17.01525000	2.82357300
193.39998869	0.00000000	16.64616000	2.78666300
193.59998868	0.00000000	17.01525000	3.52485200
193.79998866	0.00000000	17.34744000	3.48794300
193.99998865	0.00000000	17.39050000	3.19881900
194.19998864	0.00000000	17.39050000	3.15575800
194.39998863	0.00000000	17.39050000	3.15575800
194.59998862	0.00000000	17.39050000	3.15575800
194.79998861	0.00000000	17.39050000	3.15575800
194.99998859	0.00000000	17.39050000	3.15575800
195.19998858	0.00000000	17.39050000	3.15575800
195.39998857	0.00000000	17.39050000	3.15575800
195.59998856	0.00000000	17.39050000	3.15575800
195.79998855	0.00000000	17.39050000	3.15575800
195.99998853	0.00000000	17.39050000	3.15575800
