Time	Channel A	Channel B	Channel C
(us)	(V)	(mV)	(mV)

-4.49999956	0.00000000	12.60458000	1.57480300
-4.29999957	0.00000000	12.64764000	1.57480300
-4.09999958	0.00000000	12.64764000	1.57480300
-3.89999959	0.00000000	12.64764000	1.57480300
-3.69999960	0.00000000	12.64764000	1.57480300
-3.49999962	0.00000000	12.64764000	1.57480300
-3.29999963	0.00000000	12.64764000	1.57480300
-3.09999964	0.00000000	12.64764000	1.57480300
-2.89999965	0.00000000	12.64764000	1.57480300
-2.69999966	0.00000000	12.64764000	1.57480300
-2.49999968	0.00000000	12.64764000	1.57480300
-2.29999969	0.00000000	12.64764000	1.57480300
-2.09999970	0.00000000	12.64764000	1.57480300
-1.89999971	0.00000000	12.64764000	1.57480300
-1.69999972	0.00000000	12.64764000	1.53174200
-1.49999973	0.00000000	12.64764000	1.19955700
-1.29999975	0.00000000	12.64764000	0.83661410
-1.09999976	0.00000000	12.64764000	1.19955700
-0.89999977	0.00000000	12.64764000	1.53174200
-0.69999978	0.00000000	12.64764000	1.57480300
-0.49999979	0.00000000	12.64764000	1.57480300
-0.29999981	0.31803640	12.64764000	1.57480300
-0.09999982	0.63668800	12.64764000	1.57480300
0.10000017	0.95533960	12.64764000	1.57480300
0.30000016	0.95533960	12.64764000	1.53174200
0.50000015	0.79601380	12.64764000	1.19955700
0.70000013	0.31803640	12.64764000	0.83661410
0.90000012	-0.63668800	12.64764000	1.19955700
1.10000011	-1.59264300	12.64764000	1.53174200
1.30000010	-2.38927200	12.64764000	1.57480300
1.50000009	-2.86724900	12.64764000	1.57480300
1.70000008	-2.38927200	12.64764000	1.57480300
1.90000006	-1.27399100	12.64764000	1.57480300
2.10000005	0.63668800	12.64764000	1.57480300
2.30000004	2.86724900	12.64764000	1.57480300
2.50000003	4.61921700	12.64764000	1.53174200
2.70000002	5.41584600	12.64764000	1.15649600
2.90000000	4.77854300	12.64764000	0.41830710
3.09999999	2.70792300	12.64764000	0.04306102
3.29999998	-0.31803640	12.64764000	0.04306102
3.49999997	-3.82258900	12.64764000	0.41830710
3.69999996	-6.53112700	12.64764000	1.15649600
3.89999994	-7.96444400	12.69070000	1.53174200
4.09999993	-7.48646600	13.02288000	1.57480300
4.29999992	-4.77854300	13.39198000	1.57480300
4.49999991	-0.79601380	13.06594000	1.61786400
4.69999990	3.66326300	13.06594000	1.95004900
4.89999989	7.32714100	13.39198000	2.26993100
5.09999987	9.23905000	13.02288000	1.53174200
5.29999986	8.92039900	12.69070000	0.46136810
5.49999985	6.37180100	12.64764000	0.04306102
5.69999984	2.07062000	12.64764000	0.04306102
5.89999983	-2.70792300	12.64764000	0.41830710
6.09999981	-6.84916400	12.64764000	1.15649600
6.29999980	-9.23905000	12.64764000	1.53174200
6.49999979	-9.23905000	12.64764000	1.61786400
6.69999978	-7.00848900	12.64764000	1.95004900
6.89999977	-3.18590100	12.64764000	2.31914400
7.09999975	1.27399100	12.64764000	1.95004900
7.29999974	5.09719500	12.64764000	1.57480300
7.49999973	7.32714100	12.64764000	1.15649600
7.69999972	7.64579200	12.64764000	0.46136810
7.89999971	6.05315000	12.64764000	0.46136810
8.09999970	3.18590100	12.64764000	1.15649600
8.29999968	-0.15871060	12.64764000	1.53174200
8.49999967	-3.02657500	12.64764000	1.57480300
8.69999966	-4.77854300	12.64764000	1.57480300
8.89999965	-5.25652100	12.64764000	1.57480300
9.09999964	-4.30056600	12.64764000	1.57480300
9.29999962	-2.54859700	12.64764000	1.57480300
9.49999961	-0.47736220	12.64764000	1.57480300
9.69999960	1.11466500	12.64764000	1.57480300
9.89999959	2.22994600	12.64764000	1.57480300
10.09999958	2.54859700	12.64764000	1.57480300
10.29999956	2.22994600	12.64764000	1.57480300
10.49999955	1.43331700	12.64764000	1.57480300
10.69999954	0.47736220	12.64764000	1.57480300
10.89999953	-0.31803640	12.64764000	1.57480300
11.09999952	-0.79601380	12.64764000	1.57480300
11.29999951	-0.95533960	12.64764000	1.57480300
11.49999949	-0.95533960	12.64764000	1.57480300
11.69999948	-0.79601380	12.64764000	1.57480300
11.89999947	-0.47736220	12.64764000	1.57480300
12.09999946	-0.15871060	12.64764000	1.57480300
12.29999945	-0.15871060	12.64764000	1.57480300
12.49999943	-0.15871060	12.64764000	1.57480300
12.69999942	0.00000000	12.64764000	1.57480300
12.89999941	0.00000000	12.64764000	1.57480300
13.09999940	0.00000000	12.64764000	1.57480300
13.29999939	0.00000000	12.64764000	1.57480300
13.49999937	0.00000000	12.64764000	1.57480300
13.69999936	0.00000000	12.64764000	1.57480300
13.89999935	-0.15871060	12.64764000	1.57480300
14.09999934	-0.15871060	12.64764000	1.57480300
14.29999933	-0.15871060	12.64764000	1.57480300
14.49999932	-0.15871060	12.64764000	1.57480300
14.69999930	0.00000000	12.64764000	1.57480300
14.89999929	0.00000000	12.64764000	1.57480300
15.09999928	0.00000000	12.64764000	1.57480300
15.29999927	0.00000000	12.64764000	1.57480300
15.49999926	0.00000000	12.64764000	1.57480300
15.69999924	0.00000000	12.64764000	1.57480300
15.89999923	0.00000000	12.60458000	1.57480300
16.09999922	0.00000000	12.27239000	1.57480300
16.29999921	-0.15871060	11.90330000	1.57480300
16.49999920	-0.15871060	12.27239000	1.57480300
16.69999919	-0.15871060	12.60458000	1.57480300
16.89999917	0.00000000	12.69070000	1.53174200
17.09999916	0.00000000	13.06594000	1.19955700
17.29999915	0.00000000	13.81028000	0.83661410
17.49999914	0.00000000	14.18553000	1.19955700
17.69999913	0.00000000	14.18553000	1.53174200
17.89999911	0.00000000	13.76107000	1.57480300
18.09999910	0.00000000	12.60458000	1.57480300
18.29999909	0.00000000	11.06668000	1.57480300
18.49999908	0.00000000	9.48572700	1.57480300
18.69999907	-0.15871060	7.94783400	1.57480300
18.89999905	0.00000000	6.83439900	1.57480300
19.09999904	-0.15871060	6.87746000	1.57480300
19.29999903	0.00000000	8.41535400	1.57480300
19.49999902	0.00000000	11.15896000	1.57480300
19.69999901	0.00000000	14.69611000	1.57480300
19.89999900	0.00000000	18.92839000	1.57480300
20.09999898	0.00000000	22.69316000	1.57480300
20.29999897	0.00000000	24.23105000	1.57480300
20.49999896	0.00000000	23.06841000	1.57480300
20.69999895	0.00000000	19.53125000	1.57480300
20.89999894	0.00000000	13.63189000	1.57480300
21.09999892	-0.15871060	5.94857300	1.57480300
21.29999891	0.00000000	-1.72244100	1.57480300
21.49999890	0.00000000	-6.70521600	1.57480300
21.69999889	0.00000000	-7.86786400	1.53174200
21.89999888	0.00000000	-4.66289300	1.19955700
22.09999886	0.00000000	3.15575800	0.83661410
22.29999885	0.00000000	14.73917000	1.19955700
22.49999884	0.00000000	27.44217000	1.53174200
22.69999883	0.00000000	37.86294000	1.57480300
22.89999882	0.00000000	43.59005000	1.57480300
23.09999881	0.00000000	42.70423000	1.57480300
23.29999879	0.00000000	34.14739000	1.61786400
23.49999878	0.00000000	19.44513000	1.99311000
23.69999877	0.00000000	1.67322800	2.73745100
23.89999876	0.00000000	-15.30512000	3.11269700
24.09999875	0.00000000	-27.17766000	3.11269700
24.29999873	0.00000000	-30.57333000	2.68823800
24.49999872	0.00000000	-23.59744000	1.53174200
24.69999871	0.00000000	-7.73252900	0.00000000
24.89999870	0.00000000	13.53346000	-1.57480300
25.09999869	0.00000000	35.90674000	-3.11269700
25.29999867	0.00000000	53.63558000	-4.22613100
25.49999866	0.00000000	62.52460000	-4.18307100
25.69999865	0.00000000	60.47613000	-2.64517700
25.89999864	0.00000000	46.93651000	0.09227362
26.09999863	0.00000000	24.56324000	3.57406500
26.29999862	0.00000000	-0.89197830	7.47416300
26.49999860	0.00000000	-23.68356000	10.86983000
26.69999859	0.00000000	-38.29970000	12.77067000
26.89999858	0.00000000	-41.08636000	11.94021000
27.09999857	0.00000000	-31.83440000	8.45226300
27.29999856	0.00000000	-13.26279000	2.60211600
27.49999854	0.00000000	11.11590000	-4.73671200
27.69999853	0.00000000	35.77140000	-12.07554000
27.89999852	0.00000000	54.71210000	-17.79035000
28.09999851	-0.15871060	63.64419000	-20.02337000
28.29999850	0.00000000	60.98671000	-17.28592000
28.49999848	0.00000000	47.86540000	-9.94094400
28.69999847	0.00000000	27.39296000	0.55364170
28.89999846	0.00000000	4.26919300	12.49385000
29.09999845	0.00000000	-15.87106000	23.27141000
29.29999844	0.00000000	-28.66634000	29.77977000
29.49999843	0.00000000	-32.24040000	30.52411000
29.69999841	0.00000000	-26.05807000	24.66781000
29.89999840	0.00000000	-12.19242000	13.05979000
30.09999839	0.00000000	6.32381900	-1.99311000
30.29999838	0.00000000	24.88312000	-17.46432000
30.49999837	0.00000000	39.26550000	-29.73671000
30.69999835	0.00000000	47.44709000	-35.91289000
30.89999834	0.00000000	47.82234000	-33.91978000
31.09999833	0.00000000	40.56348000	-24.29257000
31.29999832	0.00000000	27.81742000	-8.82750900
31.49999831	0.00000000	12.78297000	8.91978400
31.69999829	0.00000000	-1.21186000	25.17839000
31.89999828	0.00000000	-11.26968000	36.79257000
32.09999827	0.00000000	-15.95718000	41.35088000
32.29999826	0.00000000	-14.05635000	37.49385000
32.49999825	0.00000000	-6.79749000	25.51058000
32.69999824	0.00000000	3.67249000	8.59375000
32.89999822	0.00000000	15.25591000	-9.61491000
33.09999821	0.00000000	25.30143000	-25.08612000
33.29999820	0.00000000	31.53912000	-35.16855000
33.49999819	0.00000000	33.07701000	-37.86294000
33.69999818	0.00000000	29.62598000	-32.43110000
33.89999816	0.00000000	21.99803000	-20.11565000
34.09999815	0.00000000	13.15822000	-3.48794300
34.29999814	0.00000000	5.38877900	13.47810000
34.49999813	0.00000000	-0.04921259	27.41142000
34.69999812	0.00000000	-2.00541300	35.12549000
34.89999810	0.00000000	-0.47367120	35.16855000
35.09999809	0.00000000	4.13385800	27.87278000
35.29999808	0.00000000	10.64838000	15.14518000
35.49999807	0.00000000	16.79380000	0.09227362
35.69999806	0.00000000	21.02608000	-14.17323000
35.89999805	0.00000000	22.23179000	-24.20645000
36.09999803	0.00000000	20.32480000	-27.69439000
36.29999802	0.00000000	16.50467000	-24.29257000
36.49999801	0.00000000	11.48499000	-15.05290000
36.69999800	0.00000000	6.87746000	-2.78051200
36.89999799	0.00000000	3.80782500	9.57185000
37.09999797	0.00000000	3.02042300	18.77460000
37.29999796	0.00000000	4.97047200	22.67470000
37.49999795	0.00000000	8.79060000	20.35556000
37.69999794	0.00000000	13.81028000	12.77067000
37.89999793	0.00000000	18.37475000	2.41756900
38.09999791	0.00000000	21.11220000	-7.16043300
38.29999790	0.00000000	21.53666000	-13.70571000
38.49999789	0.00000000	19.99877000	-15.19439000
38.69999788	0.00000000	16.87992000	-11.06053000
38.89999787	0.00000000	12.64764000	-3.02042300
39.09999786	0.00000000	8.41535400	6.17618100
39.29999784	0.00000000	5.29650500	14.21629000
39.49999783	0.00000000	3.71555100	18.35630000
39.69999782	-0.15871060	3.71555100	16.86762000
39.89999781	0.00000000	5.25344500	10.35925000
40.09999780	0.00000000	7.99704600	1.15649600
40.29999778	0.00000000	11.44193000	-8.45841400
40.49999777	0.00000000	14.97293000	-15.70497000
40.69999776	0.00000000	17.72268000	-18.39936000
40.89999775	0.00000000	20.04183000	-15.70497000
41.09999774	0.00000000	21.16142000	-8.40920300
41.29999772	0.00000000	20.41708000	1.57480300
41.49999771	0.00000000	18.50394000	11.52190000
41.69999770	0.00000000	15.71727000	18.44242000
41.89999769	0.00000000	12.27239000	20.39862000
42.09999768	0.00000000	8.79060000	17.37205000
42.29999767	0.00000000	6.45915300	10.45152000
42.49999765	0.00000000	5.25344500	1.62401600
42.69999764	0.00000000	5.25344500	-6.87746000
42.89999763	0.00000000	6.41609200	-13.01058000
43.09999762	0.00000000	8.32308000	-15.37894000
43.29999761	0.00000000	10.69144000	-13.47810000
43.49999759	0.00000000	12.97982000	-8.50147600
43.69999758	0.00000000	14.92372000	-1.58095500
43.89999757	0.00000000	15.71727000	5.29650500
44.09999756	0.00000000	15.80955000	9.98400600
44.29999755	0.00000000	15.80955000	11.98327000
44.49999753	0.00000000	15.80955000	11.61417000
44.69999752	0.00000000	15.76649000	8.91978400
44.89999751	0.00000000	15.39124000	4.73671200
45.09999750	0.00000000	14.60384000	0.46751960
45.29999749	0.00000000	13.76107000	-3.02042300
45.49999748	0.00000000	12.13706000	-5.33956700
45.69999746	0.00000000	9.44266700	-5.75787400
45.89999745	0.00000000	6.36687900	-4.64443900
46.09999744	0.00000000	3.67249000	-2.69439000
46.29999743	0.00000000	2.13459600	0.00000000
46.49999742	0.00000000	2.17765700	2.69439000
46.69999740	0.00000000	4.18307100	4.64443900
46.89999739	0.00000000	8.45841400	5.80093500
47.09999738	0.00000000	14.27165000	5.80093500
47.29999737	0.00000000	20.46014000	4.64443900
47.49999736	0.00000000	25.81201000	2.73745100
47.69999734	0.00000000	28.46333000	0.37524600
47.89999733	0.00000000	27.30069000	-1.90698800
48.09999732	0.00000000	22.60704000	-3.85088600
48.29999731	0.00000000	14.88066000	-4.60137700
48.49999730	-0.15871060	5.67175200	-4.22613100
48.69999729	0.00000000	-2.05462600	-2.64517700
48.89999727	0.00000000	-6.70521600	0.04306102
49.09999726	0.00000000	-7.40034400	3.11269700
49.29999725	0.00000000	-3.16806100	5.85014700
49.49999724	0.00000000	4.92125900	7.71407400
49.69999723	0.00000000	14.56078000	8.07701800
49.89999721	0.00000000	23.85581000	6.17618100
50.09999720	0.00000000	30.37647000	3.11269700
50.29999719	0.00000000	32.65256000	-0.41830710
50.49999718	0.00000000	29.53986000	-4.22613100
50.69999717	0.00000000	21.53666000	-6.87746000
50.89999715	0.00000000	11.57726000	-7.29576700
51.09999714	0.00000000	2.64517700	-5.80093500
51.29999713	0.00000000	-3.54330700	-3.06348400
51.49999712	0.00000000	-5.81938900	0.41830710
51.69999711	0.00000000	-3.12500000	4.31840500
51.89999710	0.00000000	3.71555100	7.71407400
52.09999708	0.00000000	12.18012000	9.65797200
52.29999707	0.00000000	19.90650000	9.24581600
52.49999706	0.00000000	25.30143000	6.96358300
52.69999705	0.00000000	26.83932000	3.11269700
52.89999704	0.00000000	24.13878000	-1.07037400
53.09999702	0.00000000	18.04257000	-4.18307100
53.29999701	0.00000000	10.37155000	-5.75787400
53.49999700	0.00000000	3.85088600	-5.75787400
53.69999699	0.00000000	-0.04921259	-4.22613100
53.89999698	0.00000000	-0.42445860	-1.53174200
54.09999696	0.00000000	2.64517700	1.48868100
54.29999695	0.00000000	8.41535400	3.80782500
54.49999694	0.00000000	15.29897000	4.60137700
54.69999693	0.00000000	21.02608000	4.26919300
54.89999692	0.00000000	23.72047000	3.11269700
55.09999691	0.00000000	22.60704000	1.57480300
55.29999689	0.00000000	18.41781000	0.09227362
55.49999688	0.00000000	12.64764000	-0.65206690
55.69999687	0.00000000	6.87746000	0.09227362
55.89999686	0.00000000	2.64517700	1.62401600
56.09999685	0.00000000	1.10728300	3.53100400
56.29999683	0.00000000	2.64517700	5.38262700
56.49999682	0.00000000	6.83439900	5.71481200
56.69999681	0.00000000	12.22933000	4.18307100
56.89999680	0.00000000	17.21210000	1.11343500
57.09999679	0.00000000	20.69390000	-2.69439000
57.29999677	0.00000000	21.48745000	-5.75787400
57.49999676	0.00000000	19.99877000	-7.33882900
57.69999675	0.00000000	16.87992000	-7.24655500
57.89999674	0.00000000	12.64764000	-4.92125900
58.09999673	0.00000000	8.45841400	-0.28297240
58.29999672	0.00000000	5.71481200	5.06274600
58.49999670	0.00000000	4.92125900	10.07628000
58.69999669	0.00000000	5.71481200	13.05364000
58.89999668	0.00000000	8.37229300	12.68455000
59.09999667	0.00000000	11.81102000	8.87672100
59.29999666	0.00000000	14.51156000	3.06963600
59.49999664	0.00000000	16.50467000	-3.48794300
59.69999663	0.00000000	17.21210000	-9.61491000
59.89999662	0.00000000	16.46161000	-13.05364000
60.09999661	0.00000000	14.18553000	-13.10285000
60.29999660	0.00000000	11.53420000	-9.94094400
60.49999658	0.00000000	9.62106200	-3.76476400
60.69999657	0.00000000	8.79060000	4.26919300
60.89999656	0.00000000	9.15354300	11.56496000
61.09999655	0.00000000	9.90403500	16.21555000
61.29999654	0.00000000	11.10974000	17.32899000
61.49999653	0.00000000	12.60458000	14.25935000
61.69999651	0.00000000	13.76107000	7.75713500
61.89999650	0.00000000	14.13632000	0.04306102
62.09999649	0.00000000	13.71801000	-7.33882900
62.29999648	0.00000000	12.18012000	-13.10285000
62.49999647	0.00000000	9.95324800	-15.74803000
62.69999645	0.00000000	8.41535400	-14.21629000
62.89999644	0.00000000	7.99704600	-8.87057000
63.09999643	0.00000000	8.37229300	-1.58095500
63.29999642	0.00000000	9.57800100	5.80708600
63.49999641	0.00000000	11.48499000	11.94021000
63.69999639	0.00000000	13.76107000	15.42200000
63.89999638	0.00000000	15.29897000	15.05290000
64.09999637	0.00000000	15.71727000	11.65723000
64.29999636	0.00000000	15.29897000	6.22539300
64.49999635	0.00000000	13.76107000	0.04306102
64.69999634	0.00000000	11.48499000	-5.71481200
64.89999632	0.00000000	9.57800100	-9.60875900
65.09999631	0.00000000	8.37229300	-10.82677000
65.29999630	0.00000000	8.04010800	-10.07628000
65.49999629	0.00000000	8.74138700	-7.33882900
65.69999628	0.00000000	10.31619000	-3.11269700
65.89999626	0.00000000	11.81717000	1.48868100
66.09999625	0.00000000	13.39198000	5.38262700
66.29999624	0.00000000	14.09326000	7.75713500
66.49999623	0.00000000	13.76107000	9.00590400
66.69999622	0.00000000	12.60458000	9.33809000
66.89999620	0.00000000	11.06668000	8.58759800
67.09999619	0.00000000	9.57800100	6.64370100
67.29999618	0.00000000	8.83366100	4.31840500
67.49999617	0.00000000	9.57800100	1.48868100
67.69999616	0.00000000	11.10974000	-1.95004900
67.89999615	0.00000000	13.11516000	-5.43184000
68.09999613	0.00000000	15.71727000	-7.75713500
68.29999612	0.00000000	17.53199000	-9.00590400
68.49999611	0.00000000	16.83686000	-9.20275500
68.69999610	0.00000000	14.56078000	-7.28961600
68.89999609	0.00000000	11.81102000	-2.70054100
69.09999607	0.00000000	8.28001900	1.90698800
69.29999606	0.00000000	4.87819900	6.31151500
69.49999605	0.00000000	2.55290300	10.49459000
69.69999604	0.00000000	2.22687000	13.14591000
69.89999603	0.00000000	4.18307100	13.14591000
70.09999601	0.00000000	8.45841400	10.45152000
70.29999600	0.00000000	14.18553000	5.80093500
70.49999599	0.00000000	19.58046000	0.00000000
70.69999598	0.00000000	23.06841000	-5.75787400
70.89999597	0.00000000	24.23105000	-9.98400600
71.09999596	0.00000000	22.65010000	-11.56496000
71.29999594	0.00000000	18.37475000	-10.40846000
71.49999593	0.00000000	12.22933000	-6.92052100
71.69999592	0.00000000	5.67175200	-1.53174200
71.89999591	0.00000000	0.64591530	4.18307100
72.09999590	0.00000000	-2.05462600	8.45226300
72.29999588	0.00000000	-1.67938000	10.40846000
72.49999587	0.00000000	1.80856300	10.07628000
72.69999586	0.00000000	7.20964500	7.75713500
72.89999585	0.00000000	13.76107000	4.31840500
73.09999584	0.00000000	19.53125000	0.46751960
73.29999582	0.00000000	23.06841000	-2.55905500
73.49999581	0.00000000	24.23105000	-3.76476400
73.69999580	0.00000000	22.65010000	-3.06348400
73.89999579	0.00000000	18.41781000	-1.57480300
74.09999578	0.00000000	12.69070000	0.00000000
74.29999577	0.00000000	7.29576700	1.48868100
74.49999575	0.00000000	3.75861200	2.22687000
74.69999574	0.00000000	2.17765700	1.48868100
74.89999573	0.00000000	2.60211600	0.00000000
75.09999572	0.00000000	5.25344500	-1.53174200
75.29999571	-0.15871060	9.06742000	-2.64517700
75.49999569	0.00000000	12.55536000	-2.60211600
75.69999568	0.00000000	15.29897000	-1.02116100
75.89999567	0.00000000	16.83686000	1.99311000
76.09999566	0.00000000	16.87992000	5.43184000
76.29999565	0.00000000	15.76649000	7.71407400
76.49999563	0.00000000	14.22859000	8.50147600
76.69999562	0.00000000	12.64764000	7.29576700
76.89999561	0.00000000	11.10974000	4.22613100
77.09999560	0.00000000	9.99630800	-0.04306102
77.29999559	0.00000000	9.95324800	-4.64443900
77.49999558	0.00000000	10.64838000	-8.50147600
77.69999556	0.00000000	11.02362000	-10.40846000
77.89999555	0.00000000	11.06668000	-9.98400600
78.09999554	0.00000000	11.02362000	-6.87130900
78.29999553	0.00000000	10.64838000	-1.53174200
78.49999552	0.00000000	9.90403500	4.22613100
78.69999550	0.00000000	9.57800100	8.91978400
78.89999549	0.00000000	9.95324800	11.98942000
79.09999548	0.00000000	11.10974000	12.72761000
79.29999547	0.00000000	12.64764000	10.45152000
79.49999546	0.00000000	14.22859000	6.21924200
79.69999544	0.00000000	15.76649000	1.19955700
79.89999543	0.00000000	16.83686000	-3.80782500
80.09999542	0.00000000	16.41855000	-7.29576700
80.29999541	0.00000000	14.13632000	-8.87672100
80.49999540	0.00000000	11.10974000	-8.50147600
80.69999539	0.00000000	8.37229300	-6.22539300
80.89999537	0.00000000	6.41609200	-3.15575800
81.09999536	0.00000000	5.29650500	0.00000000
81.29999535	0.00000000	5.71481200	3.11269700
81.49999534	0.00000000	7.99704600	5.80093500
81.69999533	0.00000000	11.02362000	7.38188900
81.89999531	0.00000000	13.76107000	7.80019600
82.09999530	0.00000000	15.71727000	7.42495000
82.29999529	0.00000000	16.87992000	6.22539300
82.49999528	0.00000000	16.83686000	4.26919300
82.69999527	0.00000000	15.34203000	1.53174200
82.89999525	0.00000000	13.06594000	-1.53174200
83.09999524	0.00000000	11.10974000	-4.22613100
83.29999523	0.00000000	9.52879000	-5.80093500
83.49999522	0.00000000	8.41535400	-6.21924200
83.69999521	0.00000000	8.37229300	-5.85014700
83.89999520	0.00000000	9.11048200	-4.64443900
84.09999518	0.00000000	9.90403500	-2.64517700
84.29999517	0.00000000	11.06668000	0.51058070
84.49999516	0.00000000	12.18012000	4.64443900
84.69999515	0.00000000	12.60458000	8.12622900
84.89999514	0.00000000	12.64764000	9.66412400
85.09999512	0.00000000	12.64764000	9.70103300
85.29999511	0.00000000	12.64764000	7.71407400
85.49999510	0.00000000	12.64764000	4.26919300
85.69999509	0.00000000	12.64764000	0.00000000
85.89999508	0.00000000	12.64764000	-4.22613100
86.09999506	0.00000000	12.60458000	-7.29576700
86.29999505	0.00000000	12.22933000	-8.45226300
86.49999504	0.00000000	11.44193000	-7.29576700
86.69999503	0.00000000	10.64838000	-4.22613100
86.89999502	0.00000000	9.48572700	0.04306102
87.09999501	0.00000000	8.37229300	4.64443900
87.29999499	0.00000000	7.99704600	8.45226300
87.49999498	0.00000000	8.37229300	9.99015700
87.69999497	0.00000000	9.52879000	8.91978400
87.89999496	0.00000000	11.06668000	6.17618100
88.09999495	0.00000000	12.64764000	2.31914400
88.29999493	0.00000000	14.13632000	-2.27608300
88.49999492	0.00000000	14.92372000	-5.71481200
88.69999491	0.00000000	14.51156000	-7.29576700
88.89999490	0.00000000	13.39198000	-6.87746000
89.09999489	0.00000000	11.48499000	-4.18307100
89.29999487	0.00000000	9.95324800	0.00000000
89.49999486	0.00000000	9.11048200	4.22613100
89.69999485	0.00000000	8.37229300	7.33882900
89.89999484	0.00000000	8.41535400	8.87672100
90.09999483	0.00000000	9.52879000	8.45226300
90.29999482	0.00000000	11.02362000	5.75787400
90.49999480	0.00000000	12.18012000	1.57480300
90.69999479	0.00000000	12.60458000	-2.64517700
90.89999478	0.00000000	12.64764000	-5.75787400
91.09999477	0.00000000	12.60458000	-7.24655500
91.29999476	0.00000000	12.27239000	-6.50221400
91.49999474	0.00000000	11.86024000	-3.39566900
91.69999473	0.00000000	11.85408000	0.79355310
91.89999472	0.00000000	11.48499000	5.43184000
92.09999471	0.00000000	11.53420000	8.82750900
92.29999470	0.00000000	12.22933000	9.99015700
92.49999468	0.00000000	12.55536000	8.45226300
92.69999467	0.00000000	12.18012000	4.64443900
92.89999466	0.00000000	11.06668000	0.04306102
93.09999465	0.00000000	9.90403500	-4.22613100
93.29999464	0.00000000	9.11048200	-7.25270600
93.49999463	0.00000000	8.37229300	-8.03395600
93.69999461	0.00000000	8.41535400	-6.13312000
93.89999460	0.00000000	9.52879000	-2.69439000
94.09999459	0.00000000	11.10974000	1.57480300
94.29999458	0.00000000	13.02288000	5.75787400
94.49999457	0.00000000	14.97293000	8.45226300
94.69999455	0.00000000	16.14173000	8.82750900
94.89999454	0.00000000	16.87992000	6.92052100
95.09999453	0.00000000	16.41855000	3.11269700
95.29999452	0.00000000	14.13632000	-1.11343500
95.49999451	0.00000000	11.06668000	-4.55831700
95.69999449	0.00000000	7.94783400	-6.50221400
95.89999448	0.00000000	5.25344500	-6.13312000
96.09999447	0.00000000	3.71555100	-4.22613100
96.29999446	0.00000000	3.75861200	-1.11343500
96.49999445	0.00000000	5.71481200	2.64517700
96.69999444	0.00000000	9.52879000	5.33956700
96.89999442	0.00000000	13.76107000	6.17618100
97.09999441	0.00000000	17.25517000	5.80093500
97.29999440	0.00000000	19.62352000	4.26919300
97.49999439	0.00000000	20.37401000	1.95004900
97.69999438	0.00000000	19.58046000	-0.33218500
97.89999436	0.00000000	16.83686000	-2.27608300
98.09999435	0.00000000	12.64764000	-3.02042300
98.29999434	0.00000000	8.37229300	-2.68823800
98.49999433	0.00000000	4.87819900	-1.53174200
98.69999432	0.00000000	2.55290300	-0.04306102
98.89999430	0.00000000	2.17765700	1.11343500
99.09999429	0.00000000	3.71555100	1.53174200
99.29999428	0.00000000	6.79133800	1.57480300
99.49999427	0.00000000	10.64838000	1.57480300
99.69999426	0.00000000	14.18553000	1.61786400
99.89999425	0.00000000	17.25517000	1.99311000
100.09999423	0.00000000	19.20522000	2.73745100
100.29999422	0.00000000	19.21137000	3.11269700
100.49999421	0.00000000	18.04257000	3.15575800
100.69999420	0.00000000	15.29897000	3.06348400
100.89999419	0.00000000	11.53420000	2.27608300
101.09999417	0.00000000	8.41535400	0.37524600
101.29999416	0.00000000	6.41609200	-1.48868100
101.49999415	0.00000000	5.25344500	-2.68823800
101.69999414	0.00000000	5.25344500	-3.11269700
101.89999413	0.00000000	6.41609200	-3.06348400
102.09999411	0.00000000	8.32308000	-2.27608300
102.29999410	0.00000000	10.64838000	-0.33218500
102.49999409	0.00000000	12.60458000	1.95004900
102.69999408	0.00000000	14.22859000	4.31840500
102.89999407	0.00000000	15.71727000	6.17618100
103.09999406	0.00000000	16.46161000	6.92052100
103.29999404	0.00000000	15.67421000	5.75787400
103.49999403	0.00000000	13.81028000	3.11269700
103.69999402	0.00000000	11.48499000	0.04306102
103.89999401	0.00000000	9.52879000	-2.69439000
104.09999400	0.00000000	7.94783400	-4.60137700
104.29999398	0.00000000	6.83439900	-5.38262700
104.49999397	0.00000000	6.83439900	-4.60137700
104.69999396	0.00000000	7.94783400	-2.64517700
104.89999395	0.00000000	9.48572700	0.41830710
105.09999394	0.00000000	11.06668000	3.80782500
105.29999392	0.00000000	12.60458000	5.75787400
105.49999391	0.00000000	13.76107000	6.21924200
105.69999390	0.00000000	14.13632000	5.80093500
105.89999389	0.00000000	13.76107000	4.22613100
106.09999388	0.00000000	12.60458000	1.58095500
106.29999387	0.00000000	11.10974000	-1.07037400
106.49999385	0.00000000	9.95324800	-2.64517700
106.69999384	0.00000000	9.52879000	-3.06348400
106.89999383	0.00000000	9.52879000	-2.68823800
107.09999382	0.00000000	9.95324800	-1.48868100
107.29999381	0.00000000	11.06668000	0.37524600
107.49999379	0.00000000	12.18012000	2.27608300
107.69999378	0.00000000	12.60458000	3.06348400
107.89999377	0.00000000	12.60458000	3.06348400
108.09999376	0.00000000	12.22933000	2.31914400
108.29999375	0.00000000	11.44193000	0.79355310
108.49999374	0.00000000	10.69144000	-0.32603340
108.69999372	0.00000000	9.90403500	-1.15649600
108.89999371	0.00000000	9.52879000	-1.53174200
109.09999370	0.00000000	9.52879000	-1.53174200
109.29999369	0.00000000	9.95324800	-1.11343500
109.49999368	0.00000000	11.06668000	0.04306102
109.69999366	0.00000000	12.18012000	1.57480300
109.89999365	0.00000000	12.60458000	3.06348400
110.09999364	0.00000000	12.64764000	3.85088600
110.29999363	0.00000000	12.60458000	3.43873000
110.49999362	0.00000000	12.18012000	2.36220500
110.69999360	0.00000000	11.06668000	0.79355310
110.89999359	0.00000000	9.95324800	-0.37524600
111.09999358	0.00000000	9.52879000	-1.57480300
111.29999357	0.00000000	9.48572700	-2.64517700
111.49999356	0.00000000	9.52879000	-2.68823800
111.69999355	0.00000000	9.90403500	-1.95004900
111.89999353	0.00000000	10.69144000	-1.15649600
112.09999352	0.00000000	11.44193000	0.00000000
112.29999351	0.00000000	12.22933000	1.11343500
112.49999350	0.00000000	12.60458000	1.53174200
112.69999349	0.00000000	12.60458000	1.57480300
112.89999347	0.00000000	12.22933000	1.57480300
113.09999346	0.00000000	11.48499000	1.57480300
113.29999345	0.00000000	11.06668000	1.53174200
113.49999344	0.00000000	10.69144000	1.15649600
113.69999343	0.00000000	10.32234000	0.41830710
113.89999341	0.00000000	10.69144000	0.04306102
114.09999340	0.00000000	11.02362000	-0.04306102
114.29999339	0.00000000	11.06668000	-0.41830710
114.49999338	0.00000000	11.06668000	-1.15649600
114.69999337	0.00000000	11.06668000	-1.53174200
114.89999336	0.00000000	11.06668000	-1.57480300
115.09999334	0.00000000	11.06668000	-1.53174200
115.29999333	0.00000000	11.06668000	-1.15649600
115.49999332	0.00000000	11.06668000	-0.37524600
115.69999331	0.00000000	11.06668000	0.37524600
115.89999330	0.00000000	11.02362000	1.15649600
116.09999328	0.00000000	10.69144000	1.57480300
116.29999327	0.00000000	10.27928000	1.95004900
116.49999326	0.00000000	10.27313000	2.31914400
116.69999325	0.00000000	9.90403500	1.95004900
116.89999324	0.00000000	9.95324800	1.57480300
117.09999322	0.00000000	10.69144000	1.11343500
117.29999321	0.00000000	11.44193000	0.00000000
117.49999320	0.00000000	12.22933000	-1.11343500
117.69999319	0.00000000	12.60458000	-1.53174200
117.89999318	0.00000000	12.64764000	-1.57480300
118.09999317	0.00000000	12.60458000	-1.53174200
118.29999315	0.00000000	12.22933000	-1.11343500
118.49999314	0.00000000	11.44193000	0.00000000
118.69999313	0.00000000	10.64838000	1.11343500
118.89999312	0.00000000	9.48572700	1.57480300
119.09999311	0.00000000	8.37229300	1.99311000
119.29999309	0.00000000	7.99704600	2.68823800
119.49999308	0.00000000	8.32308000	2.68823800
119.69999307	0.00000000	9.11048200	1.95004900
119.89999306	0.00000000	9.90403500	1.19955700
120.09999305	0.00000000	11.10974000	0.41830710
120.29999303	0.00000000	12.60458000	0.04306102
120.49999302	0.00000000	13.76107000	0.00000000
120.69999301	0.00000000	14.13632000	0.00000000
120.89999300	0.00000000	13.76107000	0.00000000
121.09999299	0.00000000	12.60458000	0.00000000
121.29999298	0.00000000	11.10974000	0.00000000
121.49999296	0.00000000	9.90403500	0.00000000
121.69999295	0.00000000	9.11048200	0.00000000
121.89999294	0.00000000	8.37229300	0.04306102
122.09999293	0.00000000	8.37229300	0.41830710
122.29999292	0.00000000	9.06742000	1.15649600
122.49999290	0.00000000	9.48572700	1.53174200
122.69999289	0.00000000	9.95324800	1.57480300
122.89999288	0.00000000	11.06668000	1.57480300
123.09999287	0.00000000	12.22933000	1.57480300
123.29999286	0.00000000	12.97982000	1.53174200
123.49999284	0.00000000	13.39198000	1.15649600
123.69999283	0.00000000	13.02288000	0.41830710
123.89999282	0.00000000	12.64764000	0.04306102
124.09999281	0.00000000	12.22933000	0.00000000
124.29999280	0.00000000	11.44193000	0.00000000
124.49999279	0.00000000	10.69144000	0.00000000
124.69999277	0.00000000	9.90403500	0.00000000
124.89999276	0.00000000	9.48572700	0.00000000
125.09999275	0.00000000	9.11048200	0.04306102
125.29999274	0.00000000	8.74138700	0.41830710
125.49999273	0.00000000	9.15354300	1.15649600
125.69999271	0.00000000	9.86097400	1.53174200
125.89999270	0.00000000	10.69144000	1.57480300
126.09999269	0.00000000	11.44193000	1.57480300
126.29999268	0.00000000	12.22933000	1.57480300
126.49999267	0.00000000	12.60458000	1.53174200
126.69999265	0.00000000	12.64764000	1.15649600
126.89999264	0.00000000	12.60458000	0.41830710
127.09999263	0.00000000	12.18012000	0.04306102
127.29999262	0.00000000	11.06668000	0.00000000
127.49999261	0.00000000	9.95324800	0.00000000
127.69999260	0.00000000	9.48572700	0.00000000
127.89999258	0.00000000	9.11048200	0.00000000
128.09999257	0.00000000	8.79060000	0.04306102
128.29999256	0.00000000	9.52879000	0.41830710
128.49999255	0.00000000	10.64838000	1.15649600
128.69999254	0.00000000	11.44193000	1.53174200
128.89999252	0.00000000	12.22933000	1.57480300
129.09999251	0.00000000	12.60458000	1.53174200
129.29999250	0.00000000	12.60458000	1.15649600
129.49999249	0.00000000	12.18012000	0.41830710
129.69999248	0.00000000	11.06668000	0.04306102
129.89999246	0.00000000	9.90403500	0.00000000
130.09999245	0.00000000	9.15354300	0.00000000
130.29999244	0.00000000	8.74138700	0.00000000
130.49999243	0.00000000	9.15354300	0.04306102
130.69999242	0.00000000	9.86097400	0.41830710
130.89999241	0.00000000	10.69144000	1.15649600
131.09999239	0.00000000	11.44193000	1.53174200
131.29999238	0.00000000	12.22933000	1.53174200
131.49999237	0.00000000	12.60458000	1.15649600
131.69999236	0.00000000	12.60458000	0.41830710
131.89999235	0.00000000	12.27239000	0.04306102
132.09999233	0.00000000	11.81717000	-0.04306102
132.29999232	0.00000000	11.43578000	-0.37524600
132.49999231	0.00000000	10.27928000	-0.73818890
132.69999230	0.00000000	9.57800100	-0.32603340
132.89999229	0.00000000	9.52879000	0.37524600
133.09999227	0.00000000	9.90403500	1.15649600
133.29999226	0.00000000	10.64838000	1.53174200
133.49999225	0.00000000	11.02362000	1.57480300
133.69999224	0.00000000	11.06668000	1.57480300
133.89999223	0.00000000	11.06668000	1.53174200
134.09999222	0.00000000	11.06668000	1.15649600
134.29999220	0.00000000	11.06668000	0.41830710
134.49999219	0.00000000	11.06668000	0.00000000
134.69999218	0.00000000	11.06668000	-0.41830710
134.89999217	0.00000000	11.06668000	-1.15649600
135.09999216	0.00000000	11.10974000	-1.48253000
135.29999214	0.00000000	11.44193000	-1.15649600
135.49999213	0.00000000	11.81102000	-0.37524600
135.69999212	0.00000000	11.39887000	0.37524600
135.89999211	0.00000000	10.69144000	1.15649600
136.09999210	0.00000000	9.90403500	1.53174200
136.29999208	0.00000000	9.52879000	1.57480300
136.49999207	0.00000000	9.48572700	1.57480300
136.69999206	0.00000000	9.48572700	1.53174200
136.89999205	0.00000000	9.52879000	1.15649600
137.09999204	0.00000000	9.90403500	0.41830710
137.29999203	0.00000000	10.69144000	0.04306102
137.49999201	0.00000000	11.44193000	-0.04306102
137.69999200	0.00000000	12.22933000	-0.37524600
137.89999199	0.00000000	12.55536000	-0.73818890
138.09999198	0.00000000	12.22933000	-0.37524600
138.29999197	0.00000000	11.44193000	-0.04306102
138.49999195	0.00000000	10.69144000	0.00000000
138.69999194	0.00000000	9.90403500	0.00000000
138.89999193	0.00000000	9.52879000	0.04306102
139.09999192	0.00000000	9.48572700	0.41830710
139.29999191	0.00000000	9.52879000	1.15649600
139.49999189	0.00000000	9.90403500	1.53174200
139.69999188	0.00000000	10.64838000	1.57480300
139.89999187	0.00000000	11.02362000	1.53174200
140.09999186	0.00000000	11.06668000	1.15649600
140.29999185	0.00000000	11.06668000	0.41830710
140.49999184	0.00000000	11.06668000	0.00000000
140.69999182	0.00000000	11.02362000	-0.41830710
140.89999181	0.00000000	10.64838000	-1.15649600
141.09999180	0.00000000	9.90403500	-1.48253000
141.29999179	0.00000000	9.52879000	-1.15649600
141.49999178	0.00000000	9.52879000	-0.37524600
141.69999176	0.00000000	9.90403500	0.41830710
141.89999175	0.00000000	10.64838000	1.57480300
142.09999174	0.00000000	11.02362000	2.68823800
142.29999173	0.00000000	11.06668000	3.06348400
142.49999172	0.00000000	11.06668000	2.73745100
142.69999170	0.00000000	11.06668000	1.95004900
142.89999169	0.00000000	11.06668000	1.19955700
143.09999168	0.00000000	11.02362000	0.37524600
143.29999167	0.00000000	10.64838000	-0.37524600
143.49999166	0.00000000	9.90403500	-1.15649600
143.69999165	0.00000000	9.57800100	-1.48253000
143.89999163	0.00000000	9.90403500	-1.15649600
144.09999162	0.00000000	10.64838000	-0.41830710
144.29999161	0.00000000	11.02362000	0.00000000
144.49999160	0.00000000	11.06668000	0.41830710
144.69999159	0.00000000	11.06668000	1.15649600
144.89999157	0.00000000	11.06668000	1.53174200
145.09999156	0.00000000	11.06668000	1.57480300
145.29999155	0.00000000	11.02362000	1.53174200
145.49999154	0.00000000	10.64838000	1.15649600
145.69999153	0.00000000	9.90403500	0.41830710
145.89999151	0.00000000	9.52879000	0.04306102
146.09999150	0.00000000	9.52879000	0.00000000
146.29999149	0.00000000	9.90403500	0.00000000
146.49999148	0.00000000	10.64838000	0.00000000
146.69999147	0.00000000	11.02362000	0.00000000
146.89999146	0.00000000	11.06668000	0.04306102
147.09999144	0.00000000	11.06668000	0.41830710
147.29999143	0.00000000	11.06668000	1.15649600
147.49999142	0.00000000	11.06668000	1.53174200
147.69999141	0.00000000	11.02362000	1.53174200
147.89999140	0.00000000	10.64838000	1.19955700
148.09999138	0.00000000	9.90403500	0.79355310
148.29999137	0.00000000	9.52879000	0.78124990
148.49999136	0.00000000	9.52879000	0.37524600
148.69999135	0.00000000	9.90403500	0.04306102
148.89999134	0.00000000	10.64838000	0.00000000
149.09999132	0.00000000	11.02362000	0.00000000
149.29999131	0.00000000	11.06668000	0.00000000
149.49999130	0.00000000	11.06668000	0.00000000
149.69999129	0.00000000	11.06668000	0.00000000
149.89999128	0.00000000	11.06668000	0.00000000
150.09999127	0.00000000	11.06668000	0.04306102
150.29999125	0.00000000	11.06668000	0.41830710
150.49999124	0.00000000	11.06668000	1.15649600
150.69999123	0.00000000	11.02362000	1.53174200
150.89999122	0.00000000	10.64838000	1.53174200
151.09999121	0.00000000	9.90403500	1.15649600
151.29999119	0.00000000	9.52879000	0.41830710
151.49999118	0.00000000	9.52879000	0.04306102
151.69999117	0.00000000	9.90403500	0.00000000
151.89999116	0.00000000	10.64838000	0.00000000
152.09999115	0.00000000	11.02362000	0.00000000
152.29999113	0.00000000	11.06668000	0.00000000
152.49999112	0.00000000	11.06668000	0.00000000
152.69999111	0.00000000	11.06668000	0.00000000
152.89999110	0.00000000	11.06668000	0.00000000
153.09999109	0.00000000	11.06668000	0.04306102
153.29999108	0.00000000	11.02362000	0.37524600
153.49999106	0.00000000	10.64838000	0.73818890
153.69999105	0.00000000	9.90403500	0.41830710
153.89999104	0.00000000	9.52879000	0.41830710
154.09999103	0.00000000	9.48572700	0.73818890
154.29999102	0.00000000	9.48572700	0.37524600
154.49999100	0.00000000	9.48572700	0.04306102
154.69999099	0.00000000	9.52879000	0.00000000
154.89999098	0.00000000	9.90403500	0.00000000
155.09999097	0.00000000	10.64838000	0.00000000
155.29999096	0.00000000	11.02362000	0.00000000
155.49999094	0.00000000	11.06668000	0.00000000
155.69999093	0.00000000	11.06668000	0.00000000
155.89999092	0.00000000	11.06668000	0.00000000
156.09999091	0.00000000	11.02362000	0.00000000
156.29999090	0.00000000	10.64838000	0.04306102
156.49999089	0.00000000	9.90403500	0.41830710
156.69999087	0.00000000	9.52879000	1.15649600
156.89999086	0.00000000	9.48572700	1.53174200
157.09999085	0.00000000	9.48572700	1.57480300
157.29999084	0.00000000	9.48572700	1.53174200
157.49999083	0.00000000	9.52879000	1.15649600
157.69999081	0.00000000	9.90403500	0.41830710
157.89999080	0.00000000	10.64838000	0.04306102
158.09999079	0.00000000	11.02362000	0.00000000
158.29999078	0.00000000	11.06668000	0.00000000
158.49999077	0.00000000	11.06668000	0.00000000
158.69999075	0.00000000	11.06668000	0.00000000
158.89999074	0.00000000	11.06668000	0.04306102
159.09999073	0.00000000	11.06668000	0.41830710
159.29999072	0.00000000	11.06668000	1.15649600
159.49999071	0.00000000	11.02362000	1.53174200
159.69999070	0.00000000	10.64838000	1.57480300
159.89999068	0.00000000	9.90403500	1.57480300
160.09999067	0.00000000	9.52879000	1.57480300
160.29999066	0.00000000	9.48572700	1.53174200
160.49999065	0.00000000	9.52879000	1.15649600
160.69999064	0.00000000	9.90403500	0.41830710
160.89999062	0.00000000	10.64838000	0.04306102
161.09999061	0.00000000	11.02362000	0.00000000
161.29999060	0.00000000	11.06668000	0.00000000
161.49999059	0.00000000	11.06668000	0.00000000
161.69999058	0.00000000	11.06668000	0.00000000
161.89999056	0.00000000	11.06668000	0.00000000
162.09999055	0.00000000	11.06668000	0.04306102
162.29999054	0.00000000	11.06668000	0.41830710
162.49999053	0.00000000	11.06668000	1.11343500
162.69999052	0.00000000	11.02362000	1.11343500
162.89999051	0.00000000	10.64838000	0.41830710
163.09999049	0.00000000	9.90403500	0.04306102
163.29999048	0.00000000	9.52879000	0.00000000
163.49999047	0.00000000	9.48572700	0.00000000
163.69999046	0.00000000	9.48572700	0.00000000
163.89999045	0.00000000	9.48572700	-0.04306102
164.09999043	0.00000000	9.52879000	-0.37524600
164.29999042	0.00000000	9.90403500	-0.73818890
164.49999041	0.00000000	10.64838000	-0.37524600
164.69999040	0.00000000	11.02362000	-0.04306102
164.89999039	0.00000000	11.06668000	0.00000000
165.09999037	0.00000000	11.06668000	0.00000000
165.29999036	0.00000000	11.06668000	0.00000000
165.49999035	0.00000000	11.02362000	0.00000000
165.69999034	0.00000000	10.64838000	0.04306102
165.89999033	0.00000000	9.90403500	0.37524600
166.09999032	0.00000000	9.52879000	0.78124990
166.29999030	0.00000000	9.48572700	0.74434050
166.49999029	0.00000000	9.52879000	0.83046260
166.69999028	0.00000000	9.90403500	0.74434050
166.89999027	0.00000000	10.64838000	0.78124990
167.09999026	0.00000000	11.02362000	0.37524600
167.29999024	0.00000000	11.06668000	0.04306102
167.49999023	0.00000000	11.06668000	0.00000000
167.69999022	0.00000000	11.06668000	0.00000000
167.89999021	0.00000000	11.06668000	0.00000000
168.09999020	0.00000000	11.06668000	0.00000000
168.29999018	0.00000000	11.02362000	0.00000000
168.49999017	0.00000000	10.69144000	0.00000000
168.69999016	0.00000000	10.32234000	0.00000000
168.89999015	0.00000000	10.64838000	0.00000000
169.09999014	0.00000000	10.59916000	0.00000000
169.29999013	0.00000000	9.90403500	0.00000000
169.49999011	0.00000000	9.52879000	0.00000000
169.69999010	0.00000000	9.48572700	0.00000000
169.89999009	0.00000000	9.48572700	0.00000000
170.09999008	0.00000000	9.48572700	0.00000000
170.29999007	0.00000000	9.48572700	0.00000000
170.49999005	0.00000000	9.52879000	0.00000000
170.69999004	0.00000000	9.90403500	0.00000000
170.89999003	0.00000000	10.64838000	0.00000000
171.09999002	0.00000000	11.02362000	0.00000000
171.29999001	0.00000000	11.06668000	0.00000000
171.49998999	0.00000000	11.02362000	0.00000000
171.69998998	0.00000000	10.64838000	0.00000000
171.89998997	0.00000000	9.90403500	0.00000000
172.09998996	0.00000000	9.52879000	0.00000000
172.29998995	0.00000000	9.52879000	0.00000000
172.49998994	0.00000000	9.86097400	0.00000000
172.69998992	0.00000000	10.23007000	0.00000000
172.89998991	0.00000000	9.90403500	0.00000000
173.09998990	0.00000000	9.90403500	0.00000000
173.29998989	0.00000000	10.27313000	0.00000000
173.49998988	0.00000000	10.27928000	0.00000000
173.69998986	0.00000000	10.69144000	0.00000000
173.89998985	0.00000000	11.02362000	0.00000000
174.09998984	0.00000000	11.06668000	0.00000000
174.29998983	0.00000000	11.02362000	0.00000000
174.49998982	0.00000000	10.64838000	0.00000000
174.69998980	0.00000000	9.90403500	0.00000000
174.89998979	0.00000000	9.57800100	0.00000000
175.09998978	0.00000000	9.86097400	0.00000000
175.29998977	0.00000000	10.23007000	0.00000000
175.49998976	0.00000000	9.90403500	0.00000000
175.69998975	0.00000000	9.95324800	0.00000000
175.89998973	0.00000000	10.64838000	0.00000000
176.09998972	0.00000000	11.02362000	0.00000000
176.29998971	0.00000000	11.02362000	0.00000000
176.49998970	0.00000000	10.64838000	0.00000000
176.69998969	0.00000000	9.95324800	0.00000000
176.89998967	0.00000000	9.90403500	0.00000000
177.09998966	0.00000000	10.23007000	0.00000000
177.29998965	0.00000000	9.86097400	0.00000000
177.49998964	0.00000000	9.52879000	0.00000000
177.69998963	0.00000000	9.48572700	0.00000000
177.89998961	0.00000000	9.48572700	0.00000000
178.09998960	0.00000000	9.48572700	0.00000000
178.29998959	0.00000000	9.52879000	0.00000000
178.49998958	0.00000000	9.86097400	0.00000000
178.69998957	0.00000000	10.23007000	0.00000000
178.89998956	0.00000000	9.90403500	0.00000000
179.09998954	0.00000000	9.90403500	0.00000000
179.29998953	0.00000000	10.23007000	0.00000000
179.49998952	0.00000000	9.86097400	0.00000000
179.69998951	0.00000000	9.52879000	0.00000000
179.89998950	0.00000000	9.52879000	0.00000000
180.09998948	0.00000000	9.90403500	0.00000000
180.29998947	0.00000000	10.59916000	0.00000000
180.49998946	0.00000000	10.59916000	0.00000000
180.69998945	0.00000000	9.90403500	0.00000000
180.89998944	0.00000000	9.52879000	0.00000000
181.09998942	0.00000000	9.48572700	0.00000000
181.29998941	0.00000000	9.48572700	0.00000000
181.49998940	0.00000000	9.52879000	0.00000000
181.69998939	0.00000000	9.90403500	0.04306102
181.89998938	0.00000000	10.59916000	0.37524600
182.09998937	0.00000000	10.64838000	0.73818890
182.29998935	0.00000000	10.32234000	0.37524600
182.49998934	0.00000000	10.69144000	0.04306102
182.69998933	0.00000000	10.97441000	0.00000000
182.89998932	0.00000000	10.64838000	0.00000000
183.09998931	0.00000000	9.90403500	0.00000000
183.29998929	0.00000000	9.52879000	0.00000000
183.49998928	0.00000000	9.48572700	0.00000000
183.69998927	0.00000000	9.52879000	0.00000000
183.89998926	0.00000000	9.86097400	0.00000000
184.09998925	0.00000000	10.23007000	0.04306102
184.29998923	0.00000000	9.86097400	0.37524600
184.49998922	0.00000000	9.52879000	0.78124990
184.69998921	0.00000000	9.48572700	0.79355310
184.89998920	0.00000000	9.48572700	1.15649600
185.09998919	0.00000000	9.48572700	1.11343500
185.29998918	0.00000000	9.52879000	0.41830710
185.49998916	0.00000000	9.90403500	0.04306102
185.69998915	0.00000000	10.64838000	0.00000000
185.89998914	0.00000000	11.02362000	0.00000000
186.09998913	0.00000000	11.06668000	0.00000000
186.29998912	0.00000000	11.06668000	0.00000000
186.49998910	0.00000000	11.02362000	0.00000000
186.69998909	0.00000000	10.64838000	0.00000000
186.89998908	0.00000000	9.90403500	0.00000000
187.09998907	0.00000000	9.52879000	0.00000000
187.29998906	0.00000000	9.48572700	0.04306102
187.49998904	0.00000000	9.48572700	0.41830710
187.69998903	0.00000000	9.48572700	1.15649600
187.89998902	0.00000000	9.48572700	1.48253000
188.09998901	0.00000000	9.52879000	1.15649600
188.29998900	0.00000000	9.90403500	0.41830710
188.49998899	0.00000000	10.59916000	0.04306102
188.69998897	0.00000000	10.59916000	0.00000000
188.89998896	0.00000000	9.95324800	0.00000000
189.09998895	0.00000000	9.95324800	0.00000000
189.29998894	0.00000000	10.59916000	0.00000000
189.49998893	0.00000000	10.59916000	0.00000000
189.69998891	0.00000000	9.90403500	0.00000000
189.89998890	0.00000000	9.52879000	0.00000000
190.09998889	0.00000000	9.48572700	0.00000000
190.29998888	0.00000000	9.48572700	0.00000000
190.49998887	0.00000000	9.48572700	0.00000000
190.69998885	0.00000000	9.48572700	0.00000000
190.89998884	0.00000000	9.48572700	0.00000000
191.09998883	0.00000000	9.48572700	0.00000000
191.29998882	0.00000000	9.48572700	0.00000000
191.49998881	0.00000000	9.52879000	0.00000000
191.69998880	0.00000000	9.90403500	0.00000000
191.89998878	0.00000000	10.64838000	0.00000000
192.09998877	0.00000000	10.97441000	0.00000000
192.29998876	0.00000000	10.64838000	0.00000000
192.49998875	0.00000000	9.90403500	0.00000000
192.69998874	0.00000000	9.52879000	0.00000000
192.89998872	0.00000000	9.48572700	0.00000000
193.09998871	0.00000000	9.48572700	0.00000000
193.29998870	0.00000000	9.48572700	0.00000000
193.49998869	0.00000000	9.48572700	0.00000000
193.69998868	0.00000000	9.48572700	0.00000000
193.89998866	0.00000000	9.52879000	0.00000000
194.09998865	0.00000000	9.86097400	0.00000000
194.29998864	0.00000000	10.23007000	0.00000000
194.49998863	0.00000000	9.90403500	0.00000000
194.69998862	0.00000000	9.90403500	0.00000000
194.89998861	0.00000000	10.23007000	0.00000000
195.09998859	0.00000000	9.86097400	0.00000000
195.29998858	0.00000000	9.52879000	0.00000000
195.49998857	0.00000000	9.48572700	0.00000000
195.69998856	0.00000000	9.48572700	0.00000000
195.89998855	0.00000000	9.48572700	0.00000000
196.09998853	0.00000000	9.52879000	0.00000000
