Time	Channel A	Channel B
(us)	(V)	(mV)

-4.49999956	0.00000000	2.23917300
-4.29999957	0.00000000	2.95275600
-4.09999958	0.00000000	3.00196800
-3.89999959	0.00000000	2.65132900
-3.69999960	0.00000000	3.05118100
-3.49999962	0.00000000	3.36491100
-3.29999963	0.00000000	3.00196800
-3.09999964	0.00000000	2.18996000
-2.89999965	0.00000000	1.82701800
-2.69999966	0.00000000	2.14074800
-2.49999968	0.00000000	2.54060000
-2.29999969	0.00000000	2.14074800
-2.09999970	0.00000000	1.77780500
-1.89999971	0.00000000	1.72859200
-1.69999972	0.00000000	1.72859200
-1.49999973	0.00000000	1.72859200
-1.29999975	0.00000000	1.72859200
-1.09999976	0.00000000	1.77780500
-0.89999977	0.00000000	2.18996000
-0.69999978	0.00000000	3.00196800
-0.49999979	0.00000000	3.36491100
-0.29999981	0.35125490	3.00196800
-0.09999982	0.70250980	2.18996000
0.10000017	1.05376500	1.77780500
0.30000016	1.05376500	1.72859200
0.50000015	0.70250980	1.72859200
0.70000013	0.17531990	1.72859200
0.90000012	-0.70250980	1.72859200
1.10000011	-1.75689000	1.77780500
1.30000010	-2.63533500	2.18996000
1.50000009	-2.81127000	3.00196800
1.70000008	-2.28408000	3.41412400
1.90000006	-0.87844490	3.46333600
2.10000005	1.05376500	3.41412400
2.30000004	3.16252500	3.00196800
2.50000003	4.74409400	2.18996000
2.70000002	5.44660400	1.77780500
2.90000000	4.56816000	1.72859200
3.09999999	2.28408000	1.72859200
3.29999998	-0.87844490	1.72859200
3.49999997	-4.39283900	1.77780500
3.69999996	-7.02817400	2.18996000
3.89999994	-7.90661900	3.00196800
4.09999993	-7.02817400	3.41412400
4.29999992	-4.21690500	3.46333600
4.49999991	0.00000000	3.41412400
4.69999990	4.39283900	3.00196800
4.89999989	7.90661900	2.18996000
5.09999987	9.48818900	1.82701800
5.29999986	8.60974400	2.14074800
5.49999985	5.62254000	2.54060000
5.69999984	1.05376500	2.14074800
5.89999983	-3.68971500	1.82701800
6.09999981	-7.37942900	2.18996000
6.29999980	-9.31225400	3.00196800
6.49999979	-8.96099900	3.41412400
6.69999978	-6.14972900	3.46333600
6.89999977	-2.28408000	3.41412400
7.09999975	2.10814500	3.00196800
7.29999974	5.62254000	2.18996000
7.49999973	7.55536400	1.77780500
7.69999972	7.37942900	1.72859200
7.89999971	5.44660400	1.72859200
8.09999970	2.45940000	1.72859200
8.29999968	-0.87844490	1.72859200
8.49999967	-3.51377900	1.72859200
8.69999966	-4.91941500	1.77780500
8.89999965	-5.09534900	2.18996000
9.09999964	-3.86565000	3.00196800
9.29999962	-1.93282500	3.36491100
9.49999961	0.00000000	3.05118100
9.69999960	1.58095500	2.60211600
9.89999959	2.45940000	2.58981300
10.09999958	2.45940000	2.14074800
10.29999956	1.93282500	1.77780500
10.49999955	1.05376500	1.72859200
10.69999954	0.00000000	1.72859200
10.89999953	-0.52657480	1.72859200
11.09999952	-0.87844490	1.72859200
11.29999951	-0.87844490	1.72859200
11.49999949	-0.70250980	1.77780500
11.69999948	-0.52657480	2.14074800
11.89999947	-0.17531990	2.54060000
12.09999946	0.00000000	2.14074800
12.29999945	0.00000000	1.77780500
12.49999943	0.00000000	1.72859200
12.69999942	-0.17531990	1.72859200
12.89999941	-0.17531990	1.77780500
13.09999940	-0.17531990	2.14074800
13.29999939	-0.17531990	2.54060000
13.49999937	0.00000000	2.18996000
13.69999936	0.00000000	2.18996000
13.89999935	0.00000000	2.54060000
14.09999934	0.00000000	2.18996000
14.29999933	0.00000000	2.18996000
14.49999932	0.00000000	2.54060000
14.69999930	0.00000000	2.14074800
14.89999929	0.00000000	1.77780500
15.09999928	0.00000000	1.72859200
15.29999927	0.00000000	1.72859200
15.49999926	0.00000000	1.72859200
15.69999924	0.00000000	1.72859200
15.89999923	0.00000000	1.72859200
16.09999922	0.00000000	1.77780500
16.29999921	0.00000000	2.14074800
16.49999920	0.00000000	2.58981300
16.69999919	0.00000000	2.55290300
16.89999917	0.00000000	2.58981300
17.09999916	0.00000000	2.14074800
17.29999915	0.00000000	1.77780500
17.49999914	0.00000000	1.72859200
17.69999913	0.00000000	1.72859200
17.89999911	0.00000000	1.77780500
18.09999910	0.00000000	2.14074800
18.29999909	0.00000000	2.54060000
18.49999908	0.00000000	2.14074800
18.69999907	0.00000000	1.82701800
18.89999905	0.00000000	2.14074800
19.09999904	0.00000000	2.58981300
19.29999903	0.00000000	2.55290300
19.49999902	0.00000000	2.58981300
19.69999901	0.00000000	2.14074800
19.89999900	0.00000000	1.77780500
20.09999898	0.00000000	1.72859200
20.29999897	0.00000000	1.72859200
20.49999896	0.00000000	1.77780500
20.69999895	0.00000000	2.14074800
20.89999894	0.00000000	2.54060000
21.09999892	0.00000000	2.18996000
21.29999891	0.00000000	2.18996000
21.49999890	0.00000000	2.54060000
21.69999889	0.00000000	2.14074800
21.89999888	0.00000000	1.77780500
22.09999886	0.00000000	1.72859200
22.29999885	0.00000000	1.77780500
22.49999884	0.00000000	2.14074800
22.69999883	0.00000000	2.54060000
22.89999882	0.00000000	2.14074800
23.09999881	0.00000000	1.77780500
23.29999879	0.00000000	1.67938000
23.49999878	0.00000000	1.31643700
23.69999877	0.00000000	0.91658460
23.89999876	0.00000000	1.31643700
24.09999875	0.00000000	1.72859200
24.29999873	0.00000000	2.23917300
24.49999872	0.00000000	3.46333600
24.69999871	0.00000000	4.73056000
24.89999870	0.00000000	5.60408400
25.09999869	0.00000000	6.41609200
25.29999867	0.00000000	6.36687900
25.49999866	0.00000000	5.09350300
25.69999865	0.00000000	2.95275600
25.89999864	0.00000000	0.00000000
26.09999863	0.00000000	-2.95275600
26.29999862	0.00000000	-5.09350300
26.49999860	0.00000000	-6.31766700
26.69999859	0.00000000	-5.81323800
26.89999858	0.00000000	-2.80511800
27.09999857	0.00000000	2.28838600
27.29999856	0.00000000	8.65526600
27.49999854	0.00000000	14.92372000
27.69999853	0.00000000	19.15600000
27.89999852	0.00000000	19.92495000
28.09999851	0.00000000	16.91068000
28.29999850	0.00000000	9.63336600
28.49999848	0.00000000	-0.51058070
28.69999847	0.00000000	-11.50960000
28.89999846	0.00000000	-20.78617000
29.09999845	0.00000000	-25.78740000
29.29999844	0.00000000	-24.81545000
29.49999843	0.00000000	-16.71383000
29.69999841	0.00000000	-2.75590500
29.89999840	0.00000000	13.75492000
30.09999839	0.00000000	29.39837000
30.29999838	0.00000000	40.30511000
30.49999837	0.00000000	43.16560000
30.69999835	0.00000000	36.33120000
30.89999834	0.00000000	20.68774000
31.09999833	0.00000000	-0.04921259
31.29999832	0.00000000	-21.24754000
31.49999831	0.00000000	-38.52116000
31.69999829	0.00000000	-47.33637000
31.89999828	0.00000000	-44.74655000
32.09999827	0.00000000	-31.18848000
32.29999826	0.00000000	-9.12893600
32.49999825	0.00000000	16.65846000
32.69999824	0.00000000	40.30511000
32.89999822	0.00000000	55.94857000
33.09999821	0.00000000	59.72564000
33.29999820	0.00000000	50.79970000
33.49999819	0.00000000	30.46875000
33.69999818	0.00000000	3.46333600
33.89999816	0.00000000	-23.68971000
34.09999815	0.00000000	-45.25098000
34.29999814	0.00000000	-56.66215000
34.49999813	0.00000000	-54.52755000
34.69999812	0.00000000	-39.74532000
34.89999810	0.00000000	-15.59424000
35.09999809	0.00000000	12.73991000
35.29999808	0.00000000	38.52116000
35.49999807	0.00000000	55.89936000
35.69999806	0.00000000	60.94365000
35.89999805	0.00000000	52.53445000
36.09999803	0.00000000	32.71407000
36.29999802	0.00000000	6.92667200
36.49999801	0.00000000	-18.90994000
36.69999800	0.00000000	-39.24089000
36.89999799	0.00000000	-49.38484000
37.09999797	0.00000000	-47.28715000
37.29999796	0.00000000	-33.42150000
37.49999795	0.00000000	-11.92175000
37.69999794	0.00000000	11.31890000
37.89999793	0.00000000	31.23770000
38.09999791	0.00000000	43.06102000
38.29999790	0.00000000	44.43282000
38.49999789	0.00000000	35.61762000
38.69999788	0.00000000	19.61737000
38.89999787	0.00000000	0.65821850
39.09999786	0.00000000	-16.25246000
39.29999784	0.00000000	-26.85777000
39.49999783	0.00000000	-29.50295000
39.69999782	0.00000000	-24.05266000
39.89999781	0.00000000	-12.73991000
40.09999780	0.00000000	1.16879900
40.29999778	0.00000000	13.81028000
40.49999777	0.00000000	21.86270000
40.69999776	0.00000000	23.64050000
40.89999775	0.00000000	19.51279000
41.09999774	0.00000000	11.55881000
41.29999772	0.00000000	2.33759800
41.49999771	0.00000000	-5.30265700
41.69999770	0.00000000	-9.58415200
41.89999769	0.00000000	-10.44537000
42.09999768	0.00000000	-7.54183000
42.29999767	0.00000000	-2.18996000
42.49999765	0.00000000	2.90354300
42.69999764	0.00000000	6.72982200
42.89999763	0.00000000	8.86441900
43.09999762	0.00000000	8.45841400
43.29999761	0.00000000	6.41609200
43.49999759	0.00000000	3.51254900
43.69999758	0.00000000	1.06422200
43.89999757	0.00000000	0.55979330
44.09999756	0.00000000	1.31643700
44.29999755	0.00000000	2.14074800
44.49999753	0.00000000	2.95275600
44.69999752	0.00000000	2.90354300
44.89999751	0.00000000	1.67938000
45.09999750	0.00000000	0.04921259
45.29999749	0.00000000	-1.21801200
45.49999748	0.00000000	-1.58095500
45.69999746	0.00000000	-0.76279520
45.89999745	0.00000000	1.37180100
46.09999744	0.00000000	3.92470400
46.29999743	0.00000000	6.87746000
46.49999742	0.00000000	9.37500000
46.69999740	0.00000000	10.19316000
46.89999739	0.00000000	9.32578700
47.09999738	0.00000000	6.31766700
47.29999737	0.00000000	1.72859200
47.49999736	0.00000000	-2.85433100
47.69999734	0.00000000	-5.86245000
47.89999733	0.00000000	-6.72982200
48.09999732	0.00000000	-5.91166300
48.29999731	0.00000000	-3.31569900
48.49999730	0.00000000	0.46136810
48.69999729	0.00000000	4.68134800
48.89999727	0.00000000	8.04626000
49.09999726	0.00000000	9.78100300
49.29999725	0.00000000	9.78100300
49.49999724	0.00000000	8.09547100
49.69999723	0.00000000	5.19192900
49.89999721	0.00000000	2.18996000
50.09999720	0.00000000	-0.36294290
50.29999719	0.00000000	-2.49753900
50.49999718	0.00000000	-3.36491100
50.69999717	0.00000000	-3.41412400
50.89999715	0.00000000	-2.95275600
51.09999714	0.00000000	-1.67938000
51.29999713	0.00000000	0.04921259
51.49999712	0.00000000	2.18996000
51.69999711	0.00000000	4.68134800
51.89999710	0.00000000	6.41609200
52.09999708	0.00000000	7.28961600
52.29999707	0.00000000	7.68946800
52.49999706	0.00000000	6.82824800
52.69999705	0.00000000	5.14271600
52.89999704	0.00000000	3.00196800
53.09999702	0.00000000	0.46136810
53.29999701	0.00000000	-1.67938000
53.49999700	0.00000000	-3.36491100
53.69999699	0.00000000	-4.17691900
53.89999698	0.00000000	-3.31569900
54.09999696	0.00000000	-1.22416300
54.29999695	0.00000000	1.72859200
54.49999694	0.00000000	4.68134800
54.69999693	0.00000000	6.82824800
54.89999692	0.00000000	8.09547100
55.09999691	0.00000000	8.04626000
55.29999689	0.00000000	6.36687900
55.49999688	0.00000000	3.41412400
55.69999687	0.00000000	0.04921259
55.89999686	0.00000000	-2.85433100
56.09999685	0.00000000	-4.12770700
56.29999683	0.00000000	-3.31569900
56.49999682	0.00000000	-1.22416300
56.69999681	0.00000000	1.77780500
56.89999680	0.00000000	5.09350300
57.09999679	0.00000000	7.64025500
57.29999677	0.00000000	8.45841400
57.49999676	0.00000000	7.64025500
57.69999675	0.00000000	5.09350300
57.89999674	0.00000000	1.77780500
58.09999673	0.00000000	-1.22416300
58.29999672	0.00000000	-3.36491100
58.49999670	0.00000000	-4.58292300
58.69999669	0.00000000	-4.12770700
58.89999668	0.00000000	-1.63016700
59.09999667	0.00000000	1.72859200
59.29999666	0.00000000	5.14271600
59.49999664	0.00000000	8.09547100
59.69999663	0.00000000	9.73179100
59.89999662	0.00000000	9.32578700
60.09999661	0.00000000	6.77903500
60.29999660	0.00000000	3.05118100
60.49999658	0.00000000	-0.81200780
60.69999657	0.00000000	-3.72785400
60.89999656	0.00000000	-5.45029500
61.09999655	0.00000000	-4.99507900
61.29999654	0.00000000	-2.90354300
61.49999653	0.00000000	0.46136810
61.69999651	0.00000000	4.22613100
61.89999650	0.00000000	6.77903500
62.09999649	0.00000000	8.14468500
62.29999648	0.00000000	8.50762700
62.49999647	0.00000000	7.68946800
62.69999645	0.00000000	5.55487200
62.89999644	0.00000000	3.05118100
63.09999643	0.00000000	0.51058070
63.29999642	0.00000000	-1.21801200
63.49999641	0.00000000	-2.14074800
63.69999639	0.00000000	-2.95275600
63.89999638	0.00000000	-2.90354300
64.09999637	0.00000000	-1.67938000
64.29999636	0.00000000	0.00000000
64.49999635	0.00000000	1.72859200
64.69999634	0.00000000	3.46333600
64.89999632	0.00000000	5.19192900
65.09999631	0.00000000	6.87746000
65.29999630	0.00000000	8.09547100
65.49999629	0.00000000	8.09547100
65.69999628	0.00000000	6.82824800
65.89999626	0.00000000	4.63213500
66.09999625	0.00000000	1.16879900
66.29999624	0.00000000	-3.31569900
66.49999623	0.00000000	-6.66830600
66.69999622	0.00000000	-7.19119100
66.89999620	0.00000000	-6.41609200
67.09999619	0.00000000	-4.58292300
67.29999618	0.00000000	-1.16879900
67.49999617	0.00000000	3.51254900
67.69999616	0.00000000	8.50762700
67.89999615	0.00000000	12.32775000
68.09999613	0.00000000	13.55807000
68.29999612	0.00000000	12.32775000
68.49999611	0.00000000	8.45841400
68.69999610	0.00000000	3.05118100
68.89999609	0.00000000	-2.49753900
69.09999607	0.00000000	-6.72982200
69.29999606	0.00000000	-9.32578700
69.49999605	0.00000000	-9.63336600
69.69999604	0.00000000	-7.12967500
69.89999603	0.00000000	-2.04232300
70.09999601	0.00000000	3.82627900
70.29999600	0.00000000	9.37500000
70.49999599	0.00000000	13.14591000
70.69999598	0.00000000	14.46850000
70.89999597	0.00000000	13.19513000
71.09999596	0.00000000	9.78100300
71.29999594	0.00000000	4.73671200
71.49999593	0.00000000	-0.76279520
71.69999592	0.00000000	-4.99507900
71.89999591	0.00000000	-7.59104300
72.09999590	0.00000000	-7.99704600
72.29999588	0.00000000	-6.31766700
72.49999587	0.00000000	-2.90354300
72.69999586	0.00000000	1.72859200
72.89999585	0.00000000	6.36687900
73.09999584	0.00000000	9.78100300
73.29999582	0.00000000	11.46038000
73.49999581	0.00000000	11.10359000
73.69999580	0.00000000	8.96899500
73.89999579	0.00000000	5.95472400
74.09999578	0.00000000	1.72859200
74.29999577	0.00000000	-2.44832700
74.49999575	0.00000000	-4.99507900
74.69999574	0.00000000	-5.85629900
74.89999573	0.00000000	-4.58292300
75.09999572	0.00000000	-1.67938000
75.29999571	0.00000000	1.72859200
75.49999569	0.00000000	5.14271600
75.69999568	0.00000000	8.09547100
75.89999567	0.00000000	9.73179100
76.09999566	0.00000000	9.27657400
76.29999565	0.00000000	6.36687900
76.49999563	0.00000000	2.18996000
76.69999562	0.00000000	-1.67938000
76.89999561	0.00000000	-5.04429100
77.09999560	0.00000000	-7.08046200
77.29999559	0.00000000	-6.26845500
77.49999558	0.00000000	-3.31569900
77.69999556	0.00000000	0.91658460
77.89999555	0.00000000	6.01008800
78.09999554	0.00000000	10.19316000
78.29999553	0.00000000	12.78912000
78.49999552	0.00000000	13.09670000
78.69999550	0.00000000	10.59301000
78.89999549	0.00000000	5.50565900
79.09999548	0.00000000	-0.36294290
79.29999547	0.00000000	-5.91166300
79.49999546	0.00000000	-9.68257800
79.69999544	0.00000000	-10.95595000
79.89999543	0.00000000	-9.22121000
80.09999542	0.00000000	-4.58907500
80.29999541	0.00000000	1.77780500
80.49999540	0.00000000	8.50762700
80.69999539	0.00000000	14.00714000
80.89999537	0.00000000	16.56004000
81.09999536	0.00000000	16.15404000
81.29999535	0.00000000	12.73991000
81.49999534	0.00000000	6.82824800
81.69999533	0.00000000	0.04921259
81.89999531	0.00000000	-6.31766700
82.09999530	0.00000000	-11.00517000
82.29999529	0.00000000	-13.09670000
82.49999528	0.00000000	-12.22933000
82.69999527	0.00000000	-7.99704600
82.89999525	0.00000000	-1.67938000
83.09999524	0.00000000	5.14271600
83.29999523	0.00000000	11.50960000
83.49999522	0.00000000	16.14788000
83.69999521	0.00000000	17.83341000
83.89999520	0.00000000	16.19710000
84.09999518	0.00000000	11.92175000
84.29999517	0.00000000	6.01008800
84.49999516	0.00000000	-0.81200780
84.69999515	0.00000000	-6.72982200
84.89999514	0.00000000	-11.00517000
85.09999512	0.00000000	-12.68455000
85.29999511	0.00000000	-11.41117000
85.49999510	0.00000000	-7.59104300
85.69999509	0.00000000	-1.63016700
85.89999508	0.00000000	5.14271600
86.09999506	0.00000000	11.50960000
86.29999505	0.00000000	16.14788000
86.49999504	0.00000000	17.83341000
86.69999503	0.00000000	16.19710000
86.89999502	0.00000000	11.92175000
87.09999501	0.00000000	6.01008800
87.29999499	0.00000000	-0.81200780
87.49999498	0.00000000	-6.72982200
87.69999497	0.00000000	-11.00517000
87.89999496	0.00000000	-12.68455000
88.09999495	0.00000000	-11.41117000
88.29999493	0.00000000	-7.59104300
88.49999492	0.00000000	-1.63016700
88.69999491	0.00000000	5.09350300
88.89999490	0.00000000	11.05438000
89.09999489	0.00000000	14.87451000
89.29999487	0.00000000	16.14788000
89.49999486	0.00000000	14.41929000
89.69999485	0.00000000	9.83021600
89.89999484	0.00000000	3.92470400
90.09999483	0.00000000	-1.63016700
90.29999482	0.00000000	-6.31766700
90.49999480	0.00000000	-9.27657400
90.69999479	0.00000000	-9.68257800
90.89999478	0.00000000	-7.59104300
91.09999477	0.00000000	-3.36491100
91.29999476	0.00000000	1.67938000
91.49999474	0.00000000	6.36687900
91.69999473	0.00000000	9.78100300
91.89999472	0.00000000	11.46038000
92.09999471	0.00000000	11.05438000
92.29999470	0.00000000	8.55684000
92.49999468	0.00000000	5.19192900
92.69999467	0.00000000	1.72859200
92.89999466	0.00000000	-1.63016700
93.09999465	0.00000000	-4.12770700
93.29999464	0.00000000	-4.58292300
93.49999463	0.00000000	-3.41412400
93.69999461	0.00000000	-1.72859200
93.89999460	0.00000000	0.04921259
94.09999459	0.00000000	2.14074800
94.29999458	0.00000000	4.27534400
94.49999457	0.00000000	5.50565900
94.69999455	0.00000000	6.00393600
94.89999454	0.00000000	5.55487200
95.09999453	0.00000000	4.73056000
95.29999452	0.00000000	3.46333600
95.49999451	0.00000000	2.18996000
95.69999449	0.00000000	1.31643700
95.89999448	0.00000000	0.46136810
96.09999447	0.00000000	0.04921259
96.29999446	0.00000000	0.00000000
96.49999445	0.00000000	0.04921259
96.69999444	0.00000000	0.46136810
96.89999442	0.00000000	1.26722400
97.09999441	0.00000000	1.72859200
97.29999440	0.00000000	2.18996000
97.49999439	0.00000000	3.00196800
97.69999438	0.00000000	3.41412400
97.89999436	0.00000000	3.46333600
98.09999435	0.00000000	3.46333600
98.29999434	0.00000000	3.46333600
98.49999433	0.00000000	3.41412400
98.69999432	0.00000000	2.95275600
98.89999430	0.00000000	1.72859200
99.09999429	0.00000000	0.51058070
99.29999428	0.00000000	0.04921259
99.49999427	0.00000000	0.00000000
99.69999426	0.00000000	0.04921259
99.89999425	0.00000000	0.46136810
100.09999423	0.00000000	1.31643700
100.29999422	0.00000000	2.14074800
100.49999421	0.00000000	3.00196800
100.69999420	0.00000000	3.41412400
100.89999419	0.00000000	3.46333600
101.09999417	0.00000000	3.46333600
101.29999416	0.00000000	3.41412400
101.49999415	0.00000000	2.95275600
101.69999414	0.00000000	1.72859200
101.89999413	0.00000000	0.51058070
102.09999411	0.00000000	0.04921259
102.29999410	0.00000000	0.00000000
102.49999409	0.00000000	0.04921259
102.69999408	0.00000000	0.51058070
102.89999407	0.00000000	1.72859200
103.09999406	0.00000000	3.00196800
103.29999404	0.00000000	3.87549200
103.49999403	0.00000000	4.68134800
103.69999402	0.00000000	4.68134800
103.89999401	0.00000000	3.87549200
104.09999400	0.00000000	3.00196800
104.29999398	0.00000000	1.72859200
104.49999397	0.00000000	0.51058070
104.69999396	0.00000000	0.04921259
104.89999395	0.00000000	0.00000000
105.09999394	0.00000000	0.04921259
105.29999392	0.00000000	0.46136810
105.49999391	0.00000000	1.31643700
105.69999390	0.00000000	2.18996000
105.89999389	0.00000000	3.46333600
106.09999388	0.00000000	4.63213500
106.29999387	0.00000000	4.68134800
106.49999385	0.00000000	3.87549200
106.69999384	0.00000000	3.00196800
106.89999383	0.00000000	1.72859200
107.09999382	0.00000000	0.46136810
107.29999381	0.00000000	-0.41215550
107.49999379	0.00000000	-1.21801200
107.69999378	0.00000000	-1.16879900
107.89999377	0.00000000	0.04921259
108.09999376	0.00000000	1.72859200
108.29999375	0.00000000	3.41412400
108.49999374	0.00000000	4.68134800
108.69999372	0.00000000	5.14271600
108.89999371	0.00000000	5.09350300
109.09999370	0.00000000	4.27534400
109.29999369	0.00000000	2.59596400
109.49999368	0.00000000	1.31643700
109.69999366	0.00000000	-0.04921259
109.89999365	0.00000000	-1.63016700
110.09999364	0.00000000	-2.44217500
110.29999363	0.00000000	-1.63016700
110.49999362	0.00000000	0.00000000
110.69999360	0.00000000	1.72859200
110.89999359	0.00000000	3.46333600
111.09999358	0.00000000	5.14271600
111.29999357	0.00000000	6.36687900
111.49999356	0.00000000	6.36687900
111.69999355	0.00000000	5.09350300
111.89999353	0.00000000	3.00196800
112.09999352	0.00000000	0.46136810
112.29999351	0.00000000	-1.63016700
112.49999350	0.00000000	-2.95275600
112.69999349	0.00000000	-3.36491100
112.89999347	0.00000000	-2.90354300
113.09999346	0.00000000	-1.17495100
113.29999345	0.00000000	1.72859200
113.49999344	0.00000000	4.63213500
113.69999343	0.00000000	6.36687900
113.89999341	0.00000000	6.87746000
114.09999340	0.00000000	6.82824800
114.29999339	0.00000000	5.91166300
114.49999338	0.00000000	3.41412400
114.69999337	0.00000000	0.51058070
114.89999336	0.00000000	-1.63016700
115.09999334	0.00000000	-2.90354300
115.29999333	0.00000000	-2.90354300
115.49999332	0.00000000	-1.67938000
115.69999331	0.00000000	0.04921259
115.89999330	0.00000000	2.18996000
116.09999328	0.00000000	4.68134800
116.29999327	0.00000000	6.36687900
116.49999326	0.00000000	6.82824800
116.69999325	0.00000000	6.41609200
116.89999324	0.00000000	5.09350300
117.09999322	0.00000000	3.00196800
117.29999321	0.00000000	0.51058070
117.49999320	0.00000000	-1.16879900
117.69999319	0.00000000	-1.63016700
117.89999318	0.00000000	-1.21801200
118.09999317	0.00000000	0.04921259
118.29999315	0.00000000	1.72859200
118.49999314	0.00000000	3.36491100
118.69999313	0.00000000	4.27534400
118.89999312	0.00000000	4.28149600
119.09999311	0.00000000	4.27534400
119.29999309	0.00000000	3.41412400
119.49999308	0.00000000	2.18996000
119.69999307	0.00000000	1.31643700
119.89999306	0.00000000	0.46136810
120.09999305	0.00000000	0.04921259
120.29999303	0.00000000	0.04921259
120.49999302	0.00000000	0.46136810
120.69999301	0.00000000	1.31643700
120.89999300	0.00000000	2.14074800
121.09999299	0.00000000	3.00196800
121.29999298	0.00000000	3.41412400
121.49999296	0.00000000	3.46333600
121.69999295	0.00000000	3.41412400
121.89999294	0.00000000	2.95275600
122.09999293	0.00000000	1.72859200
122.29999292	0.00000000	0.51058070
122.49999290	0.00000000	0.04921259
122.69999289	0.00000000	0.04921259
122.89999288	0.00000000	0.46136810
123.09999287	0.00000000	1.31643700
123.29999286	0.00000000	2.14074800
123.49999284	0.00000000	3.00196800
123.69999283	0.00000000	3.41412400
123.89999282	0.00000000	3.46333600
124.09999281	0.00000000	3.41412400
124.29999280	0.00000000	3.00196800
124.49999279	0.00000000	2.14074800
124.69999277	0.00000000	1.26722400
124.89999276	0.00000000	0.04921259
125.09999275	0.00000000	-0.76279520
125.29999274	0.00000000	-0.36294290
125.49999273	0.00000000	0.46136810
125.69999271	0.00000000	1.72859200
125.89999270	0.00000000	2.95275600
126.09999269	0.00000000	3.41412400
126.29999268	0.00000000	3.46333600
126.49999267	0.00000000	3.41412400
126.69999265	0.00000000	2.95275600
126.89999264	0.00000000	1.72859200
127.09999263	0.00000000	0.51058070
127.29999262	0.00000000	0.04921259
127.49999261	0.00000000	0.00000000
127.69999260	0.00000000	0.04921259
127.89999258	0.00000000	0.46136810
128.09999257	0.00000000	1.31643700
128.29999256	0.00000000	2.18996000
128.49999255	0.00000000	3.46333600
128.69999254	0.00000000	4.63213500
128.89999252	0.00000000	4.68134800
129.09999251	0.00000000	3.87549200
129.29999250	0.00000000	3.00196800
129.49999249	0.00000000	1.72859200
129.69999248	0.00000000	0.51058070
129.89999246	0.00000000	0.04921259
130.09999245	0.00000000	0.00000000
130.29999244	0.00000000	0.04921259
130.49999243	0.00000000	0.46136810
130.69999242	0.00000000	1.31643700
130.89999241	0.00000000	2.14074800
131.09999239	0.00000000	3.00196800
131.29999238	0.00000000	3.41412400
131.49999237	0.00000000	3.41412400
131.69999236	0.00000000	3.00196800
131.89999235	0.00000000	2.14074800
132.09999233	0.00000000	1.31643700
132.29999232	0.00000000	0.46136810
132.49999231	0.00000000	0.09842519
132.69999230	0.00000000	0.46136810
132.89999229	0.00000000	1.21801200
133.09999227	0.00000000	1.26722400
133.29999226	0.00000000	0.96579720
133.49999225	0.00000000	1.72859200
133.69999224	0.00000000	2.49138800
133.89999223	0.00000000	2.09153500
134.09999222	0.00000000	1.31643700
134.29999220	0.00000000	0.46136810
134.49999219	0.00000000	0.04921259
134.69999218	0.00000000	0.04921259
134.89999217	0.00000000	0.51058070
135.09999216	0.00000000	1.72859200
135.29999214	0.00000000	2.95275600
135.49999213	0.00000000	3.41412400
135.69999212	0.00000000	3.46333600
135.89999211	0.00000000	3.41412400
136.09999210	0.00000000	3.00196800
136.29999208	0.00000000	2.14074800
136.49999207	0.00000000	1.31643700
136.69999206	0.00000000	0.46136810
136.89999205	0.00000000	0.04921259
137.09999204	0.00000000	0.00000000
137.29999203	0.00000000	0.04921259
137.49999201	0.00000000	0.51058070
137.69999200	0.00000000	1.72859200
137.89999199	0.00000000	3.00196800
138.09999198	0.00000000	3.87549200
138.29999197	0.00000000	4.68134800
138.49999195	0.00000000	4.63213500
138.69999194	0.00000000	3.41412400
138.89999193	0.00000000	1.77780500
139.09999192	0.00000000	0.51058070
139.29999191	0.00000000	0.00000000
139.49999189	0.00000000	-0.41215550
139.69999188	0.00000000	-0.81200780
139.89999187	0.00000000	-0.36294290
140.09999186	0.00000000	0.41215550
140.29999185	0.00000000	1.31643700
140.49999184	0.00000000	2.14074800
140.69999182	0.00000000	3.00196800
140.89999181	0.00000000	3.41412400
141.09999180	0.00000000	3.46333600
141.29999179	0.00000000	3.41412400
141.49999178	0.00000000	3.00196800
141.69999176	0.00000000	2.14074800
141.89999175	0.00000000	1.26722400
142.09999174	0.00000000	0.04921259
142.29999173	0.00000000	-0.76279520
142.49999172	0.00000000	-0.41215550
142.69999170	0.00000000	-0.04921259
142.89999169	0.00000000	0.04921259
143.09999168	0.00000000	0.46136810
143.29999167	0.00000000	1.31643700
143.49999166	0.00000000	2.14074800
143.69999165	0.00000000	3.00196800
143.89999163	0.00000000	3.41412400
144.09999162	0.00000000	3.46333600
144.29999161	0.00000000	3.41412400
144.49999160	0.00000000	3.00196800
144.69999159	0.00000000	2.14074800
144.89999157	0.00000000	1.31643700
145.09999156	0.00000000	0.46136810
145.29999155	0.00000000	0.04921259
145.49999154	0.00000000	0.00000000
145.69999153	0.00000000	0.00000000
145.89999151	0.00000000	0.04921259
146.09999150	0.00000000	0.46136810
146.29999149	0.00000000	1.31643700
146.49999148	0.00000000	2.14074800
146.69999147	0.00000000	3.00196800
146.89999146	0.00000000	3.41412400
147.09999144	0.00000000	3.46333600
147.29999143	0.00000000	3.41412400
147.49999142	0.00000000	3.00196800
147.69999141	0.00000000	2.14074800
147.89999140	0.00000000	1.31643700
148.09999138	0.00000000	0.46136810
148.29999137	0.00000000	0.04921259
148.49999136	0.00000000	0.00000000
148.69999135	0.00000000	0.04921259
148.89999134	0.00000000	0.46136810
149.09999132	0.00000000	1.31643700
149.29999131	0.00000000	2.14074800
149.49999130	0.00000000	3.00196800
149.69999129	0.00000000	3.41412400
149.89999128	0.00000000	3.46333600
150.09999127	0.00000000	3.41412400
150.29999125	0.00000000	2.95275600
150.49999124	0.00000000	1.72859200
150.69999123	0.00000000	0.51058070
150.89999122	0.00000000	0.04921259
151.09999121	0.00000000	0.00000000
151.29999119	0.00000000	0.04921259
151.49999118	0.00000000	0.46136810
151.69999117	0.00000000	1.26722400
151.89999116	0.00000000	1.72859200
152.09999115	0.00000000	2.18996000
152.29999113	0.00000000	2.95275600
152.49999112	0.00000000	2.95275600
152.69999111	0.00000000	2.18996000
152.89999110	0.00000000	1.77780500
153.09999109	0.00000000	1.72859200
153.29999108	0.00000000	1.67938000
153.49999106	0.00000000	1.31643700
153.69999105	0.00000000	0.91658460
153.89999104	0.00000000	1.31643700
154.09999103	0.00000000	1.67938000
154.29999102	0.00000000	1.72859200
154.49999100	0.00000000	1.72859200
154.69999099	0.00000000	1.72859200
154.89999098	0.00000000	1.72859200
155.09999097	0.00000000	1.72859200
155.29999096	0.00000000	1.72859200
155.49999094	0.00000000	1.72859200
155.69999093	0.00000000	1.72859200
155.89999092	0.00000000	1.72859200
156.09999091	0.00000000	1.72859200
156.29999090	0.00000000	1.72859200
156.49999089	0.00000000	1.72859200
156.69999087	0.00000000	1.72859200
156.89999086	0.00000000	1.67938000
157.09999085	0.00000000	1.31643700
157.29999084	0.00000000	0.91658460
157.49999083	0.00000000	1.31643700
157.69999081	0.00000000	1.67938000
157.89999080	0.00000000	1.72859200
158.09999079	0.00000000	1.72859200
158.29999078	0.00000000	1.72859200
158.49999077	0.00000000	1.72859200
158.69999075	0.00000000	1.72859200
158.89999074	0.00000000	1.72859200
159.09999073	0.00000000	1.72859200
159.29999072	0.00000000	1.72859200
159.49999071	0.00000000	1.72859200
159.69999070	0.00000000	1.67938000
159.89999068	0.00000000	1.26722400
160.09999067	0.00000000	0.46136810
160.29999066	0.00000000	0.09842519
160.49999065	0.00000000	0.46136810
160.69999064	0.00000000	1.26722400
160.89999062	0.00000000	1.67938000
161.09999061	0.00000000	1.72859200
161.29999060	0.00000000	1.72859200
161.49999059	0.00000000	1.72859200
161.69999058	0.00000000	1.72859200
161.89999056	0.00000000	1.72859200
162.09999055	0.00000000	1.72859200
162.29999054	0.00000000	1.72859200
162.49999053	0.00000000	1.67938000
162.69999052	0.00000000	1.26722400
162.89999051	0.00000000	0.51058070
163.09999049	0.00000000	0.51058070
163.29999048	0.00000000	1.26722400
163.49999047	0.00000000	1.67938000
163.69999046	0.00000000	1.72859200
163.89999045	0.00000000	1.72859200
164.09999043	0.00000000	1.72859200
164.29999042	0.00000000	1.72859200
164.49999041	0.00000000	1.72859200
164.69999040	0.00000000	1.72859200
164.89999039	0.00000000	1.72859200
165.09999037	0.00000000	1.72859200
165.29999036	0.00000000	1.72859200
165.49999035	0.00000000	1.72859200
165.69999034	0.00000000	1.72859200
165.89999033	0.00000000	1.72859200
166.09999032	0.00000000	1.72859200
166.29999030	0.00000000	1.72859200
166.49999029	0.00000000	1.72859200
166.69999028	0.00000000	1.72859200
166.89999027	0.00000000	1.72859200
167.09999026	0.00000000	1.72859200
167.29999024	0.00000000	1.72859200
167.49999023	0.00000000	1.72859200
167.69999022	0.00000000	1.72859200
167.89999021	0.00000000	1.67938000
168.09999020	0.00000000	1.31643700
168.29999018	0.00000000	0.91658460
168.49999017	0.00000000	1.31643700
168.69999016	0.00000000	1.67938000
168.89999015	0.00000000	1.72859200
169.09999014	0.00000000	1.72859200
169.29999013	0.00000000	1.72859200
169.49999011	0.00000000	1.72859200
169.69999010	0.00000000	1.72859200
169.89999009	0.00000000	1.72859200
170.09999008	0.00000000	1.72859200
170.29999007	0.00000000	1.72859200
170.49999005	0.00000000	1.72859200
170.69999004	0.00000000	1.72859200
170.89999003	0.00000000	1.72859200
171.09999002	0.00000000	1.72859200
171.29999001	0.00000000	1.72859200
171.49998999	0.00000000	1.72859200
171.69998998	0.00000000	1.72859200
171.89998997	0.00000000	1.72859200
172.09998996	0.00000000	1.72859200
172.29998995	0.00000000	1.72859200
172.49998994	0.00000000	1.72859200
172.69998992	0.00000000	1.72859200
172.89998991	0.00000000	1.72859200
173.09998990	0.00000000	1.72859200
173.29998989	0.00000000	1.72859200
173.49998988	0.00000000	1.72859200
173.69998986	0.00000000	1.72859200
173.89998985	0.00000000	1.72859200
174.09998984	0.00000000	1.72859200
174.29998983	0.00000000	1.72859200
174.49998982	0.00000000	1.72859200
174.69998980	0.00000000	1.72859200
174.89998979	0.00000000	1.72859200
175.09998978	0.00000000	1.72859200
175.29998977	0.00000000	1.72859200
175.49998976	0.00000000	1.67938000
175.69998975	0.00000000	1.31643700
175.89998973	0.00000000	0.91658460
176.09998972	0.00000000	1.31643700
176.29998971	0.00000000	1.63016700
176.49998970	0.00000000	1.31643700
176.69998969	0.00000000	0.91658460
176.89998967	0.00000000	1.31643700
177.09998966	0.00000000	1.67938000
177.29998965	0.00000000	1.72859200
177.49998964	0.00000000	1.72859200
177.69998963	0.00000000	1.72859200
177.89998961	0.00000000	1.72859200
178.09998960	0.00000000	1.67938000
178.29998959	0.00000000	1.26722400
178.49998958	0.00000000	0.46136810
178.69998957	0.00000000	0.09842519
178.89998956	0.00000000	0.46136810
179.09998954	0.00000000	1.26722400
179.29998953	0.00000000	1.67938000
179.49998952	0.00000000	1.72859200
179.69998951	0.00000000	1.72859200
179.89998950	0.00000000	1.72859200
180.09998948	0.00000000	1.72859200
180.29998947	0.00000000	1.72859200
180.49998946	0.00000000	1.72859200
180.69998945	0.00000000	1.72859200
180.89998944	0.00000000	1.72859200
181.09998942	0.00000000	1.72859200
181.29998941	0.00000000	1.72859200
181.49998940	0.00000000	1.72859200
181.69998939	0.00000000	1.72859200
181.89998938	0.00000000	1.72859200
182.09998937	0.00000000	1.72859200
182.29998935	0.00000000	1.72859200
182.49998934	0.00000000	1.72859200
182.69998933	0.00000000	1.72859200
182.89998932	0.00000000	1.72859200
183.09998931	0.00000000	1.72859200
183.29998929	0.00000000	1.72859200
183.49998928	0.00000000	1.72859200
183.69998927	0.00000000	1.72859200
183.89998926	0.00000000	1.72859200
184.09998925	0.00000000	1.72859200
184.29998923	0.00000000	1.72859200
184.49998922	0.00000000	1.72859200
184.69998921	0.00000000	1.72859200
184.89998920	0.00000000	1.72859200
185.09998919	0.00000000	1.72859200
185.29998918	0.00000000	1.67938000
185.49998916	0.00000000	1.31643700
185.69998915	0.00000000	0.91658460
185.89998914	0.00000000	1.31643700
186.09998913	0.00000000	1.67938000
186.29998912	0.00000000	1.72859200
186.49998910	0.00000000	1.72859200
186.69998909	0.00000000	1.72859200
186.89998908	0.00000000	1.72859200
187.09998907	0.00000000	1.72859200
187.29998906	0.00000000	1.72859200
187.49998904	0.00000000	1.72859200
187.69998903	0.00000000	1.72859200
187.89998902	0.00000000	1.72859200
188.09998901	0.00000000	1.72859200
188.29998900	0.00000000	1.72859200
188.49998899	0.00000000	1.72859200
188.69998897	0.00000000	1.72859200
188.89998896	0.00000000	1.72859200
189.09998895	0.00000000	1.72859200
189.29998894	0.00000000	1.72859200
189.49998893	0.00000000	1.72859200
189.69998891	0.00000000	1.72859200
189.89998890	0.00000000	1.72859200
190.09998889	0.00000000	1.72859200
190.29998888	0.00000000	1.67938000
190.49998887	0.00000000	1.26722400
190.69998885	0.00000000	0.46136810
190.89998884	0.00000000	0.04921259
191.09998883	0.00000000	0.00000000
191.29998882	0.00000000	0.04921259
191.49998881	0.00000000	0.46136810
191.69998880	0.00000000	1.26722400
191.89998878	0.00000000	1.67938000
192.09998877	0.00000000	1.72859200
192.29998876	0.00000000	1.72859200
192.49998875	0.00000000	1.72859200
192.69998874	0.00000000	1.72859200
192.89998872	0.00000000	1.72859200
193.09998871	0.00000000	1.67938000
193.29998870	0.00000000	1.26722400
193.49998869	0.00000000	0.46136810
193.69998868	0.00000000	0.04921259
193.89998866	0.00000000	0.04921259
194.09998865	0.00000000	0.46136810
194.29998864	0.00000000	1.26722400
194.49998863	0.00000000	1.67938000
194.69998862	0.00000000	1.72859200
194.89998861	0.00000000	1.72859200
195.09998859	0.00000000	1.72859200
195.29998858	0.00000000	1.72859200
195.49998857	0.00000000	1.72859200
195.69998856	0.00000000	1.72859200
195.89998855	0.00000000	1.72859200
196.09998853	0.00000000	1.72859200
