Time	Channel A	Channel B	Channel C
(us)	(V)	(mV)	(mV)

-4.59999956	0.00000000	-88.92101000	-28.04503000
-4.39999957	0.00000000	-88.63803000	-27.67593000
-4.19999958	0.00000000	-88.92101000	-28.00197000
-3.99999959	0.00000000	-89.29010000	-27.95275000
-3.79999960	0.00000000	-88.92101000	-27.30684000
-3.59999962	0.00000000	-88.63803000	-27.30684000
-3.39999963	0.00000000	-88.92101000	-27.95275000
-3.19999964	0.00000000	-89.29010000	-27.95275000
-2.99999965	0.00000000	-88.92101000	-27.25763000
-2.79999966	0.00000000	-88.58882000	-26.88238000
-2.59999968	0.00000000	-88.54576000	-26.83932000
-2.39999969	0.00000000	-88.54576000	-26.88238000
-2.19999970	0.00000000	-88.54576000	-27.21457000
-1.99999971	0.00000000	-88.54576000	-27.58366000
-1.79999972	0.00000000	-88.54576000	-27.21457000
-1.59999973	0.00000000	-88.54576000	-26.88238000
-1.39999975	0.00000000	-88.54576000	-26.83932000
-1.19999976	0.00000000	-88.54576000	-26.83932000
-0.99999977	0.00000000	-88.54576000	-26.83932000
-0.79999978	0.00000000	-88.54576000	-26.83932000
-0.59999979	0.00000000	-88.54576000	-26.83932000
-0.39999981	0.15871060	-88.54576000	-26.83932000
-0.19999982	0.47736220	-88.54576000	-26.83932000
0.00000017	0.79601380	-88.54576000	-26.83932000
0.20000016	0.95533960	-88.54576000	-26.83932000
0.40000015	0.95533960	-88.54576000	-26.88238000
0.60000013	0.79601380	-88.54576000	-27.21457000
0.80000012	0.15871060	-88.54576000	-27.62672000
1.00000011	-0.79601380	-88.54576000	-27.63287000
1.20000010	-1.75196900	-88.54576000	-28.00197000
1.40000009	-2.54859700	-88.54576000	-27.95275000
1.60000008	-2.70792300	-88.54576000	-27.25763000
1.80000006	-2.07062000	-88.54576000	-26.88238000
2.00000005	-0.63668800	-88.54576000	-26.83932000
2.20000004	1.27399100	-88.54576000	-26.83932000
2.40000003	3.34522600	-88.54576000	-26.88238000
2.60000002	4.93786900	-88.54576000	-27.25763000
2.80000000	5.41584600	-88.54576000	-28.00197000
2.99999999	4.30056600	-88.54576000	-28.37721000
3.19999998	1.91129400	-88.54576000	-28.42027000
3.39999997	-1.27399100	-88.54576000	-28.42027000
3.59999996	-4.61921700	-88.54576000	-28.42027000
3.79999994	-7.16781500	-88.54576000	-28.37721000
3.99999993	-7.96444400	-88.54576000	-28.00197000
4.19999992	-6.84916400	-88.54576000	-27.25763000
4.39999991	-3.82258900	-88.54576000	-26.88238000
4.59999990	0.31803640	-88.54576000	-26.83932000
4.79999989	4.77854300	-88.54576000	-26.88238000
4.99999987	8.12377000	-88.54576000	-27.25763000
5.19999986	9.55770200	-88.54576000	-28.00197000
5.39999985	8.44242100	-88.54576000	-28.37721000
5.59999984	5.41584600	-88.54576000	-28.42027000
5.79999983	0.79601380	-88.54576000	-28.42027000
5.99999981	-3.98191400	-88.54576000	-28.42027000
6.19999980	-7.64579200	-88.58882000	-28.37721000
6.39999979	-9.39837600	-88.92101000	-28.00197000
6.59999978	-8.76107300	-89.29010000	-27.25763000
6.79999977	-6.05315000	-88.92101000	-26.88238000
6.99999975	-1.91129400	-88.58882000	-26.83932000
7.19999974	2.38927200	-88.54576000	-26.83932000
7.39999973	5.89382400	-88.54576000	-26.83932000
7.59999972	7.64579200	-88.54576000	-26.88238000
7.79999971	7.32714100	-88.54576000	-27.25763000
7.99999970	5.41584600	-88.54576000	-27.95275000
8.19999968	2.22994600	-88.54576000	-27.95275000
8.39999967	-0.95533960	-88.58882000	-27.25763000
8.59999966	-3.50393700	-88.92101000	-26.88238000
8.79999965	-4.93786900	-89.37623000	-26.88238000
8.99999964	-5.09719500	-89.67150000	-27.21457000
9.19999962	-3.82258900	-90.07135000	-27.62672000
9.39999961	-2.07062000	-89.29626000	-27.58981000
9.59999960	0.00000000	-88.63803000	-27.66978000
9.79999959	1.59264300	-88.54576000	-27.58981000
9.99999958	2.38927200	-88.54576000	-27.66978000
10.19999956	2.54859700	-88.54576000	-27.63287000
10.39999955	1.91129400	-88.54576000	-28.04503000
10.59999954	1.11466500	-88.54576000	-28.37721000
10.79999953	0.31803640	-88.54576000	-28.42027000
10.99999952	-0.47736220	-88.54576000	-28.42027000
11.19999951	-0.79601380	-88.54576000	-28.37721000
11.39999949	-0.95533960	-88.54576000	-28.00197000
11.59999948	-0.79601380	-88.54576000	-27.25763000
11.79999947	-0.63668800	-88.54576000	-26.88238000
11.99999946	-0.31803640	-88.58882000	-26.83932000
12.19999945	-0.15871060	-88.92101000	-26.83932000
12.39999943	-0.15871060	-89.29010000	-26.83932000
12.59999942	0.00000000	-88.92101000	-26.83932000
12.79999941	0.00000000	-88.58882000	-26.83932000
12.99999940	0.00000000	-88.54576000	-26.83932000
13.19999939	0.00000000	-88.54576000	-26.83932000
13.39999937	0.00000000	-88.54576000	-26.83932000
13.59999936	0.00000000	-88.54576000	-26.83932000
13.79999935	0.00000000	-88.54576000	-26.83932000
13.99999934	-0.15871060	-88.54576000	-26.83932000
14.19999933	-0.15871060	-88.54576000	-26.83932000
14.39999932	-0.15871060	-88.54576000	-26.83932000
14.59999930	-0.15871060	-88.54576000	-26.83932000
14.79999929	0.00000000	-88.54576000	-26.83932000
14.99999928	0.00000000	-88.54576000	-26.83932000
15.19999927	0.00000000	-88.54576000	-26.83932000
15.39999926	0.00000000	-88.54576000	-26.83932000
15.59999924	0.00000000	-88.54576000	-26.83932000
15.79999923	0.00000000	-88.54576000	-26.83932000
15.99999922	0.00000000	-88.54576000	-26.83932000
16.19999921	0.00000000	-88.54576000	-26.83932000
16.39999920	0.00000000	-88.54576000	-26.83932000
16.59999919	-0.15871060	-88.54576000	-26.83932000
16.79999917	0.00000000	-88.50270000	-26.83932000
16.99999916	0.00000000	-88.17052000	-26.88238000
17.19999915	0.00000000	-87.71530000	-27.21457000
17.39999914	0.00000000	-87.37696000	-27.58366000
17.59999913	0.00000000	-86.59572000	-27.21457000
17.79999911	0.00000000	-86.63262000	-26.88238000
17.99999910	0.00000000	-87.00787000	-26.83932000
18.19999909	0.00000000	-87.85063000	-26.83932000
18.39999908	0.00000000	-89.75147000	-26.83932000
18.59999907	0.00000000	-91.66460000	-26.83932000
18.79999905	0.00000000	-93.19635000	-26.83932000
18.99999904	0.00000000	-93.94069000	-26.83932000
19.19999903	0.00000000	-93.15329000	-26.88238000
19.39999902	0.00000000	-91.19709000	-27.21457000
19.59999901	0.00000000	-88.07824000	-27.58366000
19.79999900	0.00000000	-84.22120000	-27.21457000
19.99999898	0.00000000	-80.73326000	-26.93159000
20.19999897	0.00000000	-78.03272000	-27.21457000
20.39999896	0.00000000	-76.96235000	-27.62672000
20.59999895	0.00000000	-78.58636000	-27.58981000
20.79999894	0.00000000	-83.24310000	-27.66978000
20.99999892	0.00000000	-90.21899000	-27.58981000
21.19999891	0.00000000	-97.94537000	-27.66978000
21.39999890	0.00000000	-104.87820000	-27.63287000
21.59999889	0.00000000	-109.06740000	-28.04503000
21.79999888	0.00000000	-108.97510000	-28.37721000
21.99999886	0.00000000	-103.90010000	-28.42027000
22.19999885	0.00000000	-94.18060000	-28.42027000
22.39999884	0.00000000	-81.84669000	-28.42027000
22.59999883	0.00000000	-69.47588000	-28.37721000
22.79999882	0.00000000	-60.25467000	-28.00197000
22.99999881	0.00000000	-56.48376000	-27.25763000
23.19999879	0.00000000	-60.07012000	-26.88238000
23.39999878	0.00000000	-71.28445000	-26.79626000
23.59999877	0.00000000	-87.51845000	-26.42101000
23.79999876	0.00000000	-105.29650000	-25.72589000
23.99999875	0.00000000	-120.73690000	-25.68282000
24.19999873	0.00000000	-129.90890000	-26.04577000
24.39999872	0.00000000	-130.23500000	-26.10113000
24.59999871	0.00000000	-120.47240000	-26.93159000
24.79999870	0.00000000	-102.31910000	-28.42027000
24.99999869	0.00000000	-79.57062000	-30.00123000
25.19999867	0.00000000	-57.97859000	-31.53297000
25.39999866	0.00000000	-42.90108000	-32.64640000
25.59999865	0.00000000	-37.54921000	-32.60334000
25.79999864	0.00000000	-43.78691000	-31.02239000
25.99999863	0.00000000	-60.76525000	-27.90969000
26.19999862	0.00000000	-84.31348000	-23.68356000
26.39999860	0.00000000	-109.06740000	-19.45743000
26.59999859	0.00000000	-129.49060000	-16.38779000
26.79999858	0.00000000	-140.70500000	-15.26821000
26.99999857	0.00000000	-139.91760000	-16.84916000
27.19999856	0.00000000	-127.58370000	-21.12451000
27.39999854	0.00000000	-106.36690000	-27.34990000
27.59999853	0.00000000	-81.66215000	-34.73794000
27.79999852	0.00000000	-59.22736000	-41.99065000
27.99999851	0.00000000	-43.74385000	-46.91191000
28.19999850	0.00000000	-38.71186000	-47.28715000
28.39999848	0.00000000	-44.81422000	-43.05487000
28.59999847	0.00000000	-60.21161000	-35.20546000
28.79999846	0.00000000	-80.68405000	-24.37869000
28.99999845	0.00000000	-101.62400000	-12.44464000
29.19999844	0.00000000	-119.02680000	-2.86048200
29.39999843	0.00000000	-129.11540000	2.14689900
29.59999841	0.00000000	-129.90890000	0.94119090
29.79999840	0.00000000	-121.85650000	-6.44069800
29.99999839	0.00000000	-106.83440000	-18.84842000
30.19999838	0.00000000	-89.05634000	-34.27042000
30.39999837	0.00000000	-72.39787000	-48.91117000
30.59999835	0.00000000	-59.97785000	-59.31963000
30.79999834	0.00000000	-54.48449000	-63.17667000
30.99999833	0.00000000	-55.97933000	-59.27657000
31.19999832	0.00000000	-63.70570000	-48.44980000
31.39999831	0.00000000	-76.03346000	-32.60334000
31.59999829	0.00000000	-89.57307000	-15.23130000
31.79999828	0.00000000	-101.66710000	-0.12918310
31.99999827	0.00000000	-110.55610000	9.90403500
32.19999826	0.00000000	-114.41310000	12.55536000
32.39999825	0.00000000	-112.13700000	6.74827700
32.59999824	0.00000000	-104.87820000	-6.35457700
32.79999822	0.00000000	-94.82652000	-23.72662000
32.99999821	0.00000000	-84.35654000	-41.52312000
33.19999820	0.00000000	-75.42445000	-56.20694000
33.39999819	0.00000000	-69.65427000	-64.70840000
33.59999818	0.00000000	-68.44857000	-65.12672000
33.79999816	0.00000000	-71.88730000	-57.78789000
33.99999815	0.00000000	-78.40797000	-44.26673000
34.19999814	0.00000000	-86.54650000	-27.30684000
34.39999813	0.00000000	-94.22982000	-11.09129000
34.59999812	0.00000000	-99.66781000	0.94119090
34.79999810	0.00000000	-101.62400000	6.74827700
34.99999809	0.00000000	-100.13530000	5.21653500
35.19999808	0.00000000	-95.89690000	-3.23572800
35.39999807	0.00000000	-90.12672000	-16.33858000
35.59999806	0.00000000	-84.31348000	-31.02239000
35.79999805	0.00000000	-79.70595000	-44.17446000
35.99999803	0.00000000	-77.42986000	-53.05118000
36.19999802	0.00000000	-78.58636000	-55.74557000
36.39999801	0.00000000	-82.73252000	-51.51329000
36.59999800	0.00000000	-88.07824000	-41.52312000
36.79999799	0.00000000	-92.73499000	-28.51255000
36.99999797	0.00000000	-95.85383000	-16.19710000
37.19999796	0.00000000	-97.01033000	-8.10777600
37.39999795	0.00000000	-95.80462000	-5.74557000
37.59999794	0.00000000	-92.35974000	-9.55339400
37.79999793	0.00000000	-87.38312000	-17.96260000
37.99999791	0.00000000	-82.77559000	-28.32800000
38.19999790	0.00000000	-79.65674000	-37.89985000
38.39999789	0.00000000	-78.50024000	-43.66388000
38.59999788	0.00000000	-79.61367000	-44.08833000
38.79999787	0.00000000	-82.35728000	-39.48080000
38.99999786	0.00000000	-86.22047000	-31.02239000
39.19999784	0.00000000	-90.87106000	-21.12451000
39.39999783	0.00000000	-94.69118000	-13.13361000
39.59999782	0.00000000	-97.05954000	-10.01476000
39.79999781	0.00000000	-97.43479000	-12.29085000
39.99999780	0.00000000	-95.93995000	-18.80536000
40.19999778	0.00000000	-93.15329000	-28.04503000
40.39999777	0.00000000	-89.29010000	-37.20472000
40.59999776	0.00000000	-84.68873000	-43.75615000
40.79999775	0.00000000	-81.19463000	-45.66314000
40.99999774	0.00000000	-79.15231000	-42.59350000
41.19999772	0.00000000	-78.03272000	-35.29773000
41.39999771	0.00000000	-78.50024000	-25.68282000
41.59999770	0.00000000	-81.15157000	-16.47392000
41.79999769	0.00000000	-85.00861000	-9.92864100
41.99999768	0.00000000	-88.87794000	-8.02165300
42.19999767	0.00000000	-92.40280000	-11.04208000
42.39999765	0.00000000	-94.73425000	-17.91953000
42.59999764	0.00000000	-95.89690000	-26.37795000
42.79999763	0.00000000	-95.47859000	-34.09203000
42.99999762	0.00000000	-93.19635000	-39.53002000
43.19999761	0.00000000	-90.16978000	-41.48006000
43.39999759	0.00000000	-87.43233000	-39.94832000
43.59999758	0.00000000	-85.47613000	-35.34079000
43.79999757	0.00000000	-84.22120000	-28.83858000
43.99999756	0.00000000	-83.47071000	-22.69931000
44.19999755	0.00000000	-83.10777000	-18.38090000
44.39999753	0.00000000	-83.84596000	-16.43085000
44.59999752	0.00000000	-84.91634000	-16.80610000
44.79999751	0.00000000	-85.34079000	-19.45743000
44.99999750	0.00000000	-85.38385000	-23.30832000
45.19999749	0.00000000	-85.42691000	-27.17150000
45.39999748	0.00000000	-85.89443000	-30.64714000
45.59999746	0.00000000	-87.47539000	-32.56028000
45.79999745	0.00000000	-90.12672000	-32.64640000
45.99999744	0.00000000	-92.87032000	-31.48991000
46.19999743	0.00000000	-95.20176000	-29.58292000
46.39999742	0.00000000	-97.05954000	-27.21457000
46.59999740	0.00000000	-96.96727000	-24.93233000
46.79999739	0.00000000	-94.27287000	-22.98843000
46.99999738	0.00000000	-89.61613000	-22.23794000
47.19999737	0.00000000	-83.80289000	-22.57013000
47.39999736	0.00000000	-78.03272000	-23.77584000
47.59999734	0.00000000	-73.80044000	-25.68282000
47.79999733	0.00000000	-72.31175000	-28.00197000
47.99999732	0.00000000	-74.26796000	-29.90895000
48.19999731	0.00000000	-79.70595000	-31.11466000
48.39999730	0.00000000	-87.43233000	-31.48376000
48.59999729	0.00000000	-95.93995000	-31.06545000
48.79999727	0.00000000	-103.20500000	-29.49065000
48.99999726	0.00000000	-107.06820000	-26.83932000
49.19999725	0.00000000	-106.23150000	-24.14493000
49.39999724	0.00000000	-100.87350000	-22.19488000
49.59999723	0.00000000	-91.99680000	-21.03838000
49.79999721	0.00000000	-82.35728000	-21.12451000
49.99999720	0.00000000	-73.84350000	-23.03149000
50.19999719	0.00000000	-68.49162000	-26.46407000
50.39999718	0.00000000	-68.11639000	-29.95201000
50.59999717	0.00000000	-72.68085000	-33.06471000
50.79999715	0.00000000	-80.77632000	-35.34079000
50.99999714	0.00000000	-90.03444000	-35.71604000
51.19999713	0.00000000	-98.50517000	-34.18430000
51.39999712	0.00000000	-103.85700000	-31.06545000
51.59999711	0.00000000	-104.32450000	-26.83932000
51.79999710	0.00000000	-100.51060000	-22.61319000
51.99999708	0.00000000	-93.94069000	-19.50049000
52.19999707	0.00000000	-85.85137000	-18.01181000
52.39999706	0.00000000	-78.58636000	-18.75615000
52.59999705	0.00000000	-74.31102000	-21.81964000
52.79999704	0.00000000	-73.93578000	-25.63976000
52.99999702	0.00000000	-77.38065000	-29.53371000
53.19999701	0.00000000	-83.89517000	-32.60334000
53.39999700	0.00000000	-91.15402000	-34.18430000
53.59999699	0.00000000	-96.92421000	-34.14124000
53.79999698	0.00000000	-99.66781000	-32.27731000
53.99999696	0.00000000	-98.92347000	-29.21383000
54.19999695	0.00000000	-95.42937000	-26.51329000
54.39999694	0.00000000	-89.65919000	-24.14493000
54.59999693	0.00000000	-83.19389000	-22.65625000
54.79999692	0.00000000	-78.54330000	-22.65625000
54.99999691	0.00000000	-76.58710000	-24.14493000
55.19999689	0.00000000	-77.38065000	-26.42101000
55.39999688	0.00000000	-81.19463000	-28.28494000
55.59999687	0.00000000	-86.54650000	-29.07234000
55.79999686	0.00000000	-91.57234000	-28.32800000
55.99999685	0.00000000	-95.42937000	-26.83932000
56.19999683	0.00000000	-96.96727000	-25.30758000
56.39999682	0.00000000	-95.80462000	-24.15108000
56.59999681	0.00000000	-92.35974000	-23.81890000
56.79999680	0.00000000	-87.38312000	-24.61245000
56.99999679	0.00000000	-82.81864000	-26.93159000
57.19999677	0.00000000	-80.08120000	-29.95201000
57.39999676	0.00000000	-79.61367000	-32.64640000
57.59999675	0.00000000	-80.77632000	-34.14124000
57.79999674	0.00000000	-83.10777000	-33.71678000
57.99999673	0.00000000	-86.54650000	-30.97933000
58.19999672	0.00000000	-89.61613000	-26.42101000
58.39999670	0.00000000	-91.57234000	-21.40748000
58.59999669	0.00000000	-92.35974000	-17.54429000
58.79999668	0.00000000	-91.57234000	-15.27436000
58.99999667	0.00000000	-89.70841000	-15.73573000
59.19999666	0.00000000	-87.38312000	-19.54355000
59.39999664	0.00000000	-85.47613000	-25.30758000
59.59999663	0.00000000	-84.27042000	-31.48991000
59.79999662	0.00000000	-83.89517000	-36.87869000
59.99999661	0.00000000	-84.27042000	-39.89911000
60.19999660	0.00000000	-85.38385000	-39.53002000
60.39999658	0.00000000	-86.54650000	-35.67298000
60.59999657	0.00000000	-87.34005000	-29.49065000
60.79999656	0.00000000	-88.07824000	-22.19488000
60.99999655	0.00000000	-88.07824000	-15.64345000
61.19999654	0.00000000	-87.34005000	-11.82948000
61.39999653	0.00000000	-86.58956000	-11.41732000
61.59999651	0.00000000	-85.80216000	-14.89911000
61.79999650	0.00000000	-85.47613000	-21.03838000
61.99999649	0.00000000	-85.85137000	-28.42027000
62.19999648	0.00000000	-86.96481000	-35.71604000
62.39999647	0.00000000	-88.12745000	-41.10482000
62.59999645	0.00000000	-88.92101000	-43.01181000
62.79999644	0.00000000	-89.65919000	-41.10482000
62.99999643	0.00000000	-89.61613000	-35.71604000
63.19999642	0.00000000	-88.50270000	-28.37721000
63.39999641	0.00000000	-87.00787000	-20.70620000
63.59999639	0.00000000	-85.80216000	-14.53002000
63.79999638	0.00000000	-85.00861000	-11.82948000
63.99999637	0.00000000	-84.22120000	-12.48770000
64.19999636	0.00000000	-83.89517000	-16.01255000
64.39999635	0.00000000	-84.31348000	-21.40748000
64.59999634	0.00000000	-85.85137000	-28.00197000
64.79999632	0.00000000	-88.07824000	-34.14124000
64.99999631	0.00000000	-89.61613000	-38.41043000
65.19999630	0.00000000	-90.03444000	-39.94832000
65.39999629	0.00000000	-89.65919000	-38.45964000
65.59999628	0.00000000	-88.54576000	-34.64567000
65.79999626	0.00000000	-87.38312000	-30.00123000
65.99999625	0.00000000	-86.58956000	-25.30758000
66.19999624	0.00000000	-85.80216000	-21.08145000
66.39999623	0.00000000	-85.47613000	-18.33784000
66.59999622	0.00000000	-85.85137000	-17.50123000
66.79999620	0.00000000	-87.00787000	-17.87647000
66.99999619	0.00000000	-88.50270000	-19.45743000
67.19999618	0.00000000	-89.61613000	-22.15182000
67.39999617	0.00000000	-89.61613000	-25.26452000
67.59999616	0.00000000	-88.50270000	-28.37721000
67.79999615	0.00000000	-86.92175000	-31.11466000
67.99999613	0.00000000	-84.96555000	-33.11393000
68.19999612	0.00000000	-82.68947000	-34.68873000
68.39999611	0.00000000	-81.23769000	-35.75910000
68.59999610	0.00000000	-81.61294000	-35.29773000
68.79999609	0.00000000	-83.93823000	-32.64640000
68.99999607	0.00000000	-87.38312000	-28.79552000
69.19999606	0.00000000	-91.24016000	-24.88927000
69.39999605	0.00000000	-94.31594000	-20.98917000
69.59999604	0.00000000	-95.89690000	-17.91953000
69.79999603	0.00000000	-95.80462000	-16.38164000
69.99999601	0.00000000	-93.47318000	-16.80610000
70.19999600	0.00000000	-88.87794000	-19.50049000
70.39999599	0.00000000	-83.89517000	-23.72662000
70.59999598	0.00000000	-79.61367000	-28.42027000
70.79999597	0.00000000	-76.87007000	-33.02165000
70.99999596	0.00000000	-76.12574000	-36.50344000
71.19999594	0.00000000	-77.33759000	-37.67224000
71.39999593	0.00000000	-81.23769000	-36.87869000
71.59999592	0.00000000	-86.96481000	-33.76599000
71.79999591	0.00000000	-92.73499000	-28.79552000
71.99999590	0.00000000	-97.01033000	-23.81890000
72.19999588	0.00000000	-98.96652000	-19.91880000
72.39999587	0.00000000	-98.54822000	-17.96260000
72.59999586	0.00000000	-95.47859000	-17.91953000
72.79999585	0.00000000	-90.45890000	-19.50049000
72.99999584	0.00000000	-85.05167000	-22.52091000
73.19999582	0.00000000	-79.98892000	-26.00270000
73.39999581	0.00000000	-76.58710000	-28.66018000
73.59999580	0.00000000	-75.75665000	-30.27805000
73.79999579	0.00000000	-77.65748000	-30.28420000
73.99999578	0.00000000	-81.10851000	-29.58292000
74.19999577	0.00000000	-85.38385000	-28.37721000
74.39999575	0.00000000	-89.65919000	-26.93159000
74.59999574	0.00000000	-93.11023000	-26.14419000
74.79999573	0.00000000	-95.05413000	-26.51329000
74.99999572	0.00000000	-94.64197000	-27.25763000
75.19999571	0.00000000	-92.40280000	-28.37721000
75.39999569	0.00000000	-88.92101000	-29.11540000
75.59999568	0.00000000	-85.51919000	-28.70325000
75.79999567	0.00000000	-83.15083000	-27.54060000
75.99999566	0.00000000	-82.31422000	-25.17224000
76.19999565	0.00000000	-82.26501000	-22.19488000
76.39999563	0.00000000	-82.68947000	-19.87574000
76.59999562	0.00000000	-83.84596000	-19.12524000
76.79999561	0.00000000	-85.34079000	-19.91880000
76.99999560	0.00000000	-86.49728000	-22.65625000
77.19999559	0.00000000	-86.92175000	-26.88238000
77.39999558	0.00000000	-86.96481000	-31.48376000
77.59999556	0.00000000	-86.96481000	-35.29773000
77.79999555	0.00000000	-87.00787000	-36.87254000
77.99999554	0.00000000	-87.38312000	-36.13435000
78.19999553	0.00000000	-88.17052000	-33.76599000
78.39999552	0.00000000	-88.92101000	-29.44759000
78.59999550	0.00000000	-89.65919000	-23.72662000
78.79999549	0.00000000	-89.61613000	-18.38706000
78.99999548	0.00000000	-88.50270000	-15.27436000
79.19999547	0.00000000	-86.92175000	-14.84990000
79.39999546	0.00000000	-84.96555000	-16.76304000
79.59999544	0.00000000	-82.68947000	-20.66314000
79.79999543	0.00000000	-81.19463000	-25.63976000
79.99999542	0.00000000	-81.15157000	-30.69636000
80.19999541	0.00000000	-82.31422000	-34.55955000
80.39999540	0.00000000	-84.27042000	-36.87869000
80.59999539	0.00000000	-86.96481000	-36.87869000
80.79999537	0.00000000	-89.65919000	-34.60261000
80.99999536	0.00000000	-91.57234000	-31.15772000
81.19999535	0.00000000	-92.35974000	-27.25763000
81.39999534	0.00000000	-91.57234000	-23.72662000
81.59999533	0.00000000	-89.65919000	-20.61393000
81.79999531	0.00000000	-86.92175000	-18.33784000
81.99999530	0.00000000	-83.89517000	-17.91953000
82.19999529	0.00000000	-81.61294000	-19.03912000
82.39999528	0.00000000	-81.15157000	-20.98917000
82.59999527	0.00000000	-81.88976000	-23.72662000
82.79999525	0.00000000	-83.05856000	-26.79626000
82.99999524	0.00000000	-85.00861000	-29.58292000
83.19999523	0.00000000	-86.92175000	-31.90822000
83.39999522	0.00000000	-88.50270000	-33.85211000
83.59999521	0.00000000	-89.61613000	-34.55955000
83.79999520	0.00000000	-89.61613000	-33.80905000
83.99999518	0.00000000	-88.54576000	-31.48991000
84.19999517	0.00000000	-87.43233000	-28.42027000
84.39999516	0.00000000	-86.96481000	-25.21530000
84.59999515	0.00000000	-86.54650000	-21.77658000
84.79999514	0.00000000	-85.80216000	-18.71309000
84.99999512	0.00000000	-85.42691000	-17.59350000
85.19999511	0.00000000	-85.38385000	-18.29478000
85.39999510	0.00000000	-85.38385000	-20.66314000
85.59999509	0.00000000	-85.38385000	-24.19414000
85.79999508	0.00000000	-85.34079000	-28.79552000
85.99999506	0.00000000	-85.00861000	-33.34153000
86.19999505	0.00000000	-84.68873000	-35.67298000
86.39999504	0.00000000	-85.42691000	-35.75910000
86.59999503	0.00000000	-86.54650000	-34.18430000
86.79999502	0.00000000	-87.38312000	-31.06545000
86.99999501	0.00000000	-88.54576000	-26.79626000
87.19999499	0.00000000	-89.61613000	-22.19488000
87.39999498	0.00000000	-89.61613000	-18.38090000
87.59999497	0.00000000	-88.54576000	-16.84916000
87.79999496	0.00000000	-87.34005000	-17.96260000
87.99999495	0.00000000	-86.12819000	-21.03838000
88.19999493	0.00000000	-84.22120000	-25.30758000
88.39999492	0.00000000	-82.77559000	-29.95817000
88.59999491	0.00000000	-82.73252000	-34.14124000
88.79999490	0.00000000	-83.84596000	-36.41117000
88.99999489	0.00000000	-85.38385000	-35.67298000
89.19999487	0.00000000	-86.92175000	-32.60334000
89.39999486	0.00000000	-88.07824000	-27.95275000
89.59999485	0.00000000	-88.54576000	-22.61319000
89.79999484	0.00000000	-88.92101000	-18.38090000
89.99999483	0.00000000	-89.24089000	-16.43085000
90.19999482	0.00000000	-88.45349000	-16.80610000
90.39999480	0.00000000	-87.00787000	-19.54355000
90.59999479	0.00000000	-85.85137000	-24.15108000
90.79999478	0.00000000	-85.42691000	-29.49065000
90.99999477	0.00000000	-85.38385000	-33.71678000
91.19999476	0.00000000	-85.38385000	-35.67298000
91.39999474	0.00000000	-85.38385000	-35.24852000
91.59999473	0.00000000	-85.38385000	-32.18504000
91.79999472	0.00000000	-85.38385000	-27.21457000
91.99999471	0.00000000	-85.38385000	-22.23794000
92.19999470	0.00000000	-85.38385000	-18.33784000
92.39999468	0.00000000	-85.38385000	-16.47392000
92.59999467	0.00000000	-85.42691000	-17.18135000
92.79999466	0.00000000	-85.80216000	-20.28789000
92.99999465	0.00000000	-86.58956000	-24.52018000
93.19999464	0.00000000	-87.34005000	-29.53371000
93.39999463	0.00000000	-88.12745000	-33.67372000
93.59999461	0.00000000	-88.50270000	-35.25467000
93.79999460	0.00000000	-88.50270000	-34.13509000
93.99999459	0.00000000	-88.03519000	-31.06545000
94.19999458	0.00000000	-86.49728000	-26.83932000
94.39999457	0.00000000	-84.22120000	-22.61319000
94.59999455	0.00000000	-82.31422000	-19.54355000
94.79999454	0.00000000	-81.10851000	-18.43012000
94.99999453	0.00000000	-80.77632000	-19.96186000
95.19999452	0.00000000	-81.56988000	-23.72662000
95.39999451	0.00000000	-83.89517000	-27.90969000
95.59999449	0.00000000	-86.96481000	-31.06545000
95.79999448	0.00000000	-90.08366000	-32.97859000
95.99999447	0.00000000	-92.73499000	-33.34153000
96.19999446	0.00000000	-93.89764000	-31.44069000
96.39999445	0.00000000	-93.15329000	-28.42027000
96.59999444	0.00000000	-91.19709000	-25.30758000
96.79999442	0.00000000	-88.07824000	-22.61319000
96.99999441	0.00000000	-84.22120000	-21.08145000
97.19999440	0.00000000	-80.77632000	-21.08145000
97.39999439	0.00000000	-78.40797000	-22.57013000
97.59999438	0.00000000	-77.65748000	-24.88927000
97.79999436	0.00000000	-78.45103000	-27.17150000
97.99999435	0.00000000	-81.19463000	-29.11540000
98.19999434	0.00000000	-85.38385000	-29.86589000
98.39999433	0.00000000	-89.61613000	-29.58292000
98.59999432	0.00000000	-92.73499000	-28.79552000
98.79999430	0.00000000	-94.35899000	-28.00197000
98.99999429	0.00000000	-94.69118000	-26.83932000
99.19999428	0.00000000	-93.52238000	-25.72589000
99.39999427	0.00000000	-90.40969000	-25.30758000
99.59999426	0.00000000	-86.58956000	-25.26452000
99.79999425	0.00000000	-82.68947000	-25.26452000
99.99999423	0.00000000	-79.61367000	-25.22145000
100.19999422	0.00000000	-78.07578000	-24.84621000
100.39999421	0.00000000	-78.40797000	-24.10187000
100.59999420	0.00000000	-80.30881000	-23.77584000
100.79999419	0.00000000	-82.64025000	-24.05881000
100.99999417	0.00000000	-85.42691000	-24.55709000
101.19999416	0.00000000	-88.45349000	-25.36294000
101.39999415	0.00000000	-90.77879000	-27.66978000
101.59999414	0.00000000	-91.57234000	-29.86589000
101.79999413	0.00000000	-91.24016000	-31.06545000
101.99999411	0.00000000	-90.08366000	-31.02239000
102.19999410	0.00000000	-88.50270000	-29.49065000
102.39999409	0.00000000	-86.54650000	-26.83932000
102.59999408	0.00000000	-84.22120000	-24.10187000
102.79999407	0.00000000	-82.31422000	-21.77658000
102.99999406	0.00000000	-81.10851000	-19.87574000
103.19999404	0.00000000	-80.77632000	-19.54355000
103.39999403	0.00000000	-81.56988000	-21.03838000
103.59999402	0.00000000	-83.84596000	-23.72662000
103.79999401	0.00000000	-86.49728000	-26.83932000
103.99999400	0.00000000	-88.45349000	-29.90895000
104.19999398	0.00000000	-89.65919000	-32.18504000
104.39999397	0.00000000	-90.08366000	-32.60334000
104.59999396	0.00000000	-90.03444000	-31.48991000
104.79999395	0.00000000	-89.24089000	-29.53371000
104.99999394	0.00000000	-87.34005000	-26.79626000
105.19999392	0.00000000	-85.42691000	-23.77584000
105.39999391	0.00000000	-83.84596000	-21.45669000
105.59999390	0.00000000	-82.73252000	-20.66314000
105.79999389	0.00000000	-82.68947000	-21.03838000
105.99999388	0.00000000	-83.47071000	-22.61319000
106.19999387	0.00000000	-84.59645000	-25.26452000
106.39999385	0.00000000	-86.12819000	-27.90969000
106.59999384	0.00000000	-86.87254000	-29.49065000
106.79999383	0.00000000	-86.96481000	-29.90895000
106.99999382	0.00000000	-86.92175000	-29.49065000
107.19999381	0.00000000	-86.54650000	-27.95891000
107.39999379	0.00000000	-85.75910000	-25.68282000
107.59999378	0.00000000	-85.00861000	-23.77584000
107.79999377	0.00000000	-84.22120000	-22.61319000
107.99999376	0.00000000	-83.89517000	-22.61319000
108.19999375	0.00000000	-84.27042000	-23.72662000
108.39999374	0.00000000	-85.38385000	-25.26452000
108.59999372	0.00000000	-86.54650000	-26.83932000
108.79999371	0.00000000	-87.34005000	-28.32800000
108.99999370	0.00000000	-88.07824000	-29.11540000
109.19999369	0.00000000	-88.03519000	-28.70325000
109.39999368	0.00000000	-86.96481000	-27.58366000
109.59999366	0.00000000	-85.80216000	-25.68282000
109.79999365	0.00000000	-85.00861000	-24.15108000
109.99999364	0.00000000	-84.22120000	-23.30832000
110.19999363	0.00000000	-83.84596000	-22.57013000
110.39999362	0.00000000	-83.84596000	-22.61319000
110.59999360	0.00000000	-84.27042000	-23.72662000
110.79999359	0.00000000	-85.38385000	-25.26452000
110.99999358	0.00000000	-86.49728000	-26.79626000
111.19999357	0.00000000	-86.92175000	-27.95275000
111.39999356	0.00000000	-86.96481000	-28.37721000
111.59999355	0.00000000	-86.96481000	-28.42027000
111.79999353	0.00000000	-86.92175000	-28.37721000
111.99999352	0.00000000	-86.54650000	-27.95275000
112.19999351	0.00000000	-85.80216000	-26.83932000
112.39999350	0.00000000	-85.42691000	-25.72589000
112.59999349	0.00000000	-85.38385000	-25.30758000
112.79999347	0.00000000	-85.38385000	-25.26452000
112.99999346	0.00000000	-85.38385000	-25.26452000
113.19999345	0.00000000	-85.38385000	-25.26452000
113.39999344	0.00000000	-85.38385000	-25.26452000
113.59999343	0.00000000	-85.42691000	-25.30758000
113.79999341	0.00000000	-85.75910000	-25.68282000
113.99999340	0.00000000	-86.17126000	-26.42101000
114.19999339	0.00000000	-86.13435000	-26.79626000
114.39999338	0.00000000	-86.17126000	-26.83932000
114.59999337	0.00000000	-85.75910000	-26.88238000
114.79999336	0.00000000	-85.42691000	-27.25763000
114.99999334	0.00000000	-85.38385000	-28.00197000
115.19999333	0.00000000	-85.38385000	-28.32800000
115.39999332	0.00000000	-85.38385000	-28.00197000
115.59999331	0.00000000	-85.38385000	-27.21457000
115.79999330	0.00000000	-85.42691000	-26.46407000
115.99999328	0.00000000	-85.75910000	-25.63976000
116.19999327	0.00000000	-86.12819000	-24.88927000
116.39999326	0.00000000	-85.80216000	-24.10187000
116.59999325	0.00000000	-85.85137000	-23.77584000
116.79999324	0.00000000	-86.54650000	-24.10187000
116.99999322	0.00000000	-86.87254000	-24.88927000
117.19999321	0.00000000	-86.54650000	-25.63976000
117.39999320	0.00000000	-85.75910000	-26.46407000
117.59999319	0.00000000	-85.00861000	-27.21457000
117.79999318	0.00000000	-84.22120000	-28.00197000
117.99999317	0.00000000	-83.84596000	-28.37721000
118.19999315	0.00000000	-83.80289000	-28.37721000
118.39999314	0.00000000	-83.84596000	-27.95275000
118.59999313	0.00000000	-84.27042000	-26.83932000
118.79999312	0.00000000	-85.38385000	-25.68282000
118.99999311	0.00000000	-86.49728000	-24.88927000
119.19999309	0.00000000	-86.96481000	-24.10187000
119.39999308	0.00000000	-87.34005000	-23.72662000
119.59999307	0.00000000	-87.70914000	-23.68356000
119.79999306	0.00000000	-87.29700000	-23.72662000
119.99999305	0.00000000	-86.54650000	-24.10187000
120.19999303	0.00000000	-85.34079000	-24.88927000
120.39999302	0.00000000	-83.84596000	-25.63976000
120.59999301	0.00000000	-82.68947000	-26.42101000
120.79999300	0.00000000	-82.26501000	-26.83932000
120.99999299	0.00000000	-82.26501000	-27.21457000
121.19999298	0.00000000	-82.68947000	-27.58366000
121.39999296	0.00000000	-83.84596000	-27.21457000
121.59999295	0.00000000	-85.38385000	-26.88238000
121.79999294	0.00000000	-86.92175000	-26.79626000
121.99999293	0.00000000	-88.07824000	-26.42101000
122.19999292	0.00000000	-88.45349000	-25.68282000
122.39999290	0.00000000	-88.12745000	-25.30758000
122.59999289	0.00000000	-87.34005000	-25.22145000
122.79999288	0.00000000	-86.54650000	-24.88927000
122.99999287	0.00000000	-85.34079000	-24.52018000
123.19999286	0.00000000	-83.84596000	-24.88927000
123.39999284	0.00000000	-82.68947000	-25.22145000
123.59999283	0.00000000	-82.26501000	-25.30758000
123.79999282	0.00000000	-82.26501000	-25.68282000
123.99999281	0.00000000	-82.68947000	-26.42101000
124.19999280	0.00000000	-83.80289000	-26.79626000
124.39999279	0.00000000	-84.96555000	-26.83932000
124.59999277	0.00000000	-85.75910000	-26.83932000
124.79999276	0.00000000	-86.54650000	-26.83932000
124.99999275	0.00000000	-86.92175000	-26.79626000
125.19999274	0.00000000	-86.96481000	-26.42101000
125.39999273	0.00000000	-86.92175000	-25.68282000
125.59999271	0.00000000	-86.54650000	-25.30758000
125.79999270	0.00000000	-85.75910000	-25.26452000
125.99999269	0.00000000	-85.00861000	-25.26452000
126.19999268	0.00000000	-84.17815000	-25.26452000
126.39999267	0.00000000	-83.42766000	-25.26452000
126.59999265	0.00000000	-82.68947000	-25.30758000
126.79999264	0.00000000	-82.68947000	-25.68282000
126.99999263	0.00000000	-83.42766000	-26.42101000
127.19999262	0.00000000	-84.22120000	-26.79626000
127.39999261	0.00000000	-85.38385000	-26.83932000
127.59999260	0.00000000	-86.54650000	-26.83932000
127.79999258	0.00000000	-87.29700000	-26.83932000
127.99999257	0.00000000	-87.70914000	-26.79626000
128.19999256	0.00000000	-87.29700000	-26.42101000
128.39999255	0.00000000	-86.54650000	-25.68282000
128.59999254	0.00000000	-85.38385000	-25.30758000
128.79999252	0.00000000	-84.22120000	-25.26452000
128.99999251	0.00000000	-83.42766000	-25.30758000
129.19999250	0.00000000	-82.68947000	-25.68282000
129.39999249	0.00000000	-82.68947000	-26.42101000
129.59999248	0.00000000	-83.42766000	-26.79626000
129.79999246	0.00000000	-84.22120000	-26.83932000
129.99999245	0.00000000	-85.38385000	-26.83932000
130.19999244	0.00000000	-86.49728000	-26.79626000
130.39999243	0.00000000	-86.92175000	-26.42101000
130.59999242	0.00000000	-86.92175000	-25.68282000
130.79999241	0.00000000	-86.49728000	-25.26452000
130.99999239	0.00000000	-85.42691000	-24.88927000
131.19999238	0.00000000	-84.63951000	-24.52018000
131.39999237	0.00000000	-84.59030000	-24.88927000
131.59999236	0.00000000	-84.17815000	-25.26452000
131.79999235	0.00000000	-83.89517000	-25.68282000
131.99999233	0.00000000	-84.22120000	-26.42101000
132.19999232	0.00000000	-84.96555000	-26.79626000
132.39999231	0.00000000	-85.34079000	-26.83932000
132.59999230	0.00000000	-85.38385000	-26.83932000
132.79999229	0.00000000	-85.38385000	-26.79626000
132.99999227	0.00000000	-85.38385000	-26.42101000
133.19999226	0.00000000	-85.38385000	-25.63976000
133.39999225	0.00000000	-85.38385000	-24.88927000
133.59999224	0.00000000	-85.38385000	-24.10187000
133.79999223	0.00000000	-85.38385000	-23.72662000
133.99999222	0.00000000	-85.38385000	-23.72662000
134.19999220	0.00000000	-85.38385000	-24.15108000
134.39999219	0.00000000	-85.38385000	-25.26452000
134.59999218	0.00000000	-85.38385000	-26.42101000
134.79999217	0.00000000	-85.34079000	-27.21457000
134.99999216	0.00000000	-84.96555000	-28.00197000
135.19999214	0.00000000	-84.22120000	-28.32800000
135.39999213	0.00000000	-83.84596000	-27.95275000
135.59999212	0.00000000	-83.84596000	-26.83932000
135.79999211	0.00000000	-84.22120000	-25.68282000
135.99999210	0.00000000	-84.96555000	-24.88927000
136.19999208	0.00000000	-85.38385000	-24.10187000
136.39999207	0.00000000	-85.80216000	-23.77584000
136.59999206	0.00000000	-86.49728000	-24.05881000
136.79999205	0.00000000	-86.49728000	-24.47096000
136.99999204	0.00000000	-85.80216000	-24.47712000
137.19999203	0.00000000	-85.38385000	-24.93233000
137.39999201	0.00000000	-84.96555000	-25.63976000
137.59999200	0.00000000	-84.22120000	-26.42101000
137.79999199	0.00000000	-83.84596000	-26.79626000
137.99999198	0.00000000	-83.80289000	-26.83932000
138.19999197	0.00000000	-83.84596000	-26.83932000
138.39999195	0.00000000	-84.22120000	-26.79626000
138.59999194	0.00000000	-84.96555000	-26.42101000
138.79999193	0.00000000	-85.38385000	-25.68282000
138.99999192	0.00000000	-85.75910000	-25.30758000
139.19999191	0.00000000	-86.17126000	-25.22145000
139.39999189	0.00000000	-86.13435000	-24.84621000
139.59999188	0.00000000	-86.12819000	-24.10187000
139.79999187	0.00000000	-85.34079000	-23.77584000
139.99999186	0.00000000	-84.27042000	-24.10187000
140.19999185	0.00000000	-83.84596000	-24.88927000
140.39999184	0.00000000	-83.80289000	-25.63976000
140.59999182	0.00000000	-83.80289000	-26.42101000
140.79999181	0.00000000	-83.84596000	-26.79626000
140.99999180	0.00000000	-84.22120000	-26.83932000
141.19999179	0.00000000	-84.96555000	-26.83932000
141.39999178	0.00000000	-85.34079000	-26.79626000
141.59999176	0.00000000	-85.38385000	-26.37795000
141.79999175	0.00000000	-85.34079000	-25.26452000
141.99999174	0.00000000	-85.00861000	-24.15108000
142.19999173	0.00000000	-84.59645000	-23.72662000
142.39999172	0.00000000	-84.59030000	-23.68356000
142.59999170	0.00000000	-84.17815000	-23.72662000
142.79999169	0.00000000	-83.84596000	-24.10187000
142.99999168	0.00000000	-83.84596000	-24.88927000
143.19999167	0.00000000	-84.22120000	-25.63976000
143.39999166	0.00000000	-84.96555000	-26.46407000
143.59999165	0.00000000	-85.34079000	-27.17150000
143.79999163	0.00000000	-85.34079000	-27.58366000
143.99999162	0.00000000	-85.00861000	-27.21457000
144.19999161	0.00000000	-84.63951000	-26.83932000
144.39999160	0.00000000	-84.96555000	-26.42101000
144.59999159	0.00000000	-84.91634000	-25.68282000
144.79999157	0.00000000	-84.22120000	-25.26452000
144.99999156	0.00000000	-83.89517000	-24.88927000
145.19999155	0.00000000	-84.17815000	-24.52018000
145.39999154	0.00000000	-84.54724000	-24.88927000
145.59999153	0.00000000	-84.27042000	-25.26452000
145.79999151	0.00000000	-84.63951000	-25.68282000
145.99999150	0.00000000	-85.70374000	-26.46407000
146.19999149	0.00000000	-85.71604000	-27.17150000
146.39999148	0.00000000	-85.38385000	-27.58366000
146.59999147	0.00000000	-84.96555000	-27.21457000
146.79999146	0.00000000	-84.22120000	-26.83932000
146.99999144	0.00000000	-83.84596000	-26.42101000
147.19999143	0.00000000	-83.80289000	-25.68282000
147.39999142	0.00000000	-83.80289000	-25.30758000
147.59999141	0.00000000	-83.84596000	-25.26452000
147.79999140	0.00000000	-84.22120000	-25.22145000
147.99999138	0.00000000	-84.96555000	-24.88927000
148.19999137	0.00000000	-85.34079000	-24.52018000
148.39999136	0.00000000	-85.38385000	-24.88927000
148.59999135	0.00000000	-85.38385000	-25.22145000
148.79999134	0.00000000	-85.38385000	-25.30758000
148.99999132	0.00000000	-85.38385000	-25.68282000
149.19999131	0.00000000	-85.34079000	-26.42101000
149.39999130	0.00000000	-84.96555000	-26.79626000
149.59999129	0.00000000	-84.22120000	-26.79626000
149.79999128	0.00000000	-83.84596000	-26.42101000
149.99999127	0.00000000	-83.80289000	-25.68282000
150.19999125	0.00000000	-83.80289000	-25.30758000
150.39999124	0.00000000	-83.80289000	-25.26452000
150.59999123	0.00000000	-83.84596000	-25.26452000
150.79999122	0.00000000	-84.22120000	-25.22145000
150.99999121	0.00000000	-84.96555000	-24.88927000
151.19999119	0.00000000	-85.34079000	-24.52018000
151.39999118	0.00000000	-85.38385000	-24.88927000
151.59999117	0.00000000	-85.38385000	-25.22145000
151.79999116	0.00000000	-85.38385000	-25.26452000
151.99999115	0.00000000	-85.34079000	-25.26452000
152.19999113	0.00000000	-84.96555000	-25.26452000
152.39999112	0.00000000	-84.22120000	-25.26452000
152.59999111	0.00000000	-83.84596000	-25.26452000
152.79999110	0.00000000	-83.80289000	-25.26452000
152.99999109	0.00000000	-83.80289000	-25.26452000
153.19999108	0.00000000	-83.80289000	-25.26452000
153.39999106	0.00000000	-83.84596000	-25.26452000
153.59999105	0.00000000	-84.17815000	-25.22145000
153.79999104	0.00000000	-84.59030000	-24.88927000
153.99999103	0.00000000	-84.59645000	-24.52018000
154.19999102	0.00000000	-85.00861000	-24.88927000
154.39999100	0.00000000	-85.34079000	-25.22145000
154.59999099	0.00000000	-85.38385000	-25.26452000
154.79999098	0.00000000	-85.34079000	-25.26452000
154.99999097	0.00000000	-84.96555000	-25.30758000
155.19999096	0.00000000	-84.22120000	-25.63976000
155.39999094	0.00000000	-83.84596000	-26.00270000
155.59999093	0.00000000	-83.80289000	-25.63976000
155.79999092	0.00000000	-83.80289000	-25.30758000
155.99999091	0.00000000	-83.80289000	-25.26452000
156.19999090	0.00000000	-83.80289000	-25.26452000
156.39999089	0.00000000	-83.84596000	-25.26452000
156.59999087	0.00000000	-84.22120000	-25.26452000
156.79999086	0.00000000	-84.96555000	-25.22145000
156.99999085	0.00000000	-85.34079000	-24.88927000
157.19999084	0.00000000	-85.38385000	-24.52018000
157.39999083	0.00000000	-85.38385000	-24.88927000
157.59999081	0.00000000	-85.38385000	-25.22145000
157.79999080	0.00000000	-85.34079000	-25.26452000
157.99999079	0.00000000	-84.96555000	-25.30758000
158.19999078	0.00000000	-84.22120000	-25.68282000
158.39999077	0.00000000	-83.84596000	-26.42101000
158.59999075	0.00000000	-83.80289000	-26.79626000
158.79999074	0.00000000	-83.80289000	-26.79626000
158.99999073	0.00000000	-83.80289000	-26.42101000
159.19999072	0.00000000	-83.80289000	-25.68282000
159.39999071	0.00000000	-83.80289000	-25.30758000
159.59999070	0.00000000	-83.80289000	-25.22145000
159.79999068	0.00000000	-83.84596000	-24.88927000
159.99999067	0.00000000	-84.22120000	-24.52018000
160.19999066	0.00000000	-84.96555000	-24.88927000
160.39999065	0.00000000	-85.34079000	-25.22145000
160.59999064	0.00000000	-85.34079000	-25.30758000
160.79999062	0.00000000	-84.96555000	-25.63976000
160.99999061	0.00000000	-84.22120000	-26.04577000
161.19999060	0.00000000	-83.84596000	-26.00886000
161.39999059	0.00000000	-83.80289000	-26.09498000
161.59999058	0.00000000	-83.80289000	-26.05807000
161.79999056	0.00000000	-83.80289000	-26.42101000
161.99999055	0.00000000	-83.80289000	-26.37795000
162.19999054	0.00000000	-83.80289000	-25.68282000
162.39999053	0.00000000	-83.80289000	-25.30758000
162.59999052	0.00000000	-83.80289000	-25.26452000
162.79999051	0.00000000	-83.84596000	-25.26452000
162.99999049	0.00000000	-84.22120000	-25.26452000
163.19999048	0.00000000	-84.96555000	-25.26452000
163.39999047	0.00000000	-85.34079000	-25.26452000
163.59999046	0.00000000	-85.38385000	-25.26452000
163.79999045	0.00000000	-85.38385000	-25.26452000
163.99999043	0.00000000	-85.34079000	-25.26452000
164.19999042	0.00000000	-84.96555000	-25.26452000
164.39999041	0.00000000	-84.22120000	-25.26452000
164.59999040	0.00000000	-83.84596000	-25.26452000
164.79999039	0.00000000	-83.80289000	-25.26452000
164.99999037	0.00000000	-83.80289000	-25.26452000
165.19999036	0.00000000	-83.80289000	-25.26452000
165.39999035	0.00000000	-83.80289000	-25.26452000
165.59999034	0.00000000	-83.80289000	-25.26452000
165.79999033	0.00000000	-83.80289000	-25.26452000
165.99999032	0.00000000	-83.84596000	-25.26452000
166.19999030	0.00000000	-84.22120000	-25.26452000
166.39999029	0.00000000	-84.96555000	-25.26452000
166.59999028	0.00000000	-85.34079000	-25.26452000
166.79999027	0.00000000	-85.38385000	-25.26452000
166.99999026	0.00000000	-85.34079000	-25.26452000
167.19999024	0.00000000	-84.96555000	-25.26452000
167.39999023	0.00000000	-84.22120000	-25.26452000
167.59999022	0.00000000	-83.84596000	-25.26452000
167.79999021	0.00000000	-83.80289000	-25.26452000
167.99999020	0.00000000	-83.80289000	-25.26452000
168.19999018	0.00000000	-83.80289000	-25.26452000
168.39999017	0.00000000	-83.80289000	-25.26452000
168.59999016	0.00000000	-83.75984000	-25.22145000
168.79999015	0.00000000	-83.42766000	-24.88927000
168.99999014	0.00000000	-83.05856000	-24.52018000
169.19999013	0.00000000	-83.42766000	-24.88927000
169.39999011	0.00000000	-83.75984000	-25.22145000
169.59999010	0.00000000	-83.80289000	-25.26452000
169.79999009	0.00000000	-83.80289000	-25.26452000
169.99999008	0.00000000	-83.80289000	-25.26452000
170.19999007	0.00000000	-83.80289000	-25.26452000
170.39999005	0.00000000	-83.80289000	-25.26452000
170.59999004	0.00000000	-83.80289000	-25.26452000
170.79999003	0.00000000	-83.80289000	-25.26452000
170.99999002	0.00000000	-83.80289000	-25.26452000
171.19999001	0.00000000	-83.80289000	-25.26452000
171.39998999	0.00000000	-83.80289000	-25.26452000
171.59998998	0.00000000	-83.80289000	-25.26452000
171.79998997	0.00000000	-83.80289000	-25.26452000
171.99998996	0.00000000	-83.80289000	-25.26452000
172.19998995	0.00000000	-83.80289000	-25.26452000
172.39998994	0.00000000	-83.80289000	-25.26452000
172.59998992	0.00000000	-83.80289000	-25.26452000
172.79998991	0.00000000	-83.80289000	-25.26452000
172.99998990	0.00000000	-83.80289000	-25.26452000
173.19998989	0.00000000	-83.80289000	-25.26452000
173.39998988	0.00000000	-83.80289000	-25.26452000
173.59998986	0.00000000	-83.80289000	-25.26452000
173.79998985	0.00000000	-83.80289000	-25.26452000
173.99998984	0.00000000	-83.80289000	-25.26452000
174.19998983	0.00000000	-83.80289000	-25.26452000
174.39998982	0.00000000	-83.80289000	-25.26452000
174.59998980	0.00000000	-83.80289000	-25.26452000
174.79998979	0.00000000	-83.80289000	-25.26452000
174.99998978	0.00000000	-83.80289000	-25.26452000
175.19998977	0.00000000	-83.80289000	-25.26452000
175.39998976	0.00000000	-83.80289000	-25.26452000
175.59998975	0.00000000	-83.80289000	-25.26452000
175.79998973	0.00000000	-83.80289000	-25.26452000
175.99998972	0.00000000	-83.80289000	-25.30758000
176.19998971	0.00000000	-83.75984000	-25.59055000
176.39998970	0.00000000	-83.42766000	-25.62746000
176.59998969	0.00000000	-83.05856000	-24.89542000
176.79998967	0.00000000	-83.42766000	-24.93233000
176.99998966	0.00000000	-83.75984000	-25.22145000
177.19998965	0.00000000	-83.80289000	-25.26452000
177.39998964	0.00000000	-83.75984000	-25.26452000
177.59998963	0.00000000	-83.42766000	-25.26452000
177.79998961	0.00000000	-83.05856000	-25.26452000
177.99998960	0.00000000	-83.42766000	-25.26452000
178.19998959	0.00000000	-83.75984000	-25.26452000
178.39998958	0.00000000	-83.80289000	-25.26452000
178.59998957	0.00000000	-83.80289000	-25.26452000
178.79998956	0.00000000	-83.80289000	-25.26452000
178.99998954	0.00000000	-83.80289000	-25.26452000
179.19998953	0.00000000	-83.80289000	-25.26452000
179.39998952	0.00000000	-83.80289000	-25.26452000
179.59998951	0.00000000	-83.80289000	-25.26452000
179.79998950	0.00000000	-83.80289000	-25.26452000
179.99998948	0.00000000	-83.80289000	-25.26452000
180.19998947	0.00000000	-83.80289000	-25.26452000
180.39998946	0.00000000	-83.80289000	-25.26452000
180.59998945	0.00000000	-83.80289000	-25.26452000
180.79998944	0.00000000	-83.80289000	-25.26452000
180.99998942	0.00000000	-83.80289000	-25.26452000
181.19998941	0.00000000	-83.80289000	-25.26452000
181.39998940	0.00000000	-83.80289000	-25.26452000
181.59998939	0.00000000	-83.80289000	-25.26452000
181.79998938	0.00000000	-83.80289000	-25.26452000
181.99998937	0.00000000	-83.80289000	-25.26452000
182.19998935	0.00000000	-83.80289000	-25.26452000
182.39998934	0.00000000	-83.80289000	-25.26452000
182.59998933	0.00000000	-83.75984000	-25.26452000
182.79998932	0.00000000	-83.42766000	-25.26452000
182.99998931	0.00000000	-83.05856000	-25.26452000
183.19998929	0.00000000	-83.42766000	-25.26452000
183.39998928	0.00000000	-83.75984000	-25.26452000
183.59998927	0.00000000	-83.80289000	-25.26452000
183.79998926	0.00000000	-83.80289000	-25.26452000
183.99998925	0.00000000	-83.80289000	-25.26452000
184.19998923	0.00000000	-83.80289000	-25.22145000
184.39998922	0.00000000	-83.80289000	-24.84621000
184.59998921	0.00000000	-83.80289000	-24.10187000
184.79998920	0.00000000	-83.80289000	-23.72662000
184.99998919	0.00000000	-83.80289000	-23.68356000
185.19998918	0.00000000	-83.80289000	-23.72662000
185.39998916	0.00000000	-83.75984000	-24.10187000
185.59998915	0.00000000	-83.42766000	-24.84621000
185.79998914	0.00000000	-83.05856000	-25.22145000
185.99998913	0.00000000	-83.42766000	-25.26452000
186.19998912	0.00000000	-83.75984000	-25.26452000
186.39998910	0.00000000	-83.80289000	-25.26452000
186.59998909	0.00000000	-83.80289000	-25.26452000
186.79998908	0.00000000	-83.80289000	-25.26452000
186.99998907	0.00000000	-83.80289000	-25.26452000
187.19998906	0.00000000	-83.80289000	-25.22145000
187.39998904	0.00000000	-83.80289000	-24.84621000
187.59998903	0.00000000	-83.80289000	-24.10187000
187.79998902	0.00000000	-83.80289000	-23.77584000
187.99998901	0.00000000	-83.80289000	-24.05881000
188.19998900	0.00000000	-83.75984000	-24.47096000
188.39998899	0.00000000	-83.42766000	-24.47712000
188.59998897	0.00000000	-83.05856000	-24.88927000
188.79998896	0.00000000	-83.42766000	-25.22145000
188.99998895	0.00000000	-83.75984000	-25.26452000
189.19998894	0.00000000	-83.80289000	-25.30758000
189.39998893	0.00000000	-83.80289000	-25.63976000
189.59998891	0.00000000	-83.80289000	-26.00270000
189.79998890	0.00000000	-83.80289000	-25.63976000
189.99998889	0.00000000	-83.80289000	-25.30758000
190.19998888	0.00000000	-83.80289000	-25.26452000
190.39998887	0.00000000	-83.80289000	-25.26452000
190.59998885	0.00000000	-83.80289000	-25.26452000
190.79998884	0.00000000	-83.80289000	-25.26452000
190.99998883	0.00000000	-83.80289000	-25.26452000
191.19998882	0.00000000	-83.84596000	-25.26452000
191.39998881	0.00000000	-84.13508000	-25.26452000
191.59998880	0.00000000	-84.12278000	-25.26452000
191.79998878	0.00000000	-83.05856000	-25.26452000
191.99998877	0.00000000	-82.73252000	-25.26452000
192.19998876	0.00000000	-83.38459000	-25.26452000
192.39998875	0.00000000	-83.75984000	-25.26452000
192.59998874	0.00000000	-83.80289000	-25.26452000
192.79998872	0.00000000	-83.80289000	-25.26452000
192.99998871	0.00000000	-83.80289000	-25.26452000
193.19998870	0.00000000	-83.80289000	-25.26452000
193.39998869	0.00000000	-83.80289000	-25.26452000
193.59998868	0.00000000	-83.80289000	-25.26452000
193.79998866	0.00000000	-83.80289000	-25.26452000
193.99998865	0.00000000	-83.80289000	-25.26452000
194.19998864	0.00000000	-83.75984000	-25.26452000
194.39998863	0.00000000	-83.42766000	-25.26452000
194.59998862	0.00000000	-83.01550000	-25.26452000
194.79998861	0.00000000	-83.05241000	-25.26452000
194.99998859	0.00000000	-83.01550000	-25.26452000
195.19998858	0.00000000	-83.42766000	-25.26452000
195.39998857	0.00000000	-83.75984000	-25.26452000
195.59998856	0.00000000	-83.80289000	-25.26452000
195.79998855	0.00000000	-83.80289000	-25.26452000
195.99998853	0.00000000	-83.80289000	-25.26452000
