Time	Channel A	Channel B	Channel C
(us)	(V)	(mV)	(mV)

-4.49999956	0.00000000	4.32455700	4.73671200
-4.29999957	0.00000000	3.58021600	4.73671200
-4.09999958	0.00000000	3.25418300	4.73671200
-3.89999959	0.00000000	3.53715500	4.73671200
-3.69999960	0.00000000	3.90625000	4.73671200
-3.49999962	0.00000000	3.53715500	4.73671200
-3.29999963	0.00000000	3.25418300	4.73671200
-3.09999964	0.00000000	3.58021600	4.73671200
-2.89999965	0.00000000	4.27534400	4.73671200
-2.69999966	0.00000000	4.27534400	4.73671200
-2.49999968	0.00000000	3.62942900	4.73671200
-2.29999969	0.00000000	3.58021600	4.73671200
-2.09999970	0.00000000	3.90625000	4.73671200
-1.89999971	0.00000000	3.58021600	4.73671200
-1.69999972	0.00000000	3.62942900	4.73671200
-1.49999973	0.00000000	4.27534400	4.73671200
-1.29999975	0.00000000	4.32455700	4.73671200
-1.09999976	0.00000000	3.95546200	4.73671200
-0.89999977	0.00000000	3.94931100	4.73671200
-0.69999978	0.00000000	3.53715500	4.73671200
-0.49999979	0.00000000	3.25418300	4.73671200
-0.29999981	0.31803640	3.53715500	4.73671200
-0.09999982	0.63668800	3.90625000	4.73671200
0.10000017	0.95533960	3.53715500	4.73671200
0.30000016	0.95533960	3.20497000	4.73671200
0.50000015	0.79601380	3.16190900	4.73671200
0.70000013	0.31803640	3.16190900	4.73671200
0.90000012	-0.47736220	3.20497000	4.73671200
1.10000011	-1.59264300	3.53715500	4.73671200
1.30000010	-2.38927200	3.94931100	4.73671200
1.50000009	-2.86724900	3.91240100	4.73671200
1.70000008	-2.38927200	3.99237200	4.77977300
1.90000006	-1.27399100	3.95546200	5.11195900
2.10000005	0.63668800	4.36761800	5.47490100
2.30000004	2.70792300	4.65059000	5.11195900
2.50000003	4.45989200	4.36761800	4.77977300
2.70000002	5.41584600	3.99852300	4.73671200
2.90000000	4.77854300	4.32455700	4.73671200
3.09999999	2.86724900	4.27534400	4.69365100
3.29999998	-0.15871060	3.58021600	4.36146600
3.49999997	-3.50393700	3.25418300	3.99237200
3.69999996	-6.37180100	3.58021600	4.36146600
3.89999994	-7.96444400	4.32455700	4.69365100
4.09999993	-7.48646600	4.69980300	4.73671200
4.29999992	-4.93786900	4.74286400	4.73671200
4.49999991	-1.11466500	4.74286400	4.73671200
4.69999990	3.34522600	4.74286400	4.73671200
4.89999989	7.16781500	4.69980300	4.73671200
5.09999987	9.23905000	4.32455700	4.69365100
5.29999986	9.07972400	3.58021600	4.31840500
5.49999985	6.69045300	3.20497000	3.57406500
5.69999984	2.38927200	3.16190900	3.24803100
5.89999983	-2.38927200	3.16190900	3.57406500
6.09999981	-6.69045300	3.16190900	4.31840500
6.29999980	-9.07972400	3.20497000	4.69365100
6.49999979	-9.23905000	3.53715500	4.77977300
6.69999978	-7.16781500	3.94931100	5.11195900
6.89999977	-3.34522600	3.91240100	5.47490100
7.09999975	1.11466500	3.94931100	5.11195900
7.29999974	4.93786900	3.58021600	4.77977300
7.49999973	7.16781500	3.58021600	4.73671200
7.69999972	7.64579200	3.90625000	4.73671200
7.89999971	6.21247500	3.53715500	4.73671200
8.09999970	3.34522600	3.20497000	4.73671200
8.29999968	0.15871060	3.16190900	4.73671200
8.49999967	-2.86724900	3.16190900	4.73671200
8.69999966	-4.77854300	3.16190900	4.73671200
8.89999965	-5.25652100	3.20497000	4.73671200
9.09999964	-4.30056600	3.53715500	4.73671200
9.29999962	-2.70792300	3.90625000	4.73671200
9.49999961	-0.63668800	3.58021600	4.73671200
9.69999960	1.11466500	3.58021600	4.73671200
9.89999959	2.22994600	3.90625000	4.73671200
10.09999958	2.54859700	3.53715500	4.73671200
10.29999956	2.22994600	3.25418300	4.73671200
10.49999955	1.43331700	3.58021600	4.73671200
10.69999954	0.47736220	4.27534400	4.73671200
10.89999953	-0.31803640	4.27534400	4.73671200
11.09999952	-0.79601380	3.58021600	4.73671200
11.29999951	-0.95533960	3.25418300	4.73671200
11.49999949	-0.95533960	3.53715500	4.73671200
11.69999948	-0.79601380	3.94931100	4.73671200
11.89999947	-0.47736220	3.91240100	4.73671200
12.09999946	-0.15871060	3.99237200	4.73671200
12.29999945	-0.15871060	3.95546200	4.73671200
12.49999943	-0.15871060	4.36761800	4.73671200
12.69999942	0.00000000	4.65059000	4.73671200
12.89999941	0.00000000	4.36761800	4.73671200
13.09999940	0.00000000	3.95546200	4.73671200
13.29999939	0.15871060	3.94931100	4.73671200
13.49999937	0.00000000	3.58021600	4.73671200
13.69999936	0.00000000	3.58021600	4.73671200
13.89999935	-0.15871060	3.94931100	4.73671200
14.09999934	-0.15871060	3.95546200	4.73671200
14.29999933	-0.15871060	4.36761800	4.73671200
14.49999932	-0.15871060	4.69980300	4.73671200
14.69999930	0.00000000	4.69980300	4.73671200
14.89999929	0.00000000	4.36761800	4.73671200
15.09999928	0.00000000	3.95546200	4.73671200
15.29999927	0.00000000	3.94931100	4.73671200
15.49999926	0.00000000	3.53715500	4.73671200
15.69999924	0.00000000	3.20497000	4.73671200
15.89999923	0.00000000	3.16190900	4.73671200
16.09999922	0.00000000	3.16190900	4.73671200
16.29999921	0.00000000	3.20497000	4.73671200
16.49999920	-0.15871060	3.58021600	4.73671200
16.69999919	-0.15871060	4.32455700	4.73671200
16.89999917	-0.15871060	4.74286400	4.73671200
17.09999916	0.00000000	5.16117100	4.73671200
17.29999915	0.00000000	5.90551100	4.73671200
17.49999914	0.00000000	6.28075700	4.73671200
17.69999913	0.00000000	6.28075700	4.73671200
17.89999911	0.00000000	5.85629900	4.73671200
18.09999910	0.00000000	4.69980300	4.73671200
18.29999909	0.00000000	3.16190900	4.73671200
18.49999908	0.00000000	1.58095500	4.73671200
18.69999907	0.00000000	0.04306102	4.73671200
18.89999905	0.00000000	-1.07037400	4.73671200
19.09999904	0.00000000	-1.07037400	4.73671200
19.29999903	0.00000000	0.09227362	4.73671200
19.49999902	0.00000000	2.09153500	4.73671200
19.69999901	0.00000000	5.25344500	4.73671200
19.89999900	0.00000000	9.48572700	4.73671200
20.09999898	0.00000000	13.63189000	4.73671200
20.29999897	0.00000000	15.90797000	4.73671200
20.49999896	0.00000000	15.16363000	4.73671200
20.69999895	0.00000000	12.00172000	4.73671200
20.89999894	0.00000000	6.50836600	4.73671200
21.09999892	0.00000000	-1.20570900	4.73671200
21.29999891	0.00000000	-8.88902600	4.73671200
21.49999890	0.00000000	-14.65305000	4.73671200
21.69999889	0.00000000	-16.93528000	4.73671200
21.89999888	0.00000000	-14.51772000	4.73671200
22.09999886	0.00000000	-7.53567900	4.73671200
22.29999885	0.00000000	3.34030500	4.73671200
22.49999884	0.00000000	15.71727000	4.73671200
22.69999883	0.00000000	27.25763000	4.73671200
22.89999882	0.00000000	34.89173000	4.73671200
23.09999881	0.00000000	35.59301000	4.77977300
23.29999879	0.00000000	28.98007000	5.15501900
23.49999878	0.00000000	15.77264000	5.89320800
23.69999877	0.00000000	-1.62401600	6.26845500
23.89999876	0.00000000	-19.35285000	6.31151500
24.09999875	0.00000000	-33.17544000	6.26845500
24.29999873	0.00000000	-38.90256000	5.89320800
24.49999872	0.00000000	-34.62106000	5.06274600
24.69999871	0.00000000	-21.07529000	3.90009800
24.89999870	0.00000000	-0.93503930	1.99311000
25.09999869	0.00000000	21.44439000	0.46136810
25.29999867	0.00000000	41.12328000	-0.32603340
25.49999866	0.00000000	53.03887000	-0.69512790
25.69999865	0.00000000	54.15231000	0.17839570
25.89999864	0.00000000	43.68848000	2.46063000
26.09999863	0.00000000	23.59129000	5.98548200
26.29999862	0.00000000	-1.48868100	9.84867000
26.49999860	0.00000000	-25.81816000	13.69956000
26.69999859	0.00000000	-43.55315000	16.30167000
26.89999858	0.00000000	-50.48597000	16.30167000
27.09999857	0.00000000	-44.70964000	13.56422000
27.29999856	0.00000000	-27.77436000	8.50147600
27.49999854	0.00000000	-4.18922200	1.48868100
27.69999853	0.00000000	20.93381000	-6.18233200
27.89999852	0.00000000	42.15059000	-12.72761000
28.09999851	0.00000000	54.15231000	-16.12328000
28.29999850	0.00000000	54.61983000	-15.28666000
28.49999848	0.00000000	44.19291000	-9.43036400
28.69999847	0.00000000	25.25836000	0.59670270
28.89999846	0.00000000	2.09153500	12.58612000
29.09999845	0.00000000	-19.91880000	24.15723000
29.29999844	0.00000000	-35.78371000	32.60949000
29.49999843	0.00000000	-42.06447000	35.63607000
29.69999841	0.00000000	-38.24434000	32.05585000
29.89999840	0.00000000	-25.91043000	21.60433000
30.09999839	0.00000000	-7.76943800	6.22539300
30.29999838	0.00000000	11.58341000	-9.99015700
30.49999837	0.00000000	28.24188000	-23.55438000
30.69999835	0.00000000	39.08095000	-32.01279000
30.89999834	0.00000000	41.45546000	-33.08317000
31.09999833	0.00000000	35.77140000	-25.69513000
31.29999832	0.00000000	24.14493000	-11.06053000
31.49999831	0.00000000	9.06742000	7.47416300
31.69999829	0.00000000	-6.37303100	25.59670000
31.89999828	0.00000000	-18.38090000	39.53002000
32.09999827	0.00000000	-24.65551000	46.08759000
32.29999826	0.00000000	-24.65551000	44.18061000
32.49999825	0.00000000	-18.51624000	34.09818000
32.69999824	0.00000000	-7.72637700	17.88263000
32.89999822	0.00000000	4.65059000	-1.02116100
33.09999821	0.00000000	16.23400000	-18.44242000
33.29999820	0.00000000	24.32948000	-30.80709000
33.49999819	0.00000000	26.70398000	-35.82062000
33.69999818	0.00000000	23.67741000	-31.96973000
33.89999816	0.00000000	16.36934000	-20.44168000
34.09999815	0.00000000	6.74212600	-4.22613100
34.29999814	0.00000000	-2.47293300	13.19513000
34.49999813	0.00000000	-9.07357200	28.24803000
34.69999812	0.00000000	-11.40502000	37.95522000
34.89999810	0.00000000	-9.58415200	40.28051000
35.09999809	0.00000000	-4.56446800	35.26082000
35.29999808	0.00000000	1.99926200	23.68971000
35.49999807	0.00000000	8.93208600	8.31077700
35.69999806	0.00000000	14.23474000	-6.74212600
35.89999805	0.00000000	15.81570000	-18.35630000
36.09999803	0.00000000	13.58268000	-24.11417000
36.29999802	0.00000000	8.97514600	-22.62549000
36.49999801	0.00000000	3.20497000	-14.59153000
36.69999800	0.00000000	-2.14074800	-2.69439000
36.89999799	0.00000000	-5.25959600	10.03322000
37.09999797	0.00000000	-5.67790300	20.39862000
37.29999796	0.00000000	-3.77091500	25.83046000
37.49999795	0.00000000	0.13533460	25.09227000
37.69999794	0.00000000	5.11811000	19.00221000
37.89999793	0.00000000	10.09473000	9.38730200
38.09999791	0.00000000	13.16437000	-0.93503930
38.29999790	0.00000000	13.63189000	-8.96899500
38.49999789	0.00000000	12.09400000	-12.03863000
38.69999788	0.00000000	8.97514600	-9.43036400
38.89999787	0.00000000	4.74286400	-2.51599400
39.09999786	0.00000000	0.51058070	6.68676100
39.29999784	0.00000000	-2.60826800	15.84030000
39.49999783	0.00000000	-4.18922200	21.55512000
39.69999782	0.00000000	-4.18922200	21.93036000
39.89999781	0.00000000	-2.65132900	16.95374000
40.09999780	0.00000000	0.04306102	7.75713500
40.29999778	0.00000000	3.16190900	-2.55905500
40.49999777	0.00000000	6.28075700	-11.01132000
40.69999776	0.00000000	8.97514600	-15.19439000
40.89999775	0.00000000	10.55610000	-13.70571000
41.09999774	0.00000000	10.97441000	-7.16043300
41.29999772	0.00000000	10.59916000	2.41756900
41.49999771	0.00000000	9.39345400	12.81373000
41.69999770	0.00000000	7.48646600	20.85999000
41.89999769	0.00000000	5.11811000	24.76009000
42.09999768	0.00000000	2.78666300	23.60359000
42.29999767	0.00000000	0.41830710	17.83957000
42.49999765	0.00000000	-1.48868100	9.01205700
42.69999764	0.00000000	-2.65132900	-0.60285430
42.89999763	0.00000000	-2.60826800	-8.27386800
43.09999762	0.00000000	-1.11343500	-12.17397000
43.29999761	0.00000000	1.16264800	-11.47884000
43.49999759	0.00000000	3.11884800	-7.24655500
43.69999758	0.00000000	4.74286400	-0.69512790
43.89999757	0.00000000	6.32381900	6.96358300
44.09999756	0.00000000	7.86171200	13.10285000
44.29999755	0.00000000	9.01820900	16.30167000
44.49999753	0.00000000	9.44266700	16.71998000
44.69999752	0.00000000	9.44266700	14.76993000
44.89999751	0.00000000	9.01820900	10.58686000
45.09999750	0.00000000	7.86171200	5.61638700
45.29999749	0.00000000	6.28075700	1.71013800
45.49999748	0.00000000	4.32455700	-1.07037400
45.69999746	0.00000000	1.95620100	-2.55905500
45.89999745	0.00000000	-0.41830710	-2.22687000
46.09999744	0.00000000	-3.11884800	-0.28297240
46.29999743	0.00000000	-5.35187000	2.36835600
46.49999742	0.00000000	-5.72711600	5.47490100
46.69999740	0.00000000	-4.14616100	7.80019600
46.89999739	0.00000000	-0.60900590	9.38115100
47.09999738	0.00000000	4.83513700	10.11934000
47.29999737	0.00000000	10.97441000	9.38115100
47.49999736	0.00000000	16.41855000	7.84940900
47.69999734	0.00000000	19.86343000	5.85014700
47.89999733	0.00000000	20.55856000	3.15575800
48.09999732	0.00000000	17.39665000	0.51058070
48.29999731	0.00000000	10.46998000	-1.02116100
48.49999730	0.00000000	1.62401600	-1.06422200
48.69999729	0.00000000	-6.88361200	0.09227362
48.89999727	0.00000000	-13.07210000	2.08538400
49.09999726	0.00000000	-15.72958000	5.15501900
49.29999725	0.00000000	-13.77338000	8.58759800
49.49999724	0.00000000	-7.21579700	10.91289000
49.69999723	0.00000000	2.04847400	12.07554000
49.89999721	0.00000000	12.09400000	11.65723000
50.09999720	0.00000000	20.51550000	9.33809000
50.29999719	0.00000000	24.74778000	5.85014700
50.49999718	0.00000000	23.63435000	1.62401600
50.69999717	0.00000000	17.86417000	-2.18380900
50.89999715	0.00000000	8.97514600	-4.09079700
51.09999714	0.00000000	-1.02731300	-3.76476400
51.29999713	0.00000000	-9.44881800	-1.39640700
51.49999712	0.00000000	-13.72416000	2.41756900
51.69999711	0.00000000	-12.98597000	7.05585600
51.89999710	0.00000000	-8.04626000	10.86983000
52.09999708	0.00000000	-0.33218500	13.23819000
52.29999707	0.00000000	7.76943800	13.56422000
52.49999706	0.00000000	14.70226000	11.70029000
52.69999705	0.00000000	18.51624000	8.22465500
52.89999704	0.00000000	17.77190000	4.40452700
53.09999702	0.00000000	13.16437000	0.92888770
53.29999701	0.00000000	5.90551100	-1.02116100
53.49999700	0.00000000	-1.72244100	-1.43946800
53.69999699	0.00000000	-6.74827700	-0.64591530
53.89999698	0.00000000	-8.32923100	1.66707700
54.09999696	0.00000000	-6.42224400	4.68750000
54.29999695	0.00000000	-1.40255900	7.38188900
54.49999694	0.00000000	5.07504900	8.87672100
54.69999693	0.00000000	11.25123000	8.54453700
54.89999692	0.00000000	15.02830000	6.64370100
55.09999691	0.00000000	15.44045000	4.40452700
55.29999689	0.00000000	12.00172000	2.46063000
55.49999688	0.00000000	6.32381900	1.75319900
55.69999687	0.00000000	0.51058070	2.46063000
55.89999686	0.00000000	-4.09694900	4.40452700
56.09999685	0.00000000	-6.42224400	6.68676100
56.29999683	0.00000000	-5.63484200	8.96284400
56.49999682	0.00000000	-2.23302100	10.07628000
56.69999681	0.00000000	2.78666300	9.29502900
56.89999680	0.00000000	7.81250000	6.96358300
57.09999679	0.00000000	12.05093000	3.11269700
57.29999677	0.00000000	14.32702000	-1.02116100
57.49999676	0.00000000	13.58268000	-3.71555100
57.69999675	0.00000000	10.55610000	-4.09079700
57.89999674	0.00000000	6.32381900	-2.18380900
58.09999673	0.00000000	2.04847400	1.75319900
58.29999672	0.00000000	-1.40255900	7.10506800
58.49999670	0.00000000	-3.34645700	12.86294000
58.69999669	0.00000000	-2.93430100	16.67692000
58.89999668	0.00000000	-0.69512790	17.83957000
59.09999667	0.00000000	2.78666300	15.84030000
59.29999666	0.00000000	6.23154500	10.45152000
59.49999664	0.00000000	8.93208600	3.19881900
59.69999663	0.00000000	10.09473000	-3.72170300
59.89999662	0.00000000	9.35039300	-8.36614100
60.09999661	0.00000000	7.43725300	-9.89788300
60.29999660	0.00000000	4.74286400	-7.94783400
60.49999658	0.00000000	2.09153500	-2.51599400
60.69999657	0.00000000	0.55364170	5.15501900
60.89999656	0.00000000	0.51058070	13.19513000
61.09999655	0.00000000	1.62401600	18.95300000
61.29999654	0.00000000	3.20497000	20.95226000
61.49999653	0.00000000	5.11811000	19.42052000
61.69999651	0.00000000	7.01894700	14.72687000
61.89999650	0.00000000	7.81250000	7.38188900
62.09999649	0.00000000	7.81250000	-1.02116100
62.29999648	0.00000000	6.97588500	-7.94783400
62.49999647	0.00000000	4.69980300	-11.42962000
62.69999645	0.00000000	2.09153500	-11.06053000
62.89999644	0.00000000	0.51058070	-6.82824800
63.09999643	0.00000000	0.13533460	0.09227362
63.29999642	0.00000000	0.88582670	7.75713500
63.49999641	0.00000000	2.82972400	14.35162000
63.69999639	0.00000000	5.11811000	18.21481000
63.89999638	0.00000000	7.43725300	19.04527000
64.09999637	0.00000000	8.93208600	16.72613000
64.29999636	0.00000000	8.97514600	12.11860000
64.49999635	0.00000000	7.81250000	6.31151500
64.69999634	0.00000000	5.90551100	0.51058070
64.89999632	0.00000000	3.58021600	-4.09079700
65.09999631	0.00000000	1.67322800	-6.45300100
65.29999630	0.00000000	0.51058070	-6.09005900
65.49999629	0.00000000	0.51058070	-3.85088600
65.69999628	0.00000000	1.62401600	-0.37524600
65.89999626	0.00000000	3.20497000	3.15575800
66.09999625	0.00000000	5.11811000	6.68676100
66.29999624	0.00000000	6.97588500	10.11934000
66.49999623	0.00000000	7.35113100	12.07554000
66.69999622	0.00000000	6.28075700	12.58612000
66.89999620	0.00000000	4.74286400	12.58612000
67.09999619	0.00000000	3.16190900	12.11860000
67.29999618	0.00000000	1.67322800	10.53765000
67.49999617	0.00000000	0.97194880	7.84940900
67.69999616	0.00000000	2.13459600	4.73671200
67.89999615	0.00000000	4.74286400	1.58095500
68.09999613	0.00000000	7.43725300	-1.53174200
68.29999612	0.00000000	9.39345400	-4.22613100
68.49999611	0.00000000	10.51304000	-5.71481200
68.69999610	0.00000000	10.04552000	-5.29650500
68.89999609	0.00000000	7.35113100	-2.55905500
69.09999607	0.00000000	3.16190900	2.08538400
69.29999606	0.00000000	-1.07037400	7.89247000
69.49999605	0.00000000	-4.18922200	13.61343000
69.69999604	0.00000000	-5.72711600	17.46432000
69.89999603	0.00000000	-5.25959600	18.30093000
70.09999601	0.00000000	-2.14074800	16.76919000
70.29999600	0.00000000	3.25418300	13.18898000
70.49999599	0.00000000	9.35039300	7.43110200
70.69999598	0.00000000	14.41314000	0.87967510
70.89999597	0.00000000	17.07677000	-4.51525500
71.09999596	0.00000000	17.11368000	-7.99089500
71.29999594	0.00000000	13.95792000	-8.31692900
71.49999593	0.00000000	8.59990100	-5.29650500
71.69999592	0.00000000	1.99926200	0.04306102
71.89999591	0.00000000	-4.14616100	5.80093500
72.09999590	0.00000000	-8.42150500	10.49459000
72.29999588	0.00000000	-9.95939900	13.60728000
72.49999587	0.00000000	-8.37844500	14.72687000
72.69999586	0.00000000	-3.77091500	13.23819000
72.89999585	0.00000000	2.78666300	9.84867000
73.09999584	0.00000000	9.35039300	6.36072800
73.29999582	0.00000000	14.78838000	3.24803100
73.49999581	0.00000000	17.86417000	0.97194880
73.69999580	0.00000000	17.86417000	0.55364170
73.89999579	0.00000000	14.78838000	1.66707700
74.09999578	0.00000000	9.39345400	3.53100400
74.29999577	0.00000000	3.25418300	5.43184000
74.49999575	0.00000000	-2.18996000	6.17618100
74.69999574	0.00000000	-5.63484200	5.85014700
74.89999573	0.00000000	-6.46530500	4.64443900
75.09999572	0.00000000	-4.56446800	2.78051200
75.29999571	0.00000000	-1.11343500	0.92888770
75.49999569	0.00000000	3.16190900	0.59670270
75.69999568	0.00000000	7.39419200	2.08538400
75.89999567	0.00000000	10.46998000	4.82283400
76.09999566	0.00000000	11.67569000	8.26771600
76.29999565	0.00000000	10.93135000	11.70029000
76.49999563	0.00000000	9.01820900	13.61343000
76.69999562	0.00000000	6.32381900	13.56422000
76.89999561	0.00000000	3.67249000	11.23893000
77.09999560	0.00000000	2.09153500	6.59448800
77.29999559	0.00000000	1.67322800	1.24877000
77.49999558	0.00000000	2.04847400	-3.76476400
77.69999556	0.00000000	3.11884800	-6.82824800
77.89999555	0.00000000	3.90625000	-7.24655500
78.09999554	0.00000000	3.91240100	-5.24729300
78.29999553	0.00000000	3.94931100	-0.60285430
78.49999552	0.00000000	3.49409400	5.89320800
78.69999550	0.00000000	2.82972400	12.03248000
78.89999549	0.00000000	2.46678100	16.30167000
79.09999548	0.00000000	3.25418300	17.88263000
79.29999547	0.00000000	4.74286400	16.72613000
79.49999546	0.00000000	6.32381900	13.23819000
79.69999544	0.00000000	7.86171200	7.89247000
79.89999543	0.00000000	8.97514600	2.46063000
80.09999542	0.00000000	8.97514600	-1.81471400
80.29999541	0.00000000	7.81250000	-4.92125900
80.49999540	0.00000000	5.85629900	-5.67175200
80.69999539	0.00000000	3.16190900	-4.18307100
80.89999537	0.00000000	0.51058070	-1.11343500
81.09999536	0.00000000	-1.02731300	2.73745100
81.29999535	0.00000000	-1.07037400	6.26845500
81.49999534	0.00000000	0.09227362	9.38115100
81.69999533	0.00000000	2.04847400	11.70029000
81.89999531	0.00000000	4.74286400	12.49385000
82.09999530	0.00000000	7.39419200	12.16166000
82.29999529	0.00000000	8.97514600	11.00517000
82.49999528	0.00000000	9.35039300	9.38115100
82.69999527	0.00000000	8.59990100	7.05585600
82.89999525	0.00000000	6.65600300	3.99237200
83.09999524	0.00000000	4.41067900	1.66707700
83.29999523	0.00000000	2.41756900	0.00000000
83.49999522	0.00000000	1.29798200	-1.53174200
83.69999521	0.00000000	0.88582670	-2.60211600
83.89999520	0.00000000	1.62401600	-2.18380900
84.09999518	0.00000000	2.74360200	0.09227362
84.29999517	0.00000000	3.58021600	3.19881900
84.49999516	0.00000000	4.69980300	6.68676100
84.69999515	0.00000000	5.43799200	10.16855000
84.89999514	0.00000000	5.11811000	12.45079000
85.09999512	0.00000000	4.78592500	13.28125000
85.29999511	0.00000000	4.74286400	12.45079000
85.49999510	0.00000000	4.78592500	10.11934000
85.69999509	0.00000000	5.16117100	6.21924200
85.89999508	0.00000000	5.90551100	1.66707700
86.09999506	0.00000000	6.28075700	-2.18380900
86.29999505	0.00000000	6.28075700	-4.14000900
86.49999504	0.00000000	5.85629900	-4.14000900
86.69999503	0.00000000	4.69980300	-2.18380900
86.89999502	0.00000000	3.20497000	1.66707700
87.09999501	0.00000000	1.99926200	6.26845500
87.29999499	0.00000000	1.24877000	10.49459000
87.49999498	0.00000000	0.88582670	13.18898000
87.69999497	0.00000000	1.67322800	13.61343000
87.89999496	0.00000000	3.20497000	12.07554000
88.09999495	0.00000000	5.11811000	8.96284400
88.29999493	0.00000000	7.06815900	4.73671200
88.49999492	0.00000000	8.18774500	0.55364170
88.69999491	0.00000000	8.59990100	-2.14074800
88.89999490	0.00000000	7.81250000	-2.55905500
89.09999489	0.00000000	6.32381900	-1.02116100
89.29999487	0.00000000	4.74286400	2.04232300
89.49999486	0.00000000	3.16190900	5.89320800
89.69999485	0.00000000	1.67322800	9.33809000
89.89999484	0.00000000	0.92888770	11.65723000
90.09999483	0.00000000	1.62401600	12.03248000
90.29999482	0.00000000	2.74360200	10.49459000
90.49999480	0.00000000	3.58021600	7.38188900
90.69999479	0.00000000	4.74286400	3.15575800
90.89999478	0.00000000	5.85629900	-0.97810030
91.09999477	0.00000000	6.28075700	-3.29724400
91.29999476	0.00000000	6.28075700	-2.93430100
91.49999474	0.00000000	5.90551100	-0.60285430
91.69999473	0.00000000	5.16117100	3.62327700
91.89999472	0.00000000	4.78592500	8.54453700
92.09999471	0.00000000	4.74286400	12.03248000
92.29999470	0.00000000	4.74286400	13.61343000
92.49999468	0.00000000	4.74286400	13.18898000
92.69999467	0.00000000	4.69980300	10.49459000
92.89999466	0.00000000	4.32455700	6.26845500
93.09999465	0.00000000	3.53715500	1.66707700
93.29999464	0.00000000	2.78666300	-2.18380900
93.49999463	0.00000000	1.99926200	-4.09079700
93.69999461	0.00000000	1.67322800	-3.71555100
93.89999460	0.00000000	2.04847400	-0.97810030
94.09999459	0.00000000	3.20497000	3.57406500
94.29999458	0.00000000	4.78592500	8.54453700
94.49999457	0.00000000	6.74212600	11.98942000
94.69999455	0.00000000	9.01820900	13.18898000
94.89999454	0.00000000	10.51304000	12.03248000
95.09999453	0.00000000	10.51304000	8.96284400
95.29999452	0.00000000	8.97514600	4.73671200
95.49999451	0.00000000	6.28075700	0.51058070
95.69999449	0.00000000	3.16190900	-2.51599400
95.89999448	0.00000000	0.09227362	-3.34030500
96.09999447	0.00000000	-2.23302100	-1.81471400
96.29999446	0.00000000	-2.98351400	0.88582670
96.49999445	0.00000000	-2.18996000	4.73671200
96.69999444	0.00000000	0.55364170	8.50147600
96.89999442	0.00000000	4.74286400	10.49459000
97.09999441	0.00000000	8.97514600	10.91289000
97.29999440	0.00000000	12.09400000	10.11934000
97.49999439	0.00000000	13.63189000	7.80019600
97.69999438	0.00000000	13.25664000	4.82283400
97.89999436	0.00000000	10.93135000	2.46063000
98.09999435	0.00000000	7.48646600	1.29183100
98.29999434	0.00000000	3.53715500	0.87967510
98.49999433	0.00000000	-0.28297240	1.66707700
98.69999432	0.00000000	-3.39566900	3.15575800
98.89999430	0.00000000	-4.51525500	4.68750000
99.09999429	0.00000000	-3.81397600	5.85014700
99.29999428	0.00000000	-1.44562000	6.26845500
99.49999427	0.00000000	2.04847400	6.31151500
99.69999426	0.00000000	6.28075700	6.31151500
99.89999425	0.00000000	10.09473000	6.31151500
100.09999423	0.00000000	12.09400000	6.31151500
100.29999422	0.00000000	12.51230000	6.35457700
100.49999421	0.00000000	11.71875000	6.68676100
100.69999420	0.00000000	9.39345400	7.05585600
100.89999419	0.00000000	6.32381900	6.64370100
101.09999417	0.00000000	3.20497000	5.85014700
101.29999416	0.00000000	0.51058070	4.31840500
101.49999415	0.00000000	-1.07037400	2.41141700
101.69999414	0.00000000	-1.48868100	1.24877000
101.89999413	0.00000000	-1.07037400	0.51058070
102.09999411	0.00000000	0.46751960	0.92888770
102.29999410	0.00000000	2.78666300	2.82972400
102.49999409	0.00000000	5.11811000	5.15501900
102.69999408	0.00000000	7.43725300	7.89247000
102.89999407	0.00000000	8.97514600	10.49459000
103.09999406	0.00000000	9.39345400	11.65723000
103.29999404	0.00000000	9.01820900	10.91289000
103.49999403	0.00000000	7.86171200	9.00590400
103.69999402	0.00000000	6.32381900	6.26845500
103.89999401	0.00000000	4.74286400	3.19881900
104.09999400	0.00000000	3.16190900	0.51058070
104.29999398	0.00000000	1.67322800	-1.02116100
104.49999397	0.00000000	0.88582670	-1.02116100
104.69999396	0.00000000	1.24877000	0.51058070
104.89999395	0.00000000	1.99926200	3.19881900
105.09999394	0.00000000	3.20497000	6.22539300
105.29999392	0.00000000	4.69980300	8.58759800
105.49999391	0.00000000	5.85629900	9.75639700
105.69999390	0.00000000	6.28075700	10.11934000
105.89999389	0.00000000	6.28075700	8.96284400
106.09999388	0.00000000	5.90551100	6.68676100
106.29999387	0.00000000	5.11811000	4.40452700
106.49999385	0.00000000	4.36761800	2.46063000
106.69999384	0.00000000	3.58021600	1.66707700
106.89999383	0.00000000	3.20497000	1.66707700
107.09999382	0.00000000	3.20497000	2.46063000
107.29999381	0.00000000	3.58021600	4.36146600
107.49999379	0.00000000	4.36761800	6.22539300
107.69999378	0.00000000	5.11811000	7.42495000
107.89999377	0.00000000	5.85629900	7.80019600
108.09999376	0.00000000	5.81323800	7.38188900
108.29999375	0.00000000	4.69980300	5.89320800
108.49999374	0.00000000	3.20497000	3.99237200
108.69999372	0.00000000	2.09153500	2.82357300
108.89999371	0.00000000	2.04847400	2.04232300
109.09999370	0.00000000	2.78666300	2.08538400
109.29999369	0.00000000	3.58021600	3.19881900
109.49999368	0.00000000	4.74286400	4.73671200
109.69999366	0.00000000	5.85629900	6.31151500
109.89999365	0.00000000	6.32381900	7.80019600
110.09999364	0.00000000	6.69906400	8.58759800
110.29999363	0.00000000	7.01894700	8.22465500
110.49999362	0.00000000	6.23154500	7.47416300
110.69999360	0.00000000	4.78592500	6.26845500
110.89999359	0.00000000	3.58021600	4.73671200
111.09999358	0.00000000	2.78666300	3.19881900
111.29999357	0.00000000	2.04847400	2.04232300
111.49999356	0.00000000	2.04847400	1.66707700
111.69999355	0.00000000	2.78666300	2.04232300
111.89999353	0.00000000	3.58021600	3.19881900
112.09999352	0.00000000	4.74286400	4.68750000
112.29999351	0.00000000	5.85629900	5.85014700
112.49999350	0.00000000	6.28075700	6.26845500
112.69999349	0.00000000	6.32381900	6.31151500
112.89999347	0.00000000	6.28075700	6.31151500
113.09999346	0.00000000	5.90551100	6.31151500
113.29999345	0.00000000	5.11811000	6.26845500
113.49999344	0.00000000	4.36761800	5.89320800
113.69999343	0.00000000	3.58021600	5.15501900
113.89999341	0.00000000	3.20497000	4.77977300
114.09999340	0.00000000	3.20497000	4.73671200
114.29999339	0.00000000	3.58021600	4.69365100
114.49999338	0.00000000	4.32455700	4.31840500
114.69999337	0.00000000	4.74286400	3.57406500
114.89999336	0.00000000	5.16117100	3.19881900
115.09999334	0.00000000	5.85629900	3.15575800
115.29999333	0.00000000	5.85629900	3.19881900
115.49999332	0.00000000	5.16117100	3.57406500
115.69999331	0.00000000	4.78592500	4.36146600
115.89999330	0.00000000	4.74286400	5.11195900
116.09999328	0.00000000	4.74286400	5.93626900
116.29999327	0.00000000	4.69980300	6.68676100
116.49999326	0.00000000	4.32455700	7.42495000
116.69999325	0.00000000	3.62942900	7.42495000
116.89999324	0.00000000	3.62942900	6.68676100
117.09999322	0.00000000	4.32455700	5.89320800
117.29999321	0.00000000	4.74286400	4.73671200
117.49999320	0.00000000	5.16117100	3.62327700
117.69999319	0.00000000	5.90551100	3.19881900
117.89999318	0.00000000	6.28075700	3.15575800
118.09999317	0.00000000	6.32381900	3.15575800
118.29999315	0.00000000	6.28075700	3.19881900
118.49999314	0.00000000	5.85629900	3.62327700
118.69999313	0.00000000	4.74286400	4.73671200
118.89999312	0.00000000	3.58021600	5.85014700
119.09999311	0.00000000	2.82972400	6.31151500
119.29999309	0.00000000	2.41756900	6.72982200
119.49999308	0.00000000	2.78666300	7.47416300
119.69999307	0.00000000	3.16190900	7.80019600
119.89999306	0.00000000	3.62942900	7.47416300
120.09999305	0.00000000	4.74286400	6.68676100
120.29999303	0.00000000	5.90551100	5.93626900
120.49999302	0.00000000	6.69906400	5.15501900
120.69999301	0.00000000	7.43725300	4.73671200
120.89999300	0.00000000	7.43725300	4.31840500
121.09999299	0.00000000	6.69906400	3.57406500
121.29999298	0.00000000	5.90551100	3.24803100
121.49999296	0.00000000	4.74286400	3.57406500
121.69999295	0.00000000	3.58021600	4.31840500
121.89999294	0.00000000	2.78666300	4.69365100
122.09999293	0.00000000	2.04847400	4.77977300
122.29999292	0.00000000	2.04847400	5.15501900
122.49999290	0.00000000	2.78666300	5.89320800
122.69999289	0.00000000	3.53715500	6.21924200
122.89999288	0.00000000	4.32455700	5.93626900
123.09999287	0.00000000	4.74286400	5.57332700
123.29999286	0.00000000	5.16117100	5.89320800
123.49999284	0.00000000	5.90551100	5.85014700
123.69999283	0.00000000	6.28075700	5.15501900
123.89999282	0.00000000	6.32381900	4.77977300
124.09999281	0.00000000	6.28075700	4.73671200
124.29999280	0.00000000	5.90551100	4.73671200
124.49999279	0.00000000	5.11811000	4.73671200
124.69999277	0.00000000	4.36761800	4.73671200
124.89999276	0.00000000	3.58021600	4.73671200
125.09999275	0.00000000	3.16190900	4.73671200
125.29999274	0.00000000	2.78666300	4.77977300
125.49999273	0.00000000	2.41756900	5.15501900
125.69999271	0.00000000	2.82972400	5.89320800
125.89999270	0.00000000	3.58021600	6.26845500
126.09999269	0.00000000	4.74286400	6.31151500
126.29999268	0.00000000	5.85629900	6.31151500
126.49999267	0.00000000	6.28075700	6.31151500
126.69999265	0.00000000	6.32381900	6.26845500
126.89999264	0.00000000	6.28075700	5.89320800
127.09999263	0.00000000	5.90551100	5.15501900
127.29999262	0.00000000	5.11811000	4.77977300
127.49999261	0.00000000	4.32455700	4.73671200
127.69999260	0.00000000	3.16190900	4.73671200
127.89999258	0.00000000	2.09153500	4.73671200
128.09999257	0.00000000	2.09153500	4.73671200
128.29999256	0.00000000	3.16190900	4.73671200
128.49999255	0.00000000	4.32455700	4.73671200
128.69999254	0.00000000	5.11811000	4.73671200
128.89999252	0.00000000	5.94857300	4.73671200
129.09999251	0.00000000	6.65600300	4.73671200
129.29999250	0.00000000	7.06815900	4.73671200
129.49999249	0.00000000	6.65600300	4.73671200
129.69999248	0.00000000	5.90551100	4.73671200
129.89999246	0.00000000	4.69980300	4.73671200
130.09999245	0.00000000	3.25418300	4.73671200
130.29999244	0.00000000	2.46678100	4.73671200
130.49999243	0.00000000	2.78666300	4.77977300
130.69999242	0.00000000	3.16190900	5.11195900
130.89999241	0.00000000	3.62942900	5.51796200
131.09999239	0.00000000	4.74286400	5.48105300
131.29999238	0.00000000	5.85629900	5.51796200
131.49999237	0.00000000	6.28075700	5.11195900
131.69999236	0.00000000	6.28075700	4.77977300
131.89999235	0.00000000	5.90551100	4.69365100
132.09999233	0.00000000	5.11811000	4.31840500
132.29999232	0.00000000	4.36761800	3.62327700
132.49999231	0.00000000	3.58021600	3.62327700
132.69999230	0.00000000	3.20497000	4.31840500
132.89999229	0.00000000	3.20497000	4.73671200
133.09999227	0.00000000	3.58021600	5.15501900
133.29999226	0.00000000	4.32455700	5.89320800
133.49999225	0.00000000	4.69980300	6.26845500
133.69999224	0.00000000	4.74286400	6.31151500
133.89999223	0.00000000	4.74286400	6.26845500
134.09999222	0.00000000	4.74286400	5.89320800
134.29999220	0.00000000	4.74286400	5.15501900
134.49999219	0.00000000	4.74286400	4.73671200
134.69999218	0.00000000	4.74286400	4.31840500
134.89999217	0.00000000	4.74286400	3.57406500
135.09999216	0.00000000	4.78592500	3.19881900
135.29999214	0.00000000	5.11811000	3.19881900
135.49999213	0.00000000	5.53026500	3.57406500
135.69999212	0.00000000	5.49335600	4.36146600
135.89999211	0.00000000	5.53026500	5.11195900
136.09999210	0.00000000	5.07504900	5.89320800
136.29999208	0.00000000	4.36761800	6.26845500
136.49999207	0.00000000	3.58021600	6.31151500
136.69999206	0.00000000	3.20497000	6.26845500
136.89999205	0.00000000	3.16190900	5.89320800
137.09999204	0.00000000	3.20497000	5.15501900
137.29999203	0.00000000	3.62942900	4.77977300
137.49999201	0.00000000	4.74286400	4.73671200
137.69999200	0.00000000	5.85629900	4.69365100
137.89999199	0.00000000	6.28075700	4.31840500
138.09999198	0.00000000	6.28075700	3.62327700
138.29999197	0.00000000	5.90551100	3.62327700
138.49999195	0.00000000	5.16117100	4.31840500
138.69999194	0.00000000	4.74286400	4.69365100
138.89999193	0.00000000	4.32455700	4.73671200
139.09999192	0.00000000	3.58021600	4.77977300
139.29999191	0.00000000	3.20497000	5.15501900
139.49999189	0.00000000	3.20497000	5.89320800
139.69999188	0.00000000	3.62942900	6.26845500
139.89999187	0.00000000	4.74286400	6.31151500
140.09999186	0.00000000	5.81323800	6.26845500
140.29999185	0.00000000	5.90551100	5.89320800
140.49999184	0.00000000	5.53641700	5.11195900
140.69999182	0.00000000	5.53026500	4.36146600
140.89999181	0.00000000	5.11811000	3.57406500
141.09999180	0.00000000	4.78592500	3.19881900
141.29999179	0.00000000	4.69980300	3.19881900
141.49999178	0.00000000	4.36761800	3.57406500
141.69999176	0.00000000	3.99852300	4.36146600
141.89999175	0.00000000	4.36761800	5.11195900
142.09999174	0.00000000	4.69980300	5.89320800
142.29999173	0.00000000	4.74286400	6.31151500
142.49999172	0.00000000	4.78592500	6.68676100
142.69999170	0.00000000	5.11811000	7.05585600
142.89999169	0.00000000	5.48720400	6.64370100
143.09999168	0.00000000	5.11811000	5.89320800
143.29999167	0.00000000	4.78592500	4.73671200
143.49999166	0.00000000	4.69980300	3.62327700
143.69999165	0.00000000	4.36761800	3.19881900
143.89999163	0.00000000	3.99852300	3.19881900
144.09999162	0.00000000	4.36761800	3.57406500
144.29999161	0.00000000	4.69980300	4.36146600
144.49999160	0.00000000	4.78592500	5.11195900
144.69999159	0.00000000	5.11811000	5.89320800
144.89999157	0.00000000	5.48720400	6.26845500
145.09999156	0.00000000	5.11811000	6.31151500
145.29999155	0.00000000	4.78592500	6.31151500
145.49999154	0.00000000	4.74286400	6.26845500
145.69999153	0.00000000	4.69980300	5.89320800
145.89999151	0.00000000	4.32455700	5.15501900
146.09999150	0.00000000	3.62942900	4.77977300
146.29999149	0.00000000	3.62942900	4.69365100
146.49999148	0.00000000	4.32455700	4.36146600
146.69999147	0.00000000	4.69980300	3.99237200
146.89999146	0.00000000	4.74286400	4.36146600
147.09999144	0.00000000	4.78592500	4.73671200
147.29999143	0.00000000	5.11811000	5.15501900
147.49999142	0.00000000	5.48720400	5.89320800
147.69999141	0.00000000	5.11811000	6.26845500
147.89999140	0.00000000	4.78592500	6.31151500
148.09999138	0.00000000	4.74286400	6.31151500
148.29999137	0.00000000	4.69980300	6.31151500
148.49999136	0.00000000	4.36761800	6.26845500
148.69999135	0.00000000	3.99852300	5.89320800
148.89999134	0.00000000	4.36761800	5.15501900
149.09999132	0.00000000	4.69980300	4.77977300
149.29999131	0.00000000	4.74286400	4.73671200
149.49999130	0.00000000	4.78592500	4.73671200
149.69999129	0.00000000	5.16117100	4.73671200
149.89999128	0.00000000	5.85629900	4.73671200
150.09999127	0.00000000	5.85629900	4.77977300
150.29999125	0.00000000	5.16117100	5.15501900
150.49999124	0.00000000	4.78592500	5.89320800
150.69999123	0.00000000	4.74286400	6.26845500
150.89999122	0.00000000	4.74286400	6.31151500
151.09999121	0.00000000	4.74286400	6.31151500
151.29999119	0.00000000	4.74286400	6.31151500
151.49999118	0.00000000	4.74286400	6.26845500
151.69999117	0.00000000	4.74286400	5.89320800
151.89999116	0.00000000	4.74286400	5.15501900
152.09999115	0.00000000	4.74286400	4.77977300
152.29999113	0.00000000	4.74286400	4.73671200
152.49999112	0.00000000	4.78592500	4.73671200
152.69999111	0.00000000	5.11811000	4.73671200
152.89999110	0.00000000	5.48720400	4.73671200
153.09999109	0.00000000	5.11811000	4.73671200
153.29999108	0.00000000	4.78592500	4.77977300
153.49999106	0.00000000	4.74286400	5.15501900
153.69999105	0.00000000	4.74286400	5.89320800
153.89999104	0.00000000	4.69980300	6.26845500
154.09999103	0.00000000	4.32455700	6.31151500
154.29999102	0.00000000	3.62942900	6.26845500
154.49999100	0.00000000	3.62942900	5.89320800
154.69999099	0.00000000	4.32455700	5.15501900
154.89999098	0.00000000	4.69980300	4.77977300
155.09999097	0.00000000	4.78592500	4.73671200
155.29999096	0.00000000	5.16117100	4.73671200
155.49999094	0.00000000	5.90551100	4.73671200
155.69999093	0.00000000	6.28075700	4.73671200
155.89999092	0.00000000	6.28075700	4.73671200
156.09999091	0.00000000	5.90551100	4.73671200
156.29999090	0.00000000	5.16117100	4.77977300
156.49999089	0.00000000	4.78592500	5.15501900
156.69999087	0.00000000	4.69980300	5.89320800
156.89999086	0.00000000	4.32455700	6.26845500
157.09999085	0.00000000	3.62942900	6.31151500
157.29999084	0.00000000	3.58021600	6.31151500
157.49999083	0.00000000	3.94931100	6.26845500
157.69999081	0.00000000	3.95546200	5.89320800
157.89999080	0.00000000	4.41067900	5.15501900
158.09999079	0.00000000	5.11811000	4.77977300
158.29999078	0.00000000	5.90551100	4.73671200
158.49999077	0.00000000	6.23154500	4.73671200
158.69999075	0.00000000	5.90551100	4.73671200
158.89999074	0.00000000	5.16117100	4.73671200
159.09999073	0.00000000	4.78592500	4.73671200
159.29999072	0.00000000	4.74286400	4.77977300
159.49999071	0.00000000	4.74286400	5.15501900
159.69999070	0.00000000	4.74286400	5.89320800
159.89999068	0.00000000	4.74286400	6.26845500
160.09999067	0.00000000	4.74286400	6.31151500
160.29999066	0.00000000	4.74286400	6.31151500
160.49999065	0.00000000	4.74286400	6.26845500
160.69999064	0.00000000	4.74286400	5.89320800
160.89999062	0.00000000	4.74286400	5.15501900
161.09999061	0.00000000	4.74286400	4.77977300
161.29999060	0.00000000	4.74286400	4.73671200
161.49999059	0.00000000	4.74286400	4.73671200
161.69999058	0.00000000	4.74286400	4.73671200
161.89999056	0.00000000	4.74286400	4.73671200
162.09999055	0.00000000	4.78592500	4.73671200
162.29999054	0.00000000	5.11811000	4.77977300
162.49999053	0.00000000	5.48720400	5.15501900
162.69999052	0.00000000	5.11811000	5.89320800
162.89999051	0.00000000	4.78592500	6.26845500
163.09999049	0.00000000	4.74286400	6.31151500
163.29999048	0.00000000	4.74286400	6.26845500
163.49999047	0.00000000	4.74286400	5.89320800
163.69999046	0.00000000	4.74286400	5.15501900
163.89999045	0.00000000	4.74286400	4.77977300
164.09999043	0.00000000	4.74286400	4.73671200
164.29999042	0.00000000	4.74286400	4.73671200
164.49999041	0.00000000	4.78592500	4.73671200
164.69999040	0.00000000	5.11811000	4.73671200
164.89999039	0.00000000	5.53026500	4.73671200
165.09999037	0.00000000	5.53641700	4.73671200
165.29999036	0.00000000	5.90551100	4.73671200
165.49999035	0.00000000	5.85629900	4.73671200
165.69999034	0.00000000	5.16117100	4.73671200
165.89999033	0.00000000	4.78592500	4.73671200
166.09999032	0.00000000	4.69980300	4.77977300
166.29999030	0.00000000	4.36761800	5.11195900
166.49999029	0.00000000	3.99852300	5.47490100
166.69999028	0.00000000	4.36761800	5.11195900
166.89999027	0.00000000	4.69980300	4.77977300
167.09999026	0.00000000	4.74286400	4.73671200
167.29999024	0.00000000	4.74286400	4.73671200
167.49999023	0.00000000	4.74286400	4.73671200
167.69999022	0.00000000	4.78592500	4.73671200
167.89999021	0.00000000	5.11811000	4.73671200
168.09999020	0.00000000	5.48720400	4.73671200
168.29999018	0.00000000	5.11811000	4.73671200
168.49999017	0.00000000	4.78592500	4.73671200
168.69999016	0.00000000	4.74286400	4.73671200
168.89999015	0.00000000	4.74286400	4.73671200
169.09999014	0.00000000	4.74286400	4.73671200
169.29999013	0.00000000	4.74286400	4.73671200
169.49999011	0.00000000	4.74286400	4.73671200
169.69999010	0.00000000	4.74286400	4.73671200
169.89999009	0.00000000	4.74286400	4.73671200
170.09999008	0.00000000	4.74286400	4.73671200
170.29999007	0.00000000	4.74286400	4.73671200
170.49999005	0.00000000	4.74286400	4.73671200
170.69999004	0.00000000	4.74286400	4.73671200
170.89999003	0.00000000	4.74286400	4.73671200
171.09999002	0.00000000	4.74286400	4.73671200
171.29999001	0.00000000	4.74286400	4.73671200
171.49998999	0.00000000	4.74286400	4.73671200
171.69998998	0.00000000	4.74286400	4.73671200
171.89998997	0.00000000	4.74286400	4.73671200
172.09998996	0.00000000	4.74286400	4.73671200
172.29998995	0.00000000	4.74286400	4.73671200
172.49998994	0.00000000	4.74286400	4.73671200
172.69998992	0.00000000	4.74286400	4.73671200
172.89998991	0.00000000	4.74286400	4.73671200
173.09998990	0.00000000	4.74286400	4.73671200
173.29998989	0.00000000	4.74286400	4.73671200
173.49998988	0.00000000	4.74286400	4.73671200
173.69998986	0.00000000	4.74286400	4.73671200
173.89998985	0.00000000	4.74286400	4.73671200
174.09998984	0.00000000	4.74286400	4.73671200
174.29998983	0.00000000	4.74286400	4.73671200
174.49998982	0.00000000	4.74286400	4.73671200
174.69998980	0.00000000	4.74286400	4.73671200
174.89998979	0.00000000	4.74286400	4.73671200
175.09998978	0.00000000	4.74286400	4.73671200
175.29998977	0.00000000	4.74286400	4.73671200
175.49998976	0.00000000	4.74286400	4.73671200
175.69998975	0.00000000	4.74286400	4.73671200
175.89998973	0.00000000	4.74286400	4.73671200
176.09998972	0.00000000	4.74286400	4.73671200
176.29998971	0.00000000	4.74286400	4.77977300
176.49998970	0.00000000	4.74286400	5.11195900
176.69998969	0.00000000	4.74286400	5.47490100
176.89998967	0.00000000	4.74286400	5.11195900
177.09998966	0.00000000	4.74286400	4.77977300
177.29998965	0.00000000	4.74286400	4.73671200
177.49998964	0.00000000	4.74286400	4.73671200
177.69998963	0.00000000	4.74286400	4.73671200
177.89998961	0.00000000	4.74286400	4.77977300
178.09998960	0.00000000	4.74286400	5.11195900
178.29998959	0.00000000	4.74286400	5.47490100
178.49998958	0.00000000	4.74286400	5.11195900
178.69998957	0.00000000	4.74286400	4.77977300
178.89998956	0.00000000	4.74286400	4.77977300
179.09998954	0.00000000	4.74286400	5.11195900
179.29998953	0.00000000	4.74286400	5.47490100
179.49998952	0.00000000	4.74286400	5.11195900
179.69998951	0.00000000	4.74286400	4.77977300
179.89998950	0.00000000	4.74286400	4.73671200
180.09998948	0.00000000	4.74286400	4.73671200
180.29998947	0.00000000	4.69980300	4.73671200
180.49998946	0.00000000	4.36761800	4.73671200
180.69998945	0.00000000	3.99852300	4.73671200
180.89998944	0.00000000	4.36761800	4.73671200
181.09998942	0.00000000	4.69980300	4.73671200
181.29998941	0.00000000	4.74286400	4.73671200
181.49998940	0.00000000	4.74286400	4.77977300
181.69998939	0.00000000	4.74286400	5.15501900
181.89998938	0.00000000	4.74286400	5.89320800
182.09998937	0.00000000	4.78592500	6.26845500
182.29998935	0.00000000	5.11811000	6.31151500
182.49998934	0.00000000	5.48720400	6.26845500
182.69998933	0.00000000	5.11811000	5.89320800
182.89998932	0.00000000	4.78592500	5.15501900
183.09998931	0.00000000	4.74286400	4.77977300
183.29998929	0.00000000	4.74286400	4.73671200
183.49998928	0.00000000	4.74286400	4.73671200
183.69998927	0.00000000	4.74286400	4.73671200
183.89998926	0.00000000	4.74286400	4.73671200
184.09998925	0.00000000	4.74286400	4.73671200
184.29998923	0.00000000	4.74286400	4.77977300
184.49998922	0.00000000	4.74286400	5.15501900
184.69998921	0.00000000	4.74286400	5.89320800
184.89998920	0.00000000	4.74286400	6.26845500
185.09998919	0.00000000	4.74286400	6.31151500
185.29998918	0.00000000	4.74286400	6.26845500
185.49998916	0.00000000	4.74286400	5.89320800
185.69998915	0.00000000	4.78592500	5.15501900
185.89998914	0.00000000	5.16117100	4.77977300
186.09998913	0.00000000	5.85629900	4.69365100
186.29998912	0.00000000	5.90551100	4.31840500
186.49998910	0.00000000	5.53641700	3.62327700
186.69998909	0.00000000	5.53026500	3.62327700
186.89998908	0.00000000	5.11811000	4.31840500
187.09998907	0.00000000	4.78592500	4.69365100
187.29998906	0.00000000	4.74286400	4.77977300
187.49998904	0.00000000	4.74286400	5.15501900
187.69998903	0.00000000	4.74286400	5.89320800
187.89998902	0.00000000	4.74286400	6.26845500
188.09998901	0.00000000	4.74286400	6.26845500
188.29998900	0.00000000	4.74286400	5.89320800
188.49998899	0.00000000	4.74286400	5.15501900
188.69998897	0.00000000	4.78592500	4.77977300
188.89998896	0.00000000	5.11811000	4.73671200
189.09998895	0.00000000	5.53026500	4.73671200
189.29998894	0.00000000	5.49335600	4.69365100
189.49998893	0.00000000	5.53026500	4.36146600
189.69998891	0.00000000	5.11811000	3.99237200
189.89998890	0.00000000	4.78592500	4.36146600
190.09998889	0.00000000	4.74286400	4.69365100
190.29998888	0.00000000	4.74286400	4.73671200
190.49998887	0.00000000	4.74286400	4.77977300
190.69998885	0.00000000	4.74286400	5.15501900
190.89998884	0.00000000	4.74286400	5.89320800
191.09998883	0.00000000	4.74286400	6.26845500
191.29998882	0.00000000	4.74286400	6.26845500
191.49998881	0.00000000	4.74286400	5.89320800
191.69998880	0.00000000	4.78592500	5.15501900
191.89998878	0.00000000	5.16117100	4.77977300
192.09998877	0.00000000	5.85629900	4.73671200
192.29998876	0.00000000	5.90551100	4.73671200
192.49998875	0.00000000	5.53641700	4.73671200
192.69998874	0.00000000	5.53026500	4.73671200
192.89998872	0.00000000	5.11811000	4.73671200
193.09998871	0.00000000	4.78592500	4.73671200
193.29998870	0.00000000	4.74286400	4.73671200
193.49998869	0.00000000	4.74286400	4.77977300
193.69998868	0.00000000	4.74286400	5.15501900
193.89998866	0.00000000	4.74286400	5.89320800
194.09998865	0.00000000	4.74286400	6.21924200
194.29998864	0.00000000	4.74286400	5.93626900
194.49998863	0.00000000	4.78592500	5.53026500
194.69998862	0.00000000	5.11811000	5.51796200
194.89998861	0.00000000	5.48720400	5.11195900
195.09998859	0.00000000	5.16117100	4.77977300
195.29998858	0.00000000	5.16117100	4.73671200
195.49998857	0.00000000	5.48720400	4.73671200
195.69998856	0.00000000	5.11811000	4.73671200
195.89998855	0.00000000	4.78592500	4.73671200
196.09998853	0.00000000	4.74286400	4.73671200
