Time	Channel A	Channel B
(us)	(V)	(mV)

-4.49999956	0.00000000	31.17003000
-4.29999957	0.00000000	31.17003000
-4.09999958	0.00000000	31.17003000
-3.89999959	0.00000000	31.17003000
-3.69999960	0.00000000	31.17003000
-3.49999962	0.00000000	31.17003000
-3.29999963	0.00000000	31.17003000
-3.09999964	0.00000000	31.17003000
-2.89999965	0.00000000	31.17003000
-2.69999966	0.00000000	31.17003000
-2.49999968	0.00000000	31.17003000
-2.29999969	0.00000000	31.17003000
-2.09999970	0.00000000	31.17003000
-1.89999971	0.00000000	31.17003000
-1.69999972	0.00000000	31.17003000
-1.49999973	0.00000000	31.17003000
-1.29999975	0.00000000	31.17003000
-1.09999976	0.00000000	31.17003000
-0.89999977	0.00000000	31.17003000
-0.69999978	0.00000000	31.17003000
-0.49999979	0.00000000	31.17003000
-0.29999981	0.35125490	31.17003000
-0.09999982	0.70250980	31.17003000
0.10000017	1.05376500	31.17003000
0.30000016	1.05376500	31.12082000
0.50000015	0.70250980	30.75787000
0.70000013	0.00000000	30.35802000
0.90000012	-0.87844490	30.75787000
1.10000011	-1.93282500	31.12082000
1.30000010	-2.63533500	31.17003000
1.50000009	-2.81127000	31.21924000
1.70000008	-2.10814500	31.58218000
1.90000006	-0.70250980	31.98204000
2.10000005	1.22970000	31.58218000
2.30000004	3.33846000	31.17003000
2.50000003	4.91941500	30.70866000
2.70000002	5.27128500	29.94586000
2.90000000	4.21690500	29.94586000
3.09999999	1.93282500	30.70866000
3.29999998	-1.40563500	31.12082000
3.49999997	-4.74409400	31.17003000
3.69999996	-7.20410900	31.21924000
3.89999994	-7.90661900	31.63140000
4.09999993	-6.67691900	32.38804000
4.29999992	-3.51377900	32.38804000
4.49999991	0.70250980	31.63140000
4.69999990	4.91941500	31.17003000
4.89999989	8.25849000	30.70866000
5.09999987	9.48818900	29.89665000
5.29999986	8.25849000	29.48450000
5.49999985	4.91941500	29.48450000
5.69999984	0.35125490	29.89665000
5.89999983	-4.21690500	30.70866000
6.09999981	-7.90661900	31.17003000
6.29999980	-9.48818900	31.63140000
6.49999979	-8.60974400	32.43725000
6.69999978	-5.62254000	32.84941000
6.89999977	-1.58095500	32.84941000
7.09999975	2.81127000	32.43725000
7.29999974	6.14972900	31.63140000
7.49999973	7.55536400	31.17003000
7.69999972	7.20410900	30.70866000
7.89999971	5.09534900	29.89665000
8.09999970	1.93282500	29.48450000
8.29999968	-1.40563500	29.43528000
8.49999967	-3.86565000	29.48450000
8.69999966	-5.09534900	29.89665000
8.89999965	-4.91941500	30.70866000
9.09999964	-3.51377900	31.12082000
9.29999962	-1.58095500	31.17003000
9.49999961	0.35125490	31.17003000
9.69999960	1.75689000	31.17003000
9.89999959	2.45940000	31.17003000
10.09999958	2.28408000	31.17003000
10.29999956	1.75689000	31.17003000
10.49999955	0.87844490	31.17003000
10.69999954	0.00000000	31.17003000
10.89999953	-0.70250980	31.17003000
11.09999952	-0.87844490	31.17003000
11.29999951	-0.87844490	31.17003000
11.49999949	-0.70250980	31.17003000
11.69999948	-0.52657480	31.17003000
11.89999947	0.00000000	31.17003000
12.09999946	0.00000000	31.17003000
12.29999945	0.00000000	31.17003000
12.49999943	0.00000000	31.17003000
12.69999942	-0.17531990	31.17003000
12.89999941	-0.17531990	31.17003000
13.09999940	-0.17531990	31.17003000
13.29999939	-0.17531990	31.17003000
13.49999937	0.00000000	31.17003000
13.69999936	0.00000000	31.17003000
13.89999935	0.00000000	31.17003000
14.09999934	0.00000000	31.17003000
14.29999933	0.00000000	31.17003000
14.49999932	0.00000000	31.17003000
14.69999930	0.00000000	31.17003000
14.89999929	0.00000000	31.17003000
15.09999928	0.00000000	31.17003000
15.29999927	0.00000000	31.17003000
15.49999926	0.00000000	31.17003000
15.69999924	0.00000000	31.17003000
15.89999923	0.00000000	31.12082000
16.09999922	0.00000000	30.75787000
16.29999921	0.00000000	30.45644000
16.49999920	0.00000000	31.53297000
16.69999919	0.00000000	32.33268000
16.89999917	0.00000000	31.17618000
17.09999916	0.00000000	30.85630000
17.29999915	0.00000000	31.07160000
17.49999914	0.00000000	30.70866000
17.69999913	0.00000000	29.94586000
17.89999911	0.00000000	29.89665000
18.09999910	0.00000000	30.24729000
18.29999909	0.00000000	29.89665000
18.49999908	0.00000000	29.94586000
18.69999907	0.00000000	30.70866000
18.89999905	0.00000000	31.07160000
19.09999904	0.00000000	30.75787000
19.29999903	0.00000000	30.30881000
19.49999902	0.00000000	30.34572000
19.69999901	0.00000000	30.25959000
19.89999900	0.00000000	30.29650000
20.09999898	0.00000000	29.89665000
20.29999897	0.00000000	29.94586000
20.49999896	0.00000000	30.70866000
20.69999895	0.00000000	31.12082000
20.89999894	0.00000000	31.17003000
21.09999892	0.00000000	31.17003000
21.29999891	0.00000000	31.17003000
21.49999890	0.00000000	31.17003000
21.69999889	0.00000000	31.17003000
21.89999888	0.00000000	31.17003000
22.09999886	0.00000000	31.17003000
22.29999885	0.00000000	31.17003000
22.49999884	0.00000000	31.17003000
22.69999883	0.00000000	31.17003000
22.89999882	0.00000000	31.12082000
23.09999881	0.00000000	30.70866000
23.29999879	0.00000000	29.89665000
23.49999878	0.00000000	29.48450000
23.69999877	0.00000000	29.43528000
23.89999876	0.00000000	29.48450000
24.09999875	0.00000000	29.89665000
24.29999873	0.00000000	30.75787000
24.49999872	0.00000000	31.63140000
24.69999871	0.00000000	32.89862000
24.89999870	0.00000000	34.17200000
25.09999869	0.00000000	34.99631000
25.29999867	0.00000000	35.34695000
25.49999866	0.00000000	34.02436000
25.69999865	0.00000000	31.12082000
25.89999864	0.00000000	27.75590000
26.09999863	0.00000000	24.75394000
26.29999862	0.00000000	22.65625000
26.49999860	0.00000000	21.84424000
26.69999859	0.00000000	23.16683000
26.89999858	0.00000000	26.58095000
27.09999857	0.00000000	31.72982000
27.29999856	0.00000000	38.04749000
27.49999854	0.00000000	43.95915000
27.69999853	0.00000000	47.68085000
27.89999852	0.00000000	48.03764000
28.09999851	0.00000000	43.71309000
28.29999850	0.00000000	35.24852000
28.49999848	0.00000000	24.24335000
28.69999847	0.00000000	13.28740000
28.89999846	0.00000000	5.28420300
29.09999845	0.00000000	2.38065900
29.29999844	0.00000000	5.84399600
29.49999843	0.00000000	15.67421000
29.69999841	0.00000000	30.45644000
29.89999840	0.00000000	46.91191000
30.09999839	0.00000000	60.46998000
30.29999838	0.00000000	68.42396000
30.49999837	0.00000000	68.31324000
30.69999835	0.00000000	58.59375000
30.89999834	0.00000000	42.07677000
31.09999833	0.00000000	22.05339000
31.29999832	0.00000000	1.77165300
31.49999831	0.00000000	-13.72416000
31.69999829	0.00000000	-19.58046000
31.89999828	0.00000000	-13.62574000
32.09999827	0.00000000	2.84202700
32.29999826	0.00000000	26.16880000
32.49999825	0.00000000	51.14419000
32.69999824	0.00000000	72.69930000
32.89999822	0.00000000	85.34079000
33.09999821	0.00000000	85.75294000
33.29999820	0.00000000	73.87426000
33.49999819	0.00000000	51.86393000
33.69999818	0.00000000	24.75394000
33.89999816	0.00000000	-1.44562000
34.09999815	0.00000000	-20.90305000
34.29999814	0.00000000	-28.45103000
34.49999813	0.00000000	-22.63164000
34.69999812	0.00000000	-4.81053100
34.89999810	0.00000000	20.57702000
35.09999809	0.00000000	48.54823000
35.29999808	0.00000000	72.55167000
35.49999807	0.00000000	86.46037000
35.69999806	0.00000000	86.60802000
35.89999805	0.00000000	74.02805000
36.09999803	0.00000000	53.22958000
36.29999802	0.00000000	27.80512000
36.49999801	0.00000000	3.34645700
36.69999800	0.00000000	-13.62574000
36.89999799	0.00000000	-20.04183000
37.09999797	0.00000000	-14.94217000
37.29999796	0.00000000	0.65206690
37.49999795	0.00000000	22.56398000
37.69999794	0.00000000	44.98031000
37.89999793	0.00000000	62.72145000
38.09999791	0.00000000	71.68430000
38.29999790	0.00000000	70.05413000
38.49999789	0.00000000	59.59645000
38.69999788	0.00000000	43.09793000
38.89999787	0.00000000	25.00000000
39.09999786	0.00000000	9.76870100
39.29999784	0.00000000	1.31028500
39.49999783	0.00000000	1.16264800
39.69999782	0.00000000	8.23695900
39.89999781	0.00000000	19.60507000
40.09999780	0.00000000	32.28962000
40.29999778	0.00000000	43.25172000
40.49999777	0.00000000	49.61860000
40.69999776	0.00000000	50.12918000
40.89999775	0.00000000	45.54011000
41.09999774	0.00000000	37.58612000
41.29999772	0.00000000	28.82013000
41.49999771	0.00000000	22.45325000
41.69999770	0.00000000	19.80192000
41.89999769	0.00000000	20.15871000
42.09999768	0.00000000	23.11762000
42.29999767	0.00000000	27.70669000
42.49999765	0.00000000	32.28962000
42.69999764	0.00000000	35.24852000
42.89999763	0.00000000	35.75295000
43.09999762	0.00000000	34.53494000
43.29999761	0.00000000	32.48646000
43.49999759	0.00000000	30.45029000
43.69999758	0.00000000	29.99508000
43.89999757	0.00000000	30.70866000
44.09999756	0.00000000	31.17003000
44.29999755	0.00000000	31.58218000
44.49999753	0.00000000	31.93282000
44.69999752	0.00000000	31.12082000
44.89999751	0.00000000	29.89665000
45.09999750	0.00000000	28.92470000
45.29999749	0.00000000	27.24532000
45.49999748	0.00000000	25.30758000
45.69999746	0.00000000	25.40600000
45.89999745	0.00000000	28.26648000
46.09999744	0.00000000	32.43725000
46.29999743	0.00000000	36.21432000
46.49999742	0.00000000	38.76107000
46.69999740	0.00000000	39.17323000
46.89999739	0.00000000	37.48769000
47.09999738	0.00000000	34.07357000
47.29999737	0.00000000	29.43528000
47.49999736	0.00000000	24.85236000
47.69999734	0.00000000	21.89345000
47.89999733	0.00000000	21.43824000
48.09999732	0.00000000	23.06841000
48.29999731	0.00000000	26.07037000
48.49999730	0.00000000	29.84744000
48.69999729	0.00000000	33.71063000
48.89999727	0.00000000	36.67569000
49.09999726	0.00000000	38.81028000
49.29999725	0.00000000	39.17323000
49.49999724	0.00000000	37.48769000
49.69999723	0.00000000	34.17200000
49.89999721	0.00000000	30.40723000
50.09999720	0.00000000	27.80512000
50.29999719	0.00000000	26.02116000
50.49999718	0.00000000	24.75394000
50.69999717	0.00000000	24.34178000
50.89999715	0.00000000	24.80315000
51.09999714	0.00000000	26.48253000
51.29999713	0.00000000	28.97392000
51.49999712	0.00000000	31.12082000
51.69999711	0.00000000	32.89862000
51.89999710	0.00000000	34.63336000
52.09999708	0.00000000	36.21432000
52.29999707	0.00000000	36.62032000
52.49999706	0.00000000	34.94709000
52.69999705	0.00000000	32.48646000
52.89999704	0.00000000	29.89665000
53.09999702	0.00000000	27.75590000
53.29999701	0.00000000	26.02116000
53.49999700	0.00000000	24.80315000
53.69999699	0.00000000	24.80315000
53.89999698	0.00000000	26.07037000
54.09999696	0.00000000	28.21727000
54.29999695	0.00000000	31.17003000
54.49999694	0.00000000	34.07357000
54.69999693	0.00000000	35.75295000
54.89999692	0.00000000	35.80217000
55.09999691	0.00000000	34.53494000
55.29999689	0.00000000	32.43725000
55.49999688	0.00000000	29.89665000
55.69999687	0.00000000	27.80512000
55.89999686	0.00000000	26.48253000
56.09999685	0.00000000	26.11959000
56.29999683	0.00000000	26.93774000
56.49999682	0.00000000	29.07234000
56.69999681	0.00000000	31.58218000
56.89999680	0.00000000	34.12278000
57.09999679	0.00000000	35.70374000
57.29999677	0.00000000	35.34695000
57.49999676	0.00000000	33.31078000
57.69999675	0.00000000	31.17003000
57.89999674	0.00000000	28.92470000
58.09999673	0.00000000	26.02116000
58.29999672	0.00000000	23.52362000
58.49999670	0.00000000	22.75467000
58.69999669	0.00000000	23.98499000
58.89999668	0.00000000	27.34375000
59.09999667	0.00000000	31.07160000
59.29999666	0.00000000	34.07357000
59.49999664	0.00000000	35.80217000
59.69999663	0.00000000	36.21432000
59.89999662	0.00000000	35.34695000
60.09999661	0.00000000	32.80019000
60.29999660	0.00000000	29.48450000
60.49999658	0.00000000	26.48253000
60.69999657	0.00000000	24.34178000
60.89999656	0.00000000	23.11762000
61.09999655	0.00000000	23.62205000
61.29999654	0.00000000	26.53174000
61.49999653	0.00000000	30.70866000
61.69999651	0.00000000	34.48573000
61.89999650	0.00000000	37.08169000
62.09999649	0.00000000	37.89985000
62.29999648	0.00000000	37.08169000
62.49999647	0.00000000	34.58415000
62.69999645	0.00000000	31.68061000
62.89999644	0.00000000	29.53371000
63.09999643	0.00000000	28.16806000
63.29999642	0.00000000	27.29453000
63.49999641	0.00000000	26.48253000
63.69999639	0.00000000	26.53174000
63.89999638	0.00000000	27.70669000
64.09999637	0.00000000	28.97392000
64.29999636	0.00000000	29.89665000
64.49999635	0.00000000	31.17003000
64.69999634	0.00000000	32.43725000
64.89999632	0.00000000	33.31078000
65.09999631	0.00000000	34.22121000
65.29999630	0.00000000	34.99631000
65.49999629	0.00000000	35.34695000
65.69999628	0.00000000	34.02436000
65.89999626	0.00000000	31.17003000
66.09999625	0.00000000	28.16806000
66.29999624	0.00000000	25.55979000
66.49999623	0.00000000	23.01919000
66.69999622	0.00000000	21.43824000
66.89999620	0.00000000	21.84424000
67.09999619	0.00000000	24.39099000
67.29999618	0.00000000	28.16806000
67.49999617	0.00000000	32.43725000
67.69999616	0.00000000	36.26353000
67.89999615	0.00000000	39.22244000
68.09999613	0.00000000	40.44660000
68.29999612	0.00000000	39.12401000
68.49999611	0.00000000	35.34695000
68.69999610	0.00000000	29.84744000
68.89999609	0.00000000	24.34178000
69.09999607	0.00000000	19.70349000
69.29999606	0.00000000	17.20595000
69.49999605	0.00000000	18.02411000
69.69999604	0.00000000	21.38902000
69.89999603	0.00000000	26.48253000
70.09999601	0.00000000	32.38804000
70.29999600	0.00000000	37.48769000
70.49999599	0.00000000	40.90182000
70.69999598	0.00000000	42.17519000
70.89999597	0.00000000	40.85260000
71.09999596	0.00000000	37.08169000
71.29999594	0.00000000	31.63140000
71.49999593	0.00000000	26.53174000
71.69999592	0.00000000	22.65625000
71.89999591	0.00000000	20.10950000
72.09999590	0.00000000	19.70349000
72.29999588	0.00000000	21.38902000
72.49999587	0.00000000	24.80315000
72.69999586	0.00000000	29.48450000
72.89999585	0.00000000	34.58415000
73.09999584	0.00000000	39.17323000
73.29999582	0.00000000	41.62155000
73.49999581	0.00000000	40.44660000
73.69999580	0.00000000	36.72490000
73.89999579	0.00000000	32.43725000
74.09999578	0.00000000	27.75590000
74.29999577	0.00000000	23.57899000
74.49999575	0.00000000	21.43824000
74.69999574	0.00000000	21.38902000
74.89999573	0.00000000	23.06841000
75.09999572	0.00000000	26.11959000
75.29999571	0.00000000	30.35187000
75.49999569	0.00000000	35.39616000
75.69999568	0.00000000	39.12401000
75.89999567	0.00000000	40.44660000
76.09999566	0.00000000	39.12401000
76.29999565	0.00000000	35.34695000
76.49999563	0.00000000	29.89665000
76.69999562	0.00000000	24.85236000
76.89999561	0.00000000	21.43824000
77.09999560	0.00000000	20.16486000
77.29999559	0.00000000	21.38902000
77.49999558	0.00000000	24.39099000
77.69999556	0.00000000	28.67249000
77.89999555	0.00000000	34.17200000
78.09999554	0.00000000	39.17323000
78.29999553	0.00000000	42.07677000
78.49999552	0.00000000	41.67076000
78.69999550	0.00000000	37.89985000
78.89999549	0.00000000	32.38804000
79.09999548	0.00000000	26.02116000
79.29999547	0.00000000	20.10950000
79.49999546	0.00000000	16.33858000
79.69999544	0.00000000	15.47736000
79.89999543	0.00000000	18.07332000
80.09999542	0.00000000	23.52977000
80.29999541	0.00000000	30.70866000
80.49999540	0.00000000	37.48769000
80.69999539	0.00000000	42.58735000
80.89999537	0.00000000	45.08489000
81.09999536	0.00000000	43.81151000
81.29999535	0.00000000	39.17323000
81.49999534	0.00000000	32.39419000
81.69999533	0.00000000	24.80315000
81.89999531	0.00000000	18.43012000
82.09999530	0.00000000	14.60999000
82.29999529	0.00000000	13.79183000
82.49999528	0.00000000	16.74459000
82.69999527	0.00000000	22.60704000
82.89999525	0.00000000	29.43528000
83.09999524	0.00000000	36.26353000
83.29999523	0.00000000	42.17519000
83.49999522	0.00000000	45.54011000
83.69999521	0.00000000	45.54011000
83.89999520	0.00000000	42.17519000
84.09999518	0.00000000	36.26353000
84.29999517	0.00000000	29.48450000
84.49999516	0.00000000	23.06841000
84.69999515	0.00000000	18.02411000
84.89999514	0.00000000	15.42815000
85.09999512	0.00000000	15.82800000
85.29999511	0.00000000	18.38090000
85.49999510	0.00000000	23.11762000
85.69999509	0.00000000	29.48450000
85.89999508	0.00000000	36.21432000
86.09999506	0.00000000	41.71383000
86.29999505	0.00000000	44.31594000
86.49999504	0.00000000	44.41437000
86.69999503	0.00000000	42.58735000
86.89999502	0.00000000	38.30585000
87.09999501	0.00000000	31.58218000
87.29999499	0.00000000	24.85236000
87.49999498	0.00000000	19.65428000
87.69999497	0.00000000	16.28937000
87.89999496	0.00000000	15.52657000
88.09999495	0.00000000	18.43012000
88.29999493	0.00000000	23.88041000
88.49999492	0.00000000	29.84744000
88.69999491	0.00000000	35.80217000
88.89999490	0.00000000	40.44660000
89.09999489	0.00000000	42.58735000
89.29999487	0.00000000	42.18134000
89.49999486	0.00000000	39.22244000
89.69999485	0.00000000	34.58415000
89.89999484	0.00000000	29.43528000
90.09999483	0.00000000	24.34178000
90.29999482	0.00000000	20.16486000
90.49999480	0.00000000	18.43012000
90.69999479	0.00000000	19.24212000
90.89999478	0.00000000	21.79503000
91.09999477	0.00000000	26.07037000
91.29999476	0.00000000	31.07160000
91.49999474	0.00000000	35.29773000
91.69999473	0.00000000	37.48769000
91.89999472	0.00000000	37.94907000
92.09999471	0.00000000	37.08169000
92.29999470	0.00000000	34.53494000
92.49999468	0.00000000	31.21924000
92.69999467	0.00000000	28.21727000
92.89999466	0.00000000	26.07037000
93.09999465	0.00000000	24.75394000
93.29999464	0.00000000	24.34178000
93.49999463	0.00000000	24.80315000
93.69999461	0.00000000	26.48253000
93.89999460	0.00000000	28.92470000
94.09999459	0.00000000	30.65945000
94.29999458	0.00000000	31.58218000
94.49999457	0.00000000	32.43725000
94.69999455	0.00000000	32.80019000
94.89999454	0.00000000	32.43725000
95.09999453	0.00000000	31.58218000
95.29999452	0.00000000	30.75787000
95.49999451	0.00000000	29.84744000
95.69999449	0.00000000	29.02313000
95.89999448	0.00000000	28.16806000
96.09999447	0.00000000	27.75590000
96.29999446	0.00000000	27.70669000
96.49999445	0.00000000	27.70669000
96.69999444	0.00000000	27.75590000
96.89999442	0.00000000	28.16806000
97.09999441	0.00000000	29.02313000
97.29999440	0.00000000	29.84744000
97.49999439	0.00000000	30.70866000
97.69999438	0.00000000	31.12082000
97.89999436	0.00000000	31.17003000
98.09999435	0.00000000	31.17003000
98.29999434	0.00000000	31.17003000
98.49999433	0.00000000	31.12082000
98.69999432	0.00000000	30.70866000
98.89999430	0.00000000	29.84744000
99.09999429	0.00000000	29.02313000
99.29999428	0.00000000	28.16806000
99.49999427	0.00000000	27.80512000
99.69999426	0.00000000	28.16806000
99.89999425	0.00000000	28.97392000
100.09999423	0.00000000	29.38607000
100.29999422	0.00000000	29.48450000
100.49999421	0.00000000	29.89665000
100.69999420	0.00000000	30.65945000
100.89999419	0.00000000	30.70866000
101.09999417	0.00000000	30.40723000
101.29999416	0.00000000	31.07160000
101.49999415	0.00000000	31.01009000
101.69999414	0.00000000	29.03543000
101.89999413	0.00000000	27.85433000
102.09999411	0.00000000	27.70669000
102.29999410	0.00000000	27.70669000
102.49999409	0.00000000	27.75590000
102.69999408	0.00000000	28.21727000
102.89999407	0.00000000	29.43528000
103.09999406	0.00000000	30.65945000
103.29999404	0.00000000	31.12082000
103.49999403	0.00000000	31.17003000
103.69999402	0.00000000	31.17003000
103.89999401	0.00000000	31.12082000
104.09999400	0.00000000	30.70866000
104.29999398	0.00000000	29.84744000
104.49999397	0.00000000	29.02313000
104.69999396	0.00000000	28.16806000
104.89999395	0.00000000	27.80512000
105.09999394	0.00000000	28.21727000
105.29999392	0.00000000	29.43528000
105.49999391	0.00000000	30.65945000
105.69999390	0.00000000	31.12082000
105.89999389	0.00000000	31.21924000
106.09999388	0.00000000	31.63140000
106.29999387	0.00000000	32.38804000
106.49999385	0.00000000	32.33883000
106.69999384	0.00000000	31.12082000
106.89999383	0.00000000	29.48450000
107.09999382	0.00000000	28.21727000
107.29999381	0.00000000	27.75590000
107.49999379	0.00000000	27.70669000
107.69999378	0.00000000	27.75590000
107.89999377	0.00000000	28.21727000
108.09999376	0.00000000	29.48450000
108.29999375	0.00000000	31.12082000
108.49999374	0.00000000	32.38804000
108.69999372	0.00000000	32.80019000
108.89999371	0.00000000	32.38804000
109.09999370	0.00000000	31.17003000
109.29999369	0.00000000	29.84744000
109.49999368	0.00000000	28.51870000
109.69999366	0.00000000	26.43332000
109.89999365	0.00000000	24.85236000
110.09999364	0.00000000	24.75394000
110.29999363	0.00000000	25.60900000
110.49999362	0.00000000	26.88853000
110.69999360	0.00000000	29.02313000
110.89999359	0.00000000	31.12082000
111.09999358	0.00000000	32.84941000
111.29999357	0.00000000	34.07357000
111.49999356	0.00000000	34.07357000
111.69999355	0.00000000	32.80019000
111.89999353	0.00000000	30.70866000
112.09999352	0.00000000	28.16806000
112.29999351	0.00000000	26.02116000
112.49999350	0.00000000	24.34178000
112.69999349	0.00000000	23.52977000
112.89999347	0.00000000	24.39099000
113.09999346	0.00000000	26.48253000
113.29999345	0.00000000	29.43528000
113.49999344	0.00000000	32.33883000
113.69999343	0.00000000	34.07357000
113.89999341	0.00000000	34.53494000
114.09999340	0.00000000	34.07357000
114.29999339	0.00000000	32.38804000
114.49999338	0.00000000	29.89665000
114.69999337	0.00000000	27.70669000
114.89999336	0.00000000	25.60900000
115.09999334	0.00000000	24.03420000
115.29999333	0.00000000	24.80315000
115.49999332	0.00000000	26.79011000
115.69999331	0.00000000	28.11885000
115.89999330	0.00000000	29.53371000
116.09999328	0.00000000	31.58218000
116.29999327	0.00000000	33.61835000
116.49999326	0.00000000	34.02436000
116.69999325	0.00000000	32.84941000
116.89999324	0.00000000	31.17003000
117.09999322	0.00000000	29.43528000
117.29999321	0.00000000	27.80512000
117.49999320	0.00000000	26.89468000
117.69999319	0.00000000	26.88238000
117.89999318	0.00000000	26.89468000
118.09999317	0.00000000	27.80512000
118.29999315	0.00000000	29.38607000
118.49999314	0.00000000	30.70866000
118.69999313	0.00000000	31.53297000
118.89999312	0.00000000	31.98204000
119.09999311	0.00000000	31.58218000
119.29999309	0.00000000	31.17003000
119.49999308	0.00000000	30.65945000
119.69999307	0.00000000	29.43528000
119.89999306	0.00000000	28.21727000
120.09999305	0.00000000	27.75590000
120.29999303	0.00000000	27.75590000
120.49999302	0.00000000	28.16806000
120.69999301	0.00000000	28.97392000
120.89999300	0.00000000	29.43528000
121.09999299	0.00000000	29.89665000
121.29999298	0.00000000	30.70866000
121.49999296	0.00000000	31.07160000
121.69999295	0.00000000	30.70866000
121.89999294	0.00000000	29.84744000
122.09999293	0.00000000	29.02313000
122.29999292	0.00000000	28.16806000
122.49999290	0.00000000	27.75590000
122.69999289	0.00000000	27.75590000
122.89999288	0.00000000	28.16806000
123.09999287	0.00000000	28.97392000
123.29999286	0.00000000	29.43528000
123.49999284	0.00000000	29.89665000
123.69999283	0.00000000	30.65945000
123.89999282	0.00000000	30.65945000
124.09999281	0.00000000	29.89665000
124.29999280	0.00000000	29.43528000
124.49999279	0.00000000	28.97392000
124.69999277	0.00000000	28.16806000
124.89999276	0.00000000	27.75590000
125.09999275	0.00000000	27.75590000
125.29999274	0.00000000	28.16806000
125.49999273	0.00000000	29.02313000
125.69999271	0.00000000	29.84744000
125.89999270	0.00000000	30.70866000
126.09999269	0.00000000	31.12082000
126.29999268	0.00000000	31.12082000
126.49999267	0.00000000	30.70866000
126.69999265	0.00000000	29.84744000
126.89999264	0.00000000	28.97392000
127.09999263	0.00000000	27.70669000
127.29999262	0.00000000	26.53174000
127.49999261	0.00000000	26.48253000
127.69999260	0.00000000	27.29453000
127.89999258	0.00000000	28.16806000
128.09999257	0.00000000	29.43528000
128.29999256	0.00000000	30.65945000
128.49999255	0.00000000	31.12082000
128.69999254	0.00000000	31.21924000
128.89999252	0.00000000	31.53297000
129.09999251	0.00000000	31.52067000
129.29999250	0.00000000	30.25344000
129.49999249	0.00000000	29.02313000
129.69999248	0.00000000	27.70669000
129.89999246	0.00000000	26.53174000
130.09999245	0.00000000	26.48253000
130.29999244	0.00000000	27.29453000
130.49999243	0.00000000	28.16806000
130.69999242	0.00000000	29.43528000
130.89999241	0.00000000	30.65945000
131.09999239	0.00000000	31.12082000
131.29999238	0.00000000	31.12082000
131.49999237	0.00000000	30.70866000
131.69999236	0.00000000	29.89665000
131.89999235	0.00000000	29.43528000
132.09999233	0.00000000	28.97392000
132.29999232	0.00000000	28.16806000
132.49999231	0.00000000	27.75590000
132.69999230	0.00000000	27.75590000
132.89999229	0.00000000	28.16806000
133.09999227	0.00000000	29.02313000
133.29999226	0.00000000	29.79823000
133.49999225	0.00000000	30.24729000
133.69999224	0.00000000	29.79823000
133.89999223	0.00000000	29.07234000
134.09999222	0.00000000	28.62328000
134.29999220	0.00000000	28.97392000
134.49999219	0.00000000	28.97392000
134.69999218	0.00000000	28.62328000
134.89999217	0.00000000	29.07234000
135.09999216	0.00000000	29.84744000
135.29999214	0.00000000	30.70866000
135.49999213	0.00000000	31.12082000
135.69999212	0.00000000	31.12082000
135.89999211	0.00000000	30.70866000
136.09999210	0.00000000	29.84744000
136.29999208	0.00000000	29.02313000
136.49999207	0.00000000	28.11885000
136.69999206	0.00000000	27.29453000
136.89999205	0.00000000	26.48253000
137.09999204	0.00000000	26.53174000
137.29999203	0.00000000	27.70669000
137.49999201	0.00000000	28.97392000
137.69999200	0.00000000	29.89665000
137.89999199	0.00000000	31.12082000
138.09999198	0.00000000	31.93282000
138.29999197	0.00000000	31.58218000
138.49999195	0.00000000	31.17003000
138.69999194	0.00000000	30.65945000
138.89999193	0.00000000	29.38607000
139.09999192	0.00000000	27.75590000
139.29999191	0.00000000	26.48253000
139.49999189	0.00000000	26.07037000
139.69999188	0.00000000	26.43332000
139.89999187	0.00000000	27.29453000
140.09999186	0.00000000	28.11885000
140.29999185	0.00000000	29.02313000
140.49999184	0.00000000	29.84744000
140.69999182	0.00000000	30.70866000
140.89999181	0.00000000	31.12082000
141.09999180	0.00000000	31.12082000
141.29999179	0.00000000	30.70866000
141.49999178	0.00000000	29.84744000
141.69999176	0.00000000	29.02313000
141.89999175	0.00000000	28.16806000
142.09999174	0.00000000	27.75590000
142.29999173	0.00000000	27.70669000
142.49999172	0.00000000	27.70669000
142.69999170	0.00000000	27.75590000
142.89999169	0.00000000	28.11885000
143.09999168	0.00000000	28.56791000
143.29999167	0.00000000	28.62328000
143.49999166	0.00000000	29.48450000
143.69999165	0.00000000	30.61023000
143.89999163	0.00000000	30.65945000
144.09999162	0.00000000	29.89665000
144.29999161	0.00000000	29.48450000
144.49999160	0.00000000	29.38607000
144.69999159	0.00000000	28.97392000
144.89999157	0.00000000	28.16806000
145.09999156	0.00000000	27.75590000
145.29999155	0.00000000	27.70669000
145.49999154	0.00000000	27.70669000
145.69999153	0.00000000	27.75590000
145.89999151	0.00000000	28.16806000
146.09999150	0.00000000	29.02313000
146.29999149	0.00000000	29.84744000
146.49999148	0.00000000	30.70866000
146.69999147	0.00000000	31.12082000
146.89999146	0.00000000	31.17003000
147.09999144	0.00000000	31.17003000
147.29999143	0.00000000	31.12082000
147.49999142	0.00000000	30.65945000
147.69999141	0.00000000	29.38607000
147.89999140	0.00000000	27.75590000
148.09999138	0.00000000	26.48253000
148.29999137	0.00000000	26.07037000
148.49999136	0.00000000	26.43332000
148.69999135	0.00000000	27.24532000
148.89999134	0.00000000	27.70669000
149.09999132	0.00000000	28.16806000
149.29999131	0.00000000	29.02313000
149.49999130	0.00000000	29.84744000
149.69999129	0.00000000	30.70866000
149.89999128	0.00000000	31.07160000
150.09999127	0.00000000	30.70866000
150.29999125	0.00000000	29.84744000
150.49999124	0.00000000	29.02313000
150.69999123	0.00000000	28.16806000
150.89999122	0.00000000	27.75590000
151.09999121	0.00000000	27.70669000
151.29999119	0.00000000	27.75590000
151.49999118	0.00000000	28.16806000
151.69999117	0.00000000	29.02313000
151.89999116	0.00000000	29.84744000
152.09999115	0.00000000	30.65945000
152.29999113	0.00000000	30.65945000
152.49999112	0.00000000	29.89665000
152.69999111	0.00000000	29.48450000
152.89999110	0.00000000	29.43528000
153.09999109	0.00000000	29.43528000
153.29999108	0.00000000	29.38607000
153.49999106	0.00000000	29.02313000
153.69999105	0.00000000	28.62328000
153.89999104	0.00000000	29.02313000
154.09999103	0.00000000	29.38607000
154.29999102	0.00000000	29.43528000
154.49999100	0.00000000	29.43528000
154.69999099	0.00000000	29.43528000
154.89999098	0.00000000	29.43528000
155.09999097	0.00000000	29.43528000
155.29999096	0.00000000	29.43528000
155.49999094	0.00000000	29.43528000
155.69999093	0.00000000	29.43528000
155.89999092	0.00000000	29.43528000
156.09999091	0.00000000	29.43528000
156.29999090	0.00000000	29.43528000
156.49999089	0.00000000	29.38607000
156.69999087	0.00000000	28.97392000
156.89999086	0.00000000	28.16806000
157.09999085	0.00000000	27.70669000
157.29999084	0.00000000	27.29453000
157.49999083	0.00000000	26.94390000
157.69999081	0.00000000	27.70669000
157.89999080	0.00000000	28.46949000
158.09999079	0.00000000	28.16806000
158.29999078	0.00000000	28.21727000
158.49999077	0.00000000	28.97392000
158.69999075	0.00000000	29.38607000
158.89999074	0.00000000	29.43528000
159.09999073	0.00000000	29.43528000
159.29999072	0.00000000	29.38607000
159.49999071	0.00000000	28.97392000
159.69999070	0.00000000	28.16806000
159.89999068	0.00000000	27.75590000
160.09999067	0.00000000	27.70669000
160.29999066	0.00000000	27.70669000
160.49999065	0.00000000	27.75590000
160.69999064	0.00000000	28.16806000
160.89999062	0.00000000	28.97392000
161.09999061	0.00000000	29.38607000
161.29999060	0.00000000	29.43528000
161.49999059	0.00000000	29.43528000
161.69999058	0.00000000	29.43528000
161.89999056	0.00000000	29.38607000
162.09999055	0.00000000	28.97392000
162.29999054	0.00000000	28.16806000
162.49999053	0.00000000	27.75590000
162.69999052	0.00000000	27.70669000
162.89999051	0.00000000	27.70669000
163.09999049	0.00000000	27.75590000
163.29999048	0.00000000	28.16806000
163.49999047	0.00000000	28.97392000
163.69999046	0.00000000	29.38607000
163.89999045	0.00000000	29.43528000
164.09999043	0.00000000	29.43528000
164.29999042	0.00000000	29.43528000
164.49999041	0.00000000	29.43528000
164.69999040	0.00000000	29.43528000
164.89999039	0.00000000	29.38607000
165.09999037	0.00000000	29.02313000
165.29999036	0.00000000	28.62328000
165.49999035	0.00000000	29.02313000
165.69999034	0.00000000	29.38607000
165.89999033	0.00000000	29.43528000
166.09999032	0.00000000	29.43528000
166.29999030	0.00000000	29.38607000
166.49999029	0.00000000	29.02313000
166.69999028	0.00000000	28.62328000
166.89999027	0.00000000	29.02313000
167.09999026	0.00000000	29.38607000
167.29999024	0.00000000	29.38607000
167.49999023	0.00000000	29.02313000
167.69999022	0.00000000	28.57406000
167.89999021	0.00000000	28.56791000
168.09999020	0.00000000	28.16806000
168.29999018	0.00000000	28.16806000
168.49999017	0.00000000	28.56791000
168.69999016	0.00000000	28.57406000
168.89999015	0.00000000	29.02313000
169.09999014	0.00000000	29.38607000
169.29999013	0.00000000	29.43528000
169.49999011	0.00000000	29.43528000
169.69999010	0.00000000	29.38607000
169.89999009	0.00000000	28.97392000
170.09999008	0.00000000	28.16806000
170.29999007	0.00000000	27.75590000
170.49999005	0.00000000	27.70669000
170.69999004	0.00000000	27.70669000
170.89999003	0.00000000	27.70669000
171.09999002	0.00000000	27.65748000
171.29999001	0.00000000	27.34375000
171.49998999	0.00000000	27.39911000
171.69998998	0.00000000	28.97392000
171.89998997	0.00000000	30.09965000
172.09998996	0.00000000	29.38607000
172.29998995	0.00000000	28.21727000
172.49998994	0.00000000	27.75590000
172.69998992	0.00000000	27.70669000
172.89998991	0.00000000	27.70669000
173.09998990	0.00000000	27.70669000
173.29998989	0.00000000	27.70669000
173.49998988	0.00000000	27.70669000
173.69998986	0.00000000	27.70669000
173.89998985	0.00000000	27.75590000
174.09998984	0.00000000	28.16806000
174.29998983	0.00000000	28.97392000
174.49998982	0.00000000	29.38607000
174.69998980	0.00000000	29.43528000
174.89998979	0.00000000	29.38607000
175.09998978	0.00000000	28.97392000
175.29998977	0.00000000	28.16806000
175.49998976	0.00000000	27.75590000
175.69998975	0.00000000	27.70669000
175.89998973	0.00000000	27.70669000
176.09998972	0.00000000	27.70669000
176.29998971	0.00000000	27.70669000
176.49998970	0.00000000	27.75590000
176.69998969	0.00000000	28.16806000
176.89998967	0.00000000	28.97392000
177.09998966	0.00000000	29.38607000
177.29998965	0.00000000	29.43528000
177.49998964	0.00000000	29.43528000
177.69998963	0.00000000	29.43528000
177.89998961	0.00000000	29.38607000
178.09998960	0.00000000	28.97392000
178.29998959	0.00000000	28.16806000
178.49998958	0.00000000	27.75590000
178.69998957	0.00000000	27.70669000
178.89998956	0.00000000	27.70669000
179.09998954	0.00000000	27.70669000
179.29998953	0.00000000	27.75590000
179.49998952	0.00000000	28.16806000
179.69998951	0.00000000	28.97392000
179.89998950	0.00000000	29.38607000
180.09998948	0.00000000	29.43528000
180.29998947	0.00000000	29.38607000
180.49998946	0.00000000	29.02313000
180.69998945	0.00000000	28.62328000
180.89998944	0.00000000	28.97392000
181.09998942	0.00000000	28.92470000
181.29998941	0.00000000	28.16806000
181.49998940	0.00000000	27.75590000
181.69998939	0.00000000	27.70669000
181.89998938	0.00000000	27.75590000
182.09998937	0.00000000	28.16806000
182.29998935	0.00000000	28.97392000
182.49998934	0.00000000	29.33686000
182.69998933	0.00000000	29.07234000
182.89998932	0.00000000	28.98622000
183.09998931	0.00000000	29.37992000
183.29998929	0.00000000	28.52485000
183.49998928	0.00000000	27.80512000
183.69998927	0.00000000	27.70669000
183.89998926	0.00000000	27.70669000
184.09998925	0.00000000	27.70669000
184.29998923	0.00000000	27.75590000
184.49998922	0.00000000	28.16806000
184.69998921	0.00000000	28.92470000
184.89998920	0.00000000	28.92470000
185.09998919	0.00000000	28.21727000
185.29998918	0.00000000	28.16806000
185.49998916	0.00000000	28.51870000
185.69998915	0.00000000	28.16806000
185.89998914	0.00000000	28.21727000
186.09998913	0.00000000	28.92470000
186.29998912	0.00000000	28.92470000
186.49998910	0.00000000	28.21727000
186.69998909	0.00000000	28.21727000
186.89998908	0.00000000	28.97392000
187.09998907	0.00000000	29.38607000
187.29998906	0.00000000	29.38607000
187.49998904	0.00000000	28.97392000
187.69998903	0.00000000	28.16806000
187.89998902	0.00000000	27.75590000
188.09998901	0.00000000	27.70669000
188.29998900	0.00000000	27.70669000
188.49998899	0.00000000	27.75590000
188.69998897	0.00000000	28.16806000
188.89998896	0.00000000	28.97392000
189.09998895	0.00000000	29.38607000
189.29998894	0.00000000	29.43528000
189.49998893	0.00000000	29.43528000
189.69998891	0.00000000	29.43528000
189.89998890	0.00000000	29.43528000
190.09998889	0.00000000	29.38607000
190.29998888	0.00000000	28.97392000
190.49998887	0.00000000	28.16806000
190.69998885	0.00000000	27.75590000
190.89998884	0.00000000	27.70669000
191.09998883	0.00000000	27.70669000
191.29998882	0.00000000	27.70669000
191.49998881	0.00000000	27.75590000
191.69998880	0.00000000	28.16806000
191.89998878	0.00000000	28.97392000
192.09998877	0.00000000	29.38607000
192.29998876	0.00000000	29.43528000
192.49998875	0.00000000	29.38607000
192.69998874	0.00000000	28.97392000
192.89998872	0.00000000	28.16806000
193.09998871	0.00000000	27.75590000
193.29998870	0.00000000	27.70669000
193.49998869	0.00000000	27.70669000
193.69998868	0.00000000	27.70669000
193.89998866	0.00000000	27.70669000
194.09998865	0.00000000	27.70669000
194.29998864	0.00000000	27.70669000
194.49998863	0.00000000	27.75590000
194.69998862	0.00000000	28.16806000
194.89998861	0.00000000	28.97392000
195.09998859	0.00000000	29.33686000
195.29998858	0.00000000	28.97392000
195.49998857	0.00000000	28.16806000
195.69998856	0.00000000	27.75590000
195.89998855	0.00000000	27.70669000
196.09998853	0.00000000	27.70669000
