Time	Channel A	Channel B	Channel C
(us)	(V)	(mV)	(mV)

-4.59999956	0.00000000	85.38385000	34.73794000
-4.39999957	0.00000000	85.38385000	34.73794000
-4.19999958	0.00000000	85.38385000	34.73794000
-3.99999959	0.00000000	85.38385000	34.73794000
-3.79999960	0.00000000	85.34079000	34.73794000
-3.59999962	0.00000000	85.05167000	34.73794000
-3.39999963	0.00000000	85.01476000	34.73794000
-3.19999964	0.00000000	85.79601000	34.73794000
-2.99999965	0.00000000	86.09129000	34.73794000
-2.79999966	0.00000000	86.17126000	34.73794000
-2.59999968	0.00000000	85.75910000	34.73794000
-2.39999969	0.00000000	85.42691000	34.73794000
-2.19999970	0.00000000	85.38385000	34.69488000
-1.99999971	0.00000000	85.38385000	34.36269000
-1.79999972	0.00000000	85.38385000	33.99360000
-1.59999973	0.00000000	85.38385000	34.36269000
-1.39999975	0.00000000	85.38385000	34.69488000
-1.19999976	0.00000000	85.38385000	34.73794000
-0.99999977	0.00000000	85.38385000	34.73794000
-0.79999978	0.00000000	85.38385000	34.73794000
-0.59999979	0.00000000	85.38385000	34.73794000
-0.39999981	0.15871060	85.38385000	34.73794000
-0.19999982	0.47736220	85.38385000	34.73794000
0.00000017	0.79601380	85.38385000	34.73794000
0.20000016	0.95533960	85.38385000	34.73794000
0.40000015	0.95533960	85.38385000	34.73794000
0.60000013	0.47736220	85.38385000	34.73794000
0.80000012	-0.15871060	85.38385000	34.73794000
1.00000011	-1.11466500	85.38385000	34.73794000
1.20000010	-2.07062000	85.38385000	34.73794000
1.40000009	-2.70792300	85.42691000	34.73794000
1.60000008	-2.70792300	85.75910000	34.73794000
1.80000006	-1.75196900	86.12819000	34.78100000
2.00000005	-0.15871060	85.75910000	35.11319000
2.20000004	1.91129400	85.47613000	35.51919000
2.40000003	3.98191400	85.75910000	35.48228000
2.60000002	5.09719500	86.12819000	35.51919000
2.80000000	5.25652100	85.75910000	35.11319000
2.99999999	3.82258900	85.42691000	34.78100000
3.19999998	1.11466500	85.38385000	34.73794000
3.39999997	-2.22994600	85.38385000	34.73794000
3.59999996	-5.41584600	85.38385000	34.78100000
3.79999994	-7.64579200	85.38385000	35.15625000
3.99999993	-7.80511800	85.42691000	35.89444000
4.19999992	-6.21247500	85.80216000	36.26968000
4.39999991	-2.54859700	86.49728000	36.31274000
4.59999990	1.75196900	86.49728000	36.26968000
4.79999989	5.89382400	85.80216000	35.89444000
4.99999987	8.76107300	85.42691000	35.15625000
5.19999986	9.39837600	85.38385000	34.78100000
5.39999985	7.80511800	85.42691000	34.73794000
5.59999984	3.98191400	85.80216000	34.73794000
5.79999983	-0.63668800	86.49728000	34.73794000
5.99999981	-5.25652100	86.54650000	34.73794000
6.19999980	-8.44242100	86.17741000	34.73794000
6.39999979	-9.39837600	86.21432000	34.78100000
6.59999978	-8.12377000	86.17741000	35.15625000
6.79999977	-4.77854300	86.54650000	35.89444000
6.99999975	-0.63668800	86.54650000	36.22047000
7.19999974	3.50393700	86.17741000	35.89444000
7.39999973	6.53112700	86.17126000	35.15625000
7.59999972	7.80511800	85.75910000	34.78100000
7.79999971	7.00848900	85.42691000	34.73794000
7.99999970	4.61921700	85.38385000	34.73794000
8.19999968	1.43331700	85.38385000	34.73794000
8.39999967	-1.75196900	85.38385000	34.73794000
8.59999966	-4.14124000	85.38385000	34.73794000
8.79999965	-5.09719500	85.38385000	34.73794000
8.99999964	-4.77854300	85.38385000	34.73794000
9.19999962	-3.34522600	85.38385000	34.73794000
9.39999961	-1.43331700	85.38385000	34.73794000
9.59999960	0.47736220	85.38385000	34.73794000
9.79999959	1.91129400	85.38385000	34.73794000
9.99999958	2.54859700	85.38385000	34.73794000
10.19999956	2.38927200	85.38385000	34.73794000
10.39999955	1.75196900	85.38385000	34.73794000
10.59999954	0.79601380	85.38385000	34.73794000
10.79999953	0.00000000	85.38385000	34.73794000
10.99999952	-0.63668800	85.38385000	34.73794000
11.19999951	-0.95533960	85.38385000	34.73794000
11.39999949	-0.95533960	85.38385000	34.73794000
11.59999948	-0.79601380	85.38385000	34.73794000
11.79999947	-0.47736220	85.38385000	34.73794000
11.99999946	-0.31803640	85.38385000	34.73794000
12.19999945	-0.15871060	85.38385000	34.73794000
12.39999943	0.00000000	85.42691000	34.78100000
12.59999942	0.00000000	85.75910000	35.06397000
12.79999941	0.00000000	86.12819000	35.10088000
12.99999940	0.00000000	85.75910000	34.36884000
13.19999939	0.15871060	85.42691000	34.40575000
13.39999937	0.00000000	85.38385000	34.69488000
13.59999936	0.00000000	85.38385000	34.73794000
13.79999935	0.00000000	85.38385000	34.73794000
13.99999934	0.00000000	85.38385000	34.73794000
14.19999933	-0.15871060	85.42691000	34.73794000
14.39999932	-0.15871060	85.80216000	34.73794000
14.59999930	0.00000000	86.49728000	34.73794000
14.79999929	0.00000000	86.49728000	34.73794000
14.99999928	0.00000000	85.80216000	34.73794000
15.19999927	0.00000000	85.42691000	34.73794000
15.39999926	0.00000000	85.38385000	34.73794000
15.59999924	0.00000000	85.38385000	34.69488000
15.79999923	0.00000000	85.38385000	34.36269000
15.99999922	0.00000000	85.38385000	33.99360000
16.19999921	0.00000000	85.38385000	34.36269000
16.39999920	0.00000000	85.42691000	34.69488000
16.59999919	0.00000000	85.80216000	34.73794000
16.79999917	0.00000000	86.54650000	34.73794000
16.99999916	0.00000000	86.92175000	34.73794000
17.19999915	0.00000000	87.00787000	34.73794000
17.39999914	0.00000000	87.38312000	34.73794000
17.59999913	0.00000000	88.07824000	34.73794000
17.79999911	0.00000000	88.07824000	34.73794000
17.99999910	0.00000000	87.29700000	34.73794000
18.19999909	0.00000000	86.12819000	34.73794000
18.39999908	0.00000000	84.17815000	34.73794000
18.59999907	0.00000000	82.31422000	34.73794000
18.79999905	0.00000000	81.10851000	34.73794000
18.99999904	-0.15871060	80.77632000	34.73794000
19.19999903	0.00000000	81.56988000	34.73794000
19.39999902	0.00000000	83.93823000	34.73794000
19.59999901	0.00000000	87.38312000	34.73794000
19.79999900	0.00000000	91.28937000	34.73794000
19.99999898	0.00000000	94.77731000	34.73794000
20.19999897	0.00000000	97.43479000	34.73794000
20.39999896	0.00000000	98.08070000	34.73794000
20.59999895	0.00000000	95.34325000	34.78100000
20.79999894	0.00000000	89.57307000	35.11319000
20.99999892	0.00000000	82.22194000	35.47613000
21.19999891	0.00000000	74.82775000	35.11319000
21.39999890	0.00000000	68.68233000	34.78100000
21.59999889	0.00000000	65.28666000	34.73794000
21.79999888	0.00000000	66.57849000	34.73794000
21.99999886	0.00000000	73.14838000	34.73794000
22.19999885	0.00000000	84.03050000	34.73794000
22.39999884	0.00000000	96.73966000	34.73794000
22.59999883	0.00000000	108.73520000	34.73794000
22.79999882	0.00000000	116.74460000	34.73794000
22.99999881	0.00000000	118.60240000	34.78100000
23.19999879	0.00000000	112.70300000	35.15625000
23.39999878	0.00000000	99.58169000	35.89444000
23.59999877	0.00000000	82.17889000	36.26968000
23.79999876	0.00000000	64.40083000	36.31274000
23.99999875	0.00000000	50.15994000	36.26968000
24.19999873	0.00000000	43.27633000	35.89444000
24.39999872	0.00000000	46.06299000	35.06397000
24.59999871	0.00000000	58.48917000	33.90133000
24.79999870	0.00000000	78.58636000	31.95128000
24.99999869	0.00000000	101.66710000	30.08735000
25.19999867	0.00000000	121.77040000	28.93085000
25.39999866	0.00000000	134.10430000	28.93085000
25.59999865	0.00000000	136.00520000	30.08735000
25.79999864	0.00000000	126.28570000	32.08661000
25.99999863	0.00000000	107.01890000	35.19931000
26.19999862	0.00000000	82.64025000	39.05635000
26.39999860	0.00000000	58.72293000	42.54429000
26.59999859	0.00000000	40.57579000	45.18947000
26.79999858	0.00000000	32.84941000	45.88459000
26.99999857	0.00000000	37.08169000	43.52239000
27.19999856	0.00000000	52.16535000	38.50270000
27.39999854	0.00000000	74.91387000	31.48991000
27.59999853	0.00000000	99.62475000	23.81890000
27.79999852	0.00000000	120.51550000	17.26747000
27.99999851	0.00000000	133.31080000	13.87180000
28.19999850	0.00000000	135.26700000	14.66535000
28.39999848	0.00000000	126.37790000	20.09719000
28.59999847	0.00000000	108.64300000	29.06619000
28.79999846	0.00000000	86.31274000	40.26821000
28.99999845	0.00000000	65.46505000	51.82701000
29.19999844	0.00000000	50.62746000	60.24852000
29.39999843	0.00000000	43.97145000	63.73031000
29.59999841	0.00000000	45.88459000	60.90059000
29.79999840	0.00000000	55.93627000	51.64862000
29.99999839	0.00000000	71.75196000	37.75836000
30.19999838	0.00000000	89.53001000	22.69931000
30.39999837	0.00000000	105.39490000	9.51033400
30.59999835	0.00000000	115.90800000	0.68282480
30.79999834	0.00000000	119.44510000	-1.55019700
30.99999833	0.00000000	116.04330000	4.25688900
31.19999832	0.00000000	106.74210000	16.98450000
31.39999831	0.00000000	94.03297000	33.61835000
31.59999829	0.00000000	80.45644000	50.99655000
31.79999828	0.00000000	69.23597000	65.26205000
31.99999827	0.00000000	62.16781000	73.02534000
32.19999826	0.00000000	60.25467000	73.02534000
32.39999825	0.00000000	63.70570000	65.26205000
32.59999824	0.00000000	71.79503000	50.95349000
32.79999822	0.00000000	82.22194000	33.24926000
32.99999821	0.00000000	92.69193000	16.19710000
33.19999820	0.00000000	101.20570000	3.46333600
33.39999819	0.00000000	105.86240000	-2.74975400
33.59999818	0.00000000	105.86240000	-0.80585630
33.79999816	0.00000000	101.29800000	8.39689900
33.99999815	0.00000000	93.62081000	22.74852000
34.19999814	0.00000000	85.47613000	39.33932000
34.39999813	0.00000000	78.07578000	54.81053000
34.59999812	0.00000000	72.77312000	65.63730000
34.79999810	0.00000000	71.56742000	69.86343000
34.99999809	0.00000000	74.58784000	66.42470000
35.19999808	0.00000000	79.94585000	56.02239000
35.39999807	0.00000000	86.54650000	41.79380000
35.59999806	0.00000000	92.64271000	26.69783000
35.79999805	0.00000000	96.49975000	14.38238000
35.99999803	0.00000000	96.92421000	7.41264700
36.19999802	0.00000000	94.31594000	7.41264700
36.39999801	0.00000000	90.08366000	14.24705000
36.59999800	0.00000000	85.42691000	25.39985000
36.79999799	0.00000000	81.15157000	37.75836000
36.99999797	0.00000000	78.12499000	48.91117000
37.19999796	0.00000000	77.33759000	55.78863000
37.39999795	0.00000000	79.28764000	56.25000000
37.59999794	0.00000000	83.10777000	50.90428000
37.79999793	0.00000000	88.12745000	41.70152000
37.99999791	0.00000000	92.69193000	30.97318000
38.19999790	0.00000000	95.42937000	22.18873000
38.39999789	0.00000000	95.85383000	17.91339000
38.59999788	0.00000000	94.31594000	19.06988000
38.79999787	0.00000000	91.19709000	25.16609000
38.99999786	0.00000000	86.96481000	34.36269000
39.19999784	0.00000000	82.68947000	43.52239000
39.39999783	0.00000000	79.19537000	50.06767000
39.59999782	0.00000000	76.87007000	51.93159000
39.79999781	0.00000000	76.49483000	48.49286000
39.99999780	0.00000000	78.03272000	40.45890000
40.19999778	0.00000000	81.10851000	30.51181000
40.39999777	0.00000000	85.00861000	21.67815000
40.59999776	0.00000000	88.92101000	16.28937000
40.79999775	0.00000000	92.77805000	15.91412000
40.99999774	0.00000000	95.42937000	20.52165000
41.19999772	0.00000000	95.85383000	28.97392000
41.39999771	0.00000000	94.35899000	38.92101000
41.59999770	0.00000000	91.61539000	47.37327000
41.79999769	0.00000000	88.07824000	52.02386000
41.99999768	0.00000000	83.84596000	52.06693000
42.19999767	0.00000000	79.98892000	47.84079000
42.39999765	0.00000000	77.70669000	40.54502000
42.59999764	0.00000000	77.24532000	32.08661000
42.79999763	0.00000000	78.77706000	24.79084000
42.99999762	0.00000000	81.05930000	20.47244000
43.19999761	0.00000000	83.80289000	19.67889000
43.39999759	0.00000000	86.49728000	22.01033000
43.59999758	0.00000000	88.45349000	27.34990000
43.79999757	0.00000000	89.65919000	33.85211000
43.99999756	0.00000000	90.03444000	39.24704000
44.19999755	0.00000000	89.70841000	42.77190000
44.39999753	0.00000000	88.96407000	43.56545000
44.59999752	0.00000000	88.58882000	42.11983000
44.79999751	0.00000000	88.54576000	39.38238000
44.99999750	0.00000000	88.50270000	35.89444000
45.19999749	0.00000000	88.07824000	32.04355000
45.39999748	0.00000000	86.92175000	29.01698000
45.59999746	0.00000000	85.34079000	27.81127000
45.79999745	0.00000000	83.33538000	28.51255000
45.99999744	0.00000000	80.64099000	30.04429000
46.19999743	0.00000000	77.98966000	32.04355000
46.39999742	0.00000000	76.49483000	34.68873000
46.59999740	0.00000000	76.96235000	37.01402000
46.79999739	0.00000000	80.08120000	38.22588000
46.99999738	0.00000000	85.47613000	39.00713000
47.19999737	0.00000000	91.61539000	38.92101000
47.39999736	0.00000000	97.10260000	37.43233000
47.59999734	0.00000000	100.88580000	35.15625000
47.79999733	0.00000000	101.99310000	33.20005000
47.99999732	0.00000000	98.88040000	31.62524000
48.19999731	0.00000000	92.73499000	30.51181000
48.39999730	0.00000000	84.91634000	30.51181000
48.59999729	0.00000000	76.45177000	31.66830000
48.79999727	0.00000000	69.61121000	33.61835000
48.99999726	0.00000000	66.91068000	36.36196000
49.19999725	0.00000000	69.19291000	39.38238000
49.39999724	0.00000000	75.38139000	41.70152000
49.59999723	0.00000000	84.31348000	42.45201000
49.79999721	0.00000000	94.27287000	41.70152000
49.99999720	0.00000000	102.36830000	39.33932000
50.19999719	0.00000000	106.23150000	35.89444000
50.39999718	0.00000000	105.43800000	32.04355000
50.59999717	0.00000000	99.66781000	28.97392000
50.79999715	0.00000000	90.50197000	27.43602000
50.99999714	0.00000000	81.23769000	27.81127000
51.19999713	0.00000000	73.84350000	30.13656000
51.39999712	0.00000000	69.65427000	33.57529000
51.59999711	0.00000000	70.02953000	37.47539000
51.79999710	0.00000000	75.00614000	40.92027000
51.99999708	0.00000000	82.68947000	43.23941000
52.19999707	0.00000000	91.15402000	43.61467000
52.39999706	0.00000000	98.03764000	42.07677000
52.59999705	0.00000000	101.16260000	39.00713000
52.79999704	0.00000000	100.04310000	35.15625000
52.99999702	0.00000000	95.43552000	31.66830000
53.19999701	0.00000000	88.50270000	28.93085000
53.39999700	0.00000000	81.23769000	27.43602000
53.59999699	0.00000000	75.84891000	27.81127000
53.79999698	0.00000000	73.89271000	30.08735000
53.99999696	0.00000000	75.42445000	33.11393000
54.19999695	0.00000000	80.03198000	35.85138000
54.39999694	0.00000000	86.54650000	37.75836000
54.59999693	0.00000000	92.64271000	38.54576000
54.79999692	0.00000000	96.49975000	37.75836000
54.99999691	0.00000000	96.96727000	35.89444000
55.19999689	0.00000000	94.69118000	33.61835000
55.39999688	0.00000000	90.77879000	32.12967000
55.59999687	0.00000000	85.38385000	32.08661000
55.79999686	0.00000000	80.08120000	33.20005000
55.99999685	0.00000000	76.96235000	34.73794000
56.19999683	0.00000000	76.54404000	36.26968000
56.39999682	0.00000000	78.50024000	37.38312000
56.59999681	0.00000000	82.68947000	37.34006000
56.79999680	0.00000000	87.65993000	35.80217000
56.99999679	0.00000000	91.52927000	33.11393000
57.19999677	0.00000000	93.89764000	30.04429000
57.39999676	0.00000000	94.27287000	27.39296000
57.59999675	0.00000000	92.73499000	26.27953000
57.79999674	0.00000000	89.65919000	27.48524000
57.99999673	0.00000000	85.85137000	30.93012000
58.19999672	0.00000000	82.77559000	35.94365000
58.39999670	0.00000000	81.15157000	40.87721000
58.59999669	0.00000000	80.77632000	44.35285000
58.79999668	0.00000000	81.52682000	45.14640000
58.99999667	0.00000000	83.47071000	43.61467000
59.19999666	0.00000000	85.75910000	40.03444000
59.39999664	0.00000000	88.07824000	34.27042000
59.59999663	0.00000000	89.57307000	27.76821000
59.79999662	0.00000000	89.61613000	22.79158000
59.99999661	0.00000000	88.54576000	20.47244000
60.19999660	0.00000000	87.38312000	21.67815000
60.39999658	0.00000000	86.58956000	26.27953000
60.59999657	0.00000000	85.75910000	33.20620000
60.79999656	0.00000000	85.05167000	40.54502000
60.99999655	0.00000000	84.68873000	46.67815000
61.19999654	0.00000000	85.42691000	50.11687000
61.39999653	0.00000000	86.54650000	49.37254000
61.59999651	0.00000000	87.29700000	45.14640000
61.79999650	0.00000000	87.70914000	38.59498000
61.99999649	0.00000000	87.24778000	30.83784000
62.19999648	0.00000000	86.21432000	23.95423000
62.39999647	0.00000000	85.01476000	19.30979000
62.59999645	0.00000000	84.63336000	18.60851000
62.79999644	0.00000000	84.22120000	22.01033000
62.99999643	0.00000000	84.31348000	28.55561000
63.19999642	0.00000000	85.42691000	36.22662000
63.39999641	0.00000000	86.96481000	43.23941000
63.59999639	0.00000000	88.50270000	48.25910000
63.79999638	0.00000000	89.65919000	50.53518000
63.99999637	0.00000000	90.03444000	49.00344000
64.19999636	0.00000000	89.65919000	44.07603000
64.39999635	0.00000000	88.50270000	37.89370000
64.59999634	0.00000000	86.96481000	31.66830000
64.79999632	0.00000000	85.42691000	26.27953000
64.99999631	0.00000000	84.27042000	23.16683000
65.19999630	0.00000000	83.89517000	22.74852000
65.39999629	0.00000000	84.27042000	24.65551000
65.59999628	0.00000000	85.42691000	28.51255000
65.79999626	0.00000000	86.92175000	33.15699000
65.99999625	0.00000000	88.07824000	37.80142000
66.19999624	0.00000000	88.45349000	41.70152000
66.39999623	0.00000000	88.12745000	44.03297000
66.59999622	0.00000000	87.34005000	44.86343000
66.79999620	0.00000000	86.54650000	44.07603000
66.99999619	0.00000000	85.38385000	42.11983000
67.19999618	0.00000000	84.31348000	39.05635000
67.39999617	0.00000000	84.31348000	35.57455000
67.59999616	0.00000000	85.47613000	32.78174000
67.79999615	0.00000000	87.38312000	30.04429000
67.99999613	0.00000000	89.70841000	27.72515000
68.19999612	0.00000000	91.57234000	26.55635000
68.39999611	0.00000000	92.31667000	26.19340000
68.59999610	0.00000000	91.15402000	27.39296000
68.79999609	0.00000000	88.45349000	30.08735000
68.99999607	0.00000000	84.96555000	33.62450000
69.19999606	0.00000000	81.15157000	37.89370000
69.39999605	0.00000000	78.45103000	42.11983000
69.59999604	0.00000000	77.65748000	45.18947000
69.79999603	0.00000000	78.45103000	46.35211000
69.99999601	0.00000000	81.23769000	45.14640000
70.19999600	0.00000000	85.85137000	41.70152000
70.39999599	0.00000000	91.19709000	36.68799000
70.59999598	0.00000000	95.42937000	31.66830000
70.79999597	0.00000000	97.43479000	27.34990000
70.99999596	0.00000000	97.38557000	24.28026000
71.19999594	0.00000000	95.01106000	23.16683000
71.39999593	0.00000000	90.03444000	24.69857000
71.59999592	0.00000000	84.27042000	28.55561000
71.79999591	0.00000000	79.19537000	33.53223000
71.99999590	0.00000000	75.33833000	38.54576000
72.19999588	0.00000000	73.84350000	41.99065000
72.39999587	0.00000000	75.33833000	43.23941000
72.59999586	0.00000000	79.19537000	42.45201000
72.79999585	0.00000000	84.22120000	40.16978000
72.99999584	0.00000000	89.65919000	36.73105000
73.19999582	0.00000000	94.27287000	33.66756000
73.39999581	0.00000000	96.96727000	31.66830000
73.59999580	0.00000000	97.01033000	30.51181000
73.79999579	0.00000000	94.69118000	30.51181000
73.99999578	0.00000000	90.82184000	31.62524000
74.19999577	0.00000000	85.85137000	33.11393000
74.39999575	0.00000000	81.61294000	34.27042000
74.59999574	0.00000000	79.23843000	34.64567000
74.79999573	0.00000000	78.40797000	34.27042000
74.99999572	0.00000000	79.19537000	33.15699000
75.19999571	0.00000000	81.10851000	32.04355000
75.39999569	0.00000000	83.84596000	31.66830000
75.59999568	0.00000000	86.92175000	32.08661000
75.79999567	0.00000000	89.61613000	33.66756000
75.99999566	0.00000000	91.15402000	36.36196000
76.19999565	0.00000000	91.19709000	39.38238000
76.39999563	0.00000000	90.08366000	41.65846000
76.59999562	0.00000000	88.54576000	42.03371000
76.79999561	0.00000000	87.05708000	40.45275000
76.99999560	0.00000000	86.22047000	36.96481000
77.19999559	0.00000000	86.17126000	32.04355000
77.39999558	0.00000000	85.80216000	27.81127000
77.59999556	0.00000000	85.80216000	25.39985000
77.79999555	0.00000000	86.12819000	24.28026000
77.99999554	0.00000000	85.71604000	25.12303000
78.19999553	0.00000000	85.00861000	28.59867000
78.39999552	0.00000000	84.22120000	33.57529000
78.59999550	0.00000000	83.89517000	39.00713000
78.79999549	0.00000000	84.27042000	43.61467000
78.99999548	0.00000000	85.42691000	46.30290000
79.19999547	0.00000000	86.96481000	46.30290000
79.39999546	0.00000000	88.54576000	43.65773000
79.59999544	0.00000000	90.08366000	39.43159000
79.79999543	0.00000000	91.24016000	34.73794000
79.99999542	0.00000000	91.57234000	30.09350000
80.19999541	0.00000000	90.77879000	26.27953000
80.39999540	0.00000000	88.45349000	24.70472000
80.59999539	0.00000000	85.42691000	25.44291000
80.79999537	0.00000000	82.73252000	27.76821000
80.99999536	0.00000000	81.19463000	31.61909000
81.19999535	0.00000000	81.15157000	35.85138000
81.39999534	0.00000000	82.31422000	39.38238000
81.59999533	0.00000000	84.27042000	42.11983000
81.79999531	0.00000000	86.96481000	43.65773000
81.99999530	0.00000000	89.65919000	43.70079000
82.19999529	0.00000000	91.57234000	42.54429000
82.39999528	0.00000000	92.35974000	40.54502000
82.59999527	0.00000000	91.61539000	37.47539000
82.79999525	0.00000000	90.08366000	33.99360000
82.99999524	0.00000000	88.12745000	31.25000000
83.19999523	0.00000000	85.85137000	28.88164000
83.39999522	0.00000000	84.31348000	27.39296000
83.59999521	0.00000000	83.89517000	27.34990000
83.79999520	0.00000000	84.22120000	28.51255000
83.99999518	0.00000000	85.00861000	30.51181000
84.19999517	0.00000000	85.75910000	33.62450000
84.39999516	0.00000000	86.54650000	37.47539000
84.59999515	0.00000000	86.92175000	40.92027000
84.79999514	0.00000000	86.96481000	43.23941000
84.99999512	0.00000000	86.96481000	43.61467000
85.19999511	0.00000000	87.00787000	42.11983000
85.39999510	0.00000000	87.38312000	39.38238000
85.59999509	0.00000000	88.12745000	35.85138000
85.79999508	0.00000000	88.50270000	31.57603000
85.99999506	0.00000000	88.50270000	27.39296000
86.19999505	0.00000000	88.12745000	24.74778000
86.39999504	0.00000000	87.34005000	24.69857000
86.59999503	0.00000000	86.54650000	27.01772000
86.79999502	0.00000000	85.38385000	30.88090000
86.99999501	0.00000000	84.27042000	35.89444000
87.19999499	0.00000000	83.84596000	40.50196000
87.39999498	0.00000000	83.84596000	43.61467000
87.59999497	0.00000000	84.27042000	44.72810000
87.79999496	0.00000000	85.42691000	43.19635000
87.99999495	0.00000000	86.96481000	39.33932000
88.19999493	0.00000000	88.50270000	34.36269000
88.39999492	0.00000000	89.65919000	29.34916000
88.59999491	0.00000000	90.03444000	25.90428000
88.79999490	0.00000000	89.61613000	24.70472000
88.99999489	0.00000000	88.12745000	25.86122000
89.19999487	0.00000000	86.22047000	28.97392000
89.39999486	0.00000000	85.05167000	33.62450000
89.59999485	0.00000000	84.22120000	38.96407000
89.79999484	0.00000000	83.89517000	43.14714000
89.99999483	0.00000000	84.27042000	44.68504000
90.19999482	0.00000000	85.38385000	43.19635000
90.39999480	0.00000000	86.54650000	39.38238000
90.59999479	0.00000000	87.34005000	34.73794000
90.79999478	0.00000000	88.12745000	30.09350000
90.99999477	0.00000000	88.45349000	26.27953000
91.19999476	0.00000000	88.12745000	24.79084000
91.39999474	0.00000000	87.38312000	26.27953000
91.59999473	0.00000000	87.00787000	30.09350000
91.79999472	0.00000000	86.96481000	34.73794000
91.99999471	0.00000000	86.96481000	39.33932000
92.19999470	0.00000000	87.00787000	42.82111000
92.39999468	0.00000000	87.34005000	43.94069000
92.59999467	0.00000000	87.65993000	42.77190000
92.79999466	0.00000000	86.92175000	38.92101000
92.99999465	0.00000000	85.80216000	33.62450000
93.19999464	0.00000000	84.96555000	29.01698000
93.39999463	0.00000000	83.84596000	26.27953000
93.59999461	0.00000000	83.15083000	25.90428000
93.79999460	0.00000000	83.89517000	27.81127000
93.99999459	0.00000000	85.38385000	31.66830000
94.19999458	0.00000000	87.00787000	36.22662000
94.39999457	0.00000000	88.92101000	40.12672000
94.59999455	0.00000000	90.82184000	42.40895000
94.79999454	0.00000000	91.61539000	42.82111000
94.99999453	0.00000000	91.61539000	40.87721000
95.19999452	0.00000000	90.77879000	37.47539000
95.39999451	0.00000000	88.45349000	33.62450000
95.59999449	0.00000000	85.42691000	30.55487000
95.79999448	0.00000000	82.68947000	28.97392000
95.99999447	0.00000000	80.77632000	29.01698000
96.19999446	0.00000000	80.03198000	30.93012000
96.39999445	0.00000000	81.19463000	34.31963000
96.59999444	0.00000000	83.84596000	37.38312000
96.79999442	0.00000000	87.00787000	39.38238000
96.99999441	0.00000000	90.50197000	40.54502000
97.19999440	0.00000000	93.94069000	40.50196000
97.39999439	0.00000000	95.85383000	39.00713000
97.59999438	0.00000000	95.89690000	36.68799000
97.79999436	0.00000000	94.31594000	34.40575000
97.99999435	0.00000000	91.24016000	32.50492000
98.19999434	0.00000000	87.38312000	32.08661000
98.39999433	0.00000000	83.84596000	32.78174000
98.59999432	0.00000000	80.73326000	33.53223000
98.79999430	0.00000000	78.50024000	34.36269000
98.99999429	0.00000000	78.50024000	35.11319000
99.19999428	0.00000000	80.77632000	35.89444000
99.39999427	0.00000000	84.22120000	36.26968000
99.59999426	0.00000000	88.12745000	36.31274000
99.79999425	0.00000000	91.57234000	36.35580000
99.99999423	0.00000000	93.94069000	36.73105000
100.19999422	0.00000000	94.69118000	37.47539000
100.39999421	0.00000000	93.94069000	37.80142000
100.59999420	0.00000000	91.66460000	37.47539000
100.79999419	0.00000000	88.96407000	36.68799000
100.99999417	0.00000000	86.54650000	35.85138000
101.19999416	0.00000000	83.84596000	34.27042000
101.39999415	0.00000000	81.56988000	32.04355000
101.59999414	0.00000000	80.77632000	30.46260000
101.79999413	0.00000000	81.15157000	29.71826000
101.99999411	0.00000000	82.68947000	29.72441000
102.19999410	0.00000000	85.00861000	31.29306000
102.39999409	0.00000000	87.29700000	33.57529000
102.59999408	0.00000000	89.29010000	36.31274000
102.79999407	0.00000000	90.45890000	38.96407000
102.99999406	0.00000000	91.24016000	40.50196000
103.19999404	0.00000000	91.19709000	40.50196000
103.39999403	0.00000000	90.03444000	38.96407000
103.59999402	0.00000000	88.12745000	36.26968000
103.79999401	0.00000000	85.80216000	33.15699000
103.99999400	0.00000000	83.89517000	30.08735000
104.19999398	0.00000000	82.73252000	27.81127000
104.39999397	0.00000000	82.68947000	27.43602000
104.59999396	0.00000000	83.42766000	28.93085000
104.79999395	0.00000000	84.22120000	31.62524000
104.99999394	0.00000000	85.42691000	34.68873000
105.19999392	0.00000000	86.96481000	37.38312000
105.39999391	0.00000000	88.50270000	38.96407000
105.59999390	0.00000000	89.61613000	39.33932000
105.79999389	0.00000000	89.61613000	38.54576000
105.99999388	0.00000000	88.50270000	36.26968000
106.19999387	0.00000000	87.00787000	33.61835000
106.39999385	0.00000000	85.80216000	31.66830000
106.59999384	0.00000000	85.05167000	30.51181000
106.79999383	0.00000000	84.68873000	30.51181000
106.99999382	0.00000000	85.42691000	31.66830000
107.19999381	0.00000000	86.54650000	33.57529000
107.39999379	0.00000000	87.34005000	35.89444000
107.59999378	0.00000000	88.12745000	37.75836000
107.79999377	0.00000000	88.50270000	38.54576000
107.99999376	0.00000000	88.50270000	37.80142000
108.19999375	0.00000000	88.07824000	36.31274000
108.39999374	0.00000000	86.96481000	34.73794000
108.59999372	0.00000000	85.80216000	33.20005000
108.79999371	0.00000000	85.00861000	32.04355000
108.99999370	0.00000000	84.27042000	31.66830000
109.19999369	0.00000000	84.31348000	32.04355000
109.39999368	0.00000000	85.42691000	33.24926000
109.59999366	0.00000000	86.96481000	35.15625000
109.79999365	0.00000000	88.50270000	37.43233000
109.99999364	0.00000000	89.61613000	38.96407000
110.19999363	0.00000000	89.65919000	39.38238000
110.39999362	0.00000000	88.92101000	38.96407000
110.59999360	0.00000000	88.17052000	37.43233000
110.79999359	0.00000000	87.34005000	35.19931000
110.99999358	0.00000000	86.58956000	33.62450000
111.19999357	0.00000000	85.80216000	32.78174000
111.39999356	0.00000000	85.42691000	32.04355000
111.59999355	0.00000000	85.42691000	32.08661000
111.79999353	0.00000000	85.80216000	33.15699000
111.99999352	0.00000000	86.58956000	34.31963000
112.19999351	0.00000000	87.34005000	35.15625000
112.39999350	0.00000000	88.12745000	36.26968000
112.59999349	0.00000000	88.50270000	37.00787000
112.79999347	0.00000000	88.54576000	36.68799000
112.99999346	0.00000000	88.50270000	36.35580000
113.19999345	0.00000000	88.17052000	36.26968000
113.39999344	0.00000000	87.75835000	35.89444000
113.59999343	0.00000000	87.75221000	35.15625000
113.79999341	0.00000000	87.34005000	34.78100000
113.99999340	0.00000000	87.00787000	34.73794000
114.19999339	0.00000000	86.96481000	34.69488000
114.39999338	0.00000000	86.96481000	34.31963000
114.59999337	0.00000000	86.96481000	33.57529000
114.79999336	0.00000000	86.96481000	33.20005000
114.99999334	0.00000000	86.96481000	33.15699000
115.19999333	0.00000000	86.96481000	33.15699000
115.39999332	0.00000000	86.96481000	33.20005000
115.59999331	0.00000000	86.96481000	33.62450000
115.79999330	0.00000000	86.96481000	34.73794000
115.99999328	0.00000000	86.96481000	35.85138000
116.19999327	0.00000000	86.96481000	36.26968000
116.39999326	0.00000000	86.92175000	36.31274000
116.59999325	0.00000000	86.58956000	36.31274000
116.79999324	0.00000000	86.22047000	36.26968000
116.99999322	0.00000000	86.58956000	35.85138000
117.19999321	0.00000000	86.92175000	34.73794000
117.39999320	0.00000000	87.00787000	33.57529000
117.59999319	0.00000000	87.38312000	32.82480000
117.79999318	0.00000000	88.12745000	32.36959000
117.99999317	0.00000000	88.50270000	32.40649000
118.19999315	0.00000000	88.54576000	32.41265000
118.39999314	0.00000000	88.50270000	33.20005000
118.59999313	0.00000000	88.07824000	34.31963000
118.79999312	0.00000000	86.96481000	35.11319000
118.99999311	0.00000000	85.80216000	35.89444000
119.19999309	0.00000000	85.00861000	36.26968000
119.39999308	0.00000000	84.27042000	36.31274000
119.59999307	0.00000000	84.27042000	36.26968000
119.79999306	0.00000000	85.00861000	35.89444000
119.99999305	0.00000000	85.80216000	35.11319000
120.19999303	0.00000000	86.96481000	34.36269000
120.39999302	0.00000000	88.12745000	33.57529000
120.59999301	0.00000000	88.92101000	33.20005000
120.79999300	0.00000000	89.65919000	33.15699000
120.99999299	0.00000000	89.61613000	33.15699000
121.19999298	0.00000000	88.54576000	33.15699000
121.39999296	0.00000000	87.38312000	33.15699000
121.59999295	0.00000000	86.54650000	33.20005000
121.79999294	0.00000000	85.38385000	33.57529000
121.99999293	0.00000000	84.27042000	34.31963000
122.19999292	0.00000000	83.89517000	34.73794000
122.39999290	0.00000000	84.27042000	35.15625000
122.59999289	0.00000000	85.42691000	35.89444000
122.79999288	0.00000000	86.92175000	36.26968000
122.99999287	0.00000000	88.12745000	36.31274000
123.19999286	0.00000000	88.92101000	36.26968000
123.39999284	0.00000000	89.70841000	35.89444000
123.59999283	0.00000000	90.08366000	35.15625000
123.79999282	0.00000000	90.08366000	34.73794000
123.99999281	0.00000000	89.65919000	34.31963000
124.19999280	0.00000000	88.54576000	33.57529000
124.39999279	0.00000000	87.38312000	33.20005000
124.59999277	0.00000000	86.58956000	33.20005000
124.79999276	0.00000000	85.75910000	33.57529000
124.99999275	0.00000000	85.05167000	34.36269000
125.19999274	0.00000000	84.63951000	35.11319000
125.39999273	0.00000000	85.05167000	35.89444000
125.59999271	0.00000000	85.75910000	36.26968000
125.79999270	0.00000000	86.58956000	36.31274000
125.99999269	0.00000000	87.38312000	36.31274000
126.19999268	0.00000000	88.54576000	36.31274000
126.39999267	0.00000000	89.65919000	36.31274000
126.59999265	0.00000000	90.03444000	36.26968000
126.79999264	0.00000000	89.70841000	35.89444000
126.99999263	0.00000000	88.92101000	35.15625000
127.19999262	0.00000000	88.12745000	34.78100000
127.39999261	0.00000000	86.96481000	34.73794000
127.59999260	0.00000000	85.85137000	34.73794000
127.79999258	0.00000000	85.42691000	34.73794000
127.99999257	0.00000000	85.42691000	34.78100000
128.19999256	0.00000000	85.80216000	35.15625000
128.39999255	0.00000000	86.58956000	35.89444000
128.59999254	0.00000000	87.38312000	36.26968000
128.79999252	0.00000000	88.54576000	36.31274000
128.99999251	0.00000000	89.65919000	36.31274000
129.19999250	0.00000000	90.03444000	36.26968000
129.39999249	0.00000000	89.65919000	35.89444000
129.59999248	0.00000000	88.54576000	35.15625000
129.79999246	0.00000000	87.38312000	34.78100000
129.99999245	0.00000000	86.58956000	34.73794000
130.19999244	0.00000000	85.80216000	34.73794000
130.39999243	0.00000000	85.47613000	34.73794000
130.59999242	0.00000000	85.80216000	34.78100000
130.79999241	0.00000000	86.58956000	35.15625000
130.99999239	0.00000000	87.34005000	35.85138000
131.19999238	0.00000000	88.12745000	35.85138000
131.39999237	0.00000000	88.50270000	35.15625000
131.59999236	0.00000000	88.54576000	34.73794000
131.79999235	0.00000000	88.54576000	34.31963000
131.99999233	0.00000000	88.50270000	33.57529000
132.19999232	0.00000000	88.12745000	33.20005000
132.39999231	0.00000000	87.38312000	33.15699000
132.59999230	0.00000000	87.00787000	33.20005000
132.79999229	0.00000000	86.96481000	33.57529000
132.99999227	0.00000000	86.96481000	34.36269000
133.19999226	0.00000000	86.96481000	35.11319000
133.39999225	0.00000000	86.96481000	35.89444000
133.59999224	0.00000000	86.96481000	36.26968000
133.79999223	0.00000000	86.96481000	36.26968000
133.99999222	0.00000000	87.00787000	35.89444000
134.19999220	0.00000000	87.34005000	35.11319000
134.39999219	0.00000000	87.70914000	34.36269000
134.59999218	0.00000000	87.34005000	33.53223000
134.79999217	0.00000000	87.05708000	32.78174000
134.99999216	0.00000000	87.38312000	32.04355000
135.19999214	0.00000000	88.12745000	32.04355000
135.39999213	0.00000000	88.45349000	32.78174000
135.59999212	0.00000000	88.12745000	33.53223000
135.79999211	0.00000000	87.38312000	34.36269000
135.99999210	0.00000000	87.00787000	35.11319000
136.19999208	0.00000000	86.92175000	35.89444000
136.39999207	0.00000000	86.54650000	36.22047000
136.59999206	0.00000000	85.85137000	35.93750000
136.79999205	0.00000000	85.85137000	35.53149000
136.99999204	0.00000000	86.54650000	35.51919000
137.19999203	0.00000000	86.96481000	35.06397000
137.39999201	0.00000000	87.38312000	34.36269000
137.59999200	0.00000000	88.12745000	33.57529000
137.79999199	0.00000000	88.50270000	33.20005000
137.99999198	0.00000000	88.54576000	33.15699000
138.19999197	0.00000000	88.50270000	33.20005000
138.39999195	0.00000000	88.12745000	33.57529000
138.59999194	0.00000000	87.34005000	34.31963000
138.79999193	0.00000000	86.58956000	34.69488000
138.99999192	0.00000000	85.85137000	34.78100000
139.19999191	0.00000000	85.85137000	35.15625000
139.39999189	0.00000000	86.54650000	35.89444000
139.59999188	0.00000000	86.96481000	36.26968000
139.79999187	0.00000000	87.38312000	36.31274000
139.99999186	0.00000000	88.12745000	36.26968000
140.19999185	0.00000000	88.50270000	35.89444000
140.39999184	0.00000000	88.54576000	35.15625000
140.59999182	0.00000000	88.50270000	34.73794000
140.79999181	0.00000000	88.12745000	34.31963000
140.99999180	0.00000000	87.38312000	33.62450000
141.19999179	0.00000000	87.00787000	33.62450000
141.39999178	0.00000000	86.96481000	34.31963000
141.59999176	0.00000000	86.96481000	34.73794000
141.79999175	0.00000000	86.96481000	35.19931000
141.99999174	0.00000000	87.00787000	36.31274000
142.19999173	0.00000000	87.38312000	37.42618000
142.39999172	0.00000000	88.12745000	37.80142000
142.59999170	0.00000000	88.50270000	37.47539000
142.79999169	0.00000000	88.50270000	36.68799000
142.99999168	0.00000000	88.12745000	35.93750000
143.19999167	0.00000000	87.38312000	35.11319000
143.39999166	0.00000000	87.00787000	34.36269000
143.59999165	0.00000000	86.96481000	33.62450000
143.79999163	0.00000000	87.00787000	33.62450000
143.99999162	0.00000000	87.38312000	34.31963000
144.19999161	0.00000000	88.12745000	34.73794000
144.39999160	0.00000000	88.50270000	35.15625000
144.59999159	0.00000000	88.54576000	35.89444000
144.79999157	0.00000000	88.54576000	36.26968000
144.99999156	0.00000000	88.54576000	36.31274000
145.19999155	0.00000000	88.50270000	36.31274000
145.39999154	0.00000000	88.12745000	36.26968000
145.59999153	0.00000000	87.38312000	35.89444000
145.79999151	0.00000000	87.00787000	35.15625000
145.99999150	0.00000000	86.96481000	34.73794000
146.19999149	0.00000000	86.96481000	34.31963000
146.39999148	0.00000000	87.00787000	33.57529000
146.59999147	0.00000000	87.38312000	33.24926000
146.79999146	0.00000000	88.12745000	33.57529000
146.99999144	0.00000000	88.45349000	34.31963000
147.19999143	0.00000000	88.17052000	34.73794000
147.39999142	0.00000000	87.80142000	35.15625000
147.59999141	0.00000000	88.12745000	35.89444000
147.79999140	0.00000000	88.07824000	36.22047000
147.99999138	0.00000000	87.38312000	35.89444000
148.19999137	0.00000000	87.00787000	35.15625000
148.39999136	0.00000000	86.96481000	34.78100000
148.59999135	0.00000000	86.96481000	34.69488000
148.79999134	0.00000000	86.96481000	34.31963000
148.99999132	0.00000000	86.96481000	33.57529000
149.19999131	0.00000000	87.00787000	33.20005000
149.39999130	0.00000000	87.38312000	33.15699000
149.59999129	0.00000000	88.12745000	33.20005000
149.79999128	0.00000000	88.50270000	33.57529000
149.99999127	0.00000000	88.54576000	34.31963000
150.19999125	0.00000000	88.54576000	34.69488000
150.39999124	0.00000000	88.50270000	34.73794000
150.59999123	0.00000000	88.12745000	34.73794000
150.79999122	0.00000000	87.38312000	34.73794000
150.99999121	0.00000000	87.00787000	34.73794000
151.19999119	0.00000000	86.96481000	34.73794000
151.39999118	0.00000000	86.96481000	34.73794000
151.59999117	0.00000000	86.96481000	34.73794000
151.79999116	0.00000000	86.96481000	34.73794000
151.99999115	0.00000000	87.00787000	34.73794000
152.19999113	0.00000000	87.38312000	34.73794000
152.39999112	0.00000000	88.12745000	34.73794000
152.59999111	0.00000000	88.50270000	34.73794000
152.79999110	0.00000000	88.54576000	34.73794000
152.99999109	0.00000000	88.54576000	34.73794000
153.19999108	0.00000000	88.54576000	34.73794000
153.39999106	0.00000000	88.50270000	34.73794000
153.59999105	0.00000000	88.12745000	34.73794000
153.79999104	0.00000000	87.38312000	34.78100000
153.99999103	0.00000000	87.00787000	35.11319000
154.19999102	0.00000000	86.96481000	35.47613000
154.39999100	0.00000000	86.96481000	35.11319000
154.59999099	0.00000000	86.96481000	34.78100000
154.79999098	0.00000000	87.00787000	34.73794000
154.99999097	0.00000000	87.38312000	34.73794000
155.19999096	0.00000000	88.12745000	34.73794000
155.39999094	0.00000000	88.50270000	34.73794000
155.59999093	0.00000000	88.54576000	34.73794000
155.79999092	0.00000000	88.54576000	34.73794000
155.99999091	0.00000000	88.54576000	34.73794000
156.19999090	0.00000000	88.54576000	34.78100000
156.39999089	0.00000000	88.50270000	35.15625000
156.59999087	0.00000000	88.12745000	35.89444000
156.79999086	0.00000000	87.34005000	36.26968000
156.99999085	0.00000000	86.63262000	36.31274000
157.19999084	0.00000000	86.22047000	36.31274000
157.39999083	0.00000000	86.58956000	36.31274000
157.59999081	0.00000000	86.96481000	36.26968000
157.79999080	0.00000000	87.38312000	35.89444000
157.99999079	0.00000000	88.12745000	35.15625000
158.19999078	0.00000000	88.54576000	34.73794000
158.39999077	0.00000000	88.92101000	34.36269000
158.59999075	0.00000000	89.29010000	33.99360000
158.79999074	0.00000000	88.92101000	34.36269000
158.99999073	0.00000000	88.58882000	34.73794000
159.19999072	0.00000000	88.54576000	35.15625000
159.39999071	0.00000000	88.54576000	35.89444000
159.59999070	0.00000000	88.50270000	36.26968000
159.79999068	0.00000000	88.12745000	36.31274000
159.99999067	0.00000000	87.38312000	36.31274000
160.19999066	0.00000000	87.00787000	36.31274000
160.39999065	0.00000000	86.96481000	36.26968000
160.59999064	0.00000000	87.00787000	35.89444000
160.79999062	0.00000000	87.38312000	35.15625000
160.99999061	0.00000000	88.12745000	34.78100000
161.19999060	0.00000000	88.50270000	34.73794000
161.39999059	0.00000000	88.54576000	34.73794000
161.59999058	0.00000000	88.54576000	34.73794000
161.79999056	0.00000000	88.54576000	34.73794000
161.99999055	0.00000000	88.54576000	34.73794000
162.19999054	0.00000000	88.54576000	34.73794000
162.39999053	0.00000000	88.54576000	34.73794000
162.59999052	0.00000000	88.54576000	34.78100000
162.79999051	0.00000000	88.50270000	35.11319000
162.99999049	0.00000000	88.12745000	35.47613000
163.19999048	0.00000000	87.38312000	35.11319000
163.39999047	0.00000000	87.00787000	34.78100000
163.59999046	0.00000000	86.96481000	34.73794000
163.79999045	0.00000000	86.96481000	34.73794000
163.99999043	0.00000000	87.00787000	34.73794000
164.19999042	0.00000000	87.38312000	34.73794000
164.39999041	0.00000000	88.12745000	34.73794000
164.59999040	0.00000000	88.50270000	34.73794000
164.79999039	0.00000000	88.54576000	34.73794000
164.99999037	0.00000000	88.54576000	34.73794000
165.19999036	0.00000000	88.54576000	34.73794000
165.39999035	0.00000000	88.54576000	34.73794000
165.59999034	0.00000000	88.54576000	34.73794000
165.79999033	0.00000000	88.54576000	34.73794000
165.99999032	0.00000000	88.50270000	34.73794000
166.19999030	0.00000000	88.12745000	34.73794000
166.39999029	0.00000000	87.38312000	34.73794000
166.59999028	0.00000000	87.00787000	34.73794000
166.79999027	0.00000000	86.96481000	34.73794000
166.99999026	0.00000000	87.00787000	34.73794000
167.19999024	0.00000000	87.38312000	34.73794000
167.39999023	0.00000000	88.12745000	34.73794000
167.59999022	0.00000000	88.50270000	34.73794000
167.79999021	0.00000000	88.54576000	34.73794000
167.99999020	0.00000000	88.54576000	34.73794000
168.19999018	0.00000000	88.54576000	34.73794000
168.39999017	0.00000000	88.54576000	34.73794000
168.59999016	0.00000000	88.54576000	34.73794000
168.79999015	0.00000000	88.54576000	34.73794000
168.99999014	0.00000000	88.50270000	34.73794000
169.19999013	0.00000000	88.17052000	34.73794000
169.39999011	0.00000000	87.80142000	34.73794000
169.59999010	0.00000000	88.17052000	34.73794000
169.79999009	0.00000000	88.45349000	34.73794000
169.99999008	0.00000000	88.17052000	34.73794000
170.19999007	0.00000000	87.80142000	34.73794000
170.39999005	0.00000000	88.17052000	34.73794000
170.59999004	0.00000000	88.50270000	34.73794000
170.79999003	0.00000000	88.54576000	34.73794000
170.99999002	0.00000000	88.54576000	34.73794000
171.19999001	0.00000000	88.54576000	34.73794000
171.39998999	0.00000000	88.54576000	34.78100000
171.59998998	0.00000000	88.54576000	35.11319000
171.79998997	0.00000000	88.54576000	35.47613000
171.99998996	0.00000000	88.54576000	35.11319000
172.19998995	0.00000000	88.54576000	34.78100000
172.39998994	0.00000000	88.54576000	34.73794000
172.59998992	0.00000000	88.54576000	34.78100000
172.79998991	0.00000000	88.54576000	35.15625000
172.99998990	0.00000000	88.54576000	35.89444000
173.19998989	0.00000000	88.54576000	36.26968000
173.39998988	0.00000000	88.54576000	36.31274000
173.59998986	0.00000000	88.54576000	36.31274000
173.79998985	0.00000000	88.54576000	36.31274000
173.99998984	0.00000000	88.54576000	36.31274000
174.19998983	0.00000000	88.54576000	36.31274000
174.39998982	0.00000000	88.54576000	36.26968000
174.59998980	0.00000000	88.50270000	35.89444000
174.79998979	0.00000000	88.17052000	35.15625000
174.99998978	0.00000000	87.80142000	34.78100000
175.19998977	0.00000000	88.17052000	34.73794000
175.39998976	0.00000000	88.50270000	34.73794000
175.59998975	0.00000000	88.54576000	34.73794000
175.79998973	0.00000000	88.54576000	34.73794000
175.99998972	0.00000000	88.54576000	34.73794000
176.19998971	0.00000000	88.54576000	34.73794000
176.39998970	0.00000000	88.50270000	34.73794000
176.59998969	0.00000000	88.17052000	34.73794000
176.79998967	0.00000000	87.80142000	34.73794000
176.99998966	0.00000000	88.17052000	34.73794000
177.19998965	0.00000000	88.50270000	34.73794000
177.39998964	0.00000000	88.54576000	34.73794000
177.59998963	0.00000000	88.54576000	34.73794000
177.79998961	0.00000000	88.54576000	34.73794000
177.99998960	0.00000000	88.54576000	34.73794000
178.19998959	0.00000000	88.54576000	34.73794000
178.39998958	0.00000000	88.54576000	34.73794000
178.59998957	0.00000000	88.54576000	34.73794000
178.79998956	0.00000000	88.50270000	34.73794000
178.99998954	0.00000000	88.17052000	34.73794000
179.19998953	0.00000000	87.80142000	34.73794000
179.39998952	0.00000000	88.17052000	34.73794000
179.59998951	0.00000000	88.50270000	34.73794000
179.79998950	0.00000000	88.54576000	34.73794000
179.99998948	0.00000000	88.54576000	34.73794000
180.19998947	0.00000000	88.54576000	34.73794000
180.39998946	0.00000000	88.54576000	34.73794000
180.59998945	0.00000000	88.54576000	34.73794000
180.79998944	0.00000000	88.54576000	34.73794000
180.99998942	0.00000000	88.50270000	34.73794000
181.19998941	0.00000000	88.17052000	34.78100000
181.39998940	0.00000000	87.80142000	35.15625000
181.59998939	0.00000000	88.17052000	35.89444000
181.79998938	0.00000000	88.45349000	36.22047000
181.99998937	0.00000000	88.17052000	35.89444000
182.19998935	0.00000000	87.80142000	35.15625000
182.39998934	0.00000000	88.17052000	34.78100000
182.59998933	0.00000000	88.50270000	34.73794000
182.79998932	0.00000000	88.54576000	34.73794000
182.99998931	0.00000000	88.54576000	34.73794000
183.19998929	0.00000000	88.54576000	34.73794000
183.39998928	0.00000000	88.54576000	34.73794000
183.59998927	0.00000000	88.54576000	34.73794000
183.79998926	0.00000000	88.54576000	34.73794000
183.99998925	0.00000000	88.54576000	34.73794000
184.19998923	0.00000000	88.54576000	34.78100000
184.39998922	0.00000000	88.54576000	35.15625000
184.59998921	0.00000000	88.54576000	35.89444000
184.79998920	0.00000000	88.54576000	36.22047000
184.99998919	0.00000000	88.54576000	35.89444000
185.19998918	0.00000000	88.54576000	35.15625000
185.39998916	0.00000000	88.54576000	34.78100000
185.59998915	0.00000000	88.54576000	34.73794000
185.79998914	0.00000000	88.54576000	34.73794000
185.99998913	0.00000000	88.54576000	34.73794000
186.19998912	0.00000000	88.54576000	34.73794000
186.39998910	0.00000000	88.54576000	34.73794000
186.59998909	0.00000000	88.54576000	34.73794000
186.79998908	0.00000000	88.54576000	34.73794000
186.99998907	0.00000000	88.54576000	34.78100000
187.19998906	0.00000000	88.54576000	35.15625000
187.39998904	0.00000000	88.54576000	35.89444000
187.59998903	0.00000000	88.54576000	36.26968000
187.79998902	0.00000000	88.54576000	36.31274000
187.99998901	0.00000000	88.54576000	36.26968000
188.19998900	0.00000000	88.54576000	35.93750000
188.39998899	0.00000000	88.54576000	35.53149000
188.59998897	0.00000000	88.54576000	35.51919000
188.79998896	0.00000000	88.54576000	35.06397000
188.99998895	0.00000000	88.54576000	34.40575000
189.19998894	0.00000000	88.54576000	33.99360000
189.39998893	0.00000000	88.54576000	34.36269000
189.59998891	0.00000000	88.54576000	34.69488000
189.79998890	0.00000000	88.54576000	34.78100000
189.99998889	0.00000000	88.54576000	35.15625000
190.19998888	0.00000000	88.54576000	35.89444000
190.39998887	0.00000000	88.54576000	36.26968000
190.59998885	0.00000000	88.54576000	36.31274000
190.79998884	0.00000000	88.54576000	36.31274000
190.99998883	0.00000000	88.58882000	36.26968000
191.19998882	0.00000000	88.96407000	35.89444000
191.39998881	0.00000000	89.65919000	35.19931000
191.59998880	0.00000000	89.65919000	35.15625000
191.79998878	0.00000000	88.96407000	35.47613000
191.99998877	0.00000000	88.58882000	35.11319000
192.19998876	0.00000000	88.54576000	34.78100000
192.39998875	0.00000000	88.54576000	34.73794000
192.59998874	0.00000000	88.54576000	34.73794000
192.79998872	0.00000000	88.54576000	34.73794000
192.99998871	0.00000000	88.54576000	34.73794000
193.19998870	0.00000000	88.54576000	34.73794000
193.39998869	0.00000000	88.54576000	34.73794000
193.59998868	0.00000000	88.54576000	34.73794000
193.79998866	0.00000000	88.54576000	34.73794000
193.99998865	0.00000000	88.54576000	34.73794000
194.19998864	0.00000000	88.54576000	34.78100000
194.39998863	0.00000000	88.54576000	35.11319000
194.59998862	0.00000000	88.54576000	35.47613000
194.79998861	0.00000000	88.54576000	35.11319000
194.99998859	0.00000000	88.54576000	34.78100000
195.19998858	0.00000000	88.54576000	34.73794000
195.39998857	0.00000000	88.54576000	34.73794000
195.59998856	0.00000000	88.54576000	34.73794000
195.79998855	0.00000000	88.54576000	34.73794000
195.99998853	0.00000000	88.50270000	34.73794000
