Time	Channel A	Channel B	Channel C
(us)	(V)	(mV)	(mV)

-4.59999956	0.00000000	15.85261000	11.46653000
-4.39999957	0.00000000	16.18479000	11.51575000
-4.19999958	0.00000000	16.55389000	12.21087000
-3.99999959	0.00000000	16.18479000	12.53691000
-3.79999960	0.00000000	15.85261000	12.25394000
-3.59999962	0.00000000	15.80955000	11.88484000
-3.39999963	0.00000000	15.85261000	12.25394000
-3.19999964	0.00000000	16.22785000	12.58612000
-2.99999965	0.00000000	16.92298000	12.62918000
-2.79999966	0.00000000	16.97219000	12.62918000
-2.59999968	0.00000000	16.64616000	12.62918000
-2.39999969	0.00000000	17.01525000	12.62918000
-2.19999970	0.00000000	17.29823000	12.62918000
-1.99999971	0.00000000	16.97219000	12.58612000
-1.79999972	0.00000000	16.27707000	12.25394000
-1.59999973	0.00000000	16.22785000	11.84178000
-1.39999975	0.00000000	16.55389000	11.87869000
-1.19999976	0.00000000	16.18479000	11.84178000
-0.99999977	0.00000000	15.85261000	12.25394000
-0.79999978	0.00000000	15.80955000	12.58612000
-0.59999979	0.00000000	15.85261000	12.62918000
-0.39999981	0.00000000	16.22785000	12.62918000
-0.19999982	0.47736220	16.97219000	12.62918000
0.00000017	0.79601380	17.29823000	12.58612000
0.20000016	0.95533960	17.01525000	12.25394000
0.40000015	0.95533960	16.64616000	11.88484000
0.60000013	0.63668800	17.01525000	12.25394000
0.80000012	0.00000000	17.29823000	12.58612000
1.00000011	-0.79601380	17.01525000	12.62918000
1.20000010	-1.91129400	16.64616000	12.62918000
1.40000009	-2.54859700	17.01525000	12.62918000
1.60000008	-2.86724900	17.34744000	12.62918000
1.80000006	-2.07062000	17.39050000	12.67224000
2.00000005	-0.63668800	17.39050000	13.00443000
2.20000004	1.27399100	17.39050000	13.37352000
2.40000003	3.34522600	17.39050000	13.00443000
2.60000002	4.93786900	17.39050000	12.67224000
2.80000000	5.25652100	17.39050000	12.62918000
2.99999999	4.30056600	17.39050000	12.62918000
3.19999998	1.91129400	17.39050000	12.62918000
3.39999997	-1.43331700	17.39050000	12.62918000
3.59999996	-4.77854300	17.39050000	12.62918000
3.79999994	-7.16781500	17.39050000	12.67224000
3.99999993	-7.96444400	17.39050000	13.04749000
4.19999992	-6.84916400	17.39050000	13.79183000
4.39999991	-3.82258900	17.39050000	14.16708000
4.59999990	0.47736220	17.39050000	14.16708000
4.79999989	4.93786900	17.39050000	13.79183000
4.99999987	8.12377000	17.39050000	13.04749000
5.19999986	9.39837600	17.39050000	12.67224000
5.39999985	8.44242100	17.39050000	12.62918000
5.59999984	5.09719500	17.39050000	12.62918000
5.79999983	0.47736220	17.39050000	12.62918000
5.99999981	-4.14124000	17.39050000	12.62918000
6.19999980	-7.80511800	17.39050000	12.62918000
6.39999979	-9.55770200	17.39050000	12.67224000
6.59999978	-8.76107300	17.39050000	13.00443000
6.79999977	-5.89382400	17.39050000	13.37352000
6.99999975	-1.75196900	17.39050000	13.00443000
7.19999974	2.38927200	17.39050000	12.67224000
7.39999973	5.89382400	17.39050000	12.62918000
7.59999972	7.64579200	17.39050000	12.58612000
7.79999971	7.32714100	17.39050000	12.21087000
7.99999970	5.25652100	17.39050000	11.46653000
8.19999968	2.22994600	17.34744000	11.09129000
8.39999967	-1.11466500	17.01525000	11.09129000
8.59999966	-3.66326300	16.64616000	11.46653000
8.79999965	-5.09719500	17.01525000	12.21087000
8.99999964	-5.09719500	17.34744000	12.58612000
9.19999962	-3.82258900	17.39050000	12.62918000
9.39999961	-1.91129400	17.39050000	12.62918000
9.59999960	0.00000000	17.39050000	12.58612000
9.79999959	1.59264300	17.39050000	12.25394000
9.99999958	2.38927200	17.39050000	11.88484000
10.19999956	2.54859700	17.39050000	12.25394000
10.39999955	1.91129400	17.39050000	12.58612000
10.59999954	1.11466500	17.39050000	12.58612000
10.79999953	0.15871060	17.39050000	12.25394000
10.99999952	-0.47736220	17.39050000	11.88484000
11.19999951	-0.95533960	17.39050000	12.25394000
11.39999949	-0.95533960	17.39050000	12.58612000
11.59999948	-0.95533960	17.39050000	12.62918000
11.79999947	-0.63668800	17.39050000	12.62918000
11.99999946	-0.31803640	17.39050000	12.62918000
12.19999945	-0.15871060	17.39050000	12.62918000
12.39999943	-0.15871060	17.39050000	12.62918000
12.59999942	0.00000000	17.39050000	12.62918000
12.79999941	0.00000000	17.39050000	12.62918000
12.99999940	0.00000000	17.39050000	12.62918000
13.19999939	0.00000000	17.39050000	12.62918000
13.39999937	0.00000000	17.39050000	12.62918000
13.59999936	0.00000000	17.39050000	12.62918000
13.79999935	0.00000000	17.39050000	12.62918000
13.99999934	-0.15871060	17.39050000	12.62918000
14.19999933	-0.15871060	17.39050000	12.62918000
14.39999932	-0.15871060	17.39050000	12.62918000
14.59999930	0.00000000	17.39050000	12.62918000
14.79999929	-0.15871060	17.39050000	12.62918000
14.99999928	0.00000000	17.43356000	12.62918000
15.19999927	0.00000000	17.76575000	12.62918000
15.39999926	0.00000000	18.13484000	12.62918000
15.59999924	0.00000000	17.76575000	12.62918000
15.79999923	0.00000000	17.43356000	12.62918000
15.99999922	0.00000000	17.39050000	12.62918000
16.19999921	0.00000000	17.39050000	12.62918000
16.39999920	-0.15871060	17.39050000	12.62918000
16.59999919	-0.15871060	17.43356000	12.62918000
16.79999917	-0.15871060	17.80881000	12.62918000
16.99999916	-0.15871060	18.59621000	12.62918000
17.19999915	0.00000000	19.30364000	12.62918000
17.39999914	0.00000000	19.71580000	12.62918000
17.59999913	0.00000000	19.34670000	12.62918000
17.79999911	0.00000000	18.97145000	12.62918000
17.99999910	0.00000000	18.50394000	12.62918000
18.19999909	0.00000000	17.34744000	12.62918000
18.39999908	0.00000000	15.80955000	12.62918000
18.59999907	0.00000000	14.27165000	12.62918000
18.79999905	-0.15871060	13.11516000	12.62918000
18.99999904	-0.15871060	12.73991000	12.62918000
19.19999903	-0.15871060	13.20128000	12.62918000
19.39999902	0.00000000	15.15748000	12.62918000
19.59999901	0.00000000	18.63927000	12.62918000
19.79999900	0.00000000	22.50861000	12.62918000
19.99999898	0.00000000	26.36565000	12.62918000
20.19999897	0.00000000	29.01698000	12.62918000
20.39999896	0.00000000	29.34916000	12.62918000
20.59999895	0.00000000	27.01772000	12.62918000
20.79999894	0.00000000	21.95497000	12.62918000
20.99999892	0.00000000	15.34203000	12.62918000
21.19999891	0.00000000	7.94783400	12.67224000
21.39999890	0.00000000	1.10728300	13.00443000
21.59999889	0.00000000	-2.70669300	13.37352000
21.79999888	0.00000000	-1.82701800	13.00443000
21.99999886	0.00000000	3.99237200	12.67224000
22.19999885	0.00000000	14.49926000	12.62918000
22.39999884	0.00000000	27.20841000	12.62918000
22.59999883	0.00000000	39.57923000	12.62918000
22.79999882	0.00000000	48.33292000	12.62918000
22.99999881	0.00000000	50.60900000	12.67224000
23.19999879	0.00000000	45.12795000	13.04749000
23.39999878	-0.15871060	32.74483000	13.79183000
23.59999877	0.00000000	15.72342000	14.21014000
23.79999876	0.00000000	-2.05462600	14.58538000
23.99999875	0.00000000	-16.70768000	14.94833000
24.19999873	0.00000000	-24.71087000	14.53617000
24.39999872	0.00000000	-23.08686000	13.79183000
24.59999871	0.00000000	-11.45423000	12.58612000
24.79999870	0.00000000	7.85556000	11.04823000
24.99999869	0.00000000	30.64714000	9.47342500
25.19999867	0.00000000	51.45177000	7.98474400
25.39999866	0.00000000	65.31742000	7.24040300
25.59999865	-0.15871060	68.38705000	8.02780400
25.79999864	0.00000000	59.87328000	9.98400600
25.99999863	-0.15871060	41.67692000	13.13976000
26.19999862	0.00000000	17.34744000	17.32283000
26.39999860	0.00000000	-7.31422200	21.17372000
26.59999859	0.00000000	-26.24877000	23.50517000
26.79999858	0.00000000	-35.13779000	24.24335000
26.99999857	0.00000000	-32.01895000	22.57628000
27.19999856	0.00000000	-17.35974000	17.92569000
27.39999854	0.00000000	5.38877900	10.96211000
27.59999853	0.00000000	30.46875000	3.29109200
27.79999852	0.00000000	52.14690000	-3.25418300
27.99999851	0.00000000	65.69267000	-6.69291300
28.19999850	0.00000000	68.43011000	-6.27460600
28.39999848	0.00000000	59.96555000	-1.53789400
28.59999847	0.00000000	42.65502000	7.37573800
28.79999846	0.00000000	21.01993000	18.94685000
28.99999845	0.00000000	0.07997046	30.46875000
29.19999844	0.00000000	-16.19710000	38.92716000
29.39999843	0.00000000	-24.66781000	41.99680000
29.59999841	0.00000000	-23.17298000	38.88410000
29.79999840	0.00000000	-12.47539000	29.91511000
29.99999839	0.00000000	3.71555100	16.39395000
30.19999838	0.00000000	21.57972000	0.97194880
30.39999837	0.00000000	37.81988000	-12.50615000
30.59999835	0.00000000	49.07726000	-21.00763000
30.79999834	0.00000000	52.98351000	-22.53937000
30.99999833	0.00000000	49.58169000	-16.68922000
31.19999832	0.00000000	39.95448000	-4.32455700
31.39999831	0.00000000	26.83317000	12.30315000
31.59999829	0.00000000	13.24434000	29.26919000
31.79999828	0.00000000	1.61786400	43.20251000
31.99999827	0.00000000	-5.77632800	50.91658000
32.19999826	0.00000000	-7.73252900	50.91658000
32.39999825	0.00000000	-4.28764700	43.15945000
32.59999824	0.00000000	3.80782500	28.89395000
32.79999822	0.00000000	14.22859000	11.51575000
32.99999821	0.00000000	24.69857000	-5.11811000
33.19999820	0.00000000	33.21235000	-17.88878000
33.39999819	0.00000000	37.86909000	-24.07111000
33.59999818	0.00000000	37.91216000	-22.53937000
33.79999816	0.00000000	33.67372000	-13.66265000
33.99999815	0.00000000	26.36565000	0.64591530
34.19999814	0.00000000	17.90108000	17.23056000
34.39999813	0.00000000	10.54995000	32.70177000
34.59999812	0.00000000	5.89936000	43.48548000
34.79999810	0.00000000	4.73671200	47.38558000
34.99999809	0.00000000	7.38804100	43.57775000
35.19999808	0.00000000	12.73991000	33.58760000
35.39999807	0.00000000	18.87918000	20.01722000
35.59999806	0.00000000	24.32333000	5.38262700
35.79999805	0.00000000	27.76821000	-6.92667200
35.99999803	0.00000000	28.55561000	-13.52731000
36.19999802	0.00000000	26.27953000	-13.57037000
36.39999801	0.00000000	22.09030000	-7.43725300
36.59999800	0.00000000	17.43356000	3.33415300
36.79999799	0.00000000	13.20128000	15.60654000
36.99999797	0.00000000	10.54995000	26.42716000
37.19999796	-0.15871060	10.50689000	32.94168000
37.39999795	-0.15871060	12.78297000	33.77214000
37.59999794	0.00000000	16.27707000	28.80167000
37.79999793	0.00000000	20.55241000	20.01722000
37.99999791	0.00000000	24.74163000	10.02707000
38.19999790	0.00000000	27.43602000	1.61786400
38.39999789	0.00000000	27.81127000	-2.60826800
38.59999788	0.00000000	25.90428000	-1.49483300
38.79999787	0.00000000	22.09030000	4.26304100
38.99999786	0.00000000	17.85802000	13.04749000
39.19999784	0.00000000	14.27165000	22.20103000
39.39999783	0.00000000	11.20202000	28.34030000
39.59999782	-0.15871060	9.30118100	29.87205000
39.79999781	0.00000000	9.66412400	26.42716000
39.99999780	0.00000000	11.57726000	18.76845000
40.19999778	0.00000000	14.73917000	9.56569900
40.39999777	0.00000000	18.97145000	1.10728300
40.59999776	0.00000000	23.20374000	-4.23228400
40.79999775	0.00000000	26.32259000	-4.60752900
40.99999774	0.00000000	27.90354000	-0.00615157
41.19999772	0.00000000	27.90354000	8.44611200
41.39999771	0.00000000	26.32259000	18.39321000
41.59999770	0.00000000	23.24680000	26.84547000
41.79999769	0.00000000	19.38976000	31.49606000
41.99999768	0.00000000	15.85261000	31.49606000
42.19999767	0.00000000	12.73991000	26.89468000
42.39999765	0.00000000	10.45768000	18.85458000
42.59999764	0.00000000	10.08243000	10.02707000
42.79999763	0.00000000	11.57726000	2.68823800
42.99999762	0.00000000	14.27165000	-1.58710600
43.19999761	0.00000000	17.34744000	-2.00541300
43.39999759	0.00000000	20.08489000	1.01501000
43.59999758	0.00000000	22.04109000	6.44685000
43.79999757	0.00000000	23.20374000	12.96137000
43.99999756	0.00000000	23.20374000	19.08834000
44.19999755	0.00000000	22.13336000	22.61934000
44.39999753	0.00000000	21.01993000	23.46210000
44.59999752	0.00000000	20.64468000	22.33637000
44.79999751	0.00000000	20.92766000	19.22982000
44.99999750	0.00000000	21.29675000	15.40969000
45.19999749	0.00000000	20.88459000	11.51575000
45.39999748	0.00000000	20.08489000	8.44611200
45.59999746	0.00000000	18.46087000	6.90821800
45.79999745	0.00000000	15.76649000	7.24040300
45.99999744	0.00000000	12.69070000	9.14124000
46.19999743	0.00000000	10.03937000	11.46653000
46.39999742	0.00000000	8.92593500	14.16092000
46.59999740	0.00000000	10.08243000	16.48622000
46.79999739	0.00000000	13.24434000	17.69808000
46.99999738	0.00000000	18.31939000	18.43627000
47.19999737	0.00000000	24.87697000	18.01796000
47.39999736	0.00000000	30.97933000	16.11712000
47.59999734	0.00000000	34.83636000	13.83489000
47.79999733	-0.15871060	35.21161000	11.46653000
47.99999732	-0.15871060	32.09276000	9.55954600
48.19999731	0.00000000	25.85507000	8.40305000
48.39999730	0.00000000	17.34744000	8.44611200
48.59999729	0.00000000	8.55068800	9.98400600
48.79999727	0.00000000	2.03617100	12.67224000
48.99999726	0.00000000	0.07997046	15.74188000
49.19999725	0.00000000	2.78051200	18.47933000
49.39999724	0.00000000	9.34424200	20.39247000
49.59999723	0.00000000	18.63927000	21.13066000
49.79999721	0.00000000	28.23573000	19.97416000
49.99999720	0.00000000	35.95595000	17.27977000
50.19999719	0.00000000	39.35777000	13.79183000
50.39999718	0.00000000	37.48769000	9.93479300
50.59999717	0.00000000	30.97933000	6.86515700
50.79999715	0.00000000	22.13336000	5.33341500
50.99999714	0.00000000	13.20128000	5.70866100
51.19999713	0.00000000	5.89936000	8.02780400
51.39999712	0.00000000	2.08538400	11.51575000
51.59999711	0.00000000	3.24188000	15.74188000
51.79999710	0.00000000	8.96899500	19.59892000
51.99999708	0.00000000	17.39050000	21.92421000
52.19999707	0.00000000	25.85507000	22.66240000
52.39999706	0.00000000	32.04970000	21.08760000
52.59999705	0.00000000	34.75024000	17.32283000
52.79999704	0.00000000	33.21235000	13.09670000
52.99999702	0.00000000	27.86048000	9.60875900
53.19999701	0.00000000	20.55241000	7.24040300
53.39999700	0.00000000	13.24434000	6.48991100
53.59999699	0.00000000	7.89862200	7.24040300
53.79999698	0.00000000	6.36072800	9.55954600
53.99999696	0.00000000	9.01205700	12.58612000
54.19999695	0.00000000	14.73917000	15.27436000
54.39999694	0.00000000	21.62278000	16.85531000
54.59999693	0.00000000	27.43602000	17.23056000
54.79999692	0.00000000	30.88705000	16.48622000
54.99999691	0.00000000	31.29921000	14.58538000
55.19999689	0.00000000	28.22958000	12.72146000
55.39999688	0.00000000	23.24680000	11.55881000
55.59999687	0.00000000	17.43356000	11.55881000
55.79999686	0.00000000	12.08784000	12.67224000
55.99999685	0.00000000	9.01205700	14.21014000
56.19999683	0.00000000	9.01205700	15.74188000
56.39999682	0.00000000	12.03863000	16.85531000
56.59999681	0.00000000	17.01525000	16.81225000
56.79999680	0.00000000	22.04109000	15.23130000
56.99999679	0.00000000	26.27953000	12.21087000
57.19999677	0.00000000	28.59867000	8.77214500
57.39999676	0.00000000	28.22958000	6.48991100
57.59999675	0.00000000	25.94734000	5.75172200
57.79999674	0.00000000	22.09030000	7.33267600
57.99999673	0.00000000	17.90108000	11.14050000
58.19999672	0.00000000	14.78223000	15.78494000
58.39999670	0.00000000	13.20128000	20.39247000
58.59999669	0.00000000	13.20128000	23.82505000
58.79999668	0.00000000	14.73917000	24.57554000
58.99999667	0.00000000	17.39050000	22.66855000
59.19999666	0.00000000	20.08489000	18.39321000
59.39999664	0.00000000	22.04109000	12.58612000
59.59999663	0.00000000	23.20374000	6.44685000
59.79999662	0.00000000	23.20374000	1.48253000
59.99999661	0.00000000	22.09030000	-0.38139760
60.19999660	0.00000000	20.55241000	1.52559000
60.39999658	0.00000000	19.01451000	6.91437000
60.59999657	0.00000000	17.90108000	14.21014000
60.79999656	0.00000000	17.85802000	21.54897000
60.99999655	0.00000000	18.59621000	27.31299000
61.19999654	0.00000000	19.38976000	30.00738000
61.39999653	0.00000000	20.55241000	28.80167000
61.59999651	0.00000000	21.62278000	23.82505000
61.79999650	0.00000000	21.66585000	16.11712000
61.99999649	0.00000000	20.92766000	8.07086500
62.19999648	0.00000000	20.13410000	1.48253000
62.39999647	0.00000000	18.97145000	-1.95620100
62.59999645	0.00000000	17.85802000	-1.63016700
62.79999644	0.00000000	17.48277000	2.22071800
62.99999643	0.00000000	17.85802000	8.40305000
63.19999642	0.00000000	18.97145000	15.74188000
63.39999641	0.00000000	20.17716000	22.66240000
63.59999639	0.00000000	21.34596000	27.31299000
63.79999638	0.00000000	22.87770000	28.89395000
63.99999637	0.00000000	23.57899000	27.31299000
64.19999636	0.00000000	23.24680000	22.71161000
64.39999635	0.00000000	22.09030000	16.16018000
64.59999634	0.00000000	20.55241000	9.60875900
64.79999632	0.00000000	19.01451000	4.17691900
64.99999631	0.00000000	17.90108000	1.10728300
65.19999630	0.00000000	17.85802000	1.06422200
65.39999629	0.00000000	18.59621000	3.75246000
65.59999628	0.00000000	19.38976000	8.31077700
65.79999626	0.00000000	20.55241000	13.37352000
65.99999625	0.00000000	21.66585000	17.69808000
66.19999624	0.00000000	22.04109000	21.59203000
66.39999623	0.00000000	21.66585000	24.24335000
66.59999622	0.00000000	20.50935000	24.71087000
66.79999620	0.00000000	19.01451000	23.59129000
66.99999619	0.00000000	17.90108000	21.64124000
67.19999618	0.00000000	17.90108000	18.85458000
67.39999617	0.00000000	19.01451000	15.36663000
67.59999616	0.00000000	20.59547000	11.51575000
67.79999615	0.00000000	22.55167000	8.40305000
67.99999613	0.00000000	24.82775000	6.40378900
68.19999612	0.00000000	26.32259000	5.24729300
68.39999611	0.00000000	26.32259000	5.33341500
68.59999610	0.00000000	24.74163000	7.24040300
68.79999609	0.00000000	21.66585000	10.72219000
68.99999607	0.00000000	17.80881000	14.62844000
69.19999606	0.00000000	14.36393000	18.90379000
69.39999605	0.00000000	12.03863000	22.75467000
69.59999604	0.00000000	11.66339000	25.03691000
69.79999603	0.00000000	13.24434000	25.44906000
69.99999601	0.00000000	16.73843000	23.46210000
70.19999600	0.00000000	21.75812000	19.59892000
70.39999599	0.00000000	26.74089000	14.21014000
70.59999598	0.00000000	30.59793000	8.82135800
70.79999597	0.00000000	32.13582000	4.91510800
70.99999596	0.00000000	30.97318000	2.59596400
71.19999594	0.00000000	27.48524000	2.63902500
71.39999593	0.00000000	22.09030000	5.29035400
71.59999592	0.00000000	16.32013000	9.56569900
71.79999591	0.00000000	11.62032000	14.54232000
71.99999590	0.00000000	8.55068800	19.18061000
72.19999588	0.00000000	7.80634800	21.88115000
72.39999587	0.00000000	10.13164000	22.71161000
72.59999586	0.00000000	14.73917000	21.50590000
72.79999585	0.00000000	20.50935000	18.47933000
72.99999584	0.00000000	25.94734000	14.67150000
73.19999582	0.00000000	29.81053000	11.55881000
73.39999581	0.00000000	31.76058000	9.60875900
73.59999580	0.00000000	30.97318000	8.82135800
73.79999579	0.00000000	27.90354000	9.55954600
73.99999578	0.00000000	23.29601000	11.04823000
74.19999577	0.00000000	18.27633000	12.62918000
74.39999575	0.00000000	14.40699000	14.11786000
74.59999574	0.00000000	12.03863000	14.85605000
74.79999573	0.00000000	11.71260000	14.11786000
74.99999572	0.00000000	13.57652000	12.67224000
75.19999571	0.00000000	17.01525000	11.55881000
75.39999569	0.00000000	20.46014000	11.55881000
75.59999568	0.00000000	23.20374000	12.67224000
75.79999567	0.00000000	24.78469000	14.29626000
75.99999566	0.00000000	25.20300000	16.62770000
76.19999565	0.00000000	24.82775000	19.59892000
76.39999563	0.00000000	23.67126000	21.08760000
76.59999562	0.00000000	22.17643000	20.39247000
76.79999561	0.00000000	21.01993000	18.43627000
76.99999560	0.00000000	20.59547000	15.27436000
77.19999559	0.00000000	20.55241000	11.09129000
77.39999558	0.00000000	20.55241000	7.24040300
77.59999556	0.00000000	20.55241000	4.95816900
77.79999555	0.00000000	20.50935000	4.54601300
77.99999554	0.00000000	20.13410000	6.53912400
78.19999553	0.00000000	19.34670000	10.35310000
78.39999552	0.00000000	18.63927000	15.41585000
78.59999550	0.00000000	18.22711000	20.39247000
78.79999549	0.00000000	18.68848000	24.24335000
78.99999548	0.00000000	19.85728000	25.78125000
79.19999547	0.00000000	22.13336000	24.66166000
79.39999546	0.00000000	24.40945000	21.59203000
79.59999544	0.00000000	25.62746000	17.32283000
79.79999543	0.00000000	26.40871000	12.67224000
79.99999542	0.00000000	26.32259000	8.44611200
80.19999541	0.00000000	24.78469000	5.75172200
80.39999540	0.00000000	22.09030000	5.33341500
80.59999539	0.00000000	19.01451000	6.82209600
80.79999537	0.00000000	16.32013000	9.51648500
80.99999536	0.00000000	14.82529000	12.62918000
81.19999535	0.00000000	15.15748000	15.74188000
81.39999534	0.00000000	17.05832000	18.47933000
81.59999533	0.00000000	19.38976000	20.43553000
81.79999531	0.00000000	22.13336000	21.59203000
81.99999530	0.00000000	24.78469000	21.59203000
82.19999529	0.00000000	26.32259000	20.43553000
82.39999528	0.00000000	26.36565000	18.47933000
82.59999527	0.00000000	25.20300000	15.74188000
82.79999525	0.00000000	23.29601000	12.67224000
82.99999524	0.00000000	20.97072000	9.93479300
83.19999523	0.00000000	19.06373000	7.98474400
83.39999522	0.00000000	17.85802000	6.82209600
83.59999521	0.00000000	17.48277000	6.82209600
83.79999520	0.00000000	17.85802000	8.02780400
83.99999518	0.00000000	19.01451000	10.35310000
84.19999517	0.00000000	20.50935000	13.87795000
84.39999516	0.00000000	21.66585000	17.69808000
84.59999515	0.00000000	22.09030000	21.17372000
84.79999514	0.00000000	22.13336000	23.08686000
84.99999512	0.00000000	22.13336000	23.12992000
85.19999511	0.00000000	22.13336000	21.54897000
85.39999510	0.00000000	22.13336000	18.43627000
85.59999509	0.00000000	22.13336000	14.16708000
85.79999508	0.00000000	22.13336000	9.56569900
85.99999506	0.00000000	22.09030000	5.75172200
86.19999505	0.00000000	21.71506000	4.21998000
86.39999504	0.00000000	20.97072000	5.29035400
86.59999503	0.00000000	20.55241000	8.02780400
86.79999502	0.00000000	20.08489000	11.93405000
86.99999501	0.00000000	19.01451000	16.89837000
87.19999499	0.00000000	18.27633000	21.08760000
87.39999498	0.00000000	18.63927000	23.08686000
87.59999497	0.00000000	19.38976000	23.08686000
87.79999496	0.00000000	20.55241000	21.08760000
87.99999495	0.00000000	21.75812000	16.89837000
88.19999493	0.00000000	22.88386000	11.93405000
88.39999492	0.00000000	23.99114000	8.07086500
88.59999491	0.00000000	23.62205000	5.70866100
88.79999490	0.00000000	22.55167000	5.37647600
88.99999489	0.00000000	21.71506000	7.28346400
89.19999487	0.00000000	20.55241000	11.18356000
89.39999486	0.00000000	19.43897000	16.11712000
89.59999485	0.00000000	19.01451000	20.71235000
89.79999484	0.00000000	19.01451000	23.03765000
89.99999483	-0.15871060	19.43897000	23.08686000
90.19999482	0.00000000	20.55241000	21.13066000
90.39999480	0.00000000	21.71506000	17.27362000
90.59999479	0.00000000	22.46555000	12.67224000
90.79999478	0.00000000	22.87770000	8.44611200
90.99999477	0.00000000	22.50861000	5.75172200
91.19999476	0.00000000	22.17643000	5.42568800
91.39999474	0.00000000	22.13336000	7.70792300
91.59999473	0.00000000	22.13336000	12.29700000
91.79999472	0.00000000	22.13336000	17.23056000
91.99999471	0.00000000	22.13336000	21.17372000
92.19999470	0.00000000	22.13336000	23.45595000
92.39999468	0.00000000	22.13336000	23.82505000
92.59999467	0.00000000	22.09030000	21.46284000
92.79999466	0.00000000	21.66585000	16.89837000
92.99999465	0.00000000	20.55241000	11.55881000
93.19999464	0.00000000	19.43897000	7.37573800
93.39999463	0.00000000	19.01451000	5.79478300
93.59999461	0.00000000	19.01451000	6.91437000
93.79999460	0.00000000	19.43897000	9.98400600
93.99999459	0.00000000	20.64468000	14.21014000
94.19999458	0.00000000	22.55167000	18.43627000
94.39999457	0.00000000	24.87697000	21.50590000
94.59999455	0.00000000	26.74089000	22.66240000
94.79999454	0.00000000	27.52830000	21.50590000
94.99999453	0.00000000	26.74089000	18.47933000
95.19999452	0.00000000	24.82775000	14.62844000
95.39999451	0.00000000	22.09030000	11.14050000
95.59999449	0.00000000	19.01451000	8.44611200
95.79999448	0.00000000	16.32013000	7.33267600
95.99999447	0.00000000	14.78223000	8.48917200
96.19999446	0.00000000	14.78223000	11.46653000
96.39999445	0.00000000	16.32013000	14.94833000
96.59999444	0.00000000	19.06373000	17.64887000
96.79999442	0.00000000	22.55167000	19.64198000
96.99999441	0.00000000	26.40871000	20.34941000
97.19999440	0.00000000	29.44143000	19.59892000
97.39999439	0.00000000	30.64714000	17.32283000
97.59999438	0.00000000	29.85974000	14.67150000
97.79999436	0.00000000	27.57136000	12.72146000
97.99999435	0.00000000	24.04650000	11.51575000
98.19999434	0.00000000	20.17716000	11.14050000
98.39999433	0.00000000	16.32013000	11.51575000
98.59999432	0.00000000	13.66880000	12.67224000
98.79999430	0.00000000	13.24434000	14.16092000
98.99999429	0.00000000	14.73917000	15.32357000
99.19999428	0.00000000	17.48277000	15.74188000
99.39999427	0.00000000	20.97072000	15.78494000
99.59999426	0.00000000	24.82775000	15.78494000
99.79999425	0.00000000	27.90354000	15.82800000
99.99999423	0.00000000	29.48450000	16.20325000
100.19999422	0.00000000	29.52756000	16.94759000
100.39999421	0.00000000	28.32185000	17.32283000
100.59999420	0.00000000	25.99040000	17.32283000
100.79999419	0.00000000	22.55167000	16.89837000
100.99999417	0.00000000	19.48204000	15.69882000
101.19999416	0.00000000	17.48277000	13.79183000
101.39999415	0.00000000	16.27707000	11.51575000
101.59999414	0.00000000	15.94488000	10.02707000
101.79999413	0.00000000	16.69537000	9.98400600
101.99999411	0.00000000	18.63927000	11.14050000
102.19999410	0.00000000	20.92766000	13.09055000
102.39999409	0.00000000	23.29601000	15.78494000
102.59999408	0.00000000	25.20300000	18.47933000
102.79999407	0.00000000	26.40871000	20.39247000
102.99999406	0.00000000	26.78395000	21.13066000
103.19999404	0.00000000	26.36565000	20.01722000
103.39999403	0.00000000	24.82775000	17.69808000
103.59999402	0.00000000	22.55167000	14.99139000
103.79999401	0.00000000	20.59547000	11.88484000
103.99999400	0.00000000	19.01451000	9.60875900
104.19999398	0.00000000	17.90108000	8.40305000
104.39999397	0.00000000	17.90108000	8.44611200
104.59999396	0.00000000	19.01451000	9.98400600
104.79999395	0.00000000	20.55241000	12.67224000
104.99999394	0.00000000	22.13336000	15.74188000
105.19999392	0.00000000	23.67126000	18.43627000
105.39999391	0.00000000	24.78469000	19.97416000
105.59999390	0.00000000	24.82775000	19.97416000
105.79999389	0.00000000	24.08957000	18.47933000
105.99999388	0.00000000	23.29601000	16.16018000
106.19999387	0.00000000	22.13336000	13.87795000
106.39999385	0.00000000	21.01993000	11.93405000
106.59999384	0.00000000	20.59547000	11.18356000
106.79999383	0.00000000	20.59547000	11.51575000
106.99999382	0.00000000	21.01993000	12.67224000
107.19999381	0.00000000	22.13336000	14.21014000
107.39999379	0.00000000	23.29601000	15.78494000
107.59999378	0.00000000	24.04650000	17.32283000
107.79999377	0.00000000	24.45866000	18.43627000
107.99999376	0.00000000	24.04650000	18.43627000
108.19999375	0.00000000	23.29601000	17.27362000
108.39999374	0.00000000	22.13336000	15.40969000
108.59999372	0.00000000	21.01993000	13.50886000
108.79999371	0.00000000	20.59547000	12.72146000
108.99999370	0.00000000	20.59547000	12.67224000
109.19999369	0.00000000	20.97072000	13.09670000
109.39999368	0.00000000	21.75812000	14.25320000
109.59999366	0.00000000	22.55167000	15.74188000
109.79999365	0.00000000	23.71432000	16.94759000
109.99999364	0.00000000	24.78469000	17.69808000
110.19999363	0.00000000	24.82775000	18.06102000
110.39999362	0.00000000	24.08957000	17.27362000
110.59999360	0.00000000	23.29601000	15.78494000
110.79999359	0.00000000	22.13336000	14.25320000
110.99999358	0.00000000	21.01993000	13.09670000
111.19999357	0.00000000	20.59547000	12.62918000
111.39999356	0.00000000	20.59547000	12.25394000
111.59999355	0.00000000	20.97072000	11.93405000
111.79999353	0.00000000	21.71506000	12.72146000
111.99999352	0.00000000	22.13336000	14.16092000
112.19999351	0.00000000	22.55167000	15.36663000
112.39999350	0.00000000	23.29601000	16.16018000
112.59999349	0.00000000	23.67126000	16.94759000
112.79999347	0.00000000	23.71432000	17.27362000
112.99999346	0.00000000	23.71432000	16.94759000
113.19999345	0.00000000	23.71432000	16.20325000
113.39999344	0.00000000	23.67126000	15.82800000
113.59999343	0.00000000	23.29601000	15.78494000
113.79999341	0.00000000	22.60088000	15.74188000
113.99999340	0.00000000	22.55167000	15.36663000
114.19999339	0.00000000	22.87770000	14.62844000
114.39999338	0.00000000	22.50861000	14.25320000
114.59999337	0.00000000	22.17643000	14.21014000
114.79999336	0.00000000	22.13336000	14.21014000
114.99999334	0.00000000	22.17643000	14.21014000
115.19999333	0.00000000	22.55167000	14.21014000
115.39999332	0.00000000	23.29601000	14.25320000
115.59999331	0.00000000	23.67126000	14.62844000
115.79999330	0.00000000	23.71432000	15.40969000
115.99999328	0.00000000	23.67126000	16.16018000
116.19999327	0.00000000	23.29601000	16.89837000
116.39999326	0.00000000	22.55167000	16.94759000
116.59999325	0.00000000	22.17643000	16.57849000
116.79999324	0.00000000	22.13336000	16.57234000
116.99999322	0.00000000	22.13336000	16.11712000
117.19999321	0.00000000	22.17643000	15.36663000
117.39999320	0.00000000	22.55167000	14.21014000
117.59999319	0.00000000	23.33907000	13.09670000
117.79999318	0.00000000	24.08957000	12.67224000
117.99999317	0.00000000	24.82775000	12.67224000
118.19999315	0.00000000	24.82775000	13.09670000
118.39999314	0.00000000	24.08957000	14.21014000
118.59999313	0.00000000	23.29601000	15.32357000
118.79999312	0.00000000	22.13336000	15.78494000
118.99999311	0.00000000	21.01993000	16.20325000
119.19999309	0.00000000	20.59547000	16.89837000
119.39999308	0.00000000	20.55241000	16.89837000
119.59999307	0.00000000	20.59547000	16.20325000
119.79999306	0.00000000	21.01993000	15.78494000
119.99999305	0.00000000	22.22564000	15.36663000
120.19999303	0.00000000	24.04650000	14.62844000
120.39999302	0.00000000	25.57210000	14.25320000
120.59999301	0.00000000	25.62746000	14.21014000
120.79999300	0.00000000	25.29527000	14.21014000
120.99999299	0.00000000	24.87697000	14.21014000
121.19999298	0.00000000	24.08957000	14.21014000
121.39999296	0.00000000	23.29601000	14.21014000
121.59999295	0.00000000	22.09030000	14.21014000
121.79999294	0.00000000	20.64468000	14.25320000
121.99999293	0.00000000	19.85728000	14.62844000
122.19999292	0.00000000	20.22022000	15.36663000
122.39999290	-0.15871060	20.92766000	15.74188000
122.59999289	0.00000000	21.75812000	15.78494000
122.79999288	0.00000000	22.55167000	15.78494000
122.99999287	0.00000000	23.71432000	15.78494000
123.19999286	0.00000000	24.82775000	15.78494000
123.39999284	0.00000000	25.25221000	15.78494000
123.59999283	0.00000000	25.29527000	15.74188000
123.79999282	0.00000000	25.25221000	15.36663000
123.99999281	0.00000000	24.87697000	14.62844000
124.19999280	0.00000000	24.08957000	14.25320000
124.39999279	0.00000000	23.33907000	14.21014000
124.59999277	0.00000000	22.50861000	14.25320000
124.79999276	0.00000000	21.75812000	14.62844000
124.99999275	0.00000000	21.01993000	15.36663000
125.19999274	0.00000000	21.01993000	15.78494000
125.39999273	0.00000000	21.75812000	16.20325000
125.59999271	0.00000000	22.50861000	16.94759000
125.79999270	0.00000000	23.33907000	17.32283000
125.99999269	0.00000000	24.08957000	17.36589000
126.19999268	0.00000000	24.92003000	17.32283000
126.39999267	0.00000000	25.62746000	16.94759000
126.59999265	0.00000000	26.03961000	16.20325000
126.79999264	0.00000000	25.62746000	15.78494000
126.99999263	0.00000000	24.87697000	15.36663000
127.19999262	0.00000000	23.71432000	14.62844000
127.39999261	0.00000000	22.55167000	14.25320000
127.59999260	0.00000000	21.75812000	14.25320000
127.79999258	0.00000000	21.01993000	14.62844000
127.99999257	0.00000000	21.01993000	15.36663000
128.19999256	0.00000000	21.75812000	15.74188000
128.39999255	0.00000000	22.55167000	15.78494000
128.59999254	0.00000000	23.71432000	15.78494000
128.79999252	0.00000000	24.82775000	15.78494000
128.99999251	0.00000000	25.25221000	15.78494000
129.19999250	0.00000000	25.25221000	15.78494000
129.39999249	0.00000000	24.87697000	15.74188000
129.59999248	0.00000000	24.08957000	15.36663000
129.79999246	0.00000000	23.33907000	14.62844000
129.99999245	0.00000000	22.55167000	14.25320000
130.19999244	0.00000000	22.17643000	14.25320000
130.39999243	0.00000000	22.13336000	14.62844000
130.59999242	0.00000000	22.17643000	15.36663000
130.79999241	0.00000000	22.60088000	15.74188000
130.99999239	0.00000000	23.71432000	15.78494000
131.19999238	0.00000000	24.82775000	15.78494000
131.39999237	0.00000000	25.25221000	15.74188000
131.59999236	0.00000000	25.25221000	15.36663000
131.79999235	0.00000000	24.87697000	14.62844000
131.99999233	0.00000000	24.08957000	14.25320000
132.19999232	0.00000000	23.33907000	14.16708000
132.39999231	0.00000000	22.55167000	13.83489000
132.59999230	0.00000000	22.22564000	13.51501000
132.79999229	0.00000000	22.55167000	14.25320000
132.99999227	0.00000000	23.29601000	15.32357000
133.19999226	0.00000000	23.67126000	15.78494000
133.39999225	0.00000000	23.71432000	16.20325000
133.59999224	0.00000000	23.71432000	16.89837000
133.79999223	0.00000000	23.71432000	16.89837000
133.99999222	0.00000000	23.71432000	16.16018000
134.19999220	0.00000000	23.71432000	15.40969000
134.39999219	0.00000000	23.71432000	14.62844000
134.59999218	0.00000000	23.71432000	14.21014000
134.79999217	0.00000000	23.71432000	13.83489000
134.99999216	0.00000000	23.75738000	13.46580000
135.19999214	0.00000000	24.08957000	13.83489000
135.39999213	0.00000000	24.45866000	14.21014000
135.59999212	0.00000000	24.08957000	14.62844000
135.79999211	0.00000000	23.71432000	15.36663000
135.99999210	0.00000000	23.29601000	15.78494000
136.19999208	0.00000000	22.55167000	16.20325000
136.39999207	0.00000000	22.17643000	16.94759000
136.59999206	0.00000000	22.17643000	17.27362000
136.79999205	0.00000000	22.55167000	16.94759000
136.99999204	0.00000000	23.29601000	16.16018000
137.19999203	0.00000000	23.71432000	15.40969000
137.39999201	0.00000000	24.13263000	14.62844000
137.59999200	0.00000000	24.87697000	14.25320000
137.79999199	0.00000000	25.20300000	14.21014000
137.99999198	0.00000000	24.87697000	14.21014000
138.19999197	0.00000000	24.13263000	14.21014000
138.39999195	0.00000000	23.71432000	14.25320000
138.59999194	0.00000000	23.29601000	14.62844000
138.79999193	0.00000000	22.55167000	15.40969000
138.99999192	0.00000000	22.22564000	16.16018000
139.19999191	0.00000000	22.55167000	16.94759000
139.39999189	0.00000000	23.29601000	17.32283000
139.59999188	0.00000000	23.71432000	17.36589000
139.79999187	0.00000000	24.13263000	17.32283000
139.99999186	0.00000000	24.87697000	16.94759000
140.19999185	0.00000000	25.25221000	16.16018000
140.39999184	0.00000000	25.25221000	15.40969000
140.59999182	0.00000000	24.87697000	14.62844000
140.79999181	0.00000000	24.13263000	14.25320000
140.99999180	0.00000000	23.75738000	14.21014000
141.19999179	0.00000000	23.71432000	14.25320000
141.39999178	0.00000000	23.71432000	14.67150000
141.59999176	0.00000000	23.71432000	15.78494000
141.79999175	0.00000000	23.75738000	16.89837000
141.99999174	0.00000000	24.13263000	17.32283000
142.19999173	0.00000000	24.87697000	17.36589000
142.39999172	0.00000000	25.20300000	17.36589000
142.59999170	0.00000000	24.87697000	17.32283000
142.79999169	0.00000000	24.13263000	16.89837000
142.99999168	0.00000000	23.75738000	15.78494000
143.19999167	0.00000000	23.71432000	14.67150000
143.39999166	0.00000000	23.71432000	14.25320000
143.59999165	0.00000000	23.71432000	14.21014000
143.79999163	0.00000000	23.75738000	14.25320000
143.99999162	0.00000000	24.13263000	14.62844000
144.19999161	0.00000000	24.87697000	15.40969000
144.39999160	0.00000000	25.25221000	16.16018000
144.59999159	0.00000000	25.29527000	16.94759000
144.79999157	0.00000000	25.25221000	17.32283000
144.99999156	0.00000000	24.87697000	17.36589000
145.19999155	0.00000000	24.13263000	17.32283000
145.39999154	0.00000000	23.75738000	16.94759000
145.59999153	0.00000000	23.67126000	16.16018000
145.79999151	0.00000000	23.33907000	15.40969000
145.99999150	0.00000000	22.96998000	14.62844000
146.19999149	0.00000000	23.33907000	14.25320000
146.39999148	0.00000000	23.71432000	14.21014000
146.59999147	0.00000000	24.13263000	14.25320000
146.79999146	0.00000000	24.87697000	14.62844000
146.99999144	0.00000000	25.25221000	15.36663000
147.19999143	0.00000000	25.29527000	15.74188000
147.39999142	0.00000000	25.25221000	15.82800000
147.59999141	0.00000000	24.87697000	16.16018000
147.79999140	0.00000000	24.13263000	16.52928000
147.99999138	0.00000000	23.75738000	16.16018000
148.19999137	0.00000000	23.71432000	15.82800000
148.39999136	0.00000000	23.71432000	15.78494000
148.59999135	0.00000000	23.71432000	15.74188000
148.79999134	0.00000000	23.71432000	15.36663000
148.99999132	0.00000000	23.75738000	14.62844000
149.19999131	0.00000000	24.13263000	14.25320000
149.39999130	0.00000000	24.87697000	14.25320000
149.59999129	0.00000000	25.25221000	14.62844000
149.79999128	0.00000000	25.29527000	15.36663000
149.99999127	0.00000000	25.29527000	15.74188000
150.19999125	0.00000000	25.25221000	15.82800000
150.39999124	0.00000000	24.87697000	16.16018000
150.59999123	0.00000000	24.13263000	16.52928000
150.79999122	0.00000000	23.75738000	16.16018000
150.99999121	0.00000000	23.71432000	15.82800000
151.19999119	0.00000000	23.71432000	15.78494000
151.39999118	0.00000000	23.71432000	15.78494000
151.59999117	0.00000000	23.75738000	15.78494000
151.79999116	0.00000000	24.13263000	15.78494000
151.99999115	0.00000000	24.82775000	15.74188000
152.19999113	0.00000000	24.92003000	15.40969000
152.39999112	0.00000000	24.92618000	15.04675000
152.59999111	0.00000000	25.66437000	15.40969000
152.79999110	0.00000000	25.62746000	15.74188000
152.99999109	0.00000000	25.33834000	15.78494000
153.19999108	0.00000000	25.25221000	15.78494000
153.39999106	0.00000000	24.87697000	15.78494000
153.59999105	0.00000000	24.13263000	15.78494000
153.79999104	0.00000000	23.75738000	15.82800000
153.99999103	0.00000000	23.71432000	16.20325000
154.19999102	0.00000000	23.75738000	16.94759000
154.39999100	0.00000000	24.13263000	17.27362000
154.59999099	0.00000000	24.87697000	16.94759000
154.79999098	0.00000000	25.25221000	16.20325000
154.99999097	0.00000000	25.29527000	15.82800000
155.19999096	0.00000000	25.29527000	15.78494000
155.39999094	0.00000000	25.29527000	15.78494000
155.59999093	0.00000000	25.29527000	15.78494000
155.79999092	0.00000000	25.29527000	15.78494000
155.99999091	0.00000000	25.29527000	15.82800000
156.19999090	0.00000000	25.25221000	16.20325000
156.39999089	0.00000000	24.87697000	16.94759000
156.59999087	0.00000000	24.13263000	17.32283000
156.79999086	0.00000000	23.75738000	17.36589000
156.99999085	0.00000000	23.71432000	17.36589000
157.19999084	0.00000000	23.71432000	17.32283000
157.39999083	0.00000000	23.75738000	16.94759000
157.59999081	0.00000000	24.13263000	16.20325000
157.79999080	0.00000000	24.87697000	15.82800000
157.99999079	0.00000000	25.25221000	15.78494000
158.19999078	0.00000000	25.29527000	15.78494000
158.39999077	0.00000000	25.29527000	15.78494000
158.59999075	0.00000000	25.29527000	15.78494000
158.79999074	0.00000000	25.29527000	15.78494000
158.99999073	-0.15871060	25.29527000	15.82800000
159.19999072	0.00000000	25.29527000	16.20325000
159.39999071	0.00000000	25.25221000	16.94759000
159.59999070	0.00000000	24.92003000	17.32283000
159.79999068	0.00000000	24.50787000	17.36589000
159.99999067	0.00000000	24.54478000	17.36589000
160.19999066	0.00000000	24.50787000	17.32283000
160.39999065	0.00000000	24.92003000	16.94759000
160.59999064	0.00000000	25.25221000	16.20325000
160.79999062	0.00000000	25.29527000	15.82800000
160.99999061	0.00000000	25.29527000	15.78494000
161.19999060	0.00000000	25.29527000	15.78494000
161.39999059	0.00000000	25.29527000	15.78494000
161.59999058	0.00000000	25.29527000	15.78494000
161.79999056	0.00000000	25.29527000	15.78494000
161.99999055	0.00000000	25.29527000	15.78494000
162.19999054	0.00000000	25.29527000	15.82800000
162.39999053	0.00000000	25.29527000	16.16018000
162.59999052	0.00000000	25.25221000	16.52928000
162.79999051	0.00000000	24.92003000	16.16018000
162.99999049	0.00000000	24.50787000	15.82800000
163.19999048	0.00000000	24.50172000	15.78494000
163.39999047	0.00000000	24.08957000	15.78494000
163.59999046	0.00000000	23.75738000	15.78494000
163.79999045	0.00000000	23.75738000	15.78494000
163.99999043	0.00000000	24.13263000	15.78494000
164.19999042	0.00000000	24.87697000	15.74188000
164.39999041	0.00000000	25.25221000	15.40969000
164.59999040	0.00000000	25.29527000	15.04675000
164.79999039	0.00000000	25.29527000	15.40969000
164.99999037	0.00000000	25.33834000	15.74188000
165.19999036	0.00000000	25.67052000	15.78494000
165.39999035	0.00000000	26.03961000	15.78494000
165.59999034	0.00000000	25.62746000	15.78494000
165.79999033	0.00000000	24.92003000	15.78494000
165.99999032	0.00000000	24.13263000	15.78494000
166.19999030	0.00000000	23.75738000	15.78494000
166.39999029	0.00000000	23.75738000	15.78494000
166.59999028	0.00000000	24.13263000	15.78494000
166.79999027	0.00000000	24.87697000	15.78494000
166.99999026	0.00000000	25.25221000	15.78494000
167.19999024	0.00000000	25.29527000	15.78494000
167.39999023	0.00000000	25.29527000	15.78494000
167.59999022	0.00000000	25.33834000	15.78494000
167.79999021	0.00000000	25.67052000	15.78494000
167.99999020	0.00000000	26.03961000	15.78494000
168.19999018	0.00000000	25.67052000	15.78494000
168.39999017	0.00000000	25.33834000	15.78494000
168.59999016	0.00000000	25.29527000	15.78494000
168.79999015	0.00000000	25.29527000	15.78494000
168.99999014	0.00000000	25.29527000	15.78494000
169.19999013	0.00000000	25.29527000	15.78494000
169.39999011	0.00000000	25.29527000	15.78494000
169.59999010	0.00000000	25.29527000	15.78494000
169.79999009	0.00000000	25.29527000	15.78494000
169.99999008	0.00000000	25.29527000	15.78494000
170.19999007	0.00000000	25.29527000	15.78494000
170.39999005	0.00000000	25.29527000	15.78494000
170.59999004	0.00000000	25.29527000	15.78494000
170.79999003	0.00000000	25.29527000	15.78494000
170.99999002	0.00000000	25.33834000	15.78494000
171.19999001	0.00000000	25.67052000	15.78494000
171.39998999	0.00000000	26.03961000	15.78494000
171.59998998	0.00000000	25.67052000	15.78494000
171.79998997	0.00000000	25.33834000	15.78494000
171.99998996	0.00000000	25.29527000	15.78494000
172.19998995	0.00000000	25.29527000	15.82800000
172.39998994	0.00000000	25.29527000	16.20325000
172.59998992	0.00000000	25.29527000	16.94759000
172.79998991	0.00000000	25.29527000	17.32283000
172.99998990	0.00000000	25.29527000	17.32283000
173.19998989	0.00000000	25.29527000	16.99065000
173.39998988	0.00000000	25.29527000	16.57849000
173.59998986	0.00000000	25.29527000	16.57234000
173.79998985	0.00000000	25.29527000	16.16018000
173.99998984	0.00000000	25.29527000	15.82800000
174.19998983	0.00000000	25.29527000	15.78494000
174.39998982	0.00000000	25.29527000	15.78494000
174.59998980	0.00000000	25.33834000	15.82800000
174.79998979	0.00000000	25.67052000	16.16018000
174.99998978	0.00000000	26.08268000	16.57234000
175.19998977	0.00000000	26.08883000	16.57849000
175.39998976	0.00000000	26.45792000	16.94759000
175.59998975	0.00000000	26.45792000	16.89837000
175.79998973	0.00000000	26.08883000	16.20325000
175.99998972	0.00000000	26.08268000	15.82800000
176.19998971	0.00000000	25.67052000	15.78494000
176.39998970	0.00000000	25.33834000	15.78494000
176.59998969	0.00000000	25.29527000	15.78494000
176.79998967	0.00000000	25.29527000	15.78494000
176.99998966	0.00000000	25.29527000	15.78494000
177.19998965	0.00000000	25.29527000	15.78494000
177.39998964	0.00000000	25.29527000	15.78494000
177.59998963	0.00000000	25.33834000	15.78494000
177.79998961	0.00000000	25.67052000	15.78494000
177.99998960	0.00000000	26.03961000	15.78494000
178.19998959	0.00000000	25.67052000	15.78494000
178.39998958	0.00000000	25.33834000	15.78494000
178.59998957	0.00000000	25.33834000	15.78494000
178.79998956	0.00000000	25.67052000	15.78494000
178.99998954	0.00000000	26.03961000	15.78494000
179.19998953	0.00000000	25.67052000	15.78494000
179.39998952	0.00000000	25.38755000	15.78494000
179.59998951	0.00000000	25.71358000	15.78494000
179.79998950	0.00000000	26.40871000	15.78494000
179.99998948	0.00000000	26.40871000	15.78494000
180.19998947	0.00000000	25.71358000	15.78494000
180.39998946	0.00000000	25.38755000	15.78494000
180.59998945	0.00000000	25.67052000	15.78494000
180.79998944	0.00000000	26.03961000	15.78494000
180.99998942	0.00000000	25.67052000	15.78494000
181.19998941	0.00000000	25.33834000	15.82800000
181.39998940	0.00000000	25.29527000	16.20325000
181.59998939	0.00000000	25.33834000	16.94759000
181.79998938	0.00000000	25.67052000	17.27362000
181.99998937	0.00000000	26.08268000	16.94759000
182.19998935	0.00000000	26.08883000	16.20325000
182.39998934	0.00000000	26.50098000	15.82800000
182.59998933	0.00000000	26.83317000	15.78494000
182.79998932	0.00000000	26.87623000	15.78494000
182.99998931	0.00000000	26.87623000	15.78494000
183.19998929	0.00000000	26.83317000	15.78494000
183.39998928	0.00000000	26.45792000	15.78494000
183.59998927	0.00000000	25.71358000	15.82800000
183.79998926	0.00000000	25.33834000	16.20325000
183.99998925	0.00000000	25.33834000	16.94759000
184.19998923	0.00000000	25.67052000	17.32283000
184.39998922	0.00000000	26.08268000	17.36589000
184.59998921	0.00000000	26.08883000	17.36589000
184.79998920	0.00000000	26.45792000	17.36589000
184.99998919	0.00000000	26.45792000	17.36589000
185.19998918	0.00000000	26.13189000	17.32283000
185.39998916	0.00000000	26.50098000	16.94759000
185.59998915	0.00000000	26.83317000	16.20325000
185.79998914	0.00000000	26.87623000	15.82800000
185.99998913	0.00000000	26.87623000	15.78494000
186.19998912	0.00000000	26.87623000	15.78494000
186.39998910	0.00000000	26.87623000	15.78494000
186.59998909	0.00000000	26.87623000	15.82800000
186.79998908	0.00000000	26.87623000	16.20325000
186.99998907	0.00000000	26.87623000	16.94759000
187.19998906	0.00000000	26.83317000	17.32283000
187.39998904	0.00000000	26.50098000	17.36589000
187.59998903	0.00000000	26.13189000	17.36589000
187.79998902	0.00000000	26.50098000	17.36589000
187.99998901	0.00000000	26.83317000	17.36589000
188.19998900	0.00000000	26.87623000	17.32283000
188.39998899	0.00000000	26.87623000	16.94759000
188.59998897	0.00000000	26.87623000	16.20325000
188.79998896	0.00000000	26.87623000	15.82800000
188.99998895	0.00000000	26.87623000	15.78494000
189.19998894	0.00000000	26.87623000	15.78494000
189.39998893	0.00000000	26.87623000	15.82800000
189.59998891	0.00000000	26.87623000	16.20325000
189.79998890	0.00000000	26.83317000	16.94759000
189.99998889	0.00000000	26.50098000	17.32283000
190.19998888	0.00000000	26.13189000	17.36589000
190.39998887	0.00000000	26.50098000	17.36589000
190.59998885	0.00000000	26.83317000	17.36589000
190.79998884	0.00000000	26.87623000	17.36589000
190.99998883	0.00000000	26.87623000	17.36589000
191.19998882	0.00000000	26.87623000	17.36589000
191.39998881	0.00000000	26.87623000	17.36589000
191.59998880	0.00000000	26.87623000	17.32283000
191.79998878	0.00000000	26.87623000	16.94759000
191.99998877	0.00000000	26.87623000	16.20325000
192.19998876	0.00000000	26.87623000	15.82800000
192.39998875	0.00000000	26.87623000	15.78494000
192.59998874	0.00000000	26.87623000	15.78494000
192.79998872	0.00000000	26.87623000	15.78494000
192.99998871	0.00000000	26.83317000	15.82800000
193.19998870	0.00000000	26.50098000	16.20325000
193.39998869	0.00000000	26.13189000	16.94759000
193.59998868	0.00000000	26.50098000	17.32283000
193.79998866	0.00000000	26.83317000	17.36589000
193.99998865	0.00000000	26.87623000	17.36589000
194.19998864	0.00000000	26.87623000	17.36589000
194.39998863	0.00000000	26.87623000	17.36589000
194.59998862	0.00000000	26.87623000	17.32283000
194.79998861	0.00000000	26.87623000	16.99065000
194.99998859	0.00000000	26.87623000	16.57849000
195.19998858	0.00000000	26.87623000	16.57234000
195.39998857	0.00000000	26.87623000	16.16018000
195.59998856	0.00000000	26.87623000	15.82800000
195.79998855	0.00000000	26.87623000	15.78494000
195.99998853	0.00000000	26.83317000	15.78494000
