Time	Channel A	Channel B	Channel C
(us)	(V)	(mV)	(mV)

-4.59999956	0.00000000	12.64764000	9.00590400
-4.39999957	0.00000000	13.34276000	9.05511800
-4.19999958	0.00000000	13.02288000	8.72908400
-3.99999959	0.00000000	12.69070000	9.09817800
-3.79999960	0.00000000	12.64764000	9.43036400
-3.59999962	0.00000000	12.64764000	9.47342500
-3.39999963	0.00000000	12.64764000	9.47342500
-3.19999964	0.00000000	12.64764000	9.47342500
-2.99999965	0.00000000	12.64764000	9.47342500
-2.79999966	0.00000000	12.64764000	9.47342500
-2.59999968	0.00000000	12.64764000	9.47342500
-2.39999969	0.00000000	12.64764000	9.47342500
-2.19999970	0.00000000	12.64764000	9.47342500
-1.99999971	0.00000000	12.64764000	9.47342500
-1.79999972	0.00000000	12.64764000	9.47342500
-1.59999973	0.00000000	12.64764000	9.47342500
-1.39999975	0.00000000	12.64764000	9.47342500
-1.19999976	0.00000000	12.64764000	9.47342500
-0.99999977	0.00000000	12.64764000	9.47342500
-0.79999978	0.00000000	12.64764000	9.47342500
-0.59999979	0.00000000	12.64764000	9.47342500
-0.39999981	0.15871060	12.64764000	9.43036400
-0.19999982	0.47736220	12.64764000	9.05511800
0.00000017	0.79601380	12.64764000	8.35998900
0.20000016	0.95533960	12.64764000	8.31077700
0.40000015	0.95533960	12.69070000	8.67987200
0.60000013	0.47736220	13.02288000	8.68602300
0.80000012	-0.31803640	13.39198000	9.05511800
1.00000011	-1.27399100	13.02288000	9.05511800
1.20000010	-2.07062000	12.69070000	8.72908400
1.40000009	-2.70792300	12.64764000	9.09817800
1.60000008	-2.70792300	12.64764000	9.43036400
1.80000006	-1.75196900	12.64764000	9.47342500
2.00000005	0.00000000	12.64764000	9.47342500
2.20000004	2.07062000	12.64764000	9.47342500
2.40000003	3.98191400	12.64764000	9.47342500
2.60000002	5.25652100	12.64764000	9.43036400
2.80000000	5.09719500	12.64764000	9.05511800
2.99999999	3.66326300	12.64764000	8.31077700
3.19999998	0.95533960	12.64764000	7.98474400
3.39999997	-2.38927200	12.64764000	8.31077700
3.59999996	-5.57517200	12.64764000	9.05511800
3.79999994	-7.64579200	12.64764000	9.43036400
3.99999993	-7.80511800	12.64764000	9.47342500
4.19999992	-6.05315000	12.64764000	9.47342500
4.39999991	-2.38927200	12.64764000	9.47342500
4.59999990	1.91129400	12.64764000	9.47342500
4.79999989	6.21247500	12.64764000	9.47342500
4.99999987	8.92039900	12.64764000	9.43036400
5.19999986	9.39837600	12.64764000	9.05511800
5.39999985	7.64579200	12.64764000	8.31077700
5.59999984	3.82258900	12.64764000	7.93553100
5.79999983	-0.95533960	12.64764000	7.89247000
5.99999981	-5.41584600	12.64764000	7.93553100
6.19999980	-8.60174700	12.64764000	8.31077700
6.39999979	-9.55770200	12.69070000	9.05511800
6.59999978	-8.12377000	13.02288000	9.43036400
6.79999977	-4.61921700	13.39198000	9.47342500
6.99999975	-0.31803640	13.02288000	9.47342500
7.19999974	3.82258900	12.69070000	9.47342500
7.39999973	6.69045300	12.64764000	9.43036400
7.59999972	7.80511800	12.64764000	9.05511800
7.79999971	6.84916400	12.64764000	8.31077700
7.99999970	4.45989200	12.64764000	7.93553100
8.19999968	1.11466500	12.64764000	7.93553100
8.39999967	-1.91129400	12.64764000	8.26771600
8.59999966	-4.30056600	12.64764000	8.67987200
8.79999965	-5.25652100	12.64764000	8.68602300
8.99999964	-4.77854300	12.64764000	9.09817800
9.19999962	-3.34522600	12.64764000	9.43036400
9.39999961	-1.27399100	12.64764000	9.47342500
9.59999960	0.47736220	12.64764000	9.47342500
9.79999959	1.91129400	12.69070000	9.47342500
9.99999958	2.54859700	13.02288000	9.47342500
10.19999956	2.38927200	13.39198000	9.47342500
10.39999955	1.75196900	13.06594000	9.43036400
10.59999954	0.79601380	13.06594000	9.09817800
10.79999953	0.00000000	13.39198000	8.68602300
10.99999952	-0.63668800	13.02288000	8.72293300
11.19999951	-0.95533960	12.69070000	8.68602300
11.39999949	-0.95533960	12.64764000	9.09817800
11.59999948	-0.79601380	12.64764000	9.43036400
11.79999947	-0.47736220	12.64764000	9.43036400
11.99999946	-0.15871060	12.64764000	9.09817800
12.19999945	-0.15871060	12.64764000	8.72908400
12.39999943	0.00000000	12.64764000	9.09817800
12.59999942	0.00000000	12.64764000	9.43036400
12.79999941	0.00000000	12.64764000	9.47342500
12.99999940	0.15871060	12.64764000	9.47342500
13.19999939	0.00000000	12.64764000	9.47342500
13.39999937	0.00000000	12.69070000	9.47342500
13.59999936	0.00000000	13.02288000	9.43036400
13.79999935	0.00000000	13.39198000	9.09817800
13.99999934	-0.15871060	13.02288000	8.68602300
14.19999933	-0.15871060	12.69070000	8.67987200
14.39999932	-0.15871060	12.64764000	8.31077700
14.59999930	0.00000000	12.64764000	8.35998900
14.79999929	0.00000000	12.64764000	9.05511800
14.99999928	0.00000000	12.64764000	9.43036400
15.19999927	0.00000000	12.64764000	9.47342500
15.39999926	0.00000000	12.64764000	9.47342500
15.59999924	0.00000000	12.64764000	9.47342500
15.79999923	0.00000000	12.69070000	9.47342500
15.99999922	0.00000000	13.02288000	9.47342500
16.19999921	0.00000000	13.39198000	9.47342500
16.39999920	-0.15871060	13.02288000	9.47342500
16.59999919	-0.15871060	12.73991000	9.47342500
16.79999917	-0.15871060	13.06594000	9.47342500
16.99999916	0.00000000	13.85334000	9.47342500
17.19999915	0.00000000	14.60384000	9.47342500
17.39999914	0.00000000	15.34203000	9.47342500
17.59999913	0.00000000	15.29897000	9.43036400
17.79999911	0.00000000	14.22859000	9.09817800
17.99999910	0.00000000	13.06594000	8.72908400
18.19999909	0.00000000	12.22933000	9.09817800
18.39999908	0.00000000	11.02362000	9.38115100
18.59999907	0.00000000	9.52879000	9.09817800
18.79999905	-0.15871060	8.37229300	8.72908400
18.99999904	0.00000000	8.04010800	9.05511800
19.19999903	0.00000000	8.83366100	9.05511800
19.39999902	0.00000000	11.20202000	8.72908400
19.59999901	0.00000000	14.64690000	9.05511800
19.79999900	0.00000000	18.55315000	9.05511800
19.99999898	0.00000000	21.99803000	8.72908400
20.19999897	0.00000000	24.27411000	9.09817800
20.39999896	0.00000000	24.18799000	9.43036400
20.59999895	0.00000000	21.06914000	9.47342500
20.79999894	0.00000000	15.25591000	9.47342500
20.99999892	0.00000000	7.90477300	9.47342500
21.19999891	0.00000000	0.55364170	9.47342500
21.39999890	0.00000000	-5.21653500	9.43036400
21.59999889	0.00000000	-7.82480200	9.09817800
21.79999888	0.00000000	-5.77632800	8.72908400
21.99999886	0.00000000	1.57480300	9.05511800
22.19999885	0.00000000	12.78297000	9.00590400
22.39999884	0.00000000	25.15994000	8.35998900
22.59999883	0.00000000	36.37426000	8.35998900
22.79999882	0.00000000	43.59005000	9.05511800
22.99999881	0.00000000	44.28518000	9.43036400
23.19999879	0.00000000	37.26624000	9.51648500
23.39999878	0.00000000	23.76968000	9.89173200
23.59999877	0.00000000	6.69906400	10.62992000
23.79999876	0.00000000	-10.28543000	11.00517000
23.99999875	0.00000000	-23.72662000	11.00517000
24.19999873	0.00000000	-29.41068000	10.58686000
24.39999872	0.00000000	-25.17224000	9.42421200
24.59999871	0.00000000	-11.96481000	7.89247000
24.79999870	0.00000000	7.76328700	6.31151500
24.99999869	0.00000000	30.17962000	4.77977300
25.19999867	0.00000000	49.77854000	3.66633800
25.39999866	0.00000000	61.73105000	3.66633800
25.59999865	0.00000000	62.43233000	4.82283400
25.79999864	0.00000000	51.63632000	6.82209600
25.99999863	0.00000000	31.53912000	9.98400600
26.19999862	0.00000000	6.83439900	14.16708000
26.39999860	0.00000000	-16.75689000	18.01796000
26.59999859	0.00000000	-34.06742000	20.30020000
26.79999858	0.00000000	-40.62500000	20.66929000
26.99999857	0.00000000	-34.48573000	18.21481000
27.19999856	0.00000000	-17.91339000	12.81988000
27.39999854	0.00000000	5.29650500	5.11195900
27.59999853	0.00000000	30.00123000	-2.55905500
27.79999852	0.00000000	50.47367000	-8.36614100
27.99999851	0.00000000	62.10630000	-11.01132000
28.19999850	0.00000000	62.52460000	-9.43036400
28.39999848	0.00000000	52.14690000	-3.58021600
28.59999847	0.00000000	33.63066000	5.75172200
28.79999846	0.00000000	11.62032000	17.32283000
28.99999845	0.00000000	-8.89517700	28.47564000
29.19999844	0.00000000	-23.64050000	36.14665000
29.39999843	0.00000000	-29.87205000	38.46580000
29.59999841	0.00000000	-26.80241000	34.51648000
29.79999840	0.00000000	-15.26206000	24.80315000
29.99999839	0.00000000	1.67322800	10.49459000
30.19999838	0.00000000	19.48819000	-5.25344500
30.39999837	0.00000000	34.65797000	-18.35630000
30.59999835	0.00000000	44.75270000	-25.73819000
30.79999834	0.00000000	47.82234000	-26.11343000
30.99999833	0.00000000	43.25787000	-19.46973000
31.19999832	0.00000000	32.51107000	-6.27460600
31.39999831	0.00000000	19.01451000	11.05438000
31.59999829	0.00000000	5.76402500	28.38337000
31.79999828	0.00000000	-5.08120100	41.52928000
31.99999827	0.00000000	-11.68184000	47.76082000
32.19999826	0.00000000	-12.51845000	46.22293000
32.39999825	0.00000000	-8.28617100	37.26009000
32.59999824	0.00000000	-0.14148620	22.20103000
32.79999822	0.00000000	10.69144000	4.08464600
32.99999821	0.00000000	21.44439000	-12.50615000
33.19999820	0.00000000	29.62598000	-24.16338000
33.39999819	0.00000000	33.49532000	-28.80782000
33.59999818	0.00000000	32.74483000	-25.73819000
33.79999816	0.00000000	27.39296000	-15.66191000
33.99999815	0.00000000	19.34670000	-0.60285430
34.19999814	0.00000000	11.20202000	16.39395000
34.39999813	0.00000000	4.22613100	31.40379000
34.59999812	0.00000000	-0.00615157	41.11097000
34.79999810	0.00000000	-0.42445860	43.44242000
34.99999809	0.00000000	2.60211600	38.46580000
35.19999808	0.00000000	7.99704600	27.26993000
35.39999807	0.00000000	14.13632000	12.62918000
35.59999806	0.00000000	19.53125000	-2.04847400
35.79999805	0.00000000	22.60704000	-13.61343000
35.99999803	0.00000000	22.65010000	-19.42667000
36.19999802	0.00000000	19.99877000	-18.26402000
36.39999801	0.00000000	15.76649000	-10.64222000
36.59999800	0.00000000	11.10974000	1.24877000
36.79999799	0.00000000	6.87746000	13.56422000
36.99999797	0.00000000	4.22613100	23.64665000
37.19999796	0.00000000	4.22613100	29.40452000
37.39999795	0.00000000	6.87746000	29.40452000
37.59999794	0.00000000	11.10974000	23.68971000
37.79999793	0.00000000	15.76649000	14.11786000
37.99999791	0.00000000	19.99877000	3.80167300
38.19999790	0.00000000	22.65010000	-4.27534400
38.39999789	0.00000000	22.69316000	-7.72022600
38.59999788	0.00000000	20.41708000	-5.81323800
38.79999787	0.00000000	16.92298000	1.06422200
38.99999786	0.00000000	12.64764000	10.58686000
39.19999784	0.00000000	8.41535400	19.42052000
39.39999783	0.00000000	5.29650500	25.17839000
39.59999782	0.00000000	3.75861200	26.29183000
39.79999781	0.00000000	4.13385800	22.06570000
39.99999780	0.00000000	6.45915300	13.65650000
40.19999778	0.00000000	9.95324800	3.70939900
40.39999777	0.00000000	14.22859000	-4.74286400
40.59999776	0.00000000	18.46087000	-9.34424200
40.79999775	0.00000000	21.53666000	-8.96899500
40.99999774	0.00000000	22.74237000	-3.58021600
41.19999772	0.00000000	21.99803000	5.19808000
41.39999771	0.00000000	20.08489000	14.85605000
41.59999770	0.00000000	17.29823000	22.90231000
41.79999769	0.00000000	13.76107000	27.54675000
41.99999768	0.00000000	9.52879000	27.13459000
42.19999767	0.00000000	5.76402500	22.20103000
42.39999765	0.00000000	4.18307100	14.11786000
42.59999764	0.00000000	4.87819900	5.29035400
42.79999763	0.00000000	6.79133800	-2.04847400
42.99999762	0.00000000	9.52879000	-6.27460600
43.19999761	0.00000000	12.60458000	-6.36687900
43.39999759	0.00000000	15.29897000	-2.93430100
43.59999758	0.00000000	16.87992000	2.46063000
43.79999757	0.00000000	17.29823000	9.00590400
43.99999756	0.00000000	16.97219000	14.76993000
44.19999755	0.00000000	16.22785000	18.30093000
44.39999753	0.00000000	15.85261000	19.46358000
44.59999752	0.00000000	15.80955000	17.93184000
44.79999751	0.00000000	15.80955000	14.16708000
44.99999750	0.00000000	15.76649000	9.93479300
45.19999749	0.00000000	15.34203000	6.44685000
45.39999748	0.00000000	14.13632000	4.08464600
45.59999746	0.00000000	12.18012000	3.29109200
45.79999745	0.00000000	9.48572700	3.66633800
45.99999744	0.00000000	6.79133800	5.19808000
46.19999743	0.00000000	4.87819900	7.51722400
46.39999742	0.00000000	4.09079700	9.84867000
46.59999740	0.00000000	4.97047200	12.16781000
46.79999739	0.00000000	7.72022600	13.65650000
46.99999738	0.00000000	12.78297000	13.69956000
47.19999737	0.00000000	18.92839000	12.58612000
47.39999736	0.00000000	24.69857000	11.00517000
47.59999734	0.00000000	28.46333000	9.00590400
47.79999733	0.00000000	28.46333000	6.36072800
47.99999732	0.00000000	24.60630000	4.08464600
48.19999731	0.00000000	18.04257000	3.29109200
48.39999730	0.00000000	9.90403500	3.66633800
48.59999729	0.00000000	2.17765700	5.24729300
48.79999727	0.00000000	-3.58636800	7.93553100
48.99999726	0.00000000	-5.81938900	11.00517000
49.19999725	0.00000000	-3.08193900	13.74262000
49.39999724	0.00000000	4.22613100	15.64960000
49.59999723	0.00000000	14.18553000	16.39395000
49.79999721	0.00000000	23.81275000	15.18824000
49.99999720	0.00000000	30.37647000	12.16166000
50.19999719	0.00000000	32.74483000	8.31077700
50.39999718	0.00000000	30.41954000	4.82283400
50.59999717	0.00000000	24.23105000	2.08538400
50.79999715	0.00000000	15.39124000	0.59670270
50.99999714	0.00000000	6.13927100	1.01501000
51.19999713	0.00000000	-0.75664370	3.70939900
51.39999712	0.00000000	-3.86318900	7.89247000
51.59999711	0.00000000	-1.91929100	12.16166000
51.79999710	0.00000000	4.13385800	15.64960000
51.99999708	0.00000000	12.22933000	17.92569000
52.19999707	0.00000000	19.95571000	17.92569000
52.39999706	0.00000000	25.71973000	15.64960000
52.59999705	0.00000000	28.00197000	12.16166000
52.79999704	0.00000000	25.71973000	7.93553100
52.99999702	0.00000000	19.99877000	4.12770700
53.19999701	0.00000000	12.69070000	2.17150600
53.39999700	0.00000000	5.76402500	2.12844500
53.59999699	0.00000000	1.15649600	3.66633800
53.79999698	0.00000000	-0.00615157	6.31151500
53.99999696	0.00000000	2.68823800	9.00590400
54.19999695	0.00000000	8.41535400	11.00517000
54.39999694	0.00000000	15.29897000	12.49385000
54.59999693	0.00000000	21.06914000	12.86294000
54.79999692	0.00000000	24.18799000	11.38041000
54.99999691	0.00000000	24.23105000	9.51648500
55.19999689	0.00000000	21.48745000	7.93553100
55.39999688	0.00000000	16.50467000	6.82209600
55.59999687	0.00000000	10.41462000	6.86515700
55.79999686	0.00000000	5.80708600	8.35383800
55.99999685	0.00000000	3.80782500	10.58686000
56.19999683	0.00000000	4.18307100	12.11860000
56.39999682	0.00000000	6.87746000	12.53691000
56.59999681	0.00000000	11.10974000	12.11860000
56.79999680	0.00000000	15.76649000	10.53765000
56.99999679	0.00000000	19.99877000	7.89247000
57.19999677	0.00000000	22.60704000	5.15501900
57.39999676	0.00000000	22.27485000	2.91584600
57.59999675	0.00000000	19.30364000	1.80856300
57.79999674	0.00000000	15.85261000	3.37721400
57.99999673	0.00000000	12.69070000	6.82209600
58.19999672	0.00000000	9.95324800	11.46653000
58.39999670	0.00000000	8.08316900	16.43701000
58.59999669	0.00000000	7.67101300	19.83883000
58.79999668	0.00000000	9.20275500	20.62008000
58.99999667	0.00000000	11.44193000	18.25787000
59.19999666	0.00000000	13.81028000	13.28125000
59.39999664	0.00000000	15.71727000	6.72982200
59.59999663	0.00000000	16.92298000	0.59670270
59.79999662	0.00000000	17.25517000	-3.62942900
59.99999661	0.00000000	16.55389000	-4.78592500
60.19999660	0.00000000	15.02214000	-2.46678100
60.39999658	0.00000000	13.85334000	2.55290300
60.59999657	0.00000000	12.69070000	9.51648500
60.79999656	0.00000000	11.95251000	16.76919000
60.99999655	0.00000000	12.31545000	22.20103000
61.19999654	0.00000000	13.02288000	24.48326000
61.39999653	0.00000000	13.81028000	23.32062000
61.59999651	0.00000000	14.18553000	18.25787000
61.79999650	0.00000000	14.18553000	10.62992000
61.99999649	0.00000000	13.76107000	2.54675200
62.19999648	0.00000000	12.64764000	-3.62942900
62.39999647	0.00000000	11.53420000	-6.74212600
62.59999645	0.00000000	11.10974000	-6.36687900
62.79999644	0.00000000	11.10974000	-2.51599400
62.99999643	0.00000000	11.53420000	3.70939900
63.19999642	0.00000000	12.69070000	11.42347000
63.39999641	0.00000000	14.18553000	19.04527000
63.59999639	0.00000000	15.34203000	23.68971000
63.79999638	0.00000000	15.76649000	24.53248000
63.99999637	0.00000000	15.76649000	22.24409000
64.19999636	0.00000000	15.34203000	17.18750000
64.39999635	0.00000000	14.18553000	10.67298000
64.59999634	0.00000000	12.64764000	4.08464600
64.79999632	0.00000000	11.15896000	-0.93503930
64.99999631	0.00000000	10.37155000	-3.67249000
65.19999630	0.00000000	10.73450000	-3.67249000
65.39999629	0.00000000	11.48499000	-1.02116100
65.59999628	0.00000000	12.64764000	3.24803100
65.79999626	0.00000000	13.81028000	8.26771600
65.99999625	0.00000000	14.56078000	13.28125000
66.19999624	0.00000000	14.92372000	16.76919000
66.39999623	0.00000000	14.13632000	18.43627000
66.59999622	0.00000000	12.69070000	18.81152000
66.79999620	0.00000000	11.53420000	18.01796000
66.99999619	0.00000000	11.10974000	15.69882000
67.19999618	0.00000000	11.15896000	12.62918000
67.39999617	0.00000000	11.95251000	9.47342500
67.59999616	0.00000000	13.89641000	6.36072800
67.79999615	0.00000000	16.14173000	3.61712600
67.99999613	0.00000000	18.08563000	1.66707700
68.19999612	0.00000000	18.83612000	0.51058070
68.39999611	0.00000000	18.46087000	0.55364170
68.59999610	0.00000000	16.83686000	2.12844500
68.79999609	0.00000000	13.76107000	5.24729300
68.99999607	0.00000000	9.90403500	9.47342500
69.19999606	0.00000000	6.45915300	13.74262000
69.39999605	0.00000000	4.13385800	17.23056000
69.59999604	0.00000000	3.80782500	19.55585000
69.79999603	0.00000000	5.76402500	19.93110000
69.99999601	0.00000000	9.99630800	18.35015000
70.19999600	0.00000000	15.34203000	14.85605000
70.39999599	0.00000000	20.04183000	9.84867000
70.59999598	0.00000000	23.53592000	4.82898600
70.79999597	0.00000000	25.43676000	0.55364170
70.99999596	0.00000000	24.56324000	-2.09153500
71.19999594	0.00000000	20.78617000	-2.09153500
71.39999593	0.00000000	14.97908000	0.55364170
71.59999592	0.00000000	9.20275500	4.77977300
71.79999591	0.00000000	4.13385800	9.43036400
71.99999590	0.00000000	1.10728300	13.69956000
72.19999588	0.00000000	1.06422200	16.76919000
72.39999587	0.00000000	3.75861200	17.92569000
72.59999586	0.00000000	8.41535400	16.81225000
72.79999585	0.00000000	14.18553000	14.16092000
72.99999584	0.00000000	19.62352000	11.04823000
73.19999582	0.00000000	23.44365000	7.98474400
73.39999581	0.00000000	25.06151000	5.66560000
73.59999580	0.00000000	23.91117000	4.87204700
73.79999579	0.00000000	21.20448000	5.24729300
73.99999578	0.00000000	16.87992000	6.72982200
74.19999577	0.00000000	11.57726000	8.58759800
74.39999575	0.00000000	7.34498000	9.38115100
74.59999574	0.00000000	5.33956700	9.43036400
74.79999573	0.00000000	5.29650500	9.00590400
74.99999572	0.00000000	6.83439900	7.89247000
75.19999571	0.00000000	9.52879000	6.82209600
75.39999569	0.00000000	12.64764000	6.82209600
75.59999568	0.00000000	15.71727000	7.98474400
75.79999567	0.00000000	17.99951000	9.89173200
75.99999566	0.00000000	18.41781000	12.21087000
76.19999565	0.00000000	17.39050000	14.11786000
76.39999563	0.00000000	16.18479000	15.27436000
76.59999562	0.00000000	15.01599000	15.18824000
76.79999561	0.00000000	13.48425000	13.28125000
76.99999560	0.00000000	12.73991000	9.79945900
77.19999559	0.00000000	12.64764000	5.93626900
77.39999558	0.00000000	12.64764000	2.08538400
77.59999556	0.00000000	12.64764000	-0.55979330
77.79999555	0.00000000	12.64764000	-0.93503930
77.99999554	0.00000000	12.60458000	0.97194880
78.19999553	0.00000000	12.22933000	4.87204700
78.39999552	0.00000000	11.48499000	9.89173200
78.59999550	0.00000000	11.10974000	15.23130000
78.79999549	0.00000000	11.15896000	19.08834000
78.99999548	0.00000000	11.95251000	20.25714000
79.19999547	0.00000000	13.85334000	19.13140000
79.39999546	0.00000000	15.76649000	15.64960000
79.59999544	0.00000000	17.34744000	11.04823000
79.79999543	0.00000000	18.41781000	6.40378900
79.99999542	0.00000000	18.04257000	2.50369100
80.19999541	0.00000000	16.14173000	0.17839570
80.39999540	0.00000000	13.81028000	-0.60285430
80.59999539	0.00000000	11.10974000	0.55364170
80.79999537	0.00000000	8.83366100	3.24803100
80.99999536	0.00000000	8.04010800	6.72982200
81.19999535	0.00000000	8.41535400	10.58686000
81.39999534	0.00000000	9.99630800	13.69956000
81.59999533	0.00000000	12.64764000	15.64960000
81.79999531	0.00000000	15.34203000	16.48007000
81.99999530	0.00000000	17.29823000	16.06791000
82.19999529	0.00000000	18.46087000	14.94833000
82.39999528	0.00000000	18.41781000	12.95522000
82.59999527	0.00000000	16.92298000	10.62992000
82.79999525	0.00000000	14.64690000	7.89247000
82.99999524	0.00000000	12.69070000	5.19808000
83.19999523	0.00000000	11.10974000	3.24803100
83.39999522	0.00000000	9.99630800	2.08538400
83.59999521	0.00000000	9.95324800	2.08538400
83.79999520	0.00000000	10.69144000	3.29109200
83.99999518	0.00000000	11.48499000	5.61638700
84.19999517	0.00000000	12.64764000	9.09817800
84.39999516	0.00000000	13.76107000	12.58612000
84.59999515	0.00000000	14.18553000	15.69882000
84.79999514	0.00000000	14.22859000	17.97490000
84.99999512	0.00000000	14.22859000	18.30093000
85.19999511	0.00000000	14.22859000	16.43701000
85.39999510	0.00000000	14.22859000	12.96137000
85.59999509	0.00000000	14.22859000	9.05511800
85.79999508	0.00000000	14.22859000	4.77977300
85.99999506	0.00000000	14.22859000	0.97194880
86.19999505	0.00000000	14.22859000	-0.93503930
86.39999504	0.00000000	14.18553000	-0.55979330
86.59999503	0.00000000	13.76107000	2.12844500
86.79999502	0.00000000	12.64764000	6.35457700
86.99999501	0.00000000	11.53420000	11.00517000
87.19999499	0.00000000	11.10974000	15.23130000
87.39999498	0.00000000	11.10974000	17.92569000
87.59999497	0.00000000	11.53420000	18.30093000
87.79999496	0.00000000	12.69070000	16.39395000
87.99999495	0.00000000	14.18553000	12.49385000
88.19999493	0.00000000	15.34203000	7.51722400
88.39999492	0.00000000	15.76649000	2.55290300
88.59999491	0.00000000	15.71727000	-0.51673230
88.79999490	0.00000000	14.97293000	-0.93503930
88.99999489	0.00000000	13.44119000	1.02116100
89.19999487	0.00000000	12.31545000	5.24729300
89.39999486	0.00000000	11.44193000	10.58686000
89.59999485	0.00000000	10.73450000	15.23130000
89.79999484	0.00000000	10.37155000	18.30093000
89.99999483	0.00000000	11.15896000	19.04527000
90.19999482	0.00000000	12.60458000	16.76919000
90.39999480	0.00000000	13.76107000	12.53691000
90.59999479	0.00000000	14.18553000	7.51722400
90.79999478	0.00000000	14.22859000	2.55290300
90.99999477	0.00000000	14.22859000	-0.46751960
91.19999476	0.00000000	14.22859000	-0.51673230
91.39999474	0.00000000	14.22859000	2.12844500
91.59999473	0.00000000	14.22859000	6.40378900
91.79999472	0.00000000	14.22859000	11.38041000
91.99999471	0.00000000	14.22859000	15.97564000
92.19999470	0.00000000	14.22859000	18.25787000
92.39999468	0.00000000	14.22859000	17.92569000
92.59999467	0.00000000	14.18553000	15.23130000
92.79999466	0.00000000	13.76107000	11.00517000
92.99999465	0.00000000	12.64764000	6.40378900
93.19999464	0.00000000	11.48499000	2.54675200
93.39999463	0.00000000	10.73450000	0.63976370
93.59999461	0.00000000	10.37155000	1.01501000
93.79999460	0.00000000	11.15896000	3.70939900
93.99999459	0.00000000	12.69070000	7.89247000
94.19999458	0.00000000	14.64690000	12.11860000
94.39999457	0.00000000	16.92298000	15.23130000
94.59999455	0.00000000	18.46087000	16.76919000
94.79999454	0.00000000	18.87918000	16.35089000
94.99999453	0.00000000	18.46087000	13.65650000
95.19999452	0.00000000	16.87992000	9.51648500
95.39999451	0.00000000	14.18553000	5.66560000
95.59999449	0.00000000	11.10974000	3.33415300
95.79999448	0.00000000	8.41535400	2.50369100
95.99999447	0.00000000	6.83439900	3.33415300
96.19999446	0.00000000	6.45915300	5.61638700
96.39999445	0.00000000	7.29576700	9.05511800
96.59999444	0.00000000	9.99630800	12.07554000
96.79999442	0.00000000	13.81028000	13.69956000
96.99999441	0.00000000	17.34744000	14.07480000
97.19999440	0.00000000	20.41708000	13.32431000
97.39999439	0.00000000	22.31791000	11.38041000
97.59999438	0.00000000	21.90576000	9.14124000
97.79999436	0.00000000	19.66658000	7.14812900
97.99999435	0.00000000	16.14173000	6.02854300
98.19999434	0.00000000	12.27239000	5.57332700
98.39999433	0.00000000	8.41535400	5.98548200
98.59999432	0.00000000	5.76402500	6.72982200
98.79999430	0.00000000	5.29650500	7.89247000
98.99999429	0.00000000	6.45915300	9.05511800
99.19999428	0.00000000	8.79060000	9.84867000
99.39999427	0.00000000	12.27239000	10.62992000
99.59999426	0.00000000	15.76649000	11.00517000
99.79999425	0.00000000	18.87918000	11.04823000
99.99999423	0.00000000	21.16142000	11.04823000
100.19999422	0.00000000	21.53666000	11.04823000
100.39999421	0.00000000	20.08489000	11.04823000
100.59999420	0.00000000	17.72268000	11.00517000
100.79999419	0.00000000	15.01599000	10.58686000
100.99999417	0.00000000	11.90330000	9.42421200
101.19999416	0.00000000	9.62106200	7.89247000
101.39999415	0.00000000	8.37229300	6.36072800
101.59999414	0.00000000	7.99704600	5.19808000
101.79999413	0.00000000	8.41535400	4.82898600
101.99999411	0.00000000	9.95324800	5.24729300
102.19999410	0.00000000	12.27239000	6.82209600
102.39999409	0.00000000	14.60384000	9.51648500
102.59999408	0.00000000	16.92298000	12.53691000
102.79999407	0.00000000	18.41781000	14.81299000
102.99999406	0.00000000	18.50394000	15.23130000
103.19999404	0.00000000	17.72268000	14.11786000
103.39999403	0.00000000	16.55389000	12.16781000
103.59999402	0.00000000	14.56078000	9.42421200
103.79999401	0.00000000	12.31545000	6.36072800
103.99999400	0.00000000	10.37155000	3.70939900
104.19999398	0.00000000	9.57800100	2.54675200
104.39999397	0.00000000	9.52879000	3.29109200
104.59999396	0.00000000	9.95324800	5.19808000
104.79999395	0.00000000	11.10974000	7.93553100
104.99999394	0.00000000	12.64764000	10.96211000
105.19999392	0.00000000	14.18553000	13.32431000
105.39999391	0.00000000	15.34203000	14.45005000
105.59999390	0.00000000	15.76649000	14.48696000
105.79999389	0.00000000	15.71727000	12.91215000
105.99999388	0.00000000	14.97293000	10.62992000
106.19999387	0.00000000	13.44119000	7.93553100
106.39999385	0.00000000	12.31545000	5.66560000
106.59999384	0.00000000	11.53420000	4.87204700
106.79999383	0.00000000	11.53420000	5.19808000
106.99999382	0.00000000	12.27239000	6.40378900
107.19999381	0.00000000	13.06594000	8.31077700
107.39999379	0.00000000	14.22859000	10.58686000
107.59999378	0.00000000	15.34203000	12.11860000
107.79999377	0.00000000	15.71727000	12.53691000
107.99999376	0.00000000	15.34203000	12.16166000
108.19999375	0.00000000	14.18553000	10.96211000
108.39999374	0.00000000	12.69070000	9.09817800
108.59999372	0.00000000	11.53420000	7.19734200
108.79999371	0.00000000	11.10974000	6.40378900
108.99999370	0.00000000	11.10974000	6.35457700
109.19999369	0.00000000	11.53420000	6.77903500
109.39999368	0.00000000	12.64764000	7.93553100
109.59999366	0.00000000	13.81028000	9.47342500
109.79999365	0.00000000	14.60384000	11.00517000
109.99999364	0.00000000	15.39124000	12.16166000
110.19999363	0.00000000	15.71727000	12.53691000
110.39999362	0.00000000	15.39124000	12.11860000
110.59999360	0.00000000	14.60384000	10.62992000
110.79999359	0.00000000	13.85334000	8.72908400
110.99999358	0.00000000	13.02288000	7.56028500
111.19999357	0.00000000	12.31545000	6.72982200
111.39999356	0.00000000	11.90330000	6.35457700
111.59999355	0.00000000	12.27239000	6.35457700
111.79999353	0.00000000	12.64764000	6.77903500
111.99999352	0.00000000	13.06594000	7.89247000
112.19999351	0.00000000	13.81028000	9.05511800
112.39999350	0.00000000	14.18553000	9.84867000
112.59999349	0.00000000	14.22859000	10.62992000
112.79999347	0.00000000	14.22859000	11.00517000
112.99999346	0.00000000	14.18553000	11.00517000
113.19999345	0.00000000	13.85334000	10.62992000
113.39999344	0.00000000	13.48425000	9.89173200
113.59999343	0.00000000	13.81028000	9.47342500
113.79999341	0.00000000	13.76107000	9.05511800
113.99999340	0.00000000	13.06594000	8.31077700
114.19999339	0.00000000	12.69070000	7.93553100
114.39999338	0.00000000	12.64764000	7.89247000
114.59999337	0.00000000	12.69070000	7.89247000
114.79999336	0.00000000	13.06594000	7.89247000
114.99999334	0.00000000	13.81028000	7.89247000
115.19999333	0.00000000	14.18553000	7.89247000
115.39999332	0.00000000	14.22859000	7.93553100
115.59999331	0.00000000	14.22859000	8.35998900
115.79999330	0.00000000	14.22859000	9.47342500
115.99999328	0.00000000	14.18553000	10.58686000
116.19999327	0.00000000	13.85334000	11.00517000
116.39999326	0.00000000	13.44119000	11.04823000
116.59999325	0.00000000	13.43504000	11.04823000
116.79999324	0.00000000	13.02288000	11.00517000
116.99999322	0.00000000	12.73991000	10.58686000
117.19999321	0.00000000	13.06594000	9.47342500
117.39999320	0.00000000	13.81028000	8.31077700
117.59999319	0.00000000	14.22859000	7.51722400
117.79999318	0.00000000	14.64690000	6.77903500
117.99999317	0.00000000	15.34203000	6.77903500
118.19999315	0.00000000	15.34203000	7.47416300
118.39999314	0.00000000	14.60384000	7.89247000
118.59999313	0.00000000	13.85334000	8.35998900
118.79999312	0.00000000	13.06594000	9.47342500
118.99999311	0.00000000	12.64764000	10.58686000
119.19999309	0.00000000	12.22933000	11.00517000
119.39999308	0.00000000	11.53420000	11.04823000
119.59999307	0.00000000	11.53420000	11.04823000
119.79999306	0.00000000	12.27239000	11.00517000
119.99999305	0.00000000	13.06594000	10.62992000
120.19999303	0.00000000	14.27165000	9.84867000
120.39999302	0.00000000	15.76649000	9.09817800
120.59999301	0.00000000	16.87992000	8.31077700
120.79999300	0.00000000	16.92298000	7.93553100
120.99999299	0.00000000	16.18479000	7.89247000
121.19999298	0.00000000	15.39124000	7.89247000
121.39999296	0.00000000	14.18553000	7.89247000
121.59999295	0.00000000	12.69070000	7.93553100
121.79999294	0.00000000	11.53420000	8.31077700
121.99999293	0.00000000	11.10974000	9.05511800
122.19999292	0.00000000	11.10974000	9.47342500
122.39999290	0.00000000	11.53420000	9.89173200
122.59999289	0.00000000	12.64764000	10.62992000
122.79999288	0.00000000	13.81028000	11.00517000
122.99999287	0.00000000	14.60384000	11.00517000
123.19999286	0.00000000	15.39124000	10.62992000
123.39999284	0.00000000	15.76649000	9.89173200
123.59999283	0.00000000	15.80955000	9.47342500
123.79999282	0.00000000	15.76649000	9.05511800
123.99999281	0.00000000	15.39124000	8.31077700
124.19999280	0.00000000	14.60384000	7.93553100
124.39999279	0.00000000	13.81028000	7.89247000
124.59999277	0.00000000	12.69070000	7.93553100
124.79999276	0.00000000	11.90330000	8.31077700
124.99999275	0.00000000	11.85408000	9.05511800
125.19999274	0.00000000	11.48499000	9.47342500
125.39999273	0.00000000	11.53420000	9.89173200
125.59999271	0.00000000	12.27239000	10.62992000
125.79999270	0.00000000	13.06594000	11.00517000
125.99999269	0.00000000	14.22859000	11.00517000
126.19999268	0.00000000	15.34203000	10.62992000
126.39999267	0.00000000	15.76649000	9.89173200
126.59999265	0.00000000	15.80955000	9.51648500
126.79999264	0.00000000	15.76649000	9.43036400
126.99999263	0.00000000	15.34203000	9.05511800
127.19999262	0.00000000	14.22859000	8.31077700
127.39999261	0.00000000	13.06594000	7.93553100
127.59999260	0.00000000	12.27239000	7.93553100
127.79999258	0.00000000	11.53420000	8.31077700
127.99999257	0.00000000	11.53420000	9.05511800
128.19999256	0.00000000	12.27239000	9.43036400
128.39999255	0.00000000	13.06594000	9.47342500
128.59999254	0.00000000	14.22859000	9.51648500
128.79999252	0.00000000	15.34203000	9.84867000
128.99999251	0.00000000	15.76649000	10.21161000
129.19999250	0.00000000	15.76649000	9.84867000
129.39999249	0.00000000	15.39124000	9.51648500
129.59999248	0.00000000	14.60384000	9.47342500
129.79999246	0.00000000	13.85334000	9.47342500
129.99999245	0.00000000	13.02288000	9.47342500
130.19999244	0.00000000	12.31545000	9.47342500
130.39999243	0.00000000	11.90330000	9.47342500
130.59999242	0.00000000	12.27239000	9.47342500
130.79999241	0.00000000	12.64764000	9.47342500
130.99999239	0.00000000	13.06594000	9.47342500
131.19999238	0.00000000	13.85334000	9.47342500
131.39999237	0.00000000	14.56078000	9.47342500
131.59999236	0.00000000	14.97293000	9.43036400
131.79999235	0.00000000	14.60384000	9.05511800
131.99999233	0.00000000	14.22859000	8.31077700
132.19999232	0.00000000	13.81028000	7.93553100
132.39999231	0.00000000	13.06594000	7.89247000
132.59999230	0.00000000	12.69070000	7.93553100
132.79999229	0.00000000	12.64764000	8.31077700
132.99999227	0.00000000	12.64764000	9.09817800
133.19999226	0.00000000	12.64764000	9.84867000
133.39999225	0.00000000	12.69070000	10.62992000
133.59999224	0.00000000	13.06594000	11.00517000
133.79999223	0.00000000	13.81028000	11.00517000
133.99999222	0.00000000	14.18553000	10.62992000
134.19999220	0.00000000	14.22859000	9.84867000
134.39999219	0.00000000	14.22859000	9.09817800
134.59999218	0.00000000	14.22859000	8.26771600
134.79999217	0.00000000	14.22859000	7.51722400
134.99999216	0.00000000	14.27165000	6.77903500
135.19999214	0.00000000	14.60384000	6.77903500
135.39999213	0.00000000	14.97293000	7.51722400
135.59999212	0.00000000	14.56078000	8.26771600
135.79999211	0.00000000	13.85334000	9.05511800
135.99999210	0.00000000	13.06594000	9.47342500
136.19999208	0.00000000	12.69070000	9.89173200
136.39999207	0.00000000	12.64764000	10.62992000
136.59999206	0.00000000	12.64764000	10.95595000
136.79999205	0.00000000	12.64764000	10.67298000
136.99999204	0.00000000	12.69070000	10.21776000
137.19999203	0.00000000	13.11516000	9.83636800
137.39999201	0.00000000	14.22859000	8.68602300
137.59999200	0.00000000	15.29897000	7.98474400
137.79999199	0.00000000	15.34203000	7.89247000
137.99999198	0.00000000	14.64690000	7.89247000
138.19999197	0.00000000	14.22859000	7.89247000
138.39999195	0.00000000	13.81028000	7.93553100
138.59999194	0.00000000	13.06594000	8.31077700
138.79999193	0.00000000	12.69070000	9.05511800
138.99999192	0.00000000	12.64764000	9.47342500
139.19999191	0.00000000	12.69070000	9.89173200
139.39999189	0.00000000	13.06594000	10.62992000
139.59999188	0.00000000	13.81028000	11.00517000
139.79999187	0.00000000	14.18553000	11.00517000
139.99999186	0.00000000	14.22859000	10.62992000
140.19999185	0.00000000	14.22859000	9.84867000
140.39999184	0.00000000	14.22859000	9.09817800
140.59999182	0.00000000	14.22859000	8.31077700
140.79999181	0.00000000	14.18553000	7.93553100
140.99999180	0.00000000	13.81028000	7.89247000
141.19999179	0.00000000	13.06594000	7.93553100
141.39999178	0.00000000	12.69070000	8.31077700
141.59999176	0.00000000	12.69070000	9.09817800
141.79999175	0.00000000	13.06594000	9.84867000
141.99999174	0.00000000	13.85334000	10.62992000
142.19999173	0.00000000	14.56078000	11.00517000
142.39999172	0.00000000	14.97293000	11.00517000
142.59999170	0.00000000	14.60384000	10.62992000
142.79999169	0.00000000	14.27165000	9.84867000
142.99999168	0.00000000	14.18553000	9.09817800
143.19999167	0.00000000	13.81028000	8.31077700
143.39999166	0.00000000	13.06594000	7.93553100
143.59999165	0.00000000	12.69070000	7.89247000
143.79999163	0.00000000	12.69070000	7.89247000
143.99999162	0.00000000	13.06594000	7.93553100
144.19999161	0.00000000	13.81028000	8.31077700
144.39999160	0.00000000	14.18553000	9.09817800
144.59999159	0.00000000	14.22859000	9.84867000
144.79999157	0.00000000	14.22859000	10.62992000
144.99999156	0.00000000	14.18553000	11.00517000
145.19999155	0.00000000	13.81028000	11.00517000
145.39999154	0.00000000	13.06594000	10.62992000
145.59999153	0.00000000	12.69070000	9.84867000
145.79999151	0.00000000	12.64764000	9.09817800
145.99999150	0.00000000	12.64764000	8.31077700
146.19999149	0.00000000	12.69070000	7.93553100
146.39999148	0.00000000	13.06594000	7.89247000
146.59999147	0.00000000	13.81028000	7.93553100
146.79999146	0.00000000	14.18553000	8.31077700
146.99999144	0.00000000	14.22859000	9.05511800
147.19999143	0.00000000	14.22859000	9.47342500
147.39999142	0.00000000	14.22859000	9.89173200
147.59999141	0.00000000	14.18553000	10.58686000
147.79999140	0.00000000	13.81028000	10.58686000
147.99999138	0.00000000	13.11516000	9.89173200
148.19999137	0.00000000	13.06594000	9.51648500
148.39999136	0.00000000	13.43504000	9.47342500
148.59999135	0.00000000	13.39813000	9.43036400
148.79999134	0.00000000	13.47810000	9.05511800
148.99999132	0.00000000	13.44119000	8.31077700
149.19999131	0.00000000	13.85334000	7.98474400
149.39999130	0.00000000	14.18553000	8.31077700
149.59999129	0.00000000	14.22859000	9.05511800
149.79999128	0.00000000	14.22859000	9.43036400
149.99999127	0.00000000	14.22859000	9.47342500
150.19999125	0.00000000	14.22859000	9.47342500
150.39999124	0.00000000	14.22859000	9.47342500
150.59999123	0.00000000	14.22859000	9.47342500
150.79999122	0.00000000	14.18553000	9.47342500
150.99999121	0.00000000	13.81028000	9.47342500
151.19999119	0.00000000	13.06594000	9.47342500
151.39999118	0.00000000	12.69070000	9.47342500
151.59999117	0.00000000	12.69070000	9.43036400
151.79999116	0.00000000	13.06594000	9.05511800
151.99999115	0.00000000	13.81028000	8.35998900
152.19999113	0.00000000	14.18553000	8.35998900
152.39999112	0.00000000	14.22859000	9.05511800
152.59999111	0.00000000	14.22859000	9.43036400
152.79999110	0.00000000	14.22859000	9.47342500
152.99999109	0.00000000	14.22859000	9.47342500
153.19999108	0.00000000	14.22859000	9.47342500
153.39999106	0.00000000	14.18553000	9.43036400
153.59999105	0.00000000	13.81028000	9.09817800
153.79999104	0.00000000	13.06594000	8.72908400
153.99999103	0.00000000	12.69070000	9.09817800
154.19999102	0.00000000	12.64764000	9.43036400
154.39999100	0.00000000	12.64764000	9.47342500
154.59999099	0.00000000	12.69070000	9.47342500
154.79999098	0.00000000	13.06594000	9.47342500
154.99999097	0.00000000	13.81028000	9.43036400
155.19999096	0.00000000	14.18553000	9.05511800
155.39999094	0.00000000	14.22859000	8.31077700
155.59999093	0.00000000	14.27165000	7.93553100
155.79999092	0.00000000	14.60384000	7.93553100
155.99999091	0.00000000	14.97293000	8.31077700
156.19999090	0.00000000	14.60384000	9.05511800
156.39999089	0.00000000	14.22859000	9.43036400
156.59999087	0.00000000	13.81028000	9.51648500
156.79999086	0.00000000	13.06594000	9.84867000
156.99999085	0.00000000	12.69070000	10.21161000
157.19999084	0.00000000	12.64764000	9.84867000
157.39999083	0.00000000	12.64764000	9.51648500
157.59999081	0.00000000	12.69070000	9.47342500
157.79999080	0.00000000	13.06594000	9.43036400
157.99999079	0.00000000	13.81028000	9.05511800
158.19999078	0.00000000	14.22859000	8.35998900
158.39999077	0.00000000	14.60384000	8.31077700
158.59999075	0.00000000	14.97293000	8.67987200
158.79999074	0.00000000	14.60384000	8.68602300
158.99999073	0.00000000	14.27165000	9.09817800
159.19999072	0.00000000	14.18553000	9.43036400
159.39999071	0.00000000	13.81028000	9.47342500
159.59999070	0.00000000	13.06594000	9.47342500
159.79999068	0.00000000	12.69070000	9.51648500
159.99999067	0.00000000	12.64764000	9.84867000
160.19999066	0.00000000	12.69070000	10.21161000
160.39999065	0.00000000	13.02288000	9.84867000
160.59999064	0.00000000	13.43504000	9.51648500
160.79999062	0.00000000	13.39813000	9.43036400
160.99999061	0.00000000	13.47810000	9.09817800
161.19999060	0.00000000	13.44119000	8.68602300
161.39999059	0.00000000	13.85334000	8.72293300
161.59999058	0.00000000	14.18553000	8.68602300
161.79999056	0.00000000	14.22859000	9.09817800
161.99999055	0.00000000	14.22859000	9.43036400
162.19999054	0.00000000	14.22859000	9.47342500
162.39999053	0.00000000	14.22859000	9.47342500
162.59999052	0.00000000	14.18553000	9.47342500
162.79999051	0.00000000	13.81028000	9.47342500
162.99999049	0.00000000	13.11516000	9.47342500
163.19999048	0.00000000	13.06594000	9.47342500
163.39999047	0.00000000	13.39198000	9.47342500
163.59999046	0.00000000	13.02288000	9.47342500
163.79999045	0.00000000	12.73991000	9.47342500
163.99999043	0.00000000	13.06594000	9.47342500
164.19999042	0.00000000	13.81028000	9.47342500
164.39999041	0.00000000	14.18553000	9.47342500
164.59999040	0.00000000	14.22859000	9.47342500
164.79999039	0.00000000	14.22859000	9.47342500
164.99999037	0.00000000	14.22859000	9.47342500
165.19999036	0.00000000	14.22859000	9.47342500
165.39999035	0.00000000	14.22859000	9.47342500
165.59999034	0.00000000	14.22859000	9.47342500
165.79999033	0.00000000	14.18553000	9.47342500
165.99999032	0.00000000	13.81028000	9.47342500
166.19999030	0.00000000	13.06594000	9.47342500
166.39999029	0.00000000	12.73991000	9.47342500
166.59999028	0.00000000	13.02288000	9.47342500
166.79999027	0.00000000	13.43504000	9.47342500
166.99999026	0.00000000	13.44119000	9.47342500
167.19999024	0.00000000	13.85334000	9.47342500
167.39999023	0.00000000	14.18553000	9.47342500
167.59999022	0.00000000	14.22859000	9.47342500
167.79999021	0.00000000	14.22859000	9.47342500
167.99999020	0.00000000	14.22859000	9.47342500
168.19999018	0.00000000	14.22859000	9.47342500
168.39999017	0.00000000	14.22859000	9.47342500
168.59999016	0.00000000	14.22859000	9.47342500
168.79999015	0.00000000	14.22859000	9.43036400
168.99999014	0.00000000	14.22859000	9.09817800
169.19999013	0.00000000	14.22859000	8.72908400
169.39999011	0.00000000	14.18553000	9.09817800
169.59999010	0.00000000	13.81028000	9.43036400
169.79999009	0.00000000	13.11516000	9.47342500
169.99999008	0.00000000	13.11516000	9.47342500
170.19999007	0.00000000	13.81028000	9.43036400
170.39999005	0.00000000	14.18553000	9.09817800
170.59999004	0.00000000	14.22859000	8.72908400
170.79999003	0.00000000	14.22859000	9.09817800
170.99999002	0.00000000	14.22859000	9.43036400
171.19999001	0.00000000	14.22859000	9.43036400
171.39998999	0.00000000	14.22859000	9.05511800
171.59998998	0.00000000	14.22859000	8.35998900
171.79998997	0.00000000	14.22859000	8.31077700
171.99998996	0.00000000	14.22859000	8.67987200
172.19998995	0.00000000	14.22859000	8.68602300
172.39998994	0.00000000	14.22859000	9.09817800
172.59998992	0.00000000	14.22859000	9.43036400
172.79998991	0.00000000	14.22859000	9.47342500
172.99998990	0.00000000	14.22859000	9.47342500
173.19998989	0.00000000	14.22859000	9.47342500
173.39998988	0.00000000	14.22859000	9.47342500
173.59998986	0.00000000	14.22859000	9.47342500
173.79998985	0.00000000	14.22859000	9.47342500
173.99998984	0.00000000	14.22859000	9.47342500
174.19998983	0.00000000	14.22859000	9.47342500
174.39998982	0.00000000	14.22859000	9.47342500
174.59998980	0.00000000	14.22859000	9.47342500
174.79998979	0.00000000	14.22859000	9.47342500
174.99998978	0.00000000	14.22859000	9.47342500
175.19998977	0.00000000	14.22859000	9.47342500
175.39998976	0.00000000	14.22859000	9.47342500
175.59998975	0.00000000	14.22859000	9.47342500
175.79998973	0.00000000	14.22859000	9.47342500
175.99998972	0.00000000	14.22859000	9.47342500
176.19998971	0.00000000	14.22859000	9.47342500
176.39998970	0.00000000	14.22859000	9.47342500
176.59998969	0.00000000	14.22859000	9.47342500
176.79998967	0.00000000	14.22859000	9.47342500
176.99998966	0.00000000	14.22859000	9.47342500
177.19998965	0.00000000	14.22859000	9.47342500
177.39998964	0.00000000	14.18553000	9.47342500
177.59998963	0.00000000	13.85334000	9.47342500
177.79998961	0.00000000	13.48425000	9.47342500
177.99998960	0.00000000	13.85334000	9.47342500
178.19998959	0.00000000	14.18553000	9.47342500
178.39998958	0.00000000	14.22859000	9.47342500
178.59998957	0.00000000	14.22859000	9.47342500
178.79998956	0.00000000	14.22859000	9.47342500
178.99998954	0.00000000	14.22859000	9.47342500
179.19998953	0.00000000	14.22859000	9.47342500
179.39998952	0.00000000	14.22859000	9.47342500
179.59998951	0.00000000	14.22859000	9.47342500
179.79998950	0.00000000	14.22859000	9.47342500
179.99998948	0.00000000	14.22859000	9.47342500
180.19998947	0.00000000	14.22859000	9.47342500
180.39998946	0.00000000	14.18553000	9.43036400
180.59998945	0.00000000	13.85334000	9.09817800
180.79998944	0.00000000	13.48425000	8.72908400
180.99998942	0.00000000	13.85334000	9.09817800
181.19998941	0.00000000	14.18553000	9.43036400
181.39998940	0.00000000	14.22859000	9.47342500
181.59998939	0.00000000	14.22859000	9.47342500
181.79998938	0.00000000	14.22859000	9.47342500
181.99998937	0.00000000	14.22859000	9.47342500
182.19998935	0.00000000	14.22859000	9.47342500
182.39998934	0.00000000	14.22859000	9.47342500
182.59998933	0.00000000	14.22859000	9.47342500
182.79998932	0.00000000	14.22859000	9.43036400
182.99998931	0.00000000	14.22859000	9.09817800
183.19998929	0.00000000	14.22859000	8.72908400
183.39998928	0.00000000	14.22859000	9.09817800
183.59998927	0.00000000	14.18553000	9.38115100
183.79998926	0.00000000	13.85334000	9.09817800
183.99998925	0.00000000	13.48425000	8.72908400
184.19998923	0.00000000	13.85334000	9.09817800
184.39998922	0.00000000	14.18553000	9.47342500
184.59998921	0.00000000	14.22859000	9.84867000
184.79998920	0.00000000	14.22859000	10.21161000
184.99998919	0.00000000	14.22859000	9.84867000
185.19998918	0.00000000	14.22859000	9.51648500
185.39998916	0.00000000	14.22859000	9.47342500
185.59998915	0.00000000	14.22859000	9.43036400
185.79998914	0.00000000	14.22859000	9.05511800
185.99998913	0.00000000	14.22859000	8.31077700
186.19998912	0.00000000	14.22859000	7.93553100
186.39998910	0.00000000	14.22859000	7.93553100
186.59998909	0.00000000	14.22859000	8.31077700
186.79998908	0.00000000	14.22859000	9.05511800
186.99998907	0.00000000	14.18553000	9.43036400
187.19998906	0.00000000	13.85334000	9.47342500
187.39998904	0.00000000	13.44119000	9.47342500
187.59998903	0.00000000	13.47810000	9.51648500
187.79998902	0.00000000	13.44119000	9.84867000
187.99998901	0.00000000	13.85334000	10.21161000
188.19998900	0.00000000	14.18553000	9.79945900
188.39998899	0.00000000	14.22859000	9.09817800
188.59998897	0.00000000	14.22859000	8.35998900
188.79998896	0.00000000	14.22859000	8.35998900
188.99998895	0.00000000	14.22859000	9.00590400
189.19998894	0.00000000	14.22859000	9.00590400
189.39998893	0.00000000	14.22859000	8.35998900
189.59998891	0.00000000	14.22859000	8.35998900
189.79998890	0.00000000	14.18553000	9.05511800
189.99998889	0.00000000	13.85334000	9.43036400
190.19998888	0.00000000	13.48425000	9.47342500
190.39998887	0.00000000	13.85334000	9.47342500
190.59998885	0.00000000	14.18553000	9.47342500
190.79998884	0.00000000	14.22859000	9.47342500
190.99998883	0.00000000	14.22859000	9.47342500
191.19998882	0.00000000	14.22859000	9.47342500
191.39998881	0.00000000	14.22859000	9.47342500
191.59998880	0.00000000	14.22859000	9.47342500
191.79998878	0.00000000	14.22859000	9.47342500
191.99998877	0.00000000	14.22859000	9.47342500
192.19998876	0.00000000	14.22859000	9.43036400
192.39998875	0.00000000	14.22859000	9.09817800
192.59998874	0.00000000	14.22859000	8.72908400
192.79998872	0.00000000	14.18553000	9.05511800
192.99998871	0.00000000	13.81028000	9.05511800
193.19998870	0.00000000	13.11516000	8.72908400
193.39998869	0.00000000	13.11516000	9.09817800
193.59998868	0.00000000	13.81028000	9.43036400
193.79998866	0.00000000	14.18553000	9.47342500
193.99998865	0.00000000	14.22859000	9.47342500
194.19998864	0.00000000	14.22859000	9.47342500
194.39998863	0.00000000	14.22859000	9.47342500
194.59998862	0.00000000	14.22859000	9.47342500
194.79998861	0.00000000	14.22859000	9.47342500
194.99998859	0.00000000	14.18553000	9.43036400
195.19998858	0.00000000	13.81028000	9.09817800
195.39998857	0.00000000	13.11516000	8.72908400
195.59998856	0.00000000	13.11516000	9.09817800
195.79998855	0.00000000	13.76107000	9.43036400
195.99998853	0.00000000	13.81028000	9.47342500
