Time	Channel A	Channel B	Channel C
(us)	(V)	(mV)	(mV)

-4.59999956	0.00000000	7.86171200	6.31151500
-4.39999957	0.00000000	7.52952700	6.31151500
-4.19999958	0.00000000	7.16043300	6.31151500
-3.99999959	0.00000000	7.48646600	6.31151500
-3.79999960	0.00000000	7.48646600	6.31151500
-3.59999962	0.00000000	7.16043300	6.31151500
-3.39999963	0.00000000	7.52952700	6.31151500
-3.19999964	0.00000000	7.81250000	6.31151500
-2.99999965	0.00000000	7.48646600	6.31151500
-2.79999966	0.00000000	6.74212600	6.31151500
-2.59999968	0.00000000	6.41609200	6.31151500
-2.39999969	0.00000000	6.69906400	6.31151500
-2.19999970	0.00000000	7.11122000	6.31151500
-1.99999971	0.00000000	7.11737200	6.31151500
-1.79999972	0.00000000	7.52952700	6.31151500
-1.59999973	0.00000000	7.86171200	6.31151500
-1.39999975	0.00000000	7.90477300	6.31151500
-1.19999976	0.00000000	7.90477300	6.31151500
-0.99999977	0.00000000	7.90477300	6.31151500
-0.79999978	0.00000000	7.90477300	6.31151500
-0.59999979	0.00000000	7.90477300	6.31151500
-0.39999981	0.00000000	7.90477300	6.31151500
-0.19999982	0.47736220	7.90477300	6.31151500
0.00000017	0.79601380	7.86171200	6.31151500
0.20000016	0.95533960	7.52952700	6.31151500
0.40000015	0.95533960	7.16043300	6.31151500
0.60000013	0.63668800	7.52952700	6.31151500
0.80000012	0.00000000	7.86171200	6.31151500
1.00000011	-0.95533960	7.86171200	6.31151500
1.20000010	-1.91129400	7.52952700	6.31151500
1.40000009	-2.54859700	7.16043300	6.31151500
1.60000008	-2.70792300	7.52952700	6.35457700
1.80000006	-2.07062000	7.86171200	6.68676100
2.00000005	-0.63668800	7.90477300	7.05585600
2.20000004	1.27399100	7.86171200	6.68676100
2.40000003	3.50393700	7.52952700	6.35457700
2.60000002	4.93786900	7.16043300	6.31151500
2.80000000	5.25652100	7.48646600	6.31151500
2.99999999	4.30056600	7.43725300	6.31151500
3.19999998	1.91129400	6.74212600	6.31151500
3.39999997	-1.43331700	6.41609200	6.31151500
3.59999996	-4.77854300	6.74212600	6.31151500
3.79999994	-7.16781500	7.48646600	6.35457700
3.99999993	-7.96444400	7.86171200	6.72982200
4.19999992	-6.84916400	7.90477300	7.47416300
4.39999991	-3.50393700	7.90477300	7.84940900
4.59999990	0.63668800	7.90477300	7.84940900
4.79999989	4.93786900	7.90477300	7.47416300
4.99999987	8.12377000	7.86171200	6.72982200
5.19999986	9.55770200	7.52952700	6.35457700
5.39999985	8.28309500	7.11737200	6.31151500
5.59999984	5.09719500	7.15428100	6.31151500
5.79999983	0.63668800	7.11737200	6.31151500
5.99999981	-4.14124000	7.52952700	6.35457700
6.19999980	-7.80511800	7.81250000	6.68676100
6.39999979	-9.39837600	7.52952700	7.09891700
6.59999978	-8.60174700	7.16043300	7.10506800
6.79999977	-5.89382400	7.52952700	7.51722400
6.99999975	-1.75196900	7.86171200	7.84940900
7.19999974	2.54859700	7.90477300	7.84940900
7.39999973	6.05315000	7.90477300	7.47416300
7.59999972	7.64579200	7.86171200	6.72982200
7.79999971	7.32714100	7.52952700	6.35457700
7.99999970	5.25652100	7.16043300	6.31151500
8.19999968	2.22994600	7.48646600	6.31151500
8.39999967	-1.11466500	7.43725300	6.31151500
8.59999966	-3.66326300	6.79133800	6.31151500
8.79999965	-5.09719500	6.69906400	6.31151500
8.99999964	-5.09719500	6.73597400	6.31151500
9.19999962	-3.82258900	6.37918200	6.35457700
9.39999961	-1.91129400	7.15428100	6.68676100
9.59999960	0.15871060	7.81250000	7.05585600
9.79999959	1.59264300	7.90477300	6.68676100
9.99999958	2.38927200	7.86171200	6.35457700
10.19999956	2.38927200	7.52952700	6.31151500
10.39999955	1.91129400	7.11737200	6.31151500
10.59999954	1.11466500	7.15428100	6.31151500
10.79999953	0.15871060	7.11737200	6.31151500
10.99999952	-0.47736220	7.52952700	6.31151500
11.19999951	-0.79601380	7.86171200	6.31151500
11.39999949	-0.95533960	7.90477300	6.31151500
11.59999948	-0.79601380	7.90477300	6.31151500
11.79999947	-0.63668800	7.90477300	6.31151500
11.99999946	-0.31803640	7.90477300	6.31151500
12.19999945	-0.15871060	7.90477300	6.31151500
12.39999943	-0.15871060	7.90477300	6.31151500
12.59999942	0.00000000	7.90477300	6.31151500
12.79999941	0.00000000	7.90477300	6.31151500
12.99999940	0.00000000	7.90477300	6.31151500
13.19999939	0.00000000	7.90477300	6.31151500
13.39999937	0.00000000	7.90477300	6.31151500
13.59999936	0.00000000	7.90477300	6.31151500
13.79999935	0.00000000	7.90477300	6.31151500
13.99999934	-0.15871060	7.90477300	6.31151500
14.19999933	-0.15871060	7.90477300	6.31151500
14.39999932	-0.15871060	7.90477300	6.31151500
14.59999930	-0.15871060	7.90477300	6.31151500
14.79999929	0.00000000	7.90477300	6.31151500
14.99999928	0.00000000	7.90477300	6.31151500
15.19999927	0.00000000	7.86171200	6.31151500
15.39999926	0.00000000	7.52952700	6.31151500
15.59999924	0.00000000	7.11737200	6.31151500
15.79999923	0.00000000	7.15428100	6.31151500
15.99999922	0.00000000	7.07431000	6.31151500
16.19999921	0.00000000	7.15428100	6.31151500
16.39999920	0.00000000	7.11737200	6.31151500
16.59999919	-0.15871060	7.52952700	6.35457700
16.79999917	0.00000000	7.90477300	6.68676100
16.99999916	0.00000000	8.32308000	7.05585600
17.19999915	0.00000000	9.06742000	6.68676100
17.39999914	0.00000000	9.44266700	6.35457700
17.59999913	0.00000000	9.48572700	6.31151500
17.79999911	0.00000000	9.44266700	6.31151500
17.99999910	0.00000000	8.97514600	6.31151500
18.19999909	0.00000000	7.48646600	6.35457700
18.39999908	0.00000000	5.57947800	6.68676100
18.59999907	0.00000000	4.36761800	7.05585600
18.79999905	0.00000000	3.20497000	6.68676100
18.99999904	0.00000000	2.50984200	6.35457700
19.19999903	0.00000000	3.29724400	6.31151500
19.39999902	0.00000000	5.21038300	6.31151500
19.59999901	0.00000000	7.99704600	6.31151500
19.79999900	0.00000000	11.48499000	6.31151500
19.99999898	0.00000000	15.29897000	6.31151500
20.19999897	0.00000000	17.95029000	6.31151500
20.39999896	0.00000000	18.32554000	6.31151500
20.59999895	0.00000000	16.36934000	6.35457700
20.79999894	0.00000000	12.00172000	6.68676100
20.99999892	0.00000000	5.39493100	7.05585600
21.19999891	0.00000000	-2.65132900	6.68676100
21.39999890	0.00000000	-9.53494100	6.35457700
21.59999889	0.00000000	-13.02903000	6.31151500
21.79999888	0.00000000	-12.56767000	6.31151500
21.99999886	0.00000000	-7.40034400	6.31151500
22.19999885	0.00000000	2.64517700	6.31151500
22.39999884	0.00000000	15.39124000	6.31151500
22.59999883	0.00000000	27.72515000	6.31151500
22.79999882	0.00000000	36.93405000	6.31151500
22.99999881	0.00000000	39.91757000	6.35457700
23.19999879	0.00000000	35.26698000	6.72982200
23.39999878	0.00000000	23.63435000	7.51722400
23.59999877	0.00000000	7.35113100	8.26771600
23.79999876	0.00000000	-10.42077000	9.00590400
23.99999875	0.00000000	-25.77510000	9.00590400
24.19999873	0.00000000	-34.20275000	8.26771600
24.39999872	0.00000000	-33.04010000	7.47416300
24.59999871	0.00000000	-22.52707000	6.26845500
24.79999870	0.00000000	-4.33070900	4.73671200
24.99999869	0.00000000	18.04257000	3.19881900
25.19999867	0.00000000	38.84719000	2.04232300
25.39999866	0.00000000	53.13115000	1.66707700
25.59999865	0.00000000	57.31422000	2.08538400
25.79999864	0.00000000	49.96924000	3.70939900
25.99999863	0.00000000	32.56643000	6.82209600
26.19999862	0.00000000	9.02436000	11.00517000
26.39999860	0.00000000	-15.35433000	14.85605000
26.59999859	0.00000000	-34.99631000	17.18750000
26.79999858	0.00000000	-45.41092000	17.92569000
26.99999857	0.00000000	-43.46087000	16.30167000
27.19999856	0.00000000	-30.00738000	12.03248000
27.39999854	0.00000000	-8.37844500	5.80708600
27.59999853	0.00000000	16.32628000	-1.53174200
27.79999852	0.00000000	38.37967000	-8.40920300
27.99999851	0.00000000	53.08193000	-12.59227000
28.19999850	0.00000000	57.36343000	-12.59227000
28.39999848	0.00000000	50.43061000	-8.27386800
28.59999847	0.00000000	34.23966000	-0.09842519
28.79999846	0.00000000	12.64764000	11.09744000
28.99999845	0.00000000	-8.98129900	22.61934000
29.19999844	0.00000000	-25.63976000	31.49606000
29.39999843	0.00000000	-34.24581000	35.72219000
29.59999841	0.00000000	-33.55069000	34.05511000
29.79999840	0.00000000	-24.66166000	25.91658000
29.99999839	0.00000000	-9.58415200	12.40773000
30.19999838	0.00000000	8.55684000	-2.97736200
30.39999837	0.00000000	25.17224000	-16.91068000
30.59999835	0.00000000	36.84793000	-26.15649000
30.79999834	0.00000000	41.54773000	-28.85088000
30.99999833	0.00000000	38.93332000	-24.16338000
31.19999832	0.00000000	30.41954000	-12.54921000
31.39999831	0.00000000	18.04257000	3.66633800
31.59999829	0.00000000	4.09079700	21.03838000
31.79999828	0.00000000	-8.24311000	35.72219000
31.99999827	0.00000000	-16.42470000	44.59892000
32.19999826	0.00000000	-18.79921000	45.76156000
32.39999825	0.00000000	-15.77264000	38.79183000
32.59999824	0.00000000	-8.37844500	25.27067000
32.79999822	0.00000000	1.99926200	7.84940900
32.99999821	0.00000000	12.83218000	-9.85482200
33.19999820	0.00000000	21.35212000	-23.78814000
33.39999819	0.00000000	26.42101000	-30.76402000
33.59999818	0.00000000	26.83932000	-30.05659000
33.79999816	0.00000000	23.02534000	-21.88730000
33.99999815	0.00000000	16.46161000	-8.03395600
34.19999814	0.00000000	8.32308000	8.59375000
34.39999813	0.00000000	0.64591530	24.06496000
34.59999812	0.00000000	-4.79207600	35.67913000
34.79999810	0.00000000	-6.70521600	41.06791000
34.99999809	0.00000000	-4.84128900	38.74877000
35.19999808	0.00000000	0.17839570	29.53986000
35.39999807	0.00000000	6.65600300	15.64960000
35.59999806	0.00000000	12.83218000	0.59670270
35.79999805	0.00000000	16.70152000	-12.50615000
35.99999803	0.00000000	17.90723000	-20.58317000
36.19999802	0.00000000	16.32628000	-21.41978000
36.39999801	0.00000000	12.13706000	-15.70497000
36.59999800	0.00000000	6.79133800	-5.29650500
36.79999799	0.00000000	2.13459600	7.38804100
36.99999797	0.00000000	-0.93503930	18.90994000
37.19999796	0.00000000	-1.67938000	26.24877000
37.39999795	0.00000000	0.59670270	27.82972000
37.59999794	0.00000000	4.78592500	23.60359000
37.79999793	0.00000000	9.44266700	14.81299000
37.99999791	0.00000000	13.67495000	4.12770700
38.19999790	0.00000000	16.36934000	-4.69365100
38.39999789	0.00000000	16.83686000	-9.34424200
38.59999788	0.00000000	15.63115000	-8.96899500
38.79999787	0.00000000	12.88140000	-3.58021600
38.99999786	0.00000000	8.28001900	5.19808000
39.19999784	0.00000000	3.67249000	14.72687000
39.39999783	0.00000000	0.13533460	21.64739000
39.59999782	0.00000000	-2.14074800	23.97884000
39.79999781	0.00000000	-2.14074800	21.64739000
39.99999780	0.00000000	0.13533460	14.67766000
40.19999778	0.00000000	3.58021600	4.77977300
40.39999777	0.00000000	7.52952700	-4.78592500
40.59999776	0.00000000	11.39887000	-10.92520000
40.79999775	0.00000000	14.92372000	-12.08169000
40.99999774	0.00000000	17.16289000	-7.85556000
41.19999772	0.00000000	17.57505000	0.55364170
41.39999771	0.00000000	15.67421000	10.54380000
41.59999770	0.00000000	12.60458000	19.37131000
41.79999769	0.00000000	9.06742000	24.80315000
41.99999768	0.00000000	5.21038300	25.59670000
42.19999767	0.00000000	2.09153500	22.10876000
42.39999765	0.00000000	0.13533460	14.81299000
42.59999764	0.00000000	-0.60900590	5.61638700
42.79999763	0.00000000	0.55364170	-2.42372000
42.99999762	0.00000000	3.20497000	-7.52952700
43.19999761	0.00000000	6.32381900	-8.69217500
43.39999759	0.00000000	9.39345400	-6.45300100
43.59999758	0.00000000	11.71875000	-1.43946800
43.79999757	0.00000000	12.51230000	4.69365100
43.99999756	0.00000000	12.22933000	10.49459000
44.19999755	0.00000000	11.44193000	14.76993000
44.39999753	0.00000000	10.69144000	16.71998000
44.59999752	0.00000000	9.90403500	16.35089000
44.79999751	0.00000000	9.52879000	13.65650000
44.99999750	0.00000000	9.48572700	9.47342500
45.19999749	0.00000000	9.44266700	5.24729300
45.39999748	0.00000000	8.97514600	2.12844500
45.59999746	0.00000000	7.43725300	0.55364170
45.79999745	0.00000000	5.07504900	0.55364170
45.99999744	0.00000000	2.36835600	2.04232300
46.19999743	0.00000000	-0.65206690	4.36146600
46.39999742	0.00000000	-2.14074800	6.68676100
46.59999740	0.00000000	-1.40255900	9.00590400
46.79999739	0.00000000	1.02116100	10.53765000
46.99999738	0.00000000	5.71481200	10.95595000
47.19999737	0.00000000	12.22933000	10.58686000
47.39999736	0.00000000	18.37475000	9.38115100
47.59999734	0.00000000	22.60704000	7.47416300
47.79999733	0.00000000	23.72047000	5.15501900
47.99999732	0.00000000	20.97687000	3.24803100
48.19999731	0.00000000	14.78838000	2.04232300
48.39999730	0.00000000	6.32381900	1.71013800
48.59999729	0.00000000	-2.14074800	2.50369100
48.79999727	0.00000000	-8.32923100	4.82283400
48.99999726	0.00000000	-11.02977000	7.89247000
49.19999725	0.00000000	-9.44881800	10.96211000
49.39999724	0.00000000	-3.63558100	13.28125000
49.59999723	0.00000000	5.21038300	14.03174000
49.79999721	0.00000000	14.83760000	13.23819000
49.99999720	0.00000000	22.55782000	10.53765000
50.19999719	0.00000000	26.79626000	6.72982200
50.39999718	0.00000000	26.37180000	3.19881900
50.59999717	0.00000000	20.97687000	0.13533460
50.79999715	0.00000000	12.18012000	-1.76550200
50.99999714	0.00000000	2.55290300	-1.35334600
51.19999713	0.00000000	-5.16732200	0.92888770
51.39999712	0.00000000	-9.40575800	4.77977300
51.59999711	0.00000000	-9.03051100	9.00590400
51.79999710	0.00000000	-4.05388800	12.49385000
51.99999708	0.00000000	3.62942900	14.85605000
52.19999707	0.00000000	12.09400000	15.56348000
52.39999706	0.00000000	18.97761000	14.39468000
52.59999705	0.00000000	22.09646000	10.95595000
52.79999704	0.00000000	20.97687000	6.77903500
52.99999702	0.00000000	16.41855000	3.29109200
53.19999701	0.00000000	9.81791200	0.92888770
53.39999700	0.00000000	2.92199800	0.13533460
53.59999699	0.00000000	-2.84202700	0.55364170
53.79999698	0.00000000	-5.12426100	2.50369100
53.99999696	0.00000000	-3.63558100	5.89320800
54.19999695	0.00000000	0.97194880	8.91978400
54.39999694	0.00000000	7.48646600	10.53765000
54.59999693	0.00000000	13.63189000	10.91289000
54.79999692	0.00000000	17.86417000	10.16855000
54.99999691	0.00000000	19.02067000	8.26771600
55.19999689	0.00000000	16.74459000	6.40378900
55.39999688	0.00000000	12.18012000	5.19808000
55.59999687	0.00000000	6.74212600	4.87204700
55.79999686	0.00000000	1.71628900	5.61638700
55.99999685	0.00000000	-2.09768700	7.51722400
56.19999683	0.00000000	-3.21112200	9.38115100
56.39999682	0.00000000	-0.98425190	10.53765000
56.59999681	0.00000000	3.20497000	10.49459000
56.79999680	0.00000000	7.86171200	8.96284400
56.99999679	0.00000000	12.13706000	6.26845500
57.19999677	0.00000000	15.21284000	3.19881900
57.39999676	0.00000000	16.32628000	0.55364170
57.59999675	0.00000000	14.83760000	-0.55979330
57.79999674	0.00000000	11.39887000	0.59670270
57.99999673	0.00000000	7.57258800	3.66633800
58.19999672	0.00000000	4.09079700	7.93553100
58.39999670	0.00000000	2.17765700	12.58612000
58.59999669	0.00000000	2.09153500	16.72613000
58.79999668	0.00000000	3.25418300	18.62697000
58.99999667	0.00000000	5.16117100	17.09523000
59.19999666	0.00000000	7.48646600	13.23819000
59.39999664	0.00000000	9.39345400	7.43110200
59.59999663	0.00000000	10.59916000	0.92888770
59.79999662	0.00000000	10.97441000	-4.04773600
59.99999661	0.00000000	10.59916000	-6.40994000
60.19999660	0.00000000	9.44266700	-5.57947800
60.39999658	0.00000000	7.94783400	-1.71628900
60.59999657	0.00000000	6.79133800	4.87204700
60.79999656	0.00000000	6.41609200	12.49385000
60.99999655	0.00000000	6.74212600	19.04527000
61.19999654	0.00000000	7.52952700	22.48400000
61.39999653	0.00000000	8.23695900	22.10876000
61.59999651	0.00000000	8.69217500	17.88263000
61.79999650	0.00000000	8.61220400	10.96211000
61.99999649	0.00000000	8.27386800	3.24803100
62.19999648	0.00000000	7.11737200	-3.72170300
62.39999647	0.00000000	6.36687900	-8.31692900
62.59999645	0.00000000	5.94857300	-9.43036400
62.79999644	0.00000000	5.57947800	-6.40994000
62.99999643	0.00000000	5.99163300	-0.23991140
63.19999642	0.00000000	6.74212600	7.06200700
63.39999641	0.00000000	7.90477300	14.43775000
63.59999639	0.00000000	9.06742000	19.78961000
63.79999638	0.00000000	9.86097400	22.15797000
63.99999637	0.00000000	10.59916000	20.99532000
64.19999636	0.00000000	10.55610000	16.76919000
64.39999635	0.00000000	9.44266700	10.58686000
64.59999634	0.00000000	7.90477300	3.66633800
64.79999632	0.00000000	6.36687900	-2.14074800
64.99999631	0.00000000	5.21038300	-5.62253900
65.19999630	0.00000000	4.83513700	-6.40994000
65.39999629	0.00000000	5.21038300	-4.14000900
65.59999628	0.00000000	6.36687900	0.04306102
65.79999626	0.00000000	7.86171200	4.73671200
65.99999625	0.00000000	9.01820900	9.38115100
66.19999624	0.00000000	9.39345400	13.28125000
66.39999623	0.00000000	9.01820900	15.60654000
66.59999622	0.00000000	7.86171200	16.43701000
66.79999620	0.00000000	6.36687900	15.64960000
66.99999619	0.00000000	5.21038300	13.74262000
67.19999618	0.00000000	4.83513700	11.00517000
67.39999617	0.00000000	5.25344500	7.89247000
67.59999616	0.00000000	6.79133800	4.73671200
67.79999615	0.00000000	9.11048200	1.66707700
67.99999613	0.00000000	11.34966000	-0.69512790
68.19999612	0.00000000	12.92446000	-1.85777500
68.39999611	0.00000000	12.88755000	-2.22687000
68.59999610	0.00000000	11.76181000	-0.97810030
68.79999609	0.00000000	9.35039300	2.04232300
68.99999607	0.00000000	5.90551100	5.93626900
69.19999606	0.00000000	2.09153500	9.84867000
69.39999605	0.00000000	-0.55979330	13.74262000
69.59999604	0.00000000	-0.98425190	16.76919000
69.79999603	0.00000000	0.55364170	17.92569000
69.99999601	0.00000000	3.67249000	16.76919000
70.19999600	0.00000000	7.94783400	13.65650000
70.39999599	0.00000000	12.60458000	9.00590400
70.59999598	0.00000000	16.83686000	3.62327700
70.79999597	0.00000000	19.44513000	-1.02116100
70.99999596	0.00000000	19.06988000	-4.09079700
71.19999594	0.00000000	15.63115000	-4.82898600
71.39999593	0.00000000	10.64838000	-2.55905500
71.59999592	0.00000000	5.16117100	1.62401600
71.79999591	0.00000000	0.13533460	6.26845500
71.99999590	0.00000000	-3.72170300	10.53765000
72.19999588	0.00000000	-5.21653500	13.65650000
72.39999587	0.00000000	-3.67864200	15.23130000
72.59999586	0.00000000	0.55364170	15.18824000
72.79999585	0.00000000	6.32381900	13.28125000
72.99999584	0.00000000	12.13706000	9.84867000
73.19999582	0.00000000	16.79380000	6.40378900
73.39999581	0.00000000	19.48819000	3.70939900
73.59999580	0.00000000	19.44513000	2.54675200
73.79999579	0.00000000	16.41855000	3.19881900
73.99999578	0.00000000	11.44193000	4.31840500
74.19999577	0.00000000	6.41609200	5.15501900
74.39999575	0.00000000	2.13459600	6.26845500
74.59999574	0.00000000	-0.55979330	7.00664300
74.79999573	0.00000000	-1.02731300	6.64370100
74.99999572	0.00000000	0.13533460	5.93626900
75.19999571	0.00000000	2.41756900	5.15501900
75.39999569	0.00000000	5.57332700	4.82898600
75.59999568	0.00000000	8.61220400	5.24729300
75.79999567	0.00000000	11.34350000	6.82209600
75.99999566	0.00000000	12.46924000	9.47342500
76.19999565	0.00000000	12.18012000	12.11860000
76.39999563	0.00000000	11.02362000	13.65650000
76.59999562	0.00000000	9.48572700	13.65650000
76.79999561	0.00000000	7.99704600	12.07554000
76.99999560	0.00000000	7.20964500	8.96284400
77.19999559	0.00000000	7.52952700	4.73671200
77.39999558	0.00000000	7.86171200	0.55364170
77.59999556	0.00000000	7.90477300	-2.18380900
77.79999555	0.00000000	7.86171200	-2.93430100
77.99999554	0.00000000	7.48646600	-1.76550200
78.19999553	0.00000000	6.69906400	1.71013800
78.39999552	0.00000000	5.94857300	6.31151500
78.59999550	0.00000000	5.21038300	11.00517000
78.79999549	0.00000000	5.25344500	15.23130000
78.99999548	0.00000000	6.36687900	17.88263000
79.19999547	0.00000000	7.94783400	17.88263000
79.39999546	0.00000000	9.90403500	15.23130000
79.59999544	0.00000000	12.13706000	11.00517000
79.79999543	0.00000000	13.25664000	6.35457700
79.99999542	0.00000000	12.55536000	2.08538400
80.19999541	0.00000000	11.02362000	-1.02116100
80.39999540	0.00000000	9.01820900	-2.55905500
80.59999539	0.00000000	6.32381900	-2.18380900
80.79999537	0.00000000	3.67249000	0.13533460
80.99999536	0.00000000	2.13459600	3.57406500
81.19999535	0.00000000	2.13459600	7.47416300
81.39999534	0.00000000	3.62942900	10.96211000
81.59999533	0.00000000	5.94857300	13.65650000
81.79999531	0.00000000	8.28001900	14.85605000
81.99999530	0.00000000	10.64838000	14.53617000
82.19999529	0.00000000	12.51230000	13.74262000
82.39999528	0.00000000	13.29970000	12.11860000
82.59999527	0.00000000	12.51230000	9.42421200
82.79999525	0.00000000	10.64838000	6.36072800
82.99999524	0.00000000	8.32308000	3.61712600
83.19999523	0.00000000	6.41609200	1.62401600
83.39999522	0.00000000	5.21038300	0.09227362
83.59999521	0.00000000	4.83513700	-0.65206690
83.79999520	0.00000000	5.21038300	0.13533460
83.99999518	0.00000000	6.36687900	2.08538400
84.19999517	0.00000000	7.81250000	5.19808000
84.39999516	0.00000000	8.64911400	9.05511800
84.59999515	0.00000000	8.65526600	12.49385000
84.79999514	0.00000000	8.73523500	14.85605000
84.99999512	0.00000000	8.69832600	15.60654000
85.19999511	0.00000000	9.06742000	14.81299000
85.39999510	0.00000000	9.06742000	12.07554000
85.59999509	0.00000000	8.74138700	7.89247000
85.79999508	0.00000000	9.11048200	3.62327700
85.99999506	0.00000000	9.39345400	0.13533460
86.19999505	0.00000000	9.06742000	-2.18380900
86.39999504	0.00000000	8.28001900	-2.50984200
86.59999503	0.00000000	7.52952700	-0.60285430
86.79999502	0.00000000	6.69906400	3.24803100
86.99999501	0.00000000	5.94857300	7.89247000
87.19999499	0.00000000	5.21038300	12.49385000
87.39999498	0.00000000	5.21038300	15.92642000
87.59999497	0.00000000	5.94857300	16.71998000
87.79999496	0.00000000	6.74212600	15.18824000
87.99999495	0.00000000	7.94783400	11.70029000
88.19999493	0.00000000	9.44266700	6.72982200
88.39999492	0.00000000	10.59916000	2.12844500
88.59999491	0.00000000	10.97441000	-0.97810030
88.79999490	0.00000000	10.59916000	-2.13459600
88.99999489	0.00000000	9.44266700	-0.93503930
89.19999487	0.00000000	7.94783400	2.50369100
89.39999486	0.00000000	6.74212600	7.51722400
89.59999485	0.00000000	5.99163300	12.49385000
89.79999484	0.00000000	5.57947800	16.30167000
89.99999483	0.00000000	5.99163300	17.46432000
90.19999482	0.00000000	6.69906400	15.56348000
90.39999480	0.00000000	7.52952700	11.74336000
90.59999479	0.00000000	8.28001900	6.68676100
90.79999478	0.00000000	9.01820900	1.71013800
90.99999477	0.00000000	9.11048200	-2.14074800
91.19999476	0.00000000	9.07357200	-3.62942900
91.39999474	0.00000000	9.43036400	-2.09768700
91.59999473	0.00000000	8.65526600	2.08538400
91.79999472	0.00000000	7.99704600	7.42495000
91.99999471	0.00000000	7.94783400	12.07554000
92.19999470	0.00000000	8.32308000	15.18824000
92.39999468	0.00000000	9.01820900	16.30167000
92.59999467	0.00000000	9.01820900	14.76993000
92.79999466	0.00000000	8.28001900	10.91289000
92.99999465	0.00000000	7.48646600	5.98548200
93.19999464	0.00000000	6.32381900	1.34719500
93.39999463	0.00000000	5.21038300	-1.31028500
93.59999461	0.00000000	4.83513700	-1.76550200
93.79999460	0.00000000	5.21038300	0.17839570
93.99999459	0.00000000	6.41609200	3.62327700
94.19999458	0.00000000	8.32308000	7.89247000
94.39999457	0.00000000	10.64838000	12.07554000
94.59999455	0.00000000	12.55536000	14.72072000
94.79999454	0.00000000	13.71801000	14.72072000
94.99999453	0.00000000	13.67495000	12.11860000
95.19999452	0.00000000	12.13706000	8.26771600
95.39999451	0.00000000	9.44266700	4.40452700
95.59999449	0.00000000	6.36687900	0.97194880
95.79999448	0.00000000	3.62942900	-0.55979330
95.99999447	0.00000000	1.71628900	0.17839570
96.19999446	0.00000000	0.92888770	2.46063000
96.39999445	0.00000000	1.75935000	5.93626900
96.59999444	0.00000000	4.04773600	9.33809000
96.79999442	0.00000000	7.57258800	11.70029000
96.99999441	0.00000000	11.39887000	12.49385000
97.19999440	0.00000000	14.88066000	12.11860000
97.39999439	0.00000000	16.79380000	10.53765000
97.59999438	0.00000000	16.83686000	7.89247000
97.79999436	0.00000000	15.25591000	5.24729300
97.99999435	0.00000000	12.13706000	3.66633800
98.19999434	0.00000000	7.90477300	3.24803100
98.39999433	0.00000000	3.67249000	3.62327700
98.59999432	0.00000000	0.59670270	4.77977300
98.79999430	0.00000000	-0.60900590	6.26845500
98.99999429	0.00000000	0.13533460	7.42495000
99.19999428	0.00000000	2.09153500	7.84940900
99.39999427	0.00000000	5.21038300	7.89247000
99.59999426	0.00000000	9.06742000	7.89247000
99.79999425	0.00000000	12.51230000	7.93553100
99.99999423	0.00000000	14.83760000	8.31077700
100.19999422	0.00000000	15.25591000	9.05511800
100.39999421	0.00000000	14.18553000	9.43036400
100.59999420	0.00000000	12.55536000	9.43036400
100.79999419	0.00000000	10.23007000	9.00590400
100.99999417	0.00000000	7.11737200	7.84940900
101.19999416	0.00000000	4.45989200	6.31151500
101.39999415	0.00000000	2.46678100	4.73671200
101.59999414	0.00000000	1.71628900	3.19881900
101.79999413	0.00000000	2.09153500	2.12844500
101.99999411	0.00000000	3.62942900	2.50369100
102.19999410	0.00000000	5.94857300	4.40452700
102.39999409	0.00000000	8.28001900	6.72982200
102.59999408	0.00000000	10.64838000	9.47342500
102.79999407	0.00000000	12.51230000	12.11860000
102.99999406	0.00000000	13.34276000	13.65650000
103.19999404	0.00000000	12.93061000	13.65650000
103.39999403	0.00000000	11.81102000	12.07554000
103.59999402	0.00000000	9.86097400	9.00590400
103.79999401	0.00000000	7.94783400	5.19808000
103.99999400	0.00000000	6.32381900	2.12844500
104.19999398	0.00000000	4.78592500	0.55364170
104.39999397	0.00000000	3.67249000	0.55364170
104.59999396	0.00000000	3.71555100	2.08538400
104.79999395	0.00000000	5.21038300	4.77977300
104.99999394	0.00000000	7.48646600	7.84940900
105.19999392	0.00000000	9.39345400	10.53765000
105.39999391	0.00000000	10.59916000	12.11860000
105.59999390	0.00000000	10.97441000	12.49385000
105.79999389	0.00000000	10.59916000	11.70029000
105.99999388	0.00000000	9.48572700	9.42421200
106.19999387	0.00000000	8.32308000	6.72982200
106.39999385	0.00000000	7.48646600	4.40452700
106.59999384	0.00000000	6.36687900	2.50369100
106.79999383	0.00000000	5.62869100	2.12844500
106.99999382	0.00000000	5.99163300	3.24803100
107.19999381	0.00000000	6.74212600	5.15501900
107.39999379	0.00000000	7.94783400	7.47416300
107.59999378	0.00000000	9.44266700	9.38115100
107.79999377	0.00000000	10.55610000	10.53765000
107.99999376	0.00000000	10.55610000	10.53765000
108.19999375	0.00000000	9.44266700	9.42421200
108.39999374	0.00000000	7.94783400	7.89247000
108.59999372	0.00000000	6.74212600	6.31151500
108.79999371	0.00000000	5.99163300	4.77977300
108.99999370	0.00000000	5.57947800	3.66633800
109.19999369	0.00000000	5.99163300	3.70939900
109.39999368	0.00000000	6.74212600	5.19808000
109.59999366	0.00000000	7.90477300	7.47416300
109.79999365	0.00000000	9.06742000	9.38115100
109.99999364	0.00000000	9.81791200	10.58686000
110.19999363	0.00000000	10.23007000	10.95595000
110.39999362	0.00000000	9.81791200	10.58686000
110.59999360	0.00000000	9.11048200	9.42421200
110.79999359	0.00000000	8.28001900	7.89247000
110.99999358	0.00000000	7.52952700	6.31151500
111.19999357	0.00000000	6.74212600	4.77977300
111.39999356	0.00000000	6.36687900	3.66633800
111.59999355	0.00000000	6.36687900	3.62327700
111.79999353	0.00000000	6.74212600	4.40452700
111.99999352	0.00000000	7.48646600	5.53026500
112.19999351	0.00000000	7.90477300	7.05585600
112.39999350	0.00000000	8.32308000	7.80019600
112.59999349	0.00000000	9.06742000	7.93553100
112.79999347	0.00000000	9.39345400	8.26771600
112.99999346	0.00000000	9.06742000	8.63681000
113.19999345	0.00000000	8.32308000	8.26771600
113.39999344	0.00000000	7.94783400	7.89247000
113.59999343	0.00000000	7.90477300	7.47416300
113.79999341	0.00000000	7.90477300	6.72982200
113.99999340	0.00000000	7.90477300	6.35457700
114.19999339	0.00000000	7.90477300	6.31151500
114.39999338	0.00000000	7.90477300	6.26845500
114.59999337	0.00000000	7.90477300	5.89320800
114.79999336	0.00000000	7.90477300	5.15501900
114.99999334	0.00000000	7.90477300	4.82898600
115.19999333	0.00000000	7.94783400	5.15501900
115.39999332	0.00000000	8.28001900	5.89320800
115.59999331	0.00000000	8.64911400	6.31151500
115.79999330	0.00000000	8.32308000	6.77903500
115.99999328	0.00000000	8.32308000	7.89247000
116.19999327	0.00000000	8.64911400	9.00590400
116.39999326	0.00000000	8.28001900	9.43036400
116.59999325	0.00000000	7.94783400	9.43036400
116.79999324	0.00000000	7.90477300	9.05511800
116.99999322	0.00000000	7.90477300	8.26771600
117.19999321	0.00000000	7.90477300	7.51722400
117.39999320	0.00000000	7.94783400	6.68676100
117.59999319	0.00000000	8.32308000	5.93626900
117.79999318	0.00000000	9.06742000	5.15501900
117.99999317	0.00000000	9.44266700	4.82898600
118.19999315	0.00000000	9.48572700	5.15501900
118.39999314	0.00000000	9.44266700	5.89320800
118.59999313	0.00000000	9.06742000	6.35457700
118.79999312	0.00000000	8.28001900	7.14812900
118.99999311	0.00000000	7.52952700	8.63681000
119.19999309	0.00000000	6.74212600	9.38115100
119.39999308	0.00000000	6.36687900	9.43036400
119.59999307	0.00000000	6.36687900	9.05511800
119.79999306	0.00000000	6.79133800	8.31077700
119.99999305	0.00000000	7.90477300	7.89247000
120.19999303	0.00000000	9.06742000	7.47416300
120.39999302	0.00000000	9.86097400	6.72982200
120.59999301	0.00000000	10.64838000	6.35457700
120.79999300	0.00000000	11.02362000	6.31151500
120.99999299	0.00000000	10.97441000	6.31151500
121.19999298	0.00000000	10.18086000	6.31151500
121.39999296	0.00000000	8.32308000	6.31151500
121.59999295	0.00000000	6.79133800	6.31151500
121.79999294	0.00000000	5.94857300	6.35457700
121.99999293	0.00000000	5.21038300	6.72982200
122.19999292	0.00000000	5.21038300	7.47416300
122.39999290	0.00000000	5.94857300	7.84940900
122.59999289	0.00000000	6.69906400	7.89247000
122.79999288	0.00000000	7.52952700	7.89247000
122.99999287	0.00000000	8.32308000	7.89247000
123.19999286	0.00000000	9.44266700	7.84940900
123.39999284	0.00000000	10.23007000	7.47416300
123.59999283	0.00000000	10.23622000	6.72982200
123.79999282	0.00000000	10.27313000	6.35457700
123.99999281	0.00000000	9.81791200	6.31151500
124.19999280	0.00000000	9.11048200	6.31151500
124.39999279	0.00000000	8.28001900	6.31151500
124.59999277	0.00000000	7.52952700	6.31151500
124.79999276	0.00000000	6.74212600	6.31151500
124.99999275	0.00000000	6.36687900	6.35457700
125.19999274	0.00000000	6.32381900	6.72982200
125.39999273	0.00000000	6.36687900	7.51722400
125.59999271	0.00000000	6.74212600	8.22465500
125.79999270	0.00000000	7.52952700	8.63681000
125.99999269	0.00000000	8.32308000	8.26771600
126.19999268	0.00000000	9.48572700	7.93553100
126.39999267	0.00000000	10.59916000	7.89247000
126.59999265	0.00000000	10.97441000	7.84940900
126.79999264	0.00000000	10.64838000	7.47416300
126.99999263	0.00000000	9.86097400	6.72982200
127.19999262	0.00000000	9.06742000	6.35457700
127.39999261	0.00000000	7.90477300	6.31151500
127.59999260	0.00000000	6.74212600	6.31151500
127.79999258	0.00000000	5.99163300	6.31151500
127.99999257	0.00000000	5.62869100	6.35457700
128.19999256	0.00000000	6.36687900	6.72982200
128.39999255	0.00000000	7.48646600	7.47416300
128.59999254	0.00000000	8.28001900	7.84940900
128.79999252	0.00000000	9.11048200	7.89247000
128.99999251	0.00000000	9.86097400	7.89247000
129.19999250	0.00000000	10.59916000	7.84940900
129.39999249	0.00000000	10.55610000	7.47416300
129.59999248	0.00000000	9.44266700	6.72982200
129.79999246	0.00000000	7.94783400	6.35457700
129.99999245	0.00000000	6.79133800	6.31151500
130.19999244	0.00000000	6.36687900	6.35457700
130.39999243	0.00000000	6.32381900	6.72982200
130.59999242	0.00000000	6.36687900	7.47416300
130.79999241	0.00000000	6.79133800	7.84940900
130.99999239	0.00000000	7.90477300	7.89247000
131.19999238	0.00000000	9.01820900	7.89247000
131.39999237	0.00000000	9.44266700	7.84940900
131.59999236	0.00000000	9.48572700	7.47416300
131.79999235	0.00000000	9.44266700	6.72982200
131.99999233	0.00000000	9.06742000	6.35457700
132.19999232	0.00000000	8.32308000	6.31151500
132.39999231	0.00000000	7.94783400	6.31151500
132.59999230	0.00000000	7.86171200	6.31151500
132.79999229	0.00000000	7.52952700	6.35457700
132.99999227	0.00000000	7.16043300	6.72982200
133.19999226	0.00000000	7.52952700	7.51722400
133.39999225	0.00000000	7.86171200	8.26771600
133.59999224	0.00000000	7.90477300	9.00590400
133.79999223	0.00000000	7.90477300	9.00590400
133.99999222	0.00000000	7.90477300	8.31077700
134.19999220	0.00000000	7.90477300	7.89247000
134.39999219	0.00000000	7.90477300	7.42495000
134.59999218	0.00000000	7.94783400	6.31151500
134.79999217	0.00000000	8.28001900	5.19808000
134.99999216	0.00000000	8.69217500	4.82898600
135.19999214	0.00000000	8.69832600	5.15501900
135.39999213	0.00000000	9.06742000	5.89320800
135.59999212	0.00000000	9.01820900	6.31151500
135.79999211	0.00000000	8.32308000	6.72982200
135.99999210	0.00000000	7.90477300	7.51722400
136.19999208	0.00000000	7.48646600	8.26771600
136.39999207	0.00000000	6.74212600	9.00590400
136.59999206	0.00000000	6.41609200	9.00590400
136.79999205	0.00000000	6.74212600	8.26771600
136.99999204	0.00000000	7.52952700	7.51722400
137.19999203	0.00000000	8.28001900	6.72982200
137.39999201	0.00000000	9.06742000	6.35457700
137.59999200	0.00000000	9.44266700	6.26845500
137.79999199	0.00000000	9.48572700	5.93626900
137.99999198	0.00000000	9.48572700	5.57332700
138.19999197	0.00000000	9.44266700	5.93626900
138.39999195	0.00000000	9.01820900	6.26845500
138.59999194	0.00000000	7.90477300	6.35457700
138.79999193	0.00000000	6.79133800	6.72982200
138.99999192	0.00000000	6.41609200	7.47416300
139.19999191	0.00000000	6.74212600	7.84940900
139.39999189	0.00000000	7.48646600	7.93553100
139.59999188	0.00000000	7.86171200	8.26771600
139.79999187	0.00000000	7.94783400	8.63681000
139.99999186	0.00000000	8.32308000	8.22465500
140.19999185	0.00000000	9.06742000	7.51722400
140.39999184	0.00000000	9.44266700	6.68676100
140.59999182	0.00000000	9.44266700	5.93626900
140.79999181	0.00000000	9.06742000	5.19808000
140.99999180	0.00000000	8.32308000	5.19808000
141.19999179	0.00000000	7.90477300	5.89320800
141.39999178	0.00000000	7.52952700	6.31151500
141.59999176	0.00000000	7.16043300	6.72982200
141.79999175	0.00000000	7.57258800	7.51722400
141.99999174	0.00000000	8.23695900	8.26771600
142.19999173	0.00000000	8.69217500	9.00590400
142.39999172	0.00000000	8.69832600	9.00590400
142.59999170	0.00000000	9.06742000	8.31077700
142.79999169	0.00000000	9.01820900	7.89247000
142.99999168	0.00000000	8.32308000	7.47416300
143.19999167	0.00000000	7.94783400	6.68676100
143.39999166	0.00000000	7.90477300	5.93626900
143.59999165	0.00000000	7.90477300	5.19808000
143.79999163	0.00000000	7.90477300	5.19808000
143.99999162	0.00000000	7.90477300	5.89320800
144.19999161	0.00000000	7.90477300	6.31151500
144.39999160	0.00000000	7.94783400	6.72982200
144.59999159	0.00000000	8.28001900	7.47416300
144.79999157	0.00000000	8.69217500	7.89247000
144.99999156	0.00000000	8.65526600	8.26771600
145.19999155	0.00000000	8.69217500	8.63681000
145.39999154	0.00000000	8.28001900	8.22465500
145.59999153	0.00000000	7.94783400	7.51722400
145.79999151	0.00000000	7.90477300	6.72982200
145.99999150	0.00000000	7.90477300	6.31151500
146.19999149	0.00000000	7.90477300	5.93626900
146.39999148	0.00000000	7.90477300	5.57332700
146.59999147	0.00000000	7.94783400	5.93626900
146.79999146	0.00000000	8.32308000	6.26845500
146.99999144	0.00000000	9.06742000	6.35457700
147.19999143	0.00000000	9.44266700	6.72982200
147.39999142	0.00000000	9.48572700	7.47416300
147.59999141	0.00000000	9.44266700	7.84940900
147.79999140	0.00000000	9.06742000	7.89247000
147.99999138	0.00000000	8.32308000	7.89247000
148.19999137	0.00000000	7.94783400	7.84940900
148.39999136	0.00000000	7.90477300	7.47416300
148.59999135	0.00000000	7.90477300	6.72982200
148.79999134	0.00000000	7.90477300	6.35457700
148.99999132	0.00000000	7.90477300	6.31151500
149.19999131	0.00000000	7.94783400	6.31151500
149.39999130	0.00000000	8.32308000	6.31151500
149.59999129	0.00000000	9.06742000	6.35457700
149.79999128	0.00000000	9.44266700	6.72982200
149.99999127	0.00000000	9.44266700	7.47416300
150.19999125	0.00000000	9.11048200	7.89247000
150.39999124	0.00000000	8.69832600	8.26771600
150.59999123	0.00000000	8.73523500	8.63681000
150.79999122	0.00000000	8.65526600	8.26771600
150.99999121	0.00000000	8.69217500	7.93553100
151.19999119	0.00000000	8.28001900	7.89247000
151.39999118	0.00000000	7.94783400	7.84940900
151.59999117	0.00000000	7.90477300	7.47416300
151.79999116	0.00000000	7.90477300	6.72982200
151.99999115	0.00000000	7.94783400	6.35457700
152.19999113	0.00000000	8.32308000	6.31151500
152.39999112	0.00000000	9.06742000	6.35457700
152.59999111	0.00000000	9.44266700	6.72982200
152.79999110	0.00000000	9.48572700	7.47416300
152.99999109	0.00000000	9.44266700	7.84940900
153.19999108	0.00000000	9.06742000	7.89247000
153.39999106	0.00000000	8.28001900	7.89247000
153.59999105	0.00000000	7.57258800	7.89247000
153.79999104	0.00000000	7.16043300	7.89247000
153.99999103	0.00000000	7.52952700	7.89247000
154.19999102	0.00000000	7.86171200	7.89247000
154.39999100	0.00000000	7.90477300	7.84940900
154.59999099	0.00000000	7.90477300	7.47416300
154.79999098	0.00000000	7.94783400	6.72982200
154.99999097	0.00000000	8.32308000	6.35457700
155.19999096	0.00000000	9.06742000	6.31151500
155.39999094	0.00000000	9.44266700	6.31151500
155.59999093	0.00000000	9.48572700	6.31151500
155.79999092	0.00000000	9.48572700	6.35457700
155.99999091	0.00000000	9.48572700	6.72982200
156.19999090	0.00000000	9.44266700	7.51722400
156.39999089	0.00000000	9.06742000	8.22465500
156.59999087	0.00000000	8.32308000	8.63681000
156.79999086	0.00000000	7.90477300	8.26771600
156.99999085	0.00000000	7.52952700	7.93553100
157.19999084	0.00000000	7.16043300	7.89247000
157.39999083	0.00000000	7.52952700	7.84940900
157.59999081	0.00000000	7.86171200	7.47416300
157.79999080	0.00000000	7.94783400	6.72982200
157.99999079	0.00000000	8.32308000	6.35457700
158.19999078	0.00000000	9.06742000	6.31151500
158.39999077	0.00000000	9.44266700	6.31151500
158.59999075	0.00000000	9.48572700	6.31151500
158.79999074	0.00000000	9.48572700	6.35457700
158.99999073	0.00000000	9.44266700	6.72982200
159.19999072	0.00000000	9.06742000	7.47416300
159.39999071	0.00000000	8.32308000	7.84940900
159.59999070	0.00000000	7.94783400	7.89247000
159.79999068	0.00000000	7.90477300	7.89247000
159.99999067	0.00000000	7.90477300	7.89247000
160.19999066	0.00000000	7.90477300	7.89247000
160.39999065	0.00000000	7.90477300	7.89247000
160.59999064	0.00000000	7.90477300	7.84940900
160.79999062	0.00000000	7.90477300	7.47416300
160.99999061	0.00000000	7.90477300	6.72982200
161.19999060	0.00000000	7.94783400	6.35457700
161.39999059	0.00000000	8.32308000	6.31151500
161.59999058	0.00000000	9.06742000	6.35457700
161.79999056	0.00000000	9.39345400	6.68676100
161.99999055	0.00000000	9.11048200	7.09891700
162.19999054	0.00000000	8.74138700	7.10506800
162.39999053	0.00000000	9.06742000	7.51722400
162.59999052	0.00000000	9.01820900	7.84940900
162.79999051	0.00000000	8.32308000	7.89247000
162.99999049	0.00000000	7.94783400	7.89247000
163.19999048	0.00000000	7.90477300	7.89247000
163.39999047	0.00000000	7.90477300	7.89247000
163.59999046	0.00000000	7.90477300	7.84940900
163.79999045	0.00000000	7.90477300	7.47416300
163.99999043	0.00000000	7.90477300	6.72982200
164.19999042	0.00000000	7.94783400	6.35457700
164.39999041	0.00000000	8.32308000	6.31151500
164.59999040	0.00000000	9.06742000	6.31151500
164.79999039	0.00000000	9.44266700	6.31151500
164.99999037	0.00000000	9.48572700	6.31151500
165.19999036	0.00000000	9.48572700	6.31151500
165.39999035	0.00000000	9.44266700	6.35457700
165.59999034	0.00000000	9.06742000	6.72982200
165.79999033	0.00000000	8.32308000	7.47416300
165.99999032	0.00000000	7.94783400	7.84940900
166.19999030	0.00000000	7.90477300	7.89247000
166.39999029	0.00000000	7.90477300	7.84940900
166.59999028	0.00000000	7.90477300	7.51722400
166.79999027	0.00000000	7.94783400	7.14812900
166.99999026	0.00000000	8.28001900	7.51722400
167.19999024	0.00000000	8.69217500	7.84940900
167.39999023	0.00000000	8.69832600	7.89247000
167.59999022	0.00000000	9.11048200	7.89247000
167.79999021	0.00000000	9.44266700	7.89247000
167.99999020	0.00000000	9.48572700	7.84940900
168.19999018	0.00000000	9.48572700	7.47416300
168.39999017	0.00000000	9.48572700	6.72982200
168.59999016	0.00000000	9.44266700	6.35457700
168.79999015	0.00000000	9.06742000	6.35457700
168.99999014	0.00000000	8.32308000	6.68676100
169.19999013	0.00000000	7.94783400	7.05585600
169.39999011	0.00000000	7.90477300	6.72982200
169.59999010	0.00000000	7.90477300	6.72982200
169.79999009	0.00000000	7.90477300	7.09891700
169.99999008	0.00000000	7.90477300	7.10506800
170.19999007	0.00000000	7.90477300	7.51722400
170.39999005	0.00000000	7.90477300	7.80019600
170.59999004	0.00000000	7.94783400	7.51722400
170.79999003	0.00000000	8.28001900	7.14812900
170.99999002	0.00000000	8.69217500	7.47416300
171.19999001	0.00000000	8.65526600	7.47416300
171.39998999	0.00000000	8.69217500	7.14812900
171.59998998	0.00000000	8.32308000	7.47416300
171.79998997	0.00000000	8.32308000	7.47416300
171.99998996	0.00000000	8.64911400	7.10506800
172.19998995	0.00000000	8.28001900	7.09891700
172.39998994	0.00000000	7.90477300	6.72982200
172.59998992	0.00000000	7.52952700	6.72982200
172.79998991	0.00000000	7.16043300	7.09891700
172.99998990	0.00000000	7.57258800	7.10506800
173.19998989	0.00000000	8.23695900	7.47416300
173.39998988	0.00000000	8.64911400	7.47416300
173.59998986	0.00000000	8.32308000	7.14812900
173.79998985	0.00000000	8.32308000	7.47416300
173.99998984	0.00000000	8.64911400	7.42495000
174.19998983	0.00000000	8.32308000	6.77903500
174.39998982	0.00000000	8.32308000	6.77903500
174.59998980	0.00000000	8.69217500	7.47416300
174.79998979	0.00000000	8.65526600	7.84940900
174.99998978	0.00000000	8.73523500	7.89247000
175.19998977	0.00000000	8.65526600	7.89247000
175.39998976	0.00000000	8.69217500	7.89247000
175.59998975	0.00000000	8.28001900	7.89247000
175.79998973	0.00000000	7.94783400	7.84940900
175.99998972	0.00000000	7.90477300	7.51722400
176.19998971	0.00000000	7.90477300	7.14812900
176.39998970	0.00000000	7.94783400	7.51722400
176.59998969	0.00000000	8.28001900	7.84940900
176.79998967	0.00000000	8.64911400	7.89247000
176.99998966	0.00000000	8.32308000	7.89247000
177.19998965	0.00000000	8.32308000	7.84940900
177.39998964	0.00000000	8.64911400	7.51722400
177.59998963	0.00000000	8.32308000	7.14812900
177.79998961	0.00000000	8.37229300	7.51722400
177.99998960	0.00000000	9.01820900	7.80019600
178.19998959	0.00000000	9.01820900	7.51722400
178.39998958	0.00000000	8.32308000	7.14812900
178.59998957	0.00000000	7.94783400	7.51722400
178.79998956	0.00000000	7.94783400	7.84940900
178.99998954	0.00000000	8.32308000	7.89247000
179.19998953	0.00000000	9.06742000	7.89247000
179.39998952	0.00000000	9.44266700	7.89247000
179.59998951	0.00000000	9.44266700	7.89247000
179.79998950	0.00000000	9.11048200	7.84940900
179.99998948	0.00000000	8.74138700	7.47416300
180.19998947	0.00000000	9.11048200	6.72982200
180.39998946	0.00000000	9.39345400	6.35457700
180.59998945	0.00000000	9.06742000	6.35457700
180.79998944	0.00000000	8.32308000	6.72982200
180.99998942	0.00000000	7.94783400	7.47416300
181.19998941	0.00000000	7.90477300	7.84940900
181.39998940	0.00000000	7.90477300	7.89247000
181.59998939	0.00000000	7.94783400	7.89247000
181.79998938	0.00000000	8.32308000	7.89247000
181.99998937	0.00000000	9.01820900	7.89247000
182.19998935	0.00000000	9.06742000	7.89247000
182.39998934	0.00000000	8.74138700	7.89247000
182.59998933	0.00000000	9.11048200	7.84940900
182.79998932	0.00000000	9.39345400	7.47416300
182.99998931	0.00000000	9.06742000	6.72982200
183.19998929	0.00000000	8.37229300	6.35457700
183.39998928	0.00000000	8.32308000	6.35457700
183.59998927	0.00000000	8.64911400	6.68676100
183.79998926	0.00000000	8.28001900	7.09891700
183.99998925	0.00000000	7.94783400	7.10506800
184.19998923	0.00000000	7.90477300	7.51722400
184.39998922	0.00000000	7.90477300	7.84940900
184.59998921	0.00000000	7.90477300	7.89247000
184.79998920	0.00000000	7.90477300	7.89247000
184.99998919	0.00000000	7.94783400	7.89247000
185.19998918	0.00000000	8.32308000	7.89247000
185.39998916	0.00000000	9.06742000	7.84940900
185.59998915	0.00000000	9.44266700	7.47416300
185.79998914	0.00000000	9.48572700	6.72982200
185.99998913	0.00000000	9.48572700	6.35457700
186.19998912	0.00000000	9.48572700	6.31151500
186.39998910	0.00000000	9.48572700	6.31151500
186.59998909	0.00000000	9.44266700	6.31151500
186.79998908	0.00000000	9.06742000	6.35457700
186.99998907	0.00000000	8.32308000	6.72982200
187.19998906	0.00000000	7.94783400	7.47416300
187.39998904	0.00000000	7.90477300	7.84940900
187.59998903	0.00000000	7.90477300	7.89247000
187.79998902	0.00000000	7.90477300	7.89247000
187.99998901	0.00000000	7.94783400	7.89247000
188.19998900	0.00000000	8.28001900	7.89247000
188.39998899	0.00000000	8.64911400	7.84940900
188.59998897	0.00000000	8.28001900	7.47416300
188.79998896	0.00000000	7.94783400	6.68676100
188.99998895	0.00000000	7.94783400	5.98548200
189.19998894	0.00000000	8.28001900	5.57332700
189.39998893	0.00000000	8.64911400	5.98548200
189.59998891	0.00000000	8.28001900	6.64370100
189.79998890	0.00000000	7.94783400	7.09891700
189.99998889	0.00000000	7.90477300	7.10506800
190.19998888	0.00000000	7.90477300	7.51722400
190.39998887	0.00000000	7.90477300	7.84940900
190.59998885	0.00000000	7.90477300	7.89247000
190.79998884	0.00000000	7.94783400	7.89247000
190.99998883	0.00000000	8.32308000	7.89247000
191.19998882	0.00000000	9.06742000	7.89247000
191.39998881	0.00000000	9.44266700	7.89247000
191.59998880	0.00000000	9.48572700	7.84940900
191.79998878	0.00000000	9.48572700	7.51722400
191.99998877	0.00000000	9.44266700	7.10506800
192.19998876	0.00000000	9.11048200	7.14197800
192.39998875	0.00000000	8.74138700	7.06200700
192.59998874	0.00000000	9.06742000	7.14197800
192.79998872	0.00000000	9.01820900	7.06200700
192.99998871	0.00000000	8.32308000	7.14197800
193.19998870	0.00000000	7.94783400	7.10506800
193.39998869	0.00000000	7.90477300	7.51722400
193.59998868	0.00000000	7.90477300	7.84940900
193.79998866	0.00000000	7.94783400	7.89247000
193.99998865	0.00000000	8.32308000	7.89247000
194.19998864	0.00000000	9.06742000	7.89247000
194.39998863	0.00000000	9.44266700	7.89247000
194.59998862	0.00000000	9.48572700	7.89247000
194.79998861	0.00000000	9.44266700	7.89247000
194.99998859	0.00000000	9.11048200	7.89247000
195.19998858	0.00000000	8.69832600	7.84940900
195.39998857	0.00000000	8.73523500	7.47416300
195.59998856	0.00000000	8.65526600	6.72982200
195.79998855	0.00000000	8.69217500	6.40378900
195.99998853	0.00000000	8.28001900	6.68676100
