Time	Channel A	Channel B	Channel C
(us)	(V)	(mV)	(mV)

-4.59999956	0.00000000	42.73499000	22.10261000
-4.39999957	0.00000000	43.06717000	22.10261000
-4.19999958	0.00000000	43.43627000	22.10261000
-3.99999959	0.00000000	43.11023000	22.14567000
-3.79999960	0.00000000	43.06717000	22.52091000
-3.59999962	0.00000000	43.06102000	23.21604000
-3.39999963	0.00000000	42.32283000	23.21604000
-3.19999964	0.00000000	42.35974000	22.52091000
-2.99999965	0.00000000	42.64886000	22.14567000
-2.79999966	0.00000000	42.69193000	22.10261000
-2.59999968	0.00000000	42.69193000	22.10261000
-2.39999969	0.00000000	42.69193000	22.14567000
-2.19999970	0.00000000	42.69193000	22.47785000
-1.99999971	0.00000000	42.69193000	22.84695000
-1.79999972	0.00000000	42.69193000	22.52091000
-1.59999973	0.00000000	42.69193000	22.57013000
-1.39999975	0.00000000	42.73499000	23.21604000
-1.19999976	0.00000000	43.06717000	23.26525000
-0.99999977	0.00000000	43.43627000	22.89616000
-0.79999978	0.00000000	43.06717000	22.93307000
-0.59999979	0.00000000	42.73499000	22.89616000
-0.39999981	0.15871060	42.69193000	23.26525000
-0.19999982	0.63668800	42.69193000	23.26525000
0.00000017	0.79601380	42.69193000	22.89616000
0.20000016	0.95533960	42.69193000	22.89001000
0.40000015	0.95533960	42.69193000	22.47785000
0.60000013	0.47736220	42.69193000	22.14567000
0.80000012	-0.31803640	42.69193000	22.14567000
1.00000011	-1.27399100	42.69193000	22.52091000
1.20000010	-2.22994600	42.69193000	23.26525000
1.40000009	-2.70792300	42.69193000	23.64050000
1.60000008	-2.54859700	42.73499000	23.68356000
1.80000006	-1.59264300	43.06717000	23.68356000
2.00000005	0.00000000	43.43627000	23.68356000
2.20000004	2.07062000	43.11023000	23.68356000
2.40000003	4.14124000	43.11023000	23.68356000
2.60000002	5.25652100	43.43627000	23.64050000
2.80000000	5.09719500	43.11023000	23.30832000
2.99999999	3.50393700	43.11023000	22.89616000
3.19999998	0.63668800	43.47933000	22.93307000
3.39999997	-2.70792300	43.48548000	22.89616000
3.59999996	-5.89382400	43.89763000	23.30832000
3.79999994	-7.64579200	44.22982000	23.68356000
3.99999993	-7.80511800	44.22982000	24.05881000
4.19999992	-5.73449800	43.89763000	24.42790000
4.39999991	-2.07062000	43.52854000	24.05881000
4.59999990	2.38927200	43.89763000	23.72662000
4.79999989	6.37180100	44.18061000	23.68356000
4.99999987	8.92039900	43.85457000	23.68356000
5.19999986	9.39837600	43.11023000	23.64050000
5.39999985	7.32714100	42.78420000	23.30832000
5.59999984	3.50393700	43.06717000	22.93922000
5.79999983	-1.27399100	43.43627000	23.30832000
5.99999981	-5.73449800	43.11023000	23.64050000
6.19999980	-8.60174700	43.15945000	23.68356000
6.39999979	-9.39837600	43.85457000	23.72662000
6.59999978	-7.80511800	44.22982000	24.05881000
6.79999977	-4.30056600	44.27288000	24.47096000
6.99999975	0.00000000	44.27288000	24.43405000
7.19999974	3.98191400	44.27288000	24.47096000
7.39999973	6.84916400	44.27288000	24.05881000
7.59999972	7.80511800	44.27288000	23.72662000
7.79999971	6.69045300	44.27288000	23.68356000
7.99999970	4.14124000	44.27288000	23.68356000
8.19999968	0.95533960	44.27288000	23.68356000
8.39999967	-2.22994600	44.22982000	23.68356000
8.59999966	-4.30056600	43.89763000	23.68356000
8.79999965	-5.25652100	43.52854000	23.68356000
8.99999964	-4.61921700	43.89763000	23.68356000
9.19999962	-3.18590100	44.22982000	23.68356000
9.39999961	-1.11466500	44.22982000	23.68356000
9.59999960	0.79601380	43.85457000	23.68356000
9.79999959	2.07062000	43.15945000	23.68356000
9.99999958	2.54859700	43.15945000	23.68356000
10.19999956	2.38927200	43.85457000	23.64050000
10.39999955	1.59264300	44.22982000	23.26525000
10.59999954	0.79601380	44.27288000	22.57013000
10.79999953	-0.15871060	44.31594000	22.57013000
10.99999952	-0.63668800	44.64813000	23.21604000
11.19999951	-0.95533960	44.96801000	23.26525000
11.39999949	-0.95533960	44.27288000	22.93922000
11.59999948	-0.79601380	43.57775000	23.26525000
11.79999947	-0.47736220	43.89763000	23.26525000
11.99999946	-0.15871060	44.22982000	22.93922000
12.19999945	-0.15871060	44.22982000	23.26525000
12.39999943	-0.15871060	43.85457000	23.26525000
12.59999942	0.00000000	43.15945000	22.93922000
12.79999941	0.00000000	43.11023000	23.26525000
12.99999940	0.00000000	43.47933000	23.26525000
13.19999939	0.00000000	43.44242000	22.93922000
13.39999937	0.00000000	43.52239000	23.26525000
13.59999936	0.00000000	43.48548000	23.26525000
13.79999935	0.00000000	43.89763000	22.93922000
13.99999934	-0.15871060	44.22982000	23.30832000
14.19999933	-0.15871060	44.22982000	23.64050000
14.39999932	-0.15871060	43.85457000	23.68356000
14.59999930	0.00000000	43.11023000	23.68356000
14.79999929	0.00000000	42.78420000	23.68356000
14.99999928	0.00000000	43.11023000	23.68356000
15.19999927	0.00000000	43.85457000	23.68356000
15.39999926	0.00000000	44.18061000	23.68356000
15.59999924	0.00000000	43.89763000	23.68356000
15.79999923	0.00000000	43.52854000	23.68356000
15.99999922	0.00000000	43.89763000	23.68356000
16.19999921	0.00000000	44.22982000	23.68356000
16.39999920	0.00000000	44.27288000	23.68356000
16.59999919	-0.15871060	44.27288000	23.68356000
16.79999917	-0.15871060	44.31594000	23.68356000
16.99999916	0.00000000	44.69119000	23.68356000
17.19999915	0.00000000	45.43553000	23.68356000
17.39999914	0.00000000	45.81078000	23.68356000
17.59999913	0.00000000	45.81078000	23.68356000
17.79999911	0.00000000	45.38631000	23.68356000
17.99999910	0.00000000	44.22982000	23.68356000
18.19999909	0.00000000	42.73499000	23.68356000
18.39999908	0.00000000	41.52928000	23.68356000
18.59999907	0.00000000	40.69267000	23.68356000
18.79999905	0.00000000	39.57308000	23.68356000
18.99999904	0.00000000	38.92101000	23.68356000
19.19999903	0.00000000	40.08366000	23.68356000
19.39999902	0.00000000	42.78420000	23.68356000
19.59999901	0.00000000	46.27214000	23.68356000
19.79999900	0.00000000	50.17839000	23.68356000
19.99999898	0.00000000	53.62328000	23.68356000
20.19999897	0.00000000	55.89936000	23.68356000
20.39999896	0.00000000	55.81324000	23.68356000
20.59999895	0.00000000	52.69439000	23.68356000
20.79999894	0.00000000	46.88115000	23.68356000
20.99999892	0.00000000	39.48080000	23.68356000
21.19999891	0.00000000	31.79749000	23.68356000
21.39999890	0.00000000	25.66437000	23.68356000
21.59999889	0.00000000	23.42520000	23.68356000
21.79999888	0.00000000	25.79970000	23.68356000
21.99999886	0.00000000	33.23696000	23.68356000
22.19999885	0.00000000	44.78346000	23.68356000
22.39999884	0.00000000	57.52953000	23.68356000
22.59999883	0.00000000	68.37475000	23.68356000
22.79999882	0.00000000	75.25836000	23.68356000
22.99999881	0.00000000	75.86736000	23.72662000
23.19999879	0.00000000	68.51624000	24.10187000
23.39999878	0.00000000	54.56446000	24.84621000
23.59999877	0.00000000	37.15551000	25.22145000
23.79999876	0.00000000	19.43282000	25.26452000
23.99999875	0.00000000	6.39763700	25.26452000
24.19999873	0.00000000	1.74704700	25.22145000
24.39999872	0.00000000	6.48991100	24.75394000
24.59999871	0.00000000	20.44783000	23.22219000
24.79999870	0.00000000	41.28937000	20.94611000
24.99999869	0.00000000	63.67495000	19.03912000
25.19999867	0.00000000	82.60949000	17.87647000
25.39999866	0.00000000	93.73154000	17.91953000
25.59999865	0.00000000	93.68233000	19.45743000
25.79999864	0.00000000	82.09891000	22.15182000
25.99999863	0.00000000	61.62647000	25.30758000
26.19999862	0.00000000	36.92175000	28.79552000
26.39999860	0.00000000	13.74877000	32.22810000
26.59999859	0.00000000	-2.48523600	34.14124000
26.79999858	0.00000000	-8.25541300	34.09203000
26.99999857	0.00000000	-2.10999000	31.67446000
27.19999856	0.00000000	14.49311000	26.24262000
27.39999854	0.00000000	37.29700000	18.94685000
27.59999853	0.00000000	61.62647000	11.60187000
27.79999852	0.00000000	81.68060000	5.84399600
27.99999851	0.00000000	92.56889000	3.19266700
28.19999850	0.00000000	92.56889000	4.77362200
28.39999848	0.00000000	81.77288000	10.67298000
28.59999847	0.00000000	62.55536000	20.33710000
28.79999846	0.00000000	40.54502000	32.32037000
28.99999845	0.00000000	20.77387000	43.43012000
29.19999844	0.00000000	6.82209600	51.13803000
29.39999843	0.00000000	1.74704700	53.00197000
29.59999841	0.00000000	5.93626900	48.35752000
29.79999840	0.00000000	17.89493000	37.85679000
29.99999839	0.00000000	34.87328000	23.22219000
30.19999838	0.00000000	52.65133000	7.79404500
30.39999837	0.00000000	67.39665000	-4.56446800
30.59999835	0.00000000	76.37794000	-11.52805000
30.79999834	0.00000000	78.37721000	-11.48499000
30.99999833	0.00000000	73.76968000	-4.09694900
31.19999832	0.00000000	63.67495000	9.46727400
31.39999831	0.00000000	50.17839000	26.83932000
31.59999829	0.00000000	36.26968000	44.17446000
31.79999828	0.00000000	25.38140000	57.27731000
31.99999827	0.00000000	19.14370000	63.12745000
32.19999826	0.00000000	18.35630000	60.80831000
32.39999825	0.00000000	23.37598000	51.13803000
32.59999824	0.00000000	32.59719000	35.67298000
32.79999822	0.00000000	43.80536000	17.91953000
32.99999821	0.00000000	54.23228000	1.66092500
33.19999820	0.00000000	61.62647000	-9.90403500
33.39999819	0.00000000	64.74532000	-14.17938000
33.59999818	0.00000000	63.25048000	-10.37155000
33.79999816	0.00000000	57.85556000	0.08612204
33.99999815	0.00000000	50.17839000	15.18209000
34.19999814	0.00000000	42.03986000	32.14198000
34.39999813	0.00000000	35.47613000	46.81963000
34.59999812	0.00000000	31.56988000	56.11466000
34.79999810	0.00000000	31.19464000	58.43996000
34.99999809	0.00000000	34.26427000	53.05118000
35.19999808	0.00000000	39.99138000	41.52312000
35.39999807	0.00000000	46.54896000	26.88238000
35.59999806	0.00000000	51.90699000	12.57382000
35.79999805	0.00000000	55.06274000	1.75319900
35.99999803	0.00000000	55.06890000	-3.63558100
36.19999802	0.00000000	52.78666000	-2.10383800
36.39999801	0.00000000	48.50517000	5.88705700
36.59999800	0.00000000	43.15945000	17.41511000
36.79999799	0.00000000	38.59498000	29.40452000
36.99999797	0.00000000	36.26968000	39.43774000
37.19999796	0.00000000	37.01402000	45.15256000
37.39999795	0.00000000	40.04060000	44.77731000
37.59999794	0.00000000	44.31594000	38.31816000
37.79999793	0.00000000	48.92347000	28.42027000
37.99999791	0.00000000	52.78666000	18.43012000
38.19999790	0.00000000	54.74286000	11.09129000
38.39999789	0.00000000	54.74286000	8.02165300
38.59999788	0.00000000	52.78666000	9.92864100
38.79999787	0.00000000	48.92347000	16.47392000
38.99999786	0.00000000	44.31594000	25.59055000
39.19999784	0.00000000	40.04060000	34.41191000
39.39999783	0.00000000	36.92175000	39.76377000
39.59999782	0.00000000	35.38385000	40.55118000
39.79999781	0.00000000	35.75910000	36.27584000
39.99999780	0.00000000	38.12746000	27.86663000
40.19999778	0.00000000	41.94759000	17.91953000
40.39999777	0.00000000	46.59818000	9.51033400
40.59999776	0.00000000	50.46136000	5.28420300
40.79999775	0.00000000	53.24803000	6.39763700
40.99999774	0.00000000	54.78592000	12.11245000
41.19999772	0.00000000	54.74286000	20.61393000
41.39999771	0.00000000	52.82972000	29.86589000
41.59999770	0.00000000	49.34793000	37.89985000
41.79999769	0.00000000	45.47859000	42.13213000
41.99999768	0.00000000	41.57849000	41.38779000
42.19999767	0.00000000	38.50270000	36.41117000
42.39999765	0.00000000	36.92175000	28.32800000
42.59999764	0.00000000	36.92175000	19.54355000
42.79999763	0.00000000	38.45964000	12.57382000
42.99999762	0.00000000	41.15403000	9.04281500
43.19999761	0.00000000	44.22982000	8.99975300
43.39999759	0.00000000	46.92421000	12.11245000
43.59999758	0.00000000	48.50517000	17.83341000
43.79999757	0.00000000	48.97269000	24.37869000
43.99999756	0.00000000	48.97269000	29.77362000
44.19999755	0.00000000	48.59744000	33.29847000
44.39999753	0.00000000	47.81004000	34.04897000
44.59999752	0.00000000	47.10260000	32.22810000
44.79999751	0.00000000	46.69045000	28.75246000
44.99999750	0.00000000	47.01648000	24.88927000
45.19999749	0.00000000	46.92421000	21.03838000
45.39999748	0.00000000	45.81078000	18.33784000
45.59999746	0.00000000	44.22982000	17.50123000
45.79999745	0.00000000	42.22441000	17.87647000
45.99999744	0.00000000	39.53002000	19.45743000
46.19999743	0.00000000	36.92175000	22.10261000
46.39999742	0.00000000	35.85138000	24.79700000
46.59999740	0.00000000	37.38927000	26.75320000
46.79999739	0.00000000	41.24631000	27.95275000
46.99999738	0.00000000	46.32135000	28.28494000
47.19999737	0.00000000	52.13459000	27.54060000
47.39999736	0.00000000	57.48031000	25.59055000
47.59999734	0.00000000	60.55610000	23.35753000
47.79999733	0.00000000	60.50689000	21.36442000
47.99999732	0.00000000	56.96973000	20.19562000
48.19999731	0.00000000	50.04306000	19.41437000
48.39999730	0.00000000	41.57234000	19.50049000
48.59999729	0.00000000	33.84596000	21.03838000
48.79999727	0.00000000	28.45103000	23.72662000
48.99999726	0.00000000	26.95620000	26.79626000
49.19999725	0.00000000	30.07505000	29.49065000
49.39999724	0.00000000	37.38312000	31.02239000
49.59999723	0.00000000	47.01648000	31.06545000
49.79999721	0.00000000	56.23154000	29.86589000
49.99999720	0.00000000	62.83218000	27.54060000
50.19999719	0.00000000	65.16363000	24.05881000
50.39999718	-0.15871060	63.20743000	20.61393000
50.59999717	0.00000000	56.96973000	17.91953000
50.79999715	0.00000000	47.39173000	16.80610000
50.99999714	0.00000000	37.47539000	17.91953000
51.19999713	0.00000000	30.49951000	20.61393000
51.39999712	0.00000000	28.16806000	24.10187000
51.59999711	0.00000000	30.45029000	27.95275000
51.79999710	0.00000000	36.96481000	31.02239000
51.99999708	0.00000000	45.38631000	32.60334000
52.19999707	0.00000000	53.16190000	32.56028000
52.39999706	0.00000000	58.92593000	30.64714000
52.59999705	0.00000000	61.20817000	27.17150000
52.79999704	0.00000000	58.88287000	23.30832000
52.99999702	0.00000000	52.82972000	19.50049000
53.19999701	0.00000000	45.15871000	17.22441000
53.39999700	0.00000000	38.58883000	17.50123000
53.59999699	0.00000000	34.31348000	19.03912000
53.79999698	0.00000000	33.19390000	21.36442000
53.99999696	0.00000000	35.89444000	24.42790000
54.19999695	0.00000000	41.62155000	26.70398000
54.39999694	0.00000000	48.50517000	27.90969000
54.59999693	0.00000000	54.27534000	27.90969000
54.79999692	0.00000000	57.39419000	26.79626000
54.99999691	0.00000000	57.39419000	25.26452000
55.19999689	0.00000000	54.31840000	23.72662000
55.39999688	0.00000000	48.97269000	22.61319000
55.59999687	0.00000000	43.20251000	22.61319000
55.79999686	0.00000000	38.59498000	23.72662000
55.99999685	0.00000000	36.26968000	25.26452000
56.19999683	0.00000000	37.01402000	26.75320000
56.39999682	0.00000000	40.04060000	27.53445000
56.59999681	0.00000000	44.27288000	27.07923000
56.79999680	0.00000000	48.54823000	25.53518000
56.99999679	0.00000000	52.04232000	22.47785000
57.19999677	0.00000000	54.31840000	19.45743000
57.39999676	0.00000000	54.27534000	17.50123000
57.59999675	0.00000000	51.66707000	16.80610000
57.79999674	0.00000000	47.85310000	18.38090000
57.99999673	0.00000000	44.40821000	22.19488000
58.19999672	0.00000000	41.99680000	26.83932000
58.39999670	0.00000000	40.82800000	31.44069000
58.59999669	0.00000000	40.45890000	34.87328000
58.79999668	0.00000000	41.62155000	35.58071000
58.99999667	0.00000000	43.89763000	33.29847000
59.19999666	0.00000000	46.18602000	28.24188000
59.39999664	0.00000000	48.12992000	21.72736000
59.59999663	0.00000000	48.92347000	15.22515000
59.79999662	0.00000000	48.97269000	10.99901000
59.99999661	0.00000000	48.54823000	10.20546000
60.19999660	0.00000000	47.39173000	12.53076000
60.39999658	0.00000000	45.94611000	17.96260000
60.59999657	0.00000000	45.10950000	25.21530000
60.79999656	0.00000000	45.10334000	32.18504000
60.99999655	0.00000000	45.06644000	37.20472000
61.19999654	0.00000000	45.52165000	39.48080000
61.39999653	0.00000000	46.22908000	37.89985000
61.59999651	0.00000000	46.96727000	32.51722000
61.79999650	0.00000000	46.96727000	24.84621000
61.99999649	0.00000000	46.22908000	16.76304000
62.19999648	0.00000000	45.47859000	10.58071000
62.39999647	0.00000000	44.69119000	7.51107200
62.59999645	0.00000000	44.31594000	8.25541300
62.79999644	0.00000000	44.31594000	12.89985000
62.99999643	0.00000000	44.74040000	19.82652000
63.19999642	0.00000000	45.85384000	27.90969000
63.39999641	0.00000000	47.01648000	34.83022000
63.59999639	0.00000000	47.81004000	38.74261000
63.79999638	0.00000000	48.59744000	39.53002000
63.99999637	0.00000000	48.92347000	36.82948000
64.19999636	0.00000000	48.54823000	31.48991000
64.39999635	0.00000000	47.39173000	25.26452000
64.59999634	0.00000000	45.89690000	19.08218000
64.79999632	0.00000000	44.74040000	14.06865000
64.99999631	0.00000000	44.36515000	11.73720000
65.19999630	0.00000000	44.69119000	12.06939000
65.39999629	0.00000000	45.47859000	14.80684000
65.59999628	0.00000000	46.22908000	19.41437000
65.79999626	0.00000000	47.05954000	24.79700000
65.99999625	0.00000000	47.76698000	29.44759000
66.19999624	0.00000000	48.12992000	32.60334000
66.39999623	0.00000000	47.34252000	34.18430000
66.59999622	0.00000000	45.89690000	34.22736000
66.79999620	0.00000000	44.69119000	33.06471000
66.99999619	0.00000000	43.94069000	31.11466000
67.19999618	0.00000000	43.62082000	28.37721000
67.39999617	0.00000000	44.78346000	25.26452000
67.59999616	0.00000000	47.05954000	22.15182000
67.79999615	0.00000000	49.39099000	19.40822000
67.99999613	0.00000000	51.71013000	17.45817000
68.19999612	0.00000000	53.16190000	16.29552000
68.39999611	0.00000000	52.78666000	16.33858000
68.59999610	0.00000000	50.46136000	17.91953000
68.79999609	0.00000000	47.01648000	21.03838000
68.99999607	0.00000000	43.15945000	25.30758000
69.19999606	0.00000000	40.04060000	29.90895000
69.39999605	0.00000000	38.12746000	33.76599000
69.59999604	0.00000000	37.80758000	35.71604000
69.79999603	0.00000000	40.12672000	35.71604000
69.99999601	0.00000000	44.31594000	33.76599000
70.19999600	0.00000000	49.01575000	29.86589000
70.39999599	0.00000000	53.66634000	24.84621000
70.59999598	0.00000000	57.48031000	19.45743000
70.79999597	0.00000000	58.97515000	15.22515000
70.99999596	0.00000000	57.43725000	13.27510000
71.19999594	0.00000000	53.20496000	13.64419000
71.39999593	0.00000000	47.43479000	16.33858000
71.59999592	0.00000000	41.62155000	20.57087000
71.79999591	0.00000000	36.96481000	25.22145000
71.99999590	0.00000000	34.26427000	29.44759000
72.19999588	0.00000000	34.31348000	32.18504000
72.39999587	0.00000000	37.34006000	32.97859000
72.59999586	0.00000000	42.35974000	32.18504000
72.79999585	0.00000000	47.76698000	29.49065000
72.99999584	0.00000000	52.82972000	25.68282000
73.19999582	0.00000000	56.27460000	22.23794000
73.39999581	0.00000000	57.48031000	19.91880000
73.59999580	0.00000000	56.32381000	19.45743000
73.79999579	0.00000000	53.24803000	20.19562000
73.99999578	0.00000000	48.97269000	21.36442000
74.19999577	0.00000000	44.36515000	23.22219000
74.39999575	0.00000000	40.50196000	24.33563000
74.59999574	0.00000000	38.54576000	24.01575000
74.79999573	0.00000000	38.50270000	23.30832000
74.99999572	0.00000000	40.04060000	22.52091000
75.19999571	0.00000000	42.78420000	22.14567000
75.39999569	0.00000000	46.22908000	22.14567000
75.59999568	0.00000000	49.66781000	22.61319000
75.79999567	0.00000000	51.58095000	24.19414000
75.99999566	0.00000000	51.66707000	26.83932000
76.19999565	0.00000000	50.55364000	29.44759000
76.39999563	0.00000000	49.05881000	30.60408000
76.59999562	0.00000000	47.85310000	29.86589000
76.79999561	0.00000000	47.05954000	27.90969000
76.99999560	0.00000000	46.27214000	24.75394000
77.19999559	0.00000000	45.89690000	20.57087000
77.39999558	0.00000000	45.85384000	16.76304000
77.59999556	0.00000000	45.85384000	14.80684000
77.79999555	0.00000000	45.85384000	14.80684000
77.99999554	0.00000000	45.81078000	16.80610000
78.19999553	0.00000000	45.43553000	21.03223000
78.39999552	0.00000000	44.69119000	26.37795000
78.59999550	0.00000000	44.36515000	31.06545000
78.79999549	0.00000000	44.74040000	34.51033000
78.99999548	0.00000000	45.89690000	36.03592000
79.19999547	0.00000000	47.47785000	34.51033000
79.39999546	0.00000000	49.39099000	31.11466000
79.59999544	0.00000000	51.29183000	26.79626000
79.79999543	0.00000000	52.04232000	22.19488000
79.99999542	0.00000000	51.66707000	18.29478000
80.19999541	0.00000000	50.08612000	16.01255000
80.39999540	0.00000000	47.43479000	15.55733000
80.59999539	0.00000000	44.74040000	17.12598000
80.79999537	0.00000000	42.78420000	19.78346000
80.99999536	0.00000000	41.62155000	23.30832000
81.19999535	0.00000000	41.70767000	26.79626000
81.39999534	0.00000000	43.57775000	29.90895000
81.59999533	0.00000000	46.64124000	32.22810000
81.79999531	0.00000000	49.34793000	33.02165000
81.99999530	0.00000000	51.66707000	32.68946000
82.19999529	0.00000000	52.78666000	31.48991000
82.39999528	0.00000000	52.08538000	29.53371000
82.59999527	0.00000000	50.59670000	26.79626000
82.79999525	0.00000000	49.01575000	23.72662000
82.99999524	0.00000000	47.43479000	20.98917000
83.19999523	0.00000000	45.89690000	19.03912000
83.39999522	0.00000000	44.74040000	17.87647000
83.59999521	0.00000000	44.36515000	17.91953000
83.79999520	0.00000000	44.74040000	19.45743000
83.99999518	0.00000000	45.89690000	22.15182000
84.19999517	0.00000000	47.39173000	25.30758000
84.39999516	0.00000000	48.50517000	28.79552000
84.59999515	0.00000000	48.59744000	32.22810000
84.79999514	0.00000000	48.22834000	34.14124000
84.99999512	0.00000000	48.22219000	34.14124000
85.19999511	0.00000000	47.81004000	32.18504000
85.39999510	0.00000000	47.52707000	28.32800000
85.59999509	0.00000000	47.85310000	23.72662000
85.79999508	0.00000000	48.59744000	19.45743000
85.99999506	0.00000000	48.92347000	16.33858000
86.19999505	0.00000000	48.59744000	14.80684000
86.39999504	0.00000000	47.81004000	15.22515000
86.59999503	0.00000000	47.01648000	17.96260000
86.79999502	0.00000000	45.85384000	22.52091000
86.99999501	0.00000000	44.74040000	27.53445000
87.19999499	0.00000000	44.36515000	31.39763000
87.39999498	0.00000000	44.74040000	33.71678000
87.59999497	0.00000000	45.89690000	33.71678000
87.79999496	0.00000000	47.43479000	31.39763000
87.99999495	0.00000000	48.97269000	27.53445000
88.19999493	0.00000000	50.12918000	22.52091000
88.39999492	0.00000000	50.50443000	17.96260000
88.59999491	0.00000000	50.17839000	15.22515000
88.79999490	0.00000000	49.34793000	14.84990000
88.99999489	0.00000000	48.17913000	16.80610000
89.19999487	0.00000000	46.27214000	21.03223000
89.39999486	0.00000000	44.78346000	26.37795000
89.59999485	0.00000000	44.31594000	30.97933000
89.79999484	0.00000000	44.31594000	33.67372000
89.99999483	0.00000000	44.74040000	33.71678000
90.19999482	0.00000000	45.85384000	31.39763000
90.39999480	0.00000000	47.01648000	27.53445000
90.59999479	0.00000000	47.81004000	22.52091000
90.79999478	0.00000000	48.59744000	17.96260000
90.99999477	0.00000000	48.92347000	15.27436000
91.19999476	0.00000000	48.59744000	15.27436000
91.39999474	0.00000000	47.85310000	17.91953000
91.59999473	0.00000000	47.47785000	22.14567000
91.79999472	0.00000000	47.43479000	26.79626000
91.99999471	0.00000000	47.43479000	31.02239000
92.19999470	0.00000000	47.43479000	33.67372000
92.39999468	0.00000000	47.43479000	33.67372000
92.59999467	0.00000000	47.43479000	31.02239000
92.79999466	0.00000000	47.39173000	26.79626000
92.99999465	0.00000000	46.96727000	22.19488000
93.19999464	0.00000000	45.85384000	18.33784000
93.39999463	0.00000000	44.74040000	16.43085000
93.59999461	0.00000000	44.40821000	16.80610000
93.79999460	0.00000000	45.15871000	19.50049000
93.99999459	0.00000000	47.05954000	23.68356000
94.19999458	0.00000000	49.01575000	27.90969000
94.39999457	0.00000000	50.97194000	31.02239000
94.59999455	0.00000000	52.87278000	32.56028000
94.79999454	0.00000000	53.58022000	32.14198000
94.99999453	0.00000000	52.87278000	29.44759000
95.19999452	0.00000000	50.87967000	25.30758000
95.39999451	0.00000000	48.22219000	21.45669000
95.59999449	0.00000000	45.06644000	19.12524000
95.79999448	0.00000000	42.40895000	18.33784000
95.99999447	0.00000000	40.45890000	19.50049000
96.19999446	0.00000000	40.12672000	22.15182000
96.39999445	0.00000000	41.66461000	25.26452000
96.59999444	0.00000000	44.78346000	28.32800000
96.79999442	0.00000000	48.97269000	30.60408000
96.99999441	0.00000000	52.87278000	31.02239000
97.19999440	0.00000000	55.57948000	29.90895000
97.39999439	0.00000000	57.15428000	28.00197000
97.59999438	0.00000000	56.69291000	25.68282000
97.79999436	0.00000000	54.41068000	23.77584000
97.99999435	0.00000000	50.55364000	22.57013000
98.19999434	0.00000000	46.32135000	22.19488000
98.39999433	0.00000000	42.82726000	22.57013000
98.59999432	0.00000000	40.50196000	23.68356000
98.79999430	0.00000000	40.08366000	24.84621000
98.99999429	0.00000000	41.24631000	25.63976000
99.19999428	0.00000000	43.57775000	26.42101000
99.39999427	0.00000000	47.05954000	26.79626000
99.59999426	0.00000000	50.55364000	26.83932000
99.79999425	0.00000000	53.66634000	26.83932000
99.99999423	0.00000000	55.94857000	26.88238000
100.19999422	0.00000000	56.32381000	27.25763000
100.39999421	0.00000000	54.87204000	28.00197000
100.59999420	0.00000000	52.50984000	28.28494000
100.79999419	0.00000000	49.80315000	27.54060000
100.99999417	0.00000000	46.69045000	25.63976000
101.19999416	0.00000000	44.36515000	23.72662000
101.39999415	0.00000000	42.78420000	22.10261000
101.59999414	0.00000000	42.08292000	20.61393000
101.79999413	0.00000000	43.20251000	19.87574000
101.99999411	0.00000000	45.43553000	20.70620000
102.19999410	0.00000000	47.43479000	22.93922000
102.39999409	0.00000000	49.43405000	26.00270000
102.59999408	0.00000000	51.71013000	28.32800000
102.79999407	0.00000000	53.20496000	29.90895000
102.99999406	0.00000000	53.24803000	30.64714000
103.19999404	0.00000000	52.13459000	29.86589000
103.39999403	0.00000000	50.55364000	27.95891000
103.59999402	0.00000000	48.59744000	25.21530000
103.79999401	0.00000000	46.32135000	22.15182000
103.99999400	0.00000000	44.78346000	19.50049000
104.19999398	0.00000000	44.31594000	18.33784000
104.39999397	0.00000000	44.31594000	19.08218000
104.59999396	0.00000000	44.74040000	20.98917000
104.79999395	0.00000000	45.94611000	23.72662000
104.99999394	0.00000000	47.81004000	26.79626000
105.19999392	0.00000000	49.71087000	29.44759000
105.39999391	0.00000000	50.50443000	30.60408000
105.59999390	0.00000000	50.55364000	29.90895000
105.79999389	0.00000000	50.12918000	28.37721000
105.99999388	0.00000000	48.97269000	26.37795000
106.19999387	0.00000000	47.47785000	23.72662000
106.39999385	0.00000000	46.32135000	21.45669000
106.59999384	0.00000000	45.94611000	20.66314000
106.79999383	0.00000000	46.27214000	20.98917000
106.99999382	0.00000000	47.05954000	22.19488000
107.19999381	0.00000000	47.85310000	24.10187000
107.39999379	0.00000000	49.01575000	26.37795000
107.59999378	0.00000000	50.12918000	27.90969000
107.79999377	0.00000000	50.50443000	28.32800000
107.99999376	0.00000000	50.12918000	27.95275000
108.19999375	0.00000000	49.01575000	26.79626000
108.39999374	0.00000000	47.85310000	25.26452000
108.59999372	0.00000000	47.05954000	23.72662000
108.79999371	0.00000000	46.27214000	22.61319000
108.99999370	0.00000000	45.94611000	22.57013000
109.19999369	0.00000000	46.32135000	23.35138000
109.39999368	0.00000000	47.47785000	24.52018000
109.59999366	0.00000000	48.97269000	26.42101000
109.79999365	0.00000000	50.12918000	27.90969000
109.99999364	0.00000000	50.55364000	28.37721000
110.19999363	0.00000000	50.59670000	28.37721000
110.39999362	0.00000000	50.55364000	27.95275000
110.59999360	0.00000000	50.12918000	26.79626000
110.79999359	0.00000000	49.01575000	25.26452000
110.99999358	0.00000000	47.90231000	23.72662000
111.19999357	0.00000000	47.47785000	22.57013000
111.39999356	0.00000000	47.43479000	22.14567000
111.59999355	0.00000000	47.47785000	22.19488000
111.79999353	0.00000000	47.85310000	22.93922000
111.99999352	0.00000000	48.59744000	24.47096000
112.19999351	0.00000000	48.97269000	25.59055000
112.39999350	0.00000000	49.01575000	26.42101000
112.59999349	0.00000000	49.05881000	26.79626000
112.79999347	0.00000000	49.39099000	26.83932000
112.99999346	0.00000000	49.76009000	26.83932000
113.19999345	0.00000000	49.39099000	26.79626000
113.39999344	0.00000000	49.05881000	26.42101000
113.59999343	0.00000000	49.01575000	25.68282000
113.79999341	0.00000000	49.01575000	25.26452000
113.99999340	0.00000000	48.97269000	24.84621000
114.19999339	0.00000000	48.64050000	24.15108000
114.39999338	0.00000000	48.27140000	24.10187000
114.59999337	0.00000000	48.64050000	24.42790000
114.79999336	0.00000000	48.97269000	24.05881000
114.99999334	0.00000000	49.01575000	23.72662000
115.19999333	0.00000000	49.01575000	23.72662000
115.39999332	0.00000000	49.01575000	24.10187000
115.59999331	0.00000000	49.01575000	24.88927000
115.79999330	0.00000000	49.01575000	25.63976000
115.99999328	0.00000000	49.01575000	26.42101000
116.19999327	0.00000000	48.97269000	26.79626000
116.39999326	0.00000000	48.59744000	26.83932000
116.59999325	0.00000000	47.85310000	26.83932000
116.79999324	0.00000000	47.47785000	26.79626000
116.99999322	0.00000000	47.47785000	26.42101000
117.19999321	0.00000000	47.90231000	25.63976000
117.39999320	0.00000000	49.01575000	24.88927000
117.59999319	0.00000000	50.12918000	24.10187000
117.79999318	0.00000000	50.55364000	23.72662000
117.99999317	0.00000000	50.59670000	23.68356000
118.19999315	0.00000000	50.59670000	23.72662000
118.39999314	0.00000000	50.55364000	24.15108000
118.59999313	0.00000000	50.12918000	25.26452000
118.79999312	0.00000000	48.97269000	26.37795000
118.99999311	0.00000000	47.47785000	26.79626000
119.19999309	0.00000000	46.32135000	26.83932000
119.39999308	0.00000000	45.94611000	26.83932000
119.59999307	0.00000000	46.32135000	26.83932000
119.79999306	0.00000000	47.47785000	26.79626000
119.99999305	0.00000000	48.97269000	26.42101000
120.19999303	0.00000000	50.17839000	25.63976000
120.39999302	0.00000000	50.97194000	24.88927000
120.59999301	0.00000000	51.71013000	24.10187000
120.79999300	0.00000000	51.71013000	23.72662000
120.99999299	0.00000000	50.97194000	23.68356000
121.19999298	0.00000000	50.17839000	23.68356000
121.39999296	0.00000000	48.97269000	23.72662000
121.59999295	0.00000000	47.47785000	24.10187000
121.79999294	0.00000000	46.32135000	24.84621000
121.99999293	0.00000000	45.94611000	25.22145000
122.19999292	0.00000000	46.27214000	25.26452000
122.39999290	0.00000000	47.05954000	25.30758000
122.59999289	0.00000000	47.81004000	25.68282000
122.79999288	0.00000000	48.64050000	26.42101000
122.99999287	0.00000000	49.39099000	26.74705000
123.19999286	0.00000000	50.22145000	26.42101000
123.39999284	0.00000000	50.92888000	25.68282000
123.59999283	0.00000000	51.34104000	25.30758000
123.79999282	0.00000000	50.92888000	25.22145000
123.99999281	0.00000000	50.22145000	24.84621000
124.19999280	0.00000000	49.39099000	24.10187000
124.39999279	0.00000000	48.64050000	23.77584000
124.59999277	0.00000000	47.85310000	24.10187000
124.79999276	0.00000000	47.43479000	24.84621000
124.99999275	0.00000000	47.05954000	25.26452000
125.19999274	0.00000000	46.69045000	25.68282000
125.39999273	0.00000000	47.10260000	26.42101000
125.59999271	0.00000000	47.81004000	26.79626000
125.79999270	0.00000000	48.64050000	26.83932000
125.99999269	0.00000000	49.39099000	26.83932000
126.19999268	0.00000000	50.22145000	26.83932000
126.39999267	0.00000000	50.97194000	26.79626000
126.59999265	0.00000000	51.71013000	26.37795000
126.79999264	0.00000000	51.66707000	25.30758000
126.99999263	0.00000000	50.59670000	24.56939000
127.19999262	0.00000000	49.43405000	24.88927000
127.39999261	0.00000000	48.64050000	25.22145000
127.59999260	0.00000000	47.85310000	25.26452000
127.79999258	0.00000000	47.47785000	25.30758000
127.99999257	0.00000000	47.47785000	25.68282000
128.19999256	0.00000000	47.90231000	26.42101000
128.39999255	0.00000000	49.01575000	26.79626000
128.59999254	0.00000000	50.17839000	26.83932000
128.79999252	0.00000000	50.97194000	26.83932000
128.99999251	0.00000000	51.75935000	26.83932000
129.19999250	0.00000000	52.08538000	26.79626000
129.39999249	0.00000000	51.71013000	26.42101000
129.59999248	0.00000000	50.55364000	25.68282000
129.79999246	0.00000000	49.05881000	25.30758000
129.99999245	0.00000000	47.90231000	25.26452000
130.19999244	0.00000000	47.47785000	25.26452000
130.39999243	0.00000000	47.47785000	25.30758000
130.59999242	0.00000000	47.85310000	25.68282000
130.79999241	0.00000000	48.64050000	26.42101000
130.99999239	0.00000000	49.39099000	26.79626000
131.19999238	0.00000000	50.17839000	26.79626000
131.39999237	0.00000000	50.55364000	26.42101000
131.59999236	0.00000000	50.59670000	25.68282000
131.79999235	0.00000000	50.59670000	25.30758000
131.99999233	0.00000000	50.50443000	25.22145000
132.19999232	0.00000000	49.80315000	24.84621000
132.39999231	0.00000000	48.69586000	24.15108000
132.59999230	0.00000000	48.68356000	24.15108000
132.79999229	0.00000000	48.97269000	24.88927000
132.99999227	0.00000000	49.01575000	25.63976000
133.19999226	0.00000000	49.01575000	26.42101000
133.39999225	0.00000000	49.01575000	26.79626000
133.59999224	0.00000000	49.01575000	26.83932000
133.79999223	0.00000000	49.01575000	26.79626000
133.99999222	0.00000000	49.01575000	26.42101000
134.19999220	0.00000000	49.01575000	25.63976000
134.39999219	0.00000000	49.05881000	24.88927000
134.59999218	0.00000000	49.43405000	24.10187000
134.79999217	0.00000000	50.17839000	23.72662000
134.99999216	0.00000000	50.55364000	23.68356000
135.19999214	0.00000000	50.59670000	23.72662000
135.39999213	0.00000000	50.55364000	24.10187000
135.59999212	0.00000000	50.17839000	24.84621000
135.79999211	0.00000000	49.43405000	25.26452000
135.99999210	0.00000000	49.05881000	25.68282000
136.19999208	0.00000000	48.97269000	26.42101000
136.39999207	0.00000000	48.64050000	26.79626000
136.59999206	0.00000000	48.27140000	26.79626000
136.79999205	0.00000000	48.64050000	26.42101000
136.99999204	0.00000000	49.01575000	25.68282000
137.19999203	0.00000000	49.43405000	25.26452000
137.39999201	0.00000000	50.17839000	24.84621000
137.59999200	0.00000000	50.55364000	24.10187000
137.79999199	0.00000000	50.59670000	23.72662000
137.99999198	0.00000000	50.59670000	23.72662000
138.19999197	0.00000000	50.55364000	24.10187000
138.39999195	0.00000000	50.12918000	24.84621000
138.59999194	0.00000000	49.01575000	25.22145000
138.79999193	0.00000000	47.90231000	25.30758000
138.99999192	0.00000000	47.52707000	25.68282000
139.19999191	0.00000000	47.85310000	26.42101000
139.39999189	0.00000000	48.64050000	26.79626000
139.59999188	0.00000000	49.39099000	26.83932000
139.79999187	0.00000000	50.17839000	26.79626000
139.99999186	0.00000000	50.55364000	26.42101000
140.19999185	0.00000000	50.59670000	25.68282000
140.39999184	0.00000000	50.59670000	25.30758000
140.59999182	0.00000000	50.55364000	25.22145000
140.79999181	0.00000000	50.17839000	24.88927000
140.99999180	0.00000000	49.43405000	24.52018000
141.19999179	0.00000000	49.05881000	24.93233000
141.39999178	0.00000000	49.01575000	25.63976000
141.59999176	0.00000000	49.05881000	26.42101000
141.79999175	0.00000000	49.39099000	26.83932000
141.99999174	0.00000000	49.80315000	27.25763000
142.19999173	0.00000000	49.85236000	28.00197000
142.39999172	0.00000000	50.59670000	28.32800000
142.59999170	0.00000000	51.29183000	28.00197000
142.79999169	0.00000000	50.97194000	27.21457000
142.99999168	0.00000000	50.63976000	26.46407000
143.19999167	0.00000000	50.55364000	25.68282000
143.39999166	0.00000000	50.22145000	25.30758000
143.59999165	0.00000000	49.85236000	25.26452000
143.79999163	0.00000000	50.22145000	25.26452000
143.99999162	0.00000000	50.55364000	25.30758000
144.19999161	0.00000000	50.59670000	25.68282000
144.39999160	0.00000000	50.59670000	26.46407000
144.59999159	0.00000000	50.59670000	27.17150000
144.79999157	0.00000000	50.59670000	27.58366000
144.99999156	0.00000000	50.59670000	27.21457000
145.19999155	0.00000000	50.59670000	26.88238000
145.39999154	0.00000000	50.55364000	26.79626000
145.59999153	0.00000000	50.17839000	26.42101000
145.79999151	0.00000000	49.43405000	25.68282000
145.99999150	0.00000000	49.10802000	25.26452000
146.19999149	0.00000000	49.43405000	24.88927000
146.39999148	0.00000000	50.17839000	24.52018000
146.59999147	0.00000000	50.55364000	24.88927000
146.79999146	0.00000000	50.59670000	25.26452000
146.99999144	0.00000000	50.59670000	25.68282000
147.19999143	0.00000000	50.59670000	26.42101000
147.39999142	0.00000000	50.59670000	26.79626000
147.59999141	0.00000000	50.59670000	26.83932000
147.79999140	0.00000000	50.55364000	26.83932000
147.99999138	0.00000000	50.22145000	26.83932000
148.19999137	0.00000000	49.80930000	26.79626000
148.39999136	0.00000000	49.80315000	26.42101000
148.59999135	0.00000000	49.39099000	25.68282000
148.79999134	0.00000000	49.10802000	25.26452000
148.99999132	0.00000000	49.43405000	24.88927000
149.19999131	0.00000000	50.17839000	24.52018000
149.39999130	0.00000000	50.55364000	24.88927000
149.59999129	0.00000000	50.59670000	25.26452000
149.79999128	0.00000000	50.59670000	25.63976000
149.99999127	0.00000000	50.59670000	26.04577000
150.19999125	0.00000000	50.59670000	26.05807000
150.39999124	0.00000000	50.59670000	26.46407000
150.59999123	0.00000000	50.59670000	26.79626000
150.79999122	0.00000000	50.55364000	26.79626000
150.99999121	0.00000000	50.17839000	26.42101000
151.19999119	0.00000000	49.43405000	25.68282000
151.39999118	0.00000000	49.05881000	25.30758000
151.59999117	0.00000000	49.01575000	25.26452000
151.79999116	0.00000000	49.05881000	25.26452000
151.99999115	0.00000000	49.43405000	25.26452000
152.19999113	0.00000000	50.17839000	25.26452000
152.39999112	0.00000000	50.55364000	25.26452000
152.59999111	0.00000000	50.59670000	25.26452000
152.79999110	0.00000000	50.59670000	25.30758000
152.99999109	0.00000000	50.59670000	25.63976000
153.19999108	0.00000000	50.59670000	26.04577000
153.39999106	0.00000000	50.59670000	26.05807000
153.59999105	0.00000000	50.55364000	26.46407000
153.79999104	0.00000000	50.17839000	26.74705000
153.99999103	0.00000000	49.43405000	26.46407000
154.19999102	0.00000000	49.05881000	26.05807000
154.39999100	0.00000000	49.01575000	26.04577000
154.59999099	0.00000000	49.05881000	25.68282000
154.79999098	0.00000000	49.43405000	25.68282000
154.99999097	0.00000000	50.17839000	26.00270000
155.19999096	0.00000000	50.59670000	25.63976000
155.39999094	0.00000000	51.01501000	25.30758000
155.59999093	0.00000000	51.71013000	25.30758000
155.79999092	0.00000000	51.71013000	25.68282000
155.99999091	0.00000000	51.01501000	26.42101000
156.19999090	0.00000000	50.59670000	26.79626000
156.39999089	0.00000000	50.12918000	26.83932000
156.59999087	0.00000000	49.10802000	26.83932000
156.79999086	0.00000000	48.69586000	26.83932000
156.99999085	0.00000000	49.38484000	26.83932000
157.19999084	0.00000000	49.34793000	26.83932000
157.39999083	0.00000000	49.10802000	26.83932000
157.59999081	0.00000000	49.43405000	26.79626000
157.79999080	0.00000000	50.17839000	26.42101000
157.99999079	0.00000000	50.59670000	25.68282000
158.19999078	0.00000000	51.01501000	25.30758000
158.39999077	0.00000000	51.75935000	25.26452000
158.59999075	0.00000000	52.13459000	25.30758000
158.79999074	0.00000000	52.13459000	25.68282000
158.99999073	0.00000000	51.75935000	26.42101000
159.19999072	0.00000000	51.01501000	26.79626000
159.39999071	0.00000000	50.63976000	26.88238000
159.59999070	0.00000000	50.59670000	27.25763000
159.79999068	0.00000000	50.59670000	27.95275000
159.99999067	0.00000000	50.59670000	27.95275000
160.19999066	0.00000000	50.59670000	27.25763000
160.39999065	0.00000000	50.59670000	26.88238000
160.59999064	0.00000000	50.59670000	26.79626000
160.79999062	0.00000000	50.63976000	26.42101000
160.99999061	0.00000000	50.97194000	25.68282000
161.19999060	0.00000000	51.38410000	25.30758000
161.39999059	0.00000000	51.39025000	25.30758000
161.59999058	0.00000000	51.80241000	25.68282000
161.79999056	0.00000000	52.08538000	26.42101000
161.99999055	0.00000000	51.75935000	26.79626000
162.19999054	0.00000000	51.01501000	26.88238000
162.39999053	0.00000000	50.63976000	27.21457000
162.59999052	0.00000000	50.59670000	27.58366000
162.79999051	0.00000000	50.59670000	27.21457000
162.99999049	0.00000000	50.59670000	26.88238000
163.19999048	0.00000000	50.59670000	26.83932000
163.39999047	0.00000000	50.59670000	26.79626000
163.59999046	0.00000000	50.59670000	26.42101000
163.79999045	0.00000000	50.59670000	25.68282000
163.99999043	0.00000000	50.59670000	25.30758000
164.19999042	0.00000000	50.59670000	25.26452000
164.39999041	0.00000000	50.63976000	25.26452000
164.59999040	0.00000000	51.01501000	25.26452000
164.79999039	0.00000000	51.75935000	25.30758000
164.99999037	0.00000000	52.08538000	25.63976000
165.19999036	0.00000000	51.75935000	26.00270000
165.39999035	0.00000000	51.01501000	25.63976000
165.59999034	0.00000000	50.63976000	25.30758000
165.79999033	0.00000000	50.59670000	25.30758000
165.99999032	0.00000000	50.59670000	25.63976000
166.19999030	0.00000000	50.59670000	26.00270000
166.39999029	0.00000000	50.59670000	25.63976000
166.59999028	0.00000000	50.59670000	25.30758000
166.79999027	0.00000000	50.59670000	25.26452000
166.99999026	0.00000000	50.63976000	25.26452000
167.19999024	0.00000000	50.97194000	25.26452000
167.39999023	0.00000000	51.34104000	25.26452000
167.59999022	0.00000000	51.01501000	25.26452000
167.79999021	0.00000000	51.06422000	25.26452000
167.99999020	0.00000000	51.71013000	25.26452000
168.19999018	0.00000000	51.75935000	25.30758000
168.39999017	0.00000000	51.39025000	25.63976000
168.59999016	0.00000000	51.38410000	26.00270000
168.79999015	0.00000000	50.97194000	25.63976000
168.99999014	0.00000000	50.63976000	25.30758000
169.19999013	0.00000000	50.59670000	25.30758000
169.39999011	0.00000000	50.59670000	25.68282000
169.59999010	0.00000000	50.59670000	26.42101000
169.79999009	0.00000000	50.59670000	26.79626000
169.99999008	0.00000000	50.59670000	26.79626000
170.19999007	0.00000000	50.59670000	26.46407000
170.39999005	0.00000000	50.59670000	26.10113000
170.59999004	0.00000000	50.59670000	26.46407000
170.79999003	0.00000000	50.59670000	26.79626000
170.99999002	0.00000000	50.59670000	26.83932000
171.19999001	0.00000000	50.63976000	26.79626000
171.39998999	0.00000000	51.01501000	26.46407000
171.59998998	0.00000000	51.75935000	26.10113000
171.79998997	0.00000000	52.13459000	26.46407000
171.99998996	0.00000000	52.13459000	26.79626000
172.19998995	0.00000000	51.75935000	26.83932000
172.39998994	0.00000000	51.01501000	26.83932000
172.59998992	0.00000000	50.68897000	26.83932000
172.79998991	0.00000000	50.97194000	26.83932000
172.99998990	0.00000000	51.38410000	26.83932000
173.19998989	0.00000000	51.34719000	26.83932000
173.39998988	0.00000000	51.42716000	26.83932000
173.59998986	0.00000000	51.39025000	26.83932000
173.79998985	0.00000000	51.80241000	26.83932000
173.99998984	0.00000000	52.13459000	26.83932000
174.19998983	0.00000000	52.17765000	26.83932000
174.39998982	0.00000000	52.13459000	26.83932000
174.59998980	0.00000000	51.75935000	26.83932000
174.79998979	0.00000000	51.06422000	26.83932000
174.99998978	0.00000000	51.06422000	26.83932000
175.19998977	0.00000000	51.75935000	26.83932000
175.39998976	0.00000000	52.13459000	26.83932000
175.59998975	0.00000000	52.17765000	26.83932000
175.79998973	0.00000000	52.17765000	26.83932000
175.99998972	0.00000000	52.17765000	26.83932000
176.19998971	0.00000000	52.17765000	26.83932000
176.39998970	0.00000000	52.17765000	26.83932000
176.59998969	0.00000000	52.17765000	26.83932000
176.79998967	0.00000000	52.17765000	26.83932000
176.99998966	0.00000000	52.17765000	26.83932000
177.19998965	0.00000000	52.17765000	26.83932000
177.39998964	0.00000000	52.17765000	26.83932000
177.59998963	0.00000000	52.13459000	26.79626000
177.79998961	0.00000000	51.75935000	26.46407000
177.99998960	0.00000000	51.06422000	26.10113000
178.19998959	0.00000000	51.01501000	26.46407000
178.39998958	0.00000000	51.38410000	26.79626000
178.59998957	0.00000000	51.39025000	26.83932000
178.79998956	0.00000000	51.80241000	26.83932000
178.99998954	0.00000000	52.13459000	26.83932000
179.19998953	0.00000000	52.17765000	26.83932000
179.39998952	0.00000000	52.13459000	26.83932000
179.59998951	0.00000000	51.75935000	26.83932000
179.79998950	0.00000000	51.06422000	26.79626000
179.99998948	0.00000000	51.01501000	26.46407000
180.19998947	0.00000000	51.38410000	26.05807000
180.39998946	0.00000000	51.39025000	26.04577000
180.59998945	0.00000000	51.80241000	25.63976000
180.79998944	0.00000000	52.08538000	25.30758000
180.99998942	0.00000000	51.75935000	25.30758000
181.19998941	0.00000000	51.06422000	25.68282000
181.39998940	0.00000000	51.06422000	26.42101000
181.59998939	0.00000000	51.75935000	26.79626000
181.79998938	0.00000000	52.13459000	26.83932000
181.99998937	0.00000000	52.13459000	26.79626000
182.19998935	0.00000000	51.80241000	26.42101000
182.39998934	0.00000000	51.43332000	25.68282000
182.59998933	0.00000000	51.80241000	25.30758000
182.79998932	0.00000000	52.13459000	25.26452000
182.99998931	0.00000000	52.17765000	25.26452000
183.19998929	0.00000000	52.17765000	25.26452000
183.39998928	0.00000000	52.17765000	25.30758000
183.59998927	0.00000000	52.17765000	25.63976000
183.79998926	0.00000000	52.13459000	26.04577000
183.99998925	0.00000000	51.75935000	26.05807000
184.19998923	0.00000000	51.01501000	26.46407000
184.39998922	0.00000000	50.68897000	26.79626000
184.59998921	0.00000000	51.01501000	26.83932000
184.79998920	0.00000000	51.75935000	26.83932000
184.99998919	0.00000000	52.13459000	26.83932000
185.19998918	0.00000000	52.17765000	26.83932000
185.39998916	0.00000000	52.17765000	26.79626000
185.59998915	0.00000000	52.17765000	26.42101000
185.79998914	0.00000000	52.17765000	25.68282000
185.99998913	0.00000000	52.17765000	25.30758000
186.19998912	0.00000000	52.17765000	25.26452000
186.39998910	0.00000000	52.17765000	25.26452000
186.59998909	0.00000000	52.17765000	25.30758000
186.79998908	0.00000000	52.17765000	25.68282000
186.99998907	0.00000000	52.17765000	26.42101000
187.19998906	0.00000000	52.17765000	26.79626000
187.39998904	0.00000000	52.17765000	26.88238000
187.59998903	0.00000000	52.17765000	27.21457000
187.79998902	0.00000000	52.17765000	27.58366000
187.99998901	0.00000000	52.17765000	27.21457000
188.19998900	0.00000000	52.17765000	26.88238000
188.39998899	0.00000000	52.22071000	26.83932000
188.59998897	0.00000000	52.55290000	26.83932000
188.79998896	0.00000000	52.92200000	26.79626000
188.99998895	0.00000000	52.59596000	26.46407000
189.19998894	0.00000000	52.59596000	26.10113000
189.39998893	0.00000000	52.92200000	26.46407000
189.59998891	0.00000000	52.55290000	26.79626000
189.79998890	0.00000000	52.22071000	26.83932000
189.99998889	0.00000000	52.17765000	26.83932000
190.19998888	0.00000000	52.17765000	26.83932000
190.39998887	0.00000000	52.17765000	26.83932000
190.59998885	0.00000000	52.17765000	26.83932000
190.79998884	0.00000000	52.17765000	26.83932000
190.99998883	0.00000000	52.17765000	26.83932000
191.19998882	0.00000000	52.17765000	26.83932000
191.39998881	0.00000000	52.17765000	26.83932000
191.59998880	0.00000000	52.17765000	26.83932000
191.79998878	0.00000000	52.22071000	26.83932000
191.99998877	0.00000000	52.55290000	26.83932000
192.19998876	0.00000000	52.92200000	26.83932000
192.39998875	0.00000000	52.55290000	26.83932000
192.59998874	0.00000000	52.17765000	26.79626000
192.79998872	0.00000000	51.80241000	26.46407000
192.99998871	0.00000000	51.43332000	26.10113000
193.19998870	0.00000000	51.80241000	26.46407000
193.39998869	0.00000000	52.13459000	26.79626000
193.59998868	0.00000000	52.17765000	26.83932000
193.79998866	0.00000000	52.17765000	26.83932000
193.99998865	0.00000000	52.17765000	26.83932000
194.19998864	0.00000000	52.17765000	26.83932000
194.39998863	0.00000000	52.17765000	26.83932000
194.59998862	0.00000000	52.17765000	26.83932000
194.79998861	0.00000000	52.22071000	26.83932000
194.99998859	0.00000000	52.55290000	26.83932000
195.19998858	0.00000000	52.96506000	26.83932000
195.39998857	0.00000000	52.92815000	26.83932000
195.59998856	0.00000000	52.96506000	26.83932000
195.79998855	0.00000000	52.50984000	26.79626000
195.99998853	0.00000000	51.84547000	26.46407000
