Time	Channel A	Channel B	Channel C
(us)	(V)	(mV)	(mV)

-4.49999956	0.00000000	-14.22859000	3.15575800
-4.29999957	0.00000000	-14.22859000	3.15575800
-4.09999958	0.00000000	-14.22859000	3.15575800
-3.89999959	0.00000000	-14.22859000	3.11269700
-3.69999960	0.00000000	-14.22859000	2.78051200
-3.49999962	0.00000000	-14.22859000	2.41141700
-3.29999963	0.00000000	-14.22859000	2.78051200
-3.09999964	0.00000000	-14.22859000	3.11269700
-2.89999965	0.00000000	-14.22859000	3.15575800
-2.69999966	0.00000000	-14.22859000	3.11269700
-2.49999968	0.00000000	-14.22859000	2.78051200
-2.29999969	0.00000000	-14.22859000	2.36835600
-2.09999970	0.00000000	-14.22859000	2.40526600
-1.89999971	0.00000000	-14.22859000	2.36835600
-1.69999972	0.00000000	-14.22859000	2.78051200
-1.49999973	0.00000000	-14.22859000	3.06348400
-1.29999975	0.00000000	-14.22859000	2.78051200
-1.09999976	0.00000000	-14.22859000	2.41141700
-0.89999977	0.00000000	-14.22859000	2.78051200
-0.69999978	0.00000000	-14.22859000	3.11269700
-0.49999979	0.00000000	-14.22859000	3.15575800
-0.29999981	0.31803640	-14.22859000	3.15575800
-0.09999982	0.63668800	-14.22859000	3.11269700
0.10000017	0.95533960	-14.22859000	2.73745100
0.30000016	0.95533960	-14.22859000	2.04232300
0.50000015	0.79601380	-14.22859000	2.04232300
0.70000013	0.15871060	-14.22859000	2.68823800
0.90000012	-0.79601380	-14.22859000	2.73745100
1.10000011	-1.75196900	-14.22859000	2.41141700
1.30000010	-2.54859700	-14.22859000	2.78051200
1.50000009	-2.70792300	-14.22859000	3.11269700
1.70000008	-2.22994600	-14.22859000	3.15575800
1.90000006	-0.95533960	-14.22859000	3.15575800
2.10000005	1.11466500	-14.22859000	3.15575800
2.30000004	3.18590100	-14.22859000	3.15575800
2.50000003	4.77854300	-14.22859000	3.15575800
2.70000002	5.41584600	-14.27165000	3.11269700
2.90000000	4.45989200	-14.60384000	2.73745100
3.09999999	2.22994600	-14.97293000	1.99311000
3.29999998	-0.95533960	-14.60384000	1.61786400
3.49999997	-4.30056600	-14.27165000	1.61786400
3.69999996	-6.84916400	-14.22859000	1.99311000
3.89999994	-7.96444400	-14.22859000	2.73745100
4.09999993	-7.00848900	-14.22859000	3.11269700
4.29999992	-4.14124000	-14.22859000	3.15575800
4.49999991	0.00000000	-14.22859000	3.15575800
4.69999990	4.45989200	-14.22859000	3.11269700
4.89999989	7.80511800	-14.22859000	2.73745100
5.09999987	9.39837600	-14.22859000	1.99311000
5.29999986	8.76107300	-14.22859000	1.61786400
5.49999985	5.57517200	-14.22859000	1.57480300
5.69999984	1.27399100	-14.22859000	1.57480300
5.89999983	-3.50393700	-14.22859000	1.61786400
6.09999981	-7.32714100	-14.22859000	1.99311000
6.29999980	-9.39837600	-14.22859000	2.73745100
6.49999979	-8.92039900	-14.22859000	3.11269700
6.69999978	-6.37180100	-14.22859000	3.15575800
6.89999977	-2.38927200	-14.22859000	3.15575800
7.09999975	1.91129400	-14.22859000	3.15575800
7.29999974	5.57517200	-14.22859000	3.11269700
7.49999973	7.48646600	-14.22859000	2.73745100
7.69999972	7.48646600	-14.22859000	1.99311000
7.89999971	5.73449800	-14.22859000	1.66707700
8.09999970	2.70792300	-14.22859000	1.95004900
8.29999968	-0.63668800	-14.22859000	2.36220500
8.49999967	-3.34522600	-14.22859000	2.36835600
8.69999966	-4.93786900	-14.22859000	2.78051200
8.89999965	-5.09719500	-14.22859000	3.11269700
9.09999964	-3.98191400	-14.22859000	3.15575800
9.29999962	-2.22994600	-14.22859000	3.15575800
9.49999961	-0.15871060	-14.22859000	3.15575800
9.69999960	1.43331700	-14.22859000	3.15575800
9.89999959	2.38927200	-14.22859000	3.15575800
10.09999958	2.54859700	-14.22859000	3.15575800
10.29999956	2.07062000	-14.22859000	3.15575800
10.49999955	1.27399100	-14.22859000	3.15575800
10.69999954	0.31803640	-14.22859000	3.11269700
10.89999953	-0.31803640	-14.22859000	2.78051200
11.09999952	-0.79601380	-14.22859000	2.41141700
11.29999951	-0.95533960	-14.22859000	2.73745100
11.49999949	-0.95533960	-14.22859000	2.73745100
11.69999948	-0.63668800	-14.22859000	2.41141700
11.89999947	-0.31803640	-14.22859000	2.78051200
12.09999946	-0.15871060	-14.22859000	3.11269700
12.29999945	-0.15871060	-14.22859000	3.15575800
12.49999943	0.00000000	-14.22859000	3.15575800
12.69999942	0.00000000	-14.22859000	3.15575800
12.89999941	0.00000000	-14.22859000	3.15575800
13.09999940	0.00000000	-14.22859000	3.15575800
13.29999939	0.15871060	-14.22859000	3.15575800
13.49999937	0.00000000	-14.22859000	3.15575800
13.69999936	0.00000000	-14.22859000	3.11269700
13.89999935	0.00000000	-14.22859000	2.78051200
14.09999934	-0.15871060	-14.22859000	2.41141700
14.29999933	-0.15871060	-14.22859000	2.78051200
14.49999932	-0.15871060	-14.22859000	3.11269700
14.69999930	0.00000000	-14.22859000	3.15575800
14.89999929	0.00000000	-14.22859000	3.15575800
15.09999928	0.00000000	-14.22859000	3.15575800
15.29999927	0.00000000	-14.22859000	3.15575800
15.49999926	0.00000000	-14.22859000	3.15575800
15.69999924	0.00000000	-14.22859000	3.15575800
15.89999923	0.00000000	-14.22859000	3.15575800
16.09999922	0.00000000	-14.22859000	3.11269700
16.29999921	0.00000000	-14.22859000	2.78051200
16.49999920	0.00000000	-14.22859000	2.41141700
16.69999919	0.00000000	-14.18553000	2.73745100
16.89999917	0.00000000	-13.81028000	2.73745100
17.09999916	0.00000000	-13.06594000	2.41141700
17.29999915	0.00000000	-12.69070000	2.78051200
17.49999914	0.00000000	-12.64764000	3.11269700
17.69999913	0.00000000	-12.69070000	3.15575800
17.89999911	0.00000000	-13.11516000	3.11269700
18.09999910	0.00000000	-14.27165000	2.78051200
18.29999909	0.00000000	-15.80955000	2.41141700
18.49999908	0.00000000	-17.39050000	2.73745100
18.69999907	0.00000000	-18.87918000	2.73745100
18.89999905	0.00000000	-19.62352000	2.41141700
19.09999904	0.00000000	-18.87918000	2.73745100
19.29999903	0.00000000	-17.29823000	2.73745100
19.49999902	0.00000000	-14.88066000	2.41141700
19.69999901	0.00000000	-11.02362000	2.78051200
19.89999900	0.00000000	-6.83439900	3.11269700
20.09999898	0.00000000	-3.75861200	3.15575800
20.29999897	0.00000000	-2.64517700	3.15575800
20.49999896	0.00000000	-4.22613100	3.15575800
20.69999895	0.00000000	-8.55068800	3.15575800
20.89999894	0.00000000	-15.11442000	3.15575800
21.09999892	0.00000000	-22.82849000	3.11269700
21.29999891	0.00000000	-29.39837000	2.73745100
21.49999890	0.00000000	-33.63066000	2.04232300
21.69999889	0.00000000	-34.28272000	2.04232300
21.89999888	0.00000000	-29.95817000	2.73745100
22.09999886	0.00000000	-21.02608000	3.06348400
22.29999885	0.00000000	-9.01820900	2.73745100
22.49999884	0.00000000	3.67864200	2.04232300
22.69999883	0.00000000	13.63804000	2.04232300
22.89999882	0.00000000	17.82726000	2.73745100
23.09999881	0.00000000	14.66535000	3.15575800
23.29999879	0.00000000	4.19537400	3.57406500
23.49999878	0.00000000	-11.66339000	4.31840500
23.69999877	0.00000000	-29.44143000	4.69365100
23.89999876	0.00000000	-45.25713000	4.73671200
24.09999875	0.00000000	-55.21653000	4.69365100
24.29999873	0.00000000	-56.29306000	4.26919300
24.49999872	0.00000000	-47.35482000	3.11269700
24.69999871	0.00000000	-29.95817000	1.57480300
24.89999870	0.00000000	-7.94783400	0.00000000
25.09999869	0.00000000	13.68110000	-1.53174200
25.29999867	0.00000000	29.87205000	-2.64517700
25.49999866	0.00000000	36.76181000	-2.60211600
25.69999865	0.00000000	32.06201000	-1.02116100
25.89999864	0.00000000	16.24631000	2.04232300
26.09999863	0.00000000	-6.92052100	5.93626900
26.29999862	0.00000000	-32.00049000	9.79945900
26.49999860	0.00000000	-53.21727000	13.23819000
26.69999859	0.00000000	-65.22514000	14.67766000
26.89999858	0.00000000	-65.60039000	13.14591000
27.09999857	0.00000000	-54.42913000	8.87672100
27.29999856	0.00000000	-33.96284000	2.64517700
27.49999854	0.00000000	-9.66412400	-4.69365100
27.69999853	0.00000000	13.17052000	-11.61417000
27.89999852	0.00000000	29.41068000	-16.21555000
28.09999851	0.00000000	35.64837000	-17.32899000
28.29999850	0.00000000	31.04084000	-14.12401000
28.49999848	0.00000000	16.75689000	-6.36687900
28.69999847	0.00000000	-3.67249000	4.77977300
28.89999846	0.00000000	-25.35064000	16.35089000
29.09999845	0.00000000	-43.49778000	25.63976000
29.29999844	0.00000000	-54.37992000	31.02854000
29.49999843	0.00000000	-55.59178000	30.94242000
29.69999841	0.00000000	-48.00074000	24.66781000
29.89999840	0.00000000	-34.04897000	12.68455000
30.09999839	0.00000000	-17.01525000	-2.73745100
30.29999838	0.00000000	0.00615157	-17.74729000
30.49999837	0.00000000	13.12746000	-28.94316000
30.69999835	0.00000000	19.40822000	-33.54453000
30.89999834	0.00000000	18.33169000	-30.47490000
31.09999833	0.00000000	11.02977000	-20.34941000
31.29999832	0.00000000	-0.59670270	-4.92125900
31.49999831	0.00000000	-14.13632000	12.86294000
31.69999829	0.00000000	-26.93159000	28.66634000
31.89999828	0.00000000	-36.19587000	39.48696000
32.09999827	0.00000000	-40.14518000	42.55659000
32.29999826	0.00000000	-38.23819000	37.16781000
32.49999825	0.00000000	-31.71752000	24.80315000
32.69999824	0.00000000	-21.99803000	7.80634800
32.89999822	0.00000000	-11.20202000	-9.94094400
33.09999821	0.00000000	-1.53174200	-24.71087000
33.29999820	0.00000000	4.66289300	-33.96284000
33.49999819	0.00000000	6.24384800	-35.86368000
33.69999818	0.00000000	3.21112200	-29.31840000
33.89999816	0.00000000	-3.34030500	-16.25861000
34.09999815	0.00000000	-11.44193000	0.00000000
34.29999814	0.00000000	-19.53125000	16.25861000
34.49999813	0.00000000	-25.34449000	29.36146000
34.69999812	0.00000000	-27.72515000	36.33120000
34.89999810	0.00000000	-26.92544000	35.58686000
35.09999809	0.00000000	-22.69316000	27.91584000
35.29999808	0.00000000	-16.22785000	15.14518000
35.49999807	0.00000000	-10.03937000	0.13533460
35.69999806	0.00000000	-5.38877900	-13.75492000
35.89999805	0.00000000	-3.11269700	-23.00074000
36.09999803	0.00000000	-4.22613100	-25.73819000
36.29999802	0.00000000	-8.04010800	-21.55512000
36.49999801	0.00000000	-13.02288000	-11.94021000
36.69999800	0.00000000	-18.04257000	0.37524600
36.89999799	0.00000000	-21.48745000	12.68455000
37.09999797	0.00000000	-22.69316000	21.51206000
37.29999796	0.00000000	-21.53666000	24.62475000
37.49999795	0.00000000	-18.46087000	21.60433000
37.69999794	0.00000000	-14.18553000	13.56422000
37.89999793	0.00000000	-9.57800100	3.24803100
38.09999791	0.00000000	-5.76402500	-6.36687900
38.29999790	0.00000000	-4.22613100	-12.50000000
38.49999789	0.00000000	-5.29650500	-13.66265000
38.69999788	0.00000000	-7.99704600	-9.47957600
38.89999787	0.00000000	-11.53420000	-1.43946800
39.09999786	0.00000000	-15.80955000	7.75713500
39.29999784	0.00000000	-19.99877000	15.79724000
39.49999783	0.00000000	-22.74237000	19.98031000
39.69999782	0.00000000	-23.53592000	18.81767000
39.89999781	0.00000000	-22.74237000	12.72761000
40.09999780	0.00000000	-20.04183000	3.48794300
40.29999778	0.00000000	-16.18479000	-6.09005900
40.49999777	0.00000000	-12.27239000	-13.74877000
40.69999776	0.00000000	-8.37229300	-16.77534000
40.89999775	0.00000000	-5.33956700	-14.12401000
41.09999774	0.00000000	-4.13385800	-6.82824800
41.29999772	0.00000000	-4.92125900	3.11269700
41.49999771	0.00000000	-7.20964500	12.72761000
41.69999770	0.00000000	-10.73450000	19.28519000
41.89999769	0.00000000	-14.60384000	21.64739000
42.09999768	0.00000000	-18.46087000	19.32825000
42.29999767	0.00000000	-21.16142000	13.19513000
42.49999765	0.00000000	-21.99803000	4.73671200
42.69999764	0.00000000	-21.62278000	-3.67249000
42.89999763	0.00000000	-20.04183000	-9.47957600
43.09999762	0.00000000	-17.34744000	-11.47269000
43.29999761	0.00000000	-14.27165000	-9.98400600
43.49999759	0.00000000	-11.57726000	-5.75787400
43.69999758	0.00000000	-9.99630800	0.00000000
43.89999757	0.00000000	-9.52879000	5.80093500
44.09999756	0.00000000	-9.52879000	10.45152000
44.29999755	0.00000000	-9.90403500	13.10285000
44.49999753	0.00000000	-10.64838000	12.77067000
44.69999752	0.00000000	-11.02362000	9.75639700
44.89999751	0.00000000	-11.06668000	5.93626900
45.09999750	0.00000000	-11.10974000	2.04232300
45.29999749	0.00000000	-11.57726000	-1.02116100
45.49999748	0.00000000	-13.15822000	-2.64517700
45.69999746	0.00000000	-15.85261000	-3.02042300
45.89999745	0.00000000	-18.92839000	-2.27608300
46.09999744	0.00000000	-21.62278000	-0.37524600
46.29999743	0.00000000	-23.16068000	1.57480300
46.49999742	0.00000000	-23.11762000	3.57406500
46.69999740	0.00000000	-21.11220000	5.80093500
46.89999739	0.00000000	-16.83686000	6.96358300
47.09999738	0.00000000	-11.06668000	6.59448800
47.29999737	0.00000000	-5.25344500	5.47490100
47.49999736	0.00000000	-0.64591530	3.53100400
47.69999734	0.00000000	1.63016700	1.57480300
47.89999733	0.00000000	0.42445860	-0.37524600
48.09999732	0.00000000	-4.22613100	-2.22687000
48.29999731	0.00000000	-11.57726000	-2.64517700
48.49999730	0.00000000	-20.08489000	-1.85777500
48.69999729	0.00000000	-27.72515000	-0.27682080
48.89999727	0.00000000	-32.32653000	2.78051200
49.09999726	0.00000000	-31.95743000	5.80093500
49.29999725	0.00000000	-27.34990000	7.80019600
49.49999724	0.00000000	-19.58046000	8.96284400
49.69999723	0.00000000	-9.95324800	8.91978400
49.89999721	0.00000000	-1.10728300	7.33882900
50.09999720	0.00000000	4.66289300	4.26919300
50.29999719	0.00000000	5.81938900	0.41830710
50.49999718	0.00000000	1.96235200	-3.02042300
50.69999717	0.00000000	-5.71481200	-5.33956700
50.89999715	0.00000000	-15.34203000	-5.71481200
51.09999714	0.00000000	-24.13878000	-4.18307100
51.29999713	0.00000000	-29.58292000	-1.07037400
51.49999712	0.00000000	-30.37647000	3.15575800
51.69999711	0.00000000	-26.97465000	7.38188900
51.89999710	0.00000000	-20.37401000	10.45152000
52.09999708	0.00000000	-12.31545000	11.65723000
52.29999707	0.00000000	-4.64443900	10.86983000
52.49999706	0.00000000	-0.03690945	8.54453700
52.69999705	0.00000000	0.42445860	4.69365100
52.89999704	0.00000000	-2.68823800	0.51058070
53.09999702	0.00000000	-8.83366100	-2.60211600
53.29999701	0.00000000	-16.46161000	-4.18307100
53.49999700	0.00000000	-22.60704000	-4.18307100
53.69999699	0.00000000	-25.71973000	-2.64517700
53.89999698	0.00000000	-25.34449000	0.04306102
54.09999696	0.00000000	-21.53666000	3.11269700
54.29999695	0.00000000	-15.80955000	5.75787400
54.49999694	0.00000000	-9.99630800	6.92052100
54.69999693	0.00000000	-5.38877900	6.22539300
54.89999692	0.00000000	-3.06348400	4.73671200
55.09999691	0.00000000	-3.85088600	3.15575800
55.29999689	0.00000000	-7.29576700	1.66707700
55.49999688	0.00000000	-12.64764000	0.92888770
55.69999687	0.00000000	-17.99951000	1.66707700
55.89999686	0.00000000	-21.48745000	3.15575800
56.09999685	0.00000000	-22.69316000	4.68750000
56.29999683	0.00000000	-21.53666000	5.85014700
56.49999682	0.00000000	-18.46087000	6.17618100
56.69999681	0.00000000	-14.22859000	5.38262700
56.89999680	0.00000000	-9.99630800	3.06348400
57.09999679	0.00000000	-6.92052100	0.04306102
57.29999677	0.00000000	-5.71481200	-2.64517700
57.49999676	0.00000000	-6.50221400	-4.14000900
57.69999675	0.00000000	-8.79060000	-3.76476400
57.89999674	0.00000000	-12.27239000	-1.39640700
58.09999673	0.00000000	-15.71727000	2.46063000
58.29999672	0.00000000	-18.41781000	7.43110200
58.49999670	0.00000000	-19.58046000	11.61417000
58.69999669	0.00000000	-18.83612000	13.56422000
58.89999668	0.00000000	-16.97219000	13.14591000
59.09999667	0.00000000	-14.64690000	10.03322000
59.29999666	0.00000000	-12.69070000	4.64443900
59.49999664	0.00000000	-11.10974000	-1.48868100
59.69999663	0.00000000	-9.99630800	-6.92052100
59.89999662	0.00000000	-10.03937000	-10.31619000
60.09999661	0.00000000	-11.48499000	-10.68528000
60.29999660	0.00000000	-13.34276000	-7.20349400
60.49999658	0.00000000	-14.13632000	-1.07037400
60.69999657	0.00000000	-14.22859000	6.26845500
60.89999656	0.00000000	-14.18553000	13.14591000
61.09999655	0.00000000	-13.81028000	17.37205000
61.29999654	0.00000000	-13.06594000	17.79035000
61.49999653	0.00000000	-12.64764000	14.72687000
61.69999651	0.00000000	-12.27239000	8.91978400
61.89999650	0.00000000	-11.95251000	1.58095500
62.09999649	0.00000000	-12.73991000	-5.71481200
62.29999648	0.00000000	-14.18553000	-11.10359000
62.49999647	0.00000000	-15.34203000	-13.05364000
62.69999645	0.00000000	-15.76649000	-11.52190000
62.89999644	0.00000000	-15.76649000	-6.82824800
63.09999643	0.00000000	-15.34203000	0.46751960
63.29999642	0.00000000	-14.18553000	8.50147600
63.49999641	0.00000000	-12.69070000	14.63459000
63.69999639	0.00000000	-11.48499000	17.46432000
63.89999638	0.00000000	-10.73450000	17.05217000
64.09999637	0.00000000	-10.37155000	13.97638000
64.29999636	0.00000000	-11.15896000	8.17544300
64.49999635	0.00000000	-12.60458000	1.66707700
64.69999634	0.00000000	-13.85334000	-4.18307100
64.89999632	0.00000000	-15.02214000	-8.40920300
65.09999631	0.00000000	-16.50467000	-9.99015700
65.29999630	0.00000000	-16.83686000	-8.87057000
65.49999629	0.00000000	-15.76649000	-5.75787400
65.69999628	0.00000000	-14.22859000	-1.15649600
65.89999626	0.00000000	-12.69070000	3.85703700
66.09999625	0.00000000	-11.57726000	7.75713500
66.29999624	0.00000000	-11.53420000	10.53765000
66.49999623	0.00000000	-12.31545000	12.07554000
66.69999622	0.00000000	-13.44119000	12.07554000
66.89999620	0.00000000	-14.97293000	10.53765000
67.09999619	0.00000000	-15.71727000	7.84940900
67.29999618	0.00000000	-15.76649000	4.73671200
67.49999617	0.00000000	-15.29897000	1.62401600
67.69999616	0.00000000	-13.71801000	-1.11343500
67.89999615	0.00000000	-11.10974000	-3.11269700
68.09999613	0.00000000	-8.83366100	-4.68750000
68.29999612	0.00000000	-8.04010800	-5.75787400
68.49999611	0.00000000	-8.41535400	-5.33956700
68.69999610	0.00000000	-10.03937000	-3.02042300
68.89999609	0.00000000	-13.11516000	0.46751960
69.09999607	0.00000000	-16.97219000	4.73671200
69.29999606	0.00000000	-20.37401000	8.96284400
69.49999605	0.00000000	-22.31791000	12.07554000
69.69999604	0.00000000	-21.90576000	13.61343000
69.89999603	0.00000000	-19.62352000	13.18898000
70.09999601	0.00000000	-15.71727000	10.49459000
70.29999600	0.00000000	-11.10974000	6.26845500
70.49999599	0.00000000	-6.79133800	1.57480300
70.69999598	0.00000000	-3.38951800	-3.06963600
70.89999597	0.00000000	-1.90083600	-6.87746000
71.09999596	0.00000000	-3.80782500	-8.40920300
71.29999594	0.00000000	-7.99704600	-7.29576700
71.49999593	0.00000000	-13.06594000	-4.22613100
71.69999592	0.00000000	-18.50394000	0.04306102
71.89999591	0.00000000	-23.11762000	4.69365100
72.09999590	0.00000000	-25.81201000	8.91978400
72.29999588	0.00000000	-25.76895000	11.56496000
72.49999587	0.00000000	-22.69316000	11.61417000
72.69999586	0.00000000	-17.34744000	9.38115100
72.89999585	0.00000000	-11.53420000	6.31151500
73.09999584	0.00000000	-6.50221400	3.24803100
73.29999582	0.00000000	-3.02042300	0.87967510
73.49999581	0.00000000	-2.22687000	-0.28297240
73.69999580	0.00000000	-3.71555100	-0.69512790
73.89999579	0.00000000	-6.83439900	0.09227362
74.09999578	0.00000000	-11.10974000	1.53174200
74.29999577	0.00000000	-15.71727000	2.68823800
74.49999575	0.00000000	-19.58046000	3.06348400
74.69999574	0.00000000	-21.53666000	2.68823800
74.89999573	0.00000000	-21.53666000	1.57480300
75.09999572	0.00000000	-19.62352000	0.46136810
75.29999571	0.00000000	-16.22785000	0.09227362
75.49999569	0.00000000	-13.11516000	0.51058070
75.69999568	0.00000000	-10.73450000	2.04232300
75.89999567	0.00000000	-8.83366100	4.36146600
76.09999566	0.00000000	-8.45841400	6.68676100
76.29999565	0.00000000	-9.52879000	8.96284400
76.49999563	0.00000000	-11.02362000	10.03322000
76.69999562	0.00000000	-12.22933000	8.91978400
76.89999561	0.00000000	-13.02288000	6.22539300
77.09999560	0.00000000	-13.81028000	2.69439000
77.29999559	0.00000000	-14.13632000	-1.57480300
77.49999558	0.00000000	-13.85334000	-5.71481200
77.69999556	0.00000000	-13.48425000	-8.03395600
77.89999555	0.00000000	-13.89641000	-7.62180000
78.09999554	0.00000000	-14.60384000	-4.96432100
78.29999553	0.00000000	-15.39124000	-0.28297240
78.49999552	0.00000000	-15.76649000	5.06274600
78.69999550	0.00000000	-15.76649000	10.11934000
78.89999549	0.00000000	-15.34203000	13.56422000
79.09999548	0.00000000	-14.13632000	14.72687000
79.29999547	0.00000000	-12.22933000	13.18898000
79.49999546	0.00000000	-9.95324800	9.33809000
79.69999544	0.00000000	-8.41535400	4.31840500
79.89999543	0.00000000	-8.04010800	-1.06422200
80.09999542	0.00000000	-8.83366100	-5.29650500
80.29999541	0.00000000	-11.10974000	-7.29576700
80.49999540	0.00000000	-13.81028000	-7.33882900
80.69999539	0.00000000	-16.18479000	-5.75787400
80.89999537	0.00000000	-18.46087000	-2.64517700
81.09999536	0.00000000	-19.58046000	1.57480300
81.29999535	0.00000000	-18.83612000	5.80093500
81.49999534	0.00000000	-16.92298000	8.96284400
81.69999533	0.00000000	-14.22859000	10.91289000
81.89999531	0.00000000	-11.53420000	11.70029000
82.09999530	0.00000000	-9.57800100	10.91289000
82.29999529	0.00000000	-8.41535400	9.00590400
82.49999528	0.00000000	-8.41535400	6.26845500
82.69999527	0.00000000	-9.57800100	3.15575800
82.89999525	0.00000000	-11.48499000	0.04306102
83.09999524	0.00000000	-13.81028000	-2.64517700
83.29999523	0.00000000	-15.67421000	-4.22613100
83.49999522	0.00000000	-16.50467000	-4.64443900
83.69999521	0.00000000	-16.14173000	-4.22613100
83.89999520	0.00000000	-15.43430000	-2.60211600
84.09999518	0.00000000	-14.60384000	0.46751960
84.29999517	0.00000000	-13.85334000	4.31840500
84.49999516	0.00000000	-13.06594000	7.80019600
84.69999515	0.00000000	-12.69070000	10.53765000
84.89999514	0.00000000	-12.64764000	12.03248000
85.09999512	0.00000000	-12.64764000	11.65723000
85.29999511	0.00000000	-12.60458000	9.33809000
85.49999510	0.00000000	-12.22933000	5.85014700
85.69999509	0.00000000	-11.48499000	1.57480300
85.89999508	0.00000000	-11.10974000	-2.64517700
86.09999506	0.00000000	-11.10974000	-5.71481200
86.29999505	0.00000000	-11.53420000	-6.87130900
86.49999504	0.00000000	-12.69070000	-5.71481200
86.69999503	0.00000000	-14.22859000	-2.60211600
86.89999502	0.00000000	-15.71727000	1.99311000
87.09999501	0.00000000	-16.50467000	6.96358300
87.29999499	0.00000000	-16.14173000	10.45152000
87.49999498	0.00000000	-15.39124000	12.03248000
87.69999497	0.00000000	-14.18553000	11.61417000
87.89999496	0.00000000	-12.64764000	8.91978400
88.09999495	0.00000000	-11.10974000	4.69365100
88.29999493	0.00000000	-9.95324800	0.09227362
88.49999492	0.00000000	-9.57800100	-3.80782500
88.69999491	0.00000000	-9.95324800	-6.09005900
88.89999490	0.00000000	-11.10974000	-6.40994000
89.09999489	0.00000000	-12.69070000	-3.72170300
89.29999487	0.00000000	-14.56078000	1.19955700
89.49999486	0.00000000	-16.08637000	6.21924200
89.69999485	0.00000000	-16.09252000	10.49459000
89.89999484	0.00000000	-15.43430000	13.10285000
90.09999483	0.00000000	-14.60384000	12.72761000
90.29999482	0.00000000	-13.81028000	9.33809000
90.49999480	0.00000000	-12.69070000	4.69365100
90.69999479	0.00000000	-11.90330000	-0.32603340
90.89999478	0.00000000	-11.89715000	-4.92125900
91.09999477	0.00000000	-11.86024000	-7.20349400
91.29999476	0.00000000	-12.27239000	-6.87746000
91.49999474	0.00000000	-12.60458000	-4.14000900
91.69999473	0.00000000	-12.64764000	0.46136810
91.89999472	0.00000000	-12.64764000	5.85014700
92.09999471	0.00000000	-12.64764000	10.40846000
92.29999470	0.00000000	-12.64764000	12.72761000
92.49999468	0.00000000	-12.69070000	11.98942000
92.69999467	0.00000000	-13.06594000	8.91978400
92.89999466	0.00000000	-13.85334000	4.31840500
93.09999465	0.00000000	-14.60384000	-0.69512790
93.29999464	0.00000000	-15.39124000	-4.50910400
93.49999463	0.00000000	-15.76649000	-6.45300100
93.69999461	0.00000000	-15.76649000	-5.67175200
93.89999460	0.00000000	-15.29897000	-2.60211600
94.09999459	0.00000000	-13.76107000	1.99311000
94.29999458	0.00000000	-11.48499000	6.92052100
94.49999457	0.00000000	-9.52879000	9.98400600
94.69999455	0.00000000	-7.99704600	10.45152000
94.89999454	0.00000000	-7.25270600	8.91978400
95.09999453	0.00000000	-8.04010800	5.85014700
95.29999452	0.00000000	-9.95324800	1.99311000
95.49999451	0.00000000	-12.73991000	-1.44562000
95.69999449	0.00000000	-16.14173000	-3.76476400
95.89999448	0.00000000	-19.20522000	-4.14000900
96.09999447	0.00000000	-20.37401000	-2.64517700
96.29999446	0.00000000	-20.04183000	0.04306102
96.49999445	0.00000000	-18.41781000	3.15575800
96.69999444	0.00000000	-15.34203000	6.22539300
96.89999442	0.00000000	-11.48499000	8.50147600
97.09999441	0.00000000	-7.99704600	8.87672100
97.29999440	0.00000000	-5.29650500	7.38188900
97.49999439	0.00000000	-4.18307100	4.73671200
97.69999438	0.00000000	-5.33956700	2.04232300
97.89999436	0.00000000	-8.37229300	0.09227362
98.09999435	0.00000000	-12.22933000	-1.06422200
98.29999434	0.00000000	-15.76649000	-1.06422200
98.49999433	0.00000000	-18.87918000	0.04306102
98.69999432	0.00000000	-21.16142000	1.53174200
98.89999430	0.00000000	-21.53666000	2.73745100
99.09999429	0.00000000	-19.99877000	3.53100400
99.29999428	0.00000000	-16.92298000	4.31840500
99.49999427	0.00000000	-13.06594000	4.64443900
99.69999426	0.00000000	-9.57800100	4.36146600
99.89999425	0.00000000	-6.83439900	3.99237200
100.09999423	0.00000000	-5.29650500	4.40452700
100.29999422	0.00000000	-5.29650500	5.11195900
100.49999421	0.00000000	-6.83439900	5.89320800
100.69999420	0.00000000	-9.52879000	6.17618100
100.89999419	0.00000000	-12.64764000	5.43184000
101.09999417	0.00000000	-15.71727000	3.53100400
101.29999416	0.00000000	-18.04257000	1.62401600
101.49999415	0.00000000	-18.87918000	0.04306102
101.69999414	0.00000000	-18.87918000	-1.06422200
101.89999413	0.00000000	-18.08563000	-1.06422200
102.09999411	0.00000000	-16.14173000	0.09227362
102.29999410	0.00000000	-13.85334000	2.04232300
102.49999409	0.00000000	-11.48499000	4.73671200
102.69999408	0.00000000	-9.57800100	7.38188900
102.89999407	0.00000000	-8.41535400	8.96284400
103.09999406	0.00000000	-8.41535400	9.33809000
103.29999404	0.00000000	-9.52879000	8.54453700
103.49999403	0.00000000	-11.06668000	6.22539300
103.69999402	0.00000000	-12.64764000	3.19881900
103.89999401	0.00000000	-14.22859000	0.41830710
104.09999400	0.00000000	-15.76649000	-1.86392700
104.29999398	0.00000000	-16.87992000	-3.38951800
104.49999397	0.00000000	-16.87992000	-2.97736200
104.69999396	0.00000000	-15.76649000	-1.11343500
104.89999395	0.00000000	-14.22859000	1.62401600
105.09999394	0.00000000	-12.64764000	4.68750000
105.29999392	0.00000000	-11.10974000	7.33882900
105.49999391	0.00000000	-9.99630800	8.50147600
105.69999390	0.00000000	-9.99630800	7.75713500
105.89999389	0.00000000	-11.06668000	5.89320800
106.09999388	0.00000000	-12.22933000	3.53100400
106.29999387	0.00000000	-13.06594000	1.24877000
106.49999385	0.00000000	-14.18553000	-0.69512790
106.69999384	0.00000000	-14.92372000	-1.43946800
106.89999383	0.00000000	-14.56078000	-1.06422200
107.09999382	0.00000000	-13.81028000	0.46751960
107.29999381	0.00000000	-12.64764000	2.73745100
107.49999379	0.00000000	-11.53420000	4.64443900
107.69999378	0.00000000	-11.10974000	5.85014700
107.89999377	0.00000000	-11.10974000	6.17618100
108.09999376	0.00000000	-11.53420000	5.43184000
108.29999375	0.00000000	-12.64764000	3.53100400
108.49999374	0.00000000	-13.81028000	1.66707700
108.69999372	0.00000000	-14.60384000	0.46136810
108.89999371	0.00000000	-15.34203000	0.09227362
109.09999370	0.00000000	-15.34203000	0.46136810
109.29999369	0.00000000	-14.60384000	1.62401600
109.49999368	0.00000000	-13.81028000	3.15575800
109.69999366	0.00000000	-12.64764000	4.73671200
109.89999365	0.00000000	-11.53420000	6.22539300
110.09999364	0.00000000	-11.10974000	6.96358300
110.29999363	0.00000000	-11.10974000	6.22539300
110.49999362	0.00000000	-11.48499000	4.73671200
110.69999360	0.00000000	-12.27239000	3.15575800
110.89999359	0.00000000	-13.02288000	1.62401600
111.09999358	0.00000000	-13.81028000	0.46136810
111.29999357	0.00000000	-14.18553000	0.04306102
111.49999356	0.00000000	-14.22859000	0.04306102
111.69999355	0.00000000	-14.18553000	0.46136810
111.89999353	0.00000000	-13.81028000	1.57480300
112.09999352	0.00000000	-13.06594000	2.73745100
112.29999351	0.00000000	-12.69070000	3.53100400
112.49999350	0.00000000	-12.64764000	4.31840500
112.69999349	0.00000000	-12.60458000	4.69365100
112.89999347	0.00000000	-12.27239000	4.69365100
113.09999346	0.00000000	-11.90330000	4.31840500
113.29999345	0.00000000	-12.27239000	3.57406500
113.49999344	0.00000000	-12.60458000	3.19881900
113.69999343	0.00000000	-12.64764000	3.15575800
113.89999341	0.00000000	-12.64764000	3.11269700
114.09999340	0.00000000	-12.64764000	2.73745100
114.29999339	0.00000000	-12.64764000	1.99311000
114.49999338	0.00000000	-12.64764000	1.61786400
114.69999337	0.00000000	-12.64764000	1.57480300
114.89999336	0.00000000	-12.64764000	1.57480300
115.09999334	0.00000000	-12.64764000	1.57480300
115.29999333	0.00000000	-12.64764000	1.61786400
115.49999332	0.00000000	-12.64764000	1.99311000
115.69999331	0.00000000	-12.64764000	2.78051200
115.89999330	0.00000000	-12.64764000	3.53100400
116.09999328	0.00000000	-12.64764000	4.31840500
116.29999327	0.00000000	-12.64764000	4.69365100
116.49999326	0.00000000	-12.69070000	4.73671200
116.69999325	0.00000000	-13.06594000	4.73671200
116.89999324	0.00000000	-13.76107000	4.69365100
117.09999322	0.00000000	-13.76107000	4.26919300
117.29999321	0.00000000	-13.02288000	3.15575800
117.49999320	0.00000000	-12.27239000	1.99311000
117.69999319	0.00000000	-11.48499000	1.19955700
117.89999318	0.00000000	-11.10974000	0.46136810
118.09999317	0.00000000	-11.06668000	0.46136810
118.29999315	0.00000000	-11.10974000	1.19955700
118.49999314	0.00000000	-11.48499000	1.95004900
118.69999313	0.00000000	-12.27239000	2.78051200
118.89999312	0.00000000	-13.06594000	3.53100400
119.09999311	0.00000000	-14.22859000	4.31840500
119.29999309	0.00000000	-15.29897000	4.69365100
119.49999308	0.00000000	-15.29897000	4.73671200
119.69999307	0.00000000	-14.22859000	4.69365100
119.89999306	0.00000000	-13.06594000	4.31840500
120.09999305	0.00000000	-12.22933000	3.57406500
120.29999303	0.00000000	-11.06668000	3.19881900
120.49999302	0.00000000	-9.95324800	3.11269700
120.69999301	0.00000000	-9.52879000	2.73745100
120.89999300	0.00000000	-9.52879000	1.99311000
121.09999299	0.00000000	-9.95324800	1.66707700
121.29999298	0.00000000	-11.10974000	1.99311000
121.49999296	0.00000000	-12.64764000	2.73745100
121.69999295	0.00000000	-14.18553000	3.11269700
121.89999294	0.00000000	-15.34203000	3.15575800
122.09999293	0.00000000	-15.71727000	3.19881900
122.29999292	0.00000000	-15.34203000	3.57406500
122.49999290	0.00000000	-14.22859000	4.31840500
122.69999289	0.00000000	-13.06594000	4.69365100
122.89999288	0.00000000	-12.27239000	4.73671200
123.09999287	0.00000000	-11.44193000	4.69365100
123.29999286	0.00000000	-10.69144000	4.31840500
123.49999284	0.00000000	-9.90403500	3.57406500
123.69999283	0.00000000	-9.57800100	3.15575800
123.89999282	0.00000000	-9.95324800	2.73745100
124.09999281	0.00000000	-11.06668000	1.99311000
124.29999280	0.00000000	-12.22933000	1.66707700
124.49999279	0.00000000	-13.02288000	1.99311000
124.69999277	0.00000000	-13.81028000	2.73745100
124.89999276	0.00000000	-14.22859000	3.15575800
125.09999275	0.00000000	-14.60384000	3.53100400
125.29999274	0.00000000	-14.97293000	3.94315900
125.49999273	0.00000000	-14.56078000	3.94931100
125.69999271	0.00000000	-13.81028000	4.36146600
125.89999270	0.00000000	-12.64764000	4.69365100
126.09999269	0.00000000	-11.53420000	4.69365100
126.29999268	0.00000000	-11.06668000	4.31840500
126.49999267	0.00000000	-10.69144000	3.57406500
126.69999265	0.00000000	-10.32234000	3.19881900
126.89999264	0.00000000	-10.73450000	3.11269700
127.09999263	0.00000000	-11.48499000	2.73745100
127.29999262	0.00000000	-12.69070000	1.99311000
127.49999261	0.00000000	-14.18553000	1.66707700
127.69999260	0.00000000	-15.34203000	1.99311000
127.89999258	0.00000000	-15.71727000	2.73745100
128.09999257	0.00000000	-15.39124000	3.15575800
128.29999256	0.00000000	-14.56078000	3.53100400
128.49999255	0.00000000	-13.43504000	3.90009800
128.69999254	0.00000000	-11.90330000	3.53100400
128.89999252	0.00000000	-11.15896000	3.19881900
129.09999251	0.00000000	-11.06668000	3.15575800
129.29999250	0.00000000	-11.10974000	3.15575800
129.49999249	0.00000000	-11.48499000	3.11269700
129.69999248	0.00000000	-12.27239000	2.78051200
129.89999246	0.00000000	-13.02288000	2.41141700
130.09999245	0.00000000	-13.81028000	2.78051200
130.29999244	0.00000000	-14.18553000	3.11269700
130.49999243	0.00000000	-14.18553000	3.15575800
130.69999242	0.00000000	-13.81028000	3.19881900
130.89999241	0.00000000	-13.02288000	3.53100400
131.09999239	0.00000000	-12.27239000	3.90009800
131.29999238	0.00000000	-11.48499000	3.53100400
131.49999237	0.00000000	-11.10974000	3.15575800
131.69999236	0.00000000	-11.10974000	2.73745100
131.89999235	0.00000000	-11.48499000	1.99311000
132.09999233	0.00000000	-12.22933000	1.61786400
132.29999232	0.00000000	-12.60458000	1.57480300
132.49999231	0.00000000	-12.64764000	1.61786400
132.69999230	0.00000000	-12.64764000	1.99311000
132.89999229	0.00000000	-12.64764000	2.78051200
133.09999227	0.00000000	-12.64764000	3.53100400
133.29999226	0.00000000	-12.64764000	4.31840500
133.49999225	0.00000000	-12.64764000	4.69365100
133.69999224	0.00000000	-12.64764000	4.73671200
133.89999223	0.00000000	-12.64764000	4.69365100
134.09999222	0.00000000	-12.64764000	4.31840500
134.29999220	0.00000000	-12.64764000	3.53100400
134.49999219	0.00000000	-12.64764000	2.78051200
134.69999218	0.00000000	-12.64764000	1.99311000
134.89999217	0.00000000	-12.60458000	1.61786400
135.09999216	0.00000000	-12.27239000	1.57480300
135.29999214	0.00000000	-11.90330000	1.61786400
135.49999213	0.00000000	-12.27239000	1.99311000
135.69999212	0.00000000	-12.60458000	2.78051200
135.89999211	0.00000000	-12.64764000	3.53100400
136.09999210	0.00000000	-12.69070000	4.31840500
136.29999208	0.00000000	-13.06594000	4.69365100
136.49999207	0.00000000	-13.81028000	4.73671200
136.69999206	0.00000000	-14.13632000	4.69365100
136.89999205	0.00000000	-13.81028000	4.31840500
137.09999204	0.00000000	-13.02288000	3.57406500
137.29999203	0.00000000	-12.27239000	3.15575800
137.49999201	0.00000000	-11.48499000	2.73745100
137.69999200	0.00000000	-11.10974000	1.99311000
137.89999199	0.00000000	-11.06668000	1.61786400
138.09999198	0.00000000	-11.10974000	1.57480300
138.29999197	0.00000000	-11.48499000	1.57480300
138.49999195	0.00000000	-12.27239000	1.61786400
138.69999194	0.00000000	-13.02288000	1.99311000
138.89999193	0.00000000	-13.81028000	2.73745100
139.09999192	0.00000000	-14.13632000	3.15575800
139.29999191	0.00000000	-13.81028000	3.57406500
139.49999189	0.00000000	-13.02288000	4.31840500
139.69999188	0.00000000	-12.27239000	4.69365100
139.89999187	0.00000000	-11.48499000	4.69365100
140.09999186	0.00000000	-11.10974000	4.26919300
140.29999185	0.00000000	-11.10974000	3.15575800
140.49999184	0.00000000	-11.48499000	2.04232300
140.69999182	0.00000000	-12.22933000	1.61786400
140.89999181	0.00000000	-12.60458000	1.57480300
141.09999180	0.00000000	-12.64764000	1.57480300
141.29999179	0.00000000	-12.64764000	1.61786400
141.49999178	0.00000000	-12.64764000	1.99311000
141.69999176	0.00000000	-12.64764000	2.78051200
141.89999175	0.00000000	-12.64764000	3.53100400
142.09999174	0.00000000	-12.60458000	4.31840500
142.29999173	0.00000000	-12.22933000	4.69365100
142.49999172	0.00000000	-11.53420000	4.73671200
142.69999170	0.00000000	-11.53420000	4.69365100
142.89999169	0.00000000	-12.22933000	4.31840500
143.09999168	0.00000000	-12.60458000	3.53100400
143.29999167	0.00000000	-12.64764000	2.78051200
143.49999166	0.00000000	-12.64764000	1.99311000
143.69999165	0.00000000	-12.64764000	1.61786400
143.89999163	0.00000000	-12.64764000	1.61786400
144.09999162	0.00000000	-12.60458000	1.99311000
144.29999161	0.00000000	-12.27239000	2.73745100
144.49999160	0.00000000	-11.86024000	3.15575800
144.69999159	0.00000000	-11.85408000	3.57406500
144.89999157	0.00000000	-11.48499000	4.31840500
145.09999156	0.00000000	-11.53420000	4.64443900
145.29999155	0.00000000	-12.22933000	4.36146600
145.49999154	0.00000000	-12.64764000	3.90625000
145.69999153	0.00000000	-13.06594000	3.52485200
145.89999151	0.00000000	-13.76107000	2.36835600
146.09999150	0.00000000	-13.76107000	1.66707700
146.29999149	0.00000000	-13.06594000	1.57480300
146.49999148	0.00000000	-12.69070000	1.57480300
146.69999147	0.00000000	-12.60458000	1.61786400
146.89999146	0.00000000	-12.22933000	1.99311000
147.09999144	0.00000000	-11.53420000	2.73745100
147.29999143	0.00000000	-11.48499000	3.15575800
147.49999142	0.00000000	-11.85408000	3.57406500
147.69999141	0.00000000	-11.86024000	4.31840500
147.89999140	0.00000000	-12.27239000	4.69365100
148.09999138	0.00000000	-12.60458000	4.69365100
148.29999137	0.00000000	-12.64764000	4.31840500
148.49999136	0.00000000	-12.64764000	3.57406500
148.69999135	0.00000000	-12.64764000	3.15575800
148.89999134	0.00000000	-12.64764000	2.73745100
149.09999132	0.00000000	-12.60458000	2.04232300
149.29999131	0.00000000	-12.27239000	2.04232300
149.49999130	0.00000000	-11.86024000	2.73745100
149.69999129	0.00000000	-11.85408000	3.11269700
149.89999128	0.00000000	-11.44193000	3.15575800
150.09999127	0.00000000	-11.10974000	3.19881900
150.29999125	0.00000000	-11.10974000	3.57406500
150.49999124	0.00000000	-11.48499000	4.26919300
150.69999123	0.00000000	-12.22933000	4.26919300
150.89999122	0.00000000	-12.60458000	3.57406500
151.09999121	0.00000000	-12.64764000	3.19881900
151.29999119	0.00000000	-12.64764000	3.15575800
151.49999118	0.00000000	-12.64764000	3.15575800
151.69999117	0.00000000	-12.64764000	3.15575800
151.89999116	0.00000000	-12.64764000	3.15575800
152.09999115	0.00000000	-12.64764000	3.15575800
152.29999113	0.00000000	-12.60458000	3.15575800
152.49999112	0.00000000	-12.22933000	3.15575800
152.69999111	0.00000000	-11.48499000	3.15575800
152.89999110	0.00000000	-11.10974000	3.15575800
153.09999109	0.00000000	-11.06668000	3.15575800
153.29999108	0.00000000	-11.06668000	3.19881900
153.49999106	0.00000000	-11.10974000	3.57406500
153.69999105	0.00000000	-11.48499000	4.31840500
153.89999104	0.00000000	-12.22933000	4.69365100
154.09999103	0.00000000	-12.60458000	4.69365100
154.29999102	0.00000000	-12.64764000	4.31840500
154.49999100	0.00000000	-12.64764000	3.57406500
154.69999099	0.00000000	-12.64764000	3.19881900
154.89999098	0.00000000	-12.60458000	3.15575800
155.09999097	0.00000000	-12.22933000	3.11269700
155.29999096	0.00000000	-11.48499000	2.78051200
155.49999094	0.00000000	-11.10974000	2.41141700
155.69999093	0.00000000	-11.06668000	2.78051200
155.89999092	0.00000000	-11.06668000	3.11269700
156.09999091	0.00000000	-11.10974000	3.15575800
156.29999090	0.00000000	-11.48499000	3.15575800
156.49999089	0.00000000	-12.22933000	3.15575800
156.69999087	0.00000000	-12.60458000	3.19881900
156.89999086	0.00000000	-12.64764000	3.57406500
157.09999085	0.00000000	-12.69070000	4.26919300
157.29999084	0.00000000	-13.02288000	4.26919300
157.49999083	0.00000000	-13.39198000	3.57406500
157.69999081	0.00000000	-13.02288000	3.19881900
157.89999080	0.00000000	-12.64764000	3.11269700
158.09999079	0.00000000	-12.22933000	2.78051200
158.29999078	0.00000000	-11.48499000	2.36835600
158.49999077	0.00000000	-11.10974000	2.36220500
158.69999075	0.00000000	-11.06668000	1.99311000
158.89999074	0.00000000	-11.06668000	2.04232300
159.09999073	0.00000000	-11.10974000	2.73745100
159.29999072	0.00000000	-11.48499000	3.15575800
159.49999071	0.00000000	-12.22933000	3.57406500
159.69999070	0.00000000	-12.60458000	4.26919300
159.89999068	0.00000000	-12.64764000	4.31840500
160.09999067	0.00000000	-12.64764000	3.94931100
160.29999066	0.00000000	-12.64764000	3.94315900
160.49999065	0.00000000	-12.64764000	3.53100400
160.69999064	0.00000000	-12.64764000	3.19881900
160.89999062	0.00000000	-12.64764000	3.15575800
161.09999061	0.00000000	-12.64764000	3.15575800
161.29999060	0.00000000	-12.60458000	3.15575800
161.49999059	0.00000000	-12.27239000	3.15575800
161.69999058	0.00000000	-11.86024000	3.15575800
161.89999056	0.00000000	-11.85408000	3.15575800
162.09999055	0.00000000	-11.44193000	3.19881900
162.29999054	0.00000000	-11.10974000	3.53100400
162.49999053	0.00000000	-11.10974000	3.90009800
162.69999052	0.00000000	-11.48499000	3.53100400
162.89999051	0.00000000	-12.22933000	3.19881900
163.09999049	0.00000000	-12.60458000	3.15575800
163.29999048	0.00000000	-12.64764000	3.15575800
163.49999047	0.00000000	-12.64764000	3.15575800
163.69999046	0.00000000	-12.64764000	3.15575800
163.89999045	0.00000000	-12.64764000	3.15575800
164.09999043	0.00000000	-12.64764000	3.15575800
164.29999042	0.00000000	-12.60458000	3.15575800
164.49999041	0.00000000	-12.22933000	3.15575800
164.69999040	0.00000000	-11.48499000	3.15575800
164.89999039	0.00000000	-11.10974000	3.15575800
165.09999037	0.00000000	-11.06668000	3.15575800
165.29999036	0.00000000	-11.06668000	3.15575800
165.49999035	0.00000000	-11.10974000	3.15575800
165.69999034	0.00000000	-11.48499000	3.15575800
165.89999033	0.00000000	-12.22933000	3.15575800
166.09999032	0.00000000	-12.60458000	3.15575800
166.29999030	0.00000000	-12.64764000	3.15575800
166.49999029	0.00000000	-12.64764000	3.15575800
166.69999028	0.00000000	-12.64764000	3.15575800
166.89999027	0.00000000	-12.64764000	3.15575800
167.09999026	0.00000000	-12.60458000	3.15575800
167.29999024	0.00000000	-12.27239000	3.15575800
167.49999023	0.00000000	-11.90330000	3.15575800
167.69999022	0.00000000	-12.22933000	3.15575800
167.89999021	0.00000000	-12.18012000	3.15575800
168.09999020	0.00000000	-11.53420000	3.15575800
168.29999018	0.00000000	-11.48499000	3.15575800
168.49999017	0.00000000	-11.81102000	3.15575800
168.69999016	0.00000000	-11.44193000	3.15575800
168.89999015	0.00000000	-11.15896000	3.15575800
169.09999014	0.00000000	-11.48499000	3.15575800
169.29999013	0.00000000	-12.22933000	3.15575800
169.49999011	0.00000000	-12.60458000	3.15575800
169.69999010	0.00000000	-12.64764000	3.15575800
169.89999009	0.00000000	-12.60458000	3.15575800
170.09999008	0.00000000	-12.27239000	3.15575800
170.29999007	0.00000000	-11.90330000	3.15575800
170.49999005	0.00000000	-12.22933000	3.15575800
170.69999004	0.00000000	-12.18012000	3.15575800
170.89999003	0.00000000	-11.48499000	3.15575800
171.09999002	0.00000000	-11.10974000	3.15575800
171.29999001	0.00000000	-11.06668000	3.15575800
171.49998999	0.00000000	-11.10974000	3.15575800
171.69998998	0.00000000	-11.48499000	3.15575800
171.89998997	0.00000000	-12.22933000	3.15575800
172.09998996	0.00000000	-12.60458000	3.15575800
172.29998995	0.00000000	-12.64764000	3.15575800
172.49998994	0.00000000	-12.64764000	3.15575800
172.69998992	0.00000000	-12.64764000	3.15575800
172.89998991	0.00000000	-12.64764000	3.15575800
173.09998990	0.00000000	-12.64764000	3.15575800
173.29998989	0.00000000	-12.64764000	3.15575800
173.49998988	0.00000000	-12.64764000	3.15575800
173.69998986	0.00000000	-12.60458000	3.15575800
173.89998985	0.00000000	-12.27239000	3.15575800
174.09998984	0.00000000	-11.90330000	3.15575800
174.29998983	0.00000000	-12.27239000	3.15575800
174.49998982	0.00000000	-12.60458000	3.15575800
174.69998980	0.00000000	-12.64764000	3.15575800
174.89998979	0.00000000	-12.64764000	3.15575800
175.09998978	0.00000000	-12.64764000	3.15575800
175.29998977	0.00000000	-12.64764000	3.15575800
175.49998976	0.00000000	-12.64764000	3.15575800
175.69998975	0.00000000	-12.64764000	3.15575800
175.89998973	0.00000000	-12.60458000	3.15575800
176.09998972	0.00000000	-12.27239000	3.15575800
176.29998971	0.00000000	-11.90330000	3.15575800
176.49998970	0.00000000	-12.27239000	3.15575800
176.69998969	0.00000000	-12.55536000	3.15575800
176.89998967	0.00000000	-12.22933000	3.15575800
177.09998966	0.00000000	-11.48499000	3.15575800
177.29998965	0.00000000	-11.10974000	3.15575800
177.49998964	0.00000000	-11.10974000	3.15575800
177.69998963	0.00000000	-11.48499000	3.15575800
177.89998961	0.00000000	-12.18012000	3.15575800
178.09998960	0.00000000	-12.22933000	3.15575800
178.29998959	0.00000000	-11.90330000	3.15575800
178.49998958	0.00000000	-12.22933000	3.15575800
178.69998957	0.00000000	-12.22933000	3.15575800
178.89998956	0.00000000	-11.90330000	3.15575800
179.09998954	0.00000000	-12.22933000	3.15575800
179.29998953	0.00000000	-12.18012000	3.15575800
179.49998952	0.00000000	-11.48499000	3.15575800
179.69998951	0.00000000	-11.10974000	3.15575800
179.89998950	0.00000000	-11.06668000	3.15575800
180.09998948	0.00000000	-11.10974000	3.15575800
180.29998947	0.00000000	-11.44193000	3.15575800
180.49998946	0.00000000	-11.85408000	3.15575800
180.69998945	0.00000000	-11.86024000	3.15575800
180.89998944	0.00000000	-12.22933000	3.15575800
181.09998942	0.00000000	-12.22933000	3.19881900
181.29998941	0.00000000	-11.90330000	3.53100400
181.49998940	0.00000000	-12.27239000	3.90009800
181.69998939	0.00000000	-12.55536000	3.53100400
181.89998938	0.00000000	-12.22933000	3.19881900
182.09998937	0.00000000	-11.48499000	3.15575800
182.29998935	0.00000000	-11.10974000	3.15575800
182.49998934	0.00000000	-11.06668000	3.15575800
182.69998933	0.00000000	-11.06668000	3.15575800
182.89998932	0.00000000	-11.10974000	3.15575800
183.09998931	0.00000000	-11.44193000	3.15575800
183.29998929	0.00000000	-11.85408000	3.15575800
183.49998928	0.00000000	-11.86024000	3.15575800
183.69998927	0.00000000	-12.27239000	3.15575800
183.89998926	0.00000000	-12.60458000	3.15575800
184.09998925	0.00000000	-12.64764000	3.19881900
184.29998923	0.00000000	-12.64764000	3.57406500
184.49998922	0.00000000	-12.64764000	4.26919300
184.69998921	0.00000000	-12.64764000	4.26919300
184.89998920	0.00000000	-12.60458000	3.57406500
185.09998919	0.00000000	-12.27239000	3.19881900
185.29998918	0.00000000	-11.86024000	3.15575800
185.49998916	0.00000000	-11.89715000	3.15575800
185.69998915	0.00000000	-11.81717000	3.15575800
185.89998914	0.00000000	-11.85408000	3.15575800
186.09998913	0.00000000	-11.44193000	3.11269700
186.29998912	0.00000000	-11.15896000	2.73745100
186.49998910	0.00000000	-11.44193000	2.04232300
186.69998909	0.00000000	-11.85408000	2.04232300
186.89998908	0.00000000	-11.86024000	2.73745100
187.09998907	0.00000000	-12.27239000	3.15575800
187.29998906	0.00000000	-12.60458000	3.57406500
187.49998904	0.00000000	-12.60458000	4.31840500
187.69998903	0.00000000	-12.27239000	4.64443900
187.89998902	0.00000000	-11.86024000	4.31840500
188.09998901	0.00000000	-11.85408000	3.57406500
188.29998900	0.00000000	-11.44193000	3.19881900
188.49998899	0.00000000	-11.10974000	3.15575800
188.69998897	0.00000000	-11.06668000	3.15575800
188.89998896	0.00000000	-11.10974000	3.11269700
189.09998895	0.00000000	-11.48499000	2.73745100
189.29998894	0.00000000	-12.18012000	2.04232300
189.49998893	0.00000000	-12.22933000	2.04232300
189.69998891	0.00000000	-11.90330000	2.73745100
189.89998890	0.00000000	-12.27239000	3.11269700
190.09998889	0.00000000	-12.60458000	3.15575800
190.29998888	0.00000000	-12.64764000	3.15575800
190.49998887	0.00000000	-12.64764000	3.19881900
190.69998885	0.00000000	-12.64764000	3.53100400
190.89998884	0.00000000	-12.60458000	3.90009800
191.09998883	0.00000000	-12.22933000	3.53100400
191.29998882	0.00000000	-11.48499000	3.19881900
191.49998881	0.00000000	-11.10974000	3.15575800
191.69998880	0.00000000	-11.06668000	3.15575800
191.89998878	0.00000000	-11.10974000	3.15575800
192.09998877	0.00000000	-11.44193000	3.15575800
192.29998876	0.00000000	-11.81102000	3.15575800
192.49998875	0.00000000	-11.48499000	3.15575800
192.69998874	0.00000000	-11.53420000	3.15575800
192.89998872	0.00000000	-12.22933000	3.15575800
193.09998871	0.00000000	-12.55536000	3.15575800
193.29998870	0.00000000	-12.27239000	3.15575800
193.49998869	0.00000000	-11.90330000	3.15575800
193.69998868	0.00000000	-12.22933000	3.15575800
193.89998866	0.00000000	-12.18012000	3.15575800
194.09998865	0.00000000	-11.48499000	3.15575800
194.29998864	0.00000000	-11.10974000	3.15575800
194.49998863	0.00000000	-11.06668000	3.15575800
194.69998862	0.00000000	-11.06668000	3.15575800
194.89998861	0.00000000	-11.06668000	3.15575800
195.09998859	0.00000000	-11.06668000	3.15575800
195.29998858	0.00000000	-11.10974000	3.15575800
195.49998857	0.00000000	-11.48499000	3.15575800
195.69998856	0.00000000	-12.22933000	3.15575800
195.89998855	0.00000000	-12.60458000	3.15575800
196.09998853	0.00000000	-12.64764000	3.15575800
