Time	Channel A	Channel B	Channel C
(us)	(V)	(mV)	(mV)

-4.49999956	0.00000000	-17.39050000	1.57480300
-4.29999957	0.00000000	-17.39050000	1.57480300
-4.09999958	0.00000000	-17.39050000	1.57480300
-3.89999959	0.00000000	-17.39050000	1.57480300
-3.69999960	0.00000000	-17.39050000	1.57480300
-3.49999962	0.00000000	-17.39050000	1.57480300
-3.29999963	0.00000000	-17.39050000	1.57480300
-3.09999964	0.00000000	-17.39050000	1.57480300
-2.89999965	0.00000000	-17.39050000	1.57480300
-2.69999966	0.00000000	-17.34744000	1.57480300
-2.49999968	0.00000000	-17.01525000	1.57480300
-2.29999969	0.00000000	-16.60310000	1.57480300
-2.09999970	0.00000000	-16.64001000	1.57480300
-1.89999971	0.00000000	-16.56004000	1.57480300
-1.69999972	0.00000000	-16.64001000	1.57480300
-1.49999973	0.00000000	-16.56004000	1.57480300
-1.29999975	0.00000000	-16.64001000	1.57480300
-1.09999976	0.00000000	-16.56004000	1.57480300
-0.89999977	0.00000000	-16.64001000	1.57480300
-0.69999978	0.00000000	-16.60310000	1.57480300
-0.49999979	0.00000000	-16.97219000	1.57480300
-0.29999981	0.31803640	-16.92298000	1.57480300
-0.09999982	0.63668800	-16.27707000	1.57480300
0.10000017	0.95533960	-16.27707000	1.57480300
0.30000016	1.11466500	-16.97219000	1.57480300
0.50000015	0.79601380	-17.34744000	1.57480300
0.70000013	0.31803640	-17.34744000	1.57480300
0.90000012	-0.47736220	-17.01525000	1.57480300
1.10000011	-1.59264300	-16.60310000	1.57480300
1.30000010	-2.38927200	-16.59695000	1.61786400
1.50000009	-2.70792300	-16.18479000	1.95004900
1.70000008	-2.38927200	-15.85261000	2.36220500
1.90000006	-1.27399100	-15.80955000	2.32529500
2.10000005	0.63668800	-15.80955000	2.36220500
2.30000004	2.70792300	-15.85261000	1.95004900
2.50000003	4.45989200	-16.22785000	1.61786400
2.70000002	5.41584600	-16.97219000	1.57480300
2.90000000	4.77854300	-17.34744000	1.57480300
3.09999999	2.86724900	-17.39050000	1.57480300
3.29999998	-0.15871060	-17.39050000	1.57480300
3.49999997	-3.66326300	-17.39050000	1.57480300
3.69999996	-6.53112700	-17.34744000	1.61786400
3.89999994	-7.96444400	-16.97219000	1.99311000
4.09999993	-7.32714100	-16.22785000	2.73745100
4.29999992	-4.93786900	-15.85261000	3.11269700
4.49999991	-0.79601380	-15.80955000	3.11269700
4.69999990	3.66326300	-15.85261000	2.73745100
4.89999989	7.32714100	-16.22785000	1.99311000
5.09999987	9.39837600	-16.97219000	1.57480300
5.29999986	9.07972400	-17.29823000	1.19955700
5.49999985	6.37180100	-16.97219000	0.83661410
5.69999984	2.07062000	-16.27707000	1.19955700
5.89999983	-2.54859700	-16.22785000	1.53174200
6.09999981	-6.69045300	-16.55389000	1.57480300
6.29999980	-9.07972400	-16.18479000	1.61786400
6.49999979	-9.23905000	-15.85261000	1.99311000
6.69999978	-7.00848900	-15.80955000	2.73745100
6.89999977	-3.18590100	-15.85261000	3.11269700
7.09999975	1.11466500	-16.18479000	3.11269700
7.29999974	4.93786900	-16.55389000	2.73745100
7.49999973	7.32714100	-16.22785000	1.99311000
7.69999972	7.64579200	-16.27707000	1.61786400
7.89999971	6.21247500	-16.97219000	1.57480300
8.09999970	3.34522600	-17.29823000	1.57480300
8.29999968	0.00000000	-16.97219000	1.57480300
8.49999967	-2.86724900	-16.22785000	1.57480300
8.69999966	-4.77854300	-15.85261000	1.61786400
8.89999965	-5.09719500	-15.80955000	1.99311000
9.09999964	-4.30056600	-15.80955000	2.73745100
9.29999962	-2.54859700	-15.80955000	3.11269700
9.49999961	-0.47736220	-15.80955000	3.15575800
9.69999960	1.11466500	-15.80955000	3.11269700
9.89999959	2.22994600	-15.80955000	2.73745100
10.09999958	2.54859700	-15.85261000	1.99311000
10.29999956	2.22994600	-16.18479000	1.61786400
10.49999955	1.43331700	-16.55389000	1.57480300
10.69999954	0.47736220	-16.22785000	1.57480300
10.89999953	-0.31803640	-16.22785000	1.57480300
11.09999952	-0.79601380	-16.55389000	1.57480300
11.29999951	-0.95533960	-16.18479000	1.57480300
11.49999949	-0.95533960	-15.85261000	1.57480300
11.69999948	-0.63668800	-15.85261000	1.57480300
11.89999947	-0.31803640	-16.18479000	1.57480300
12.09999946	-0.15871060	-16.59695000	1.57480300
12.29999945	-0.15871060	-16.60310000	1.57480300
12.49999943	0.00000000	-17.01525000	1.57480300
12.69999942	0.00000000	-17.34744000	1.57480300
12.89999941	0.00000000	-17.34744000	1.57480300
13.09999940	0.15871060	-16.97219000	1.57480300
13.29999939	0.00000000	-16.22785000	1.57480300
13.49999937	0.00000000	-15.85261000	1.57480300
13.69999936	0.00000000	-15.80955000	1.57480300
13.89999935	0.00000000	-15.80955000	1.57480300
14.09999934	-0.15871060	-15.85261000	1.57480300
14.29999933	-0.15871060	-16.18479000	1.61786400
14.49999932	-0.15871060	-16.59695000	1.95004900
14.69999930	0.00000000	-16.56004000	2.31914400
14.89999929	0.00000000	-16.59695000	1.95004900
15.09999928	0.00000000	-16.18479000	1.61786400
15.29999927	0.00000000	-15.90182000	1.57480300
15.49999926	0.00000000	-16.22785000	1.57480300
15.69999924	0.00000000	-16.97219000	1.57480300
15.89999923	0.00000000	-17.34744000	1.57480300
16.09999922	0.00000000	-17.39050000	1.57480300
16.29999921	0.00000000	-17.34744000	1.57480300
16.49999920	-0.15871060	-16.97219000	1.57480300
16.69999919	0.00000000	-16.22785000	1.57480300
16.89999917	-0.15871060	-15.85261000	1.57480300
17.09999916	0.00000000	-15.76649000	1.57480300
17.29999915	0.00000000	-15.39124000	1.57480300
17.49999914	0.00000000	-14.69611000	1.57480300
17.69999913	0.00000000	-14.69611000	1.57480300
17.89999911	0.00000000	-15.43430000	1.57480300
18.09999910	0.00000000	-16.22785000	1.57480300
18.29999909	0.00000000	-17.43356000	1.57480300
18.49999908	0.00000000	-18.97145000	1.57480300
18.69999907	0.00000000	-20.50935000	1.57480300
18.89999905	0.00000000	-21.62278000	1.57480300
19.09999904	0.00000000	-21.57972000	1.57480300
19.29999903	0.00000000	-20.04183000	1.57480300
19.49999902	0.00000000	-17.29823000	1.57480300
19.69999901	0.00000000	-13.81028000	1.57480300
19.89999900	0.00000000	-9.95324800	1.57480300
20.09999898	0.00000000	-6.87746000	1.57480300
20.29999897	0.00000000	-5.33956700	1.57480300
20.49999896	0.00000000	-5.85014700	1.57480300
20.69999895	0.00000000	-9.38730200	1.57480300
20.89999894	0.00000000	-15.94488000	1.57480300
21.09999892	0.00000000	-23.67126000	1.57480300
21.29999891	0.00000000	-31.02239000	1.57480300
21.49999890	0.00000000	-36.33120000	1.57480300
21.69999889	0.00000000	-37.44463000	1.57480300
21.89999888	0.00000000	-33.54453000	1.57480300
22.09999886	0.00000000	-25.35064000	1.57480300
22.29999885	0.00000000	-13.71801000	1.57480300
22.49999884	0.00000000	-1.02116100	1.57480300
22.69999883	0.00000000	9.40575800	1.57480300
22.89999882	0.00000000	15.12672000	1.61786400
23.09999881	0.00000000	14.19783000	1.99311000
23.29999879	0.00000000	5.26574800	2.73745100
23.49999878	0.00000000	-10.13164000	3.15575800
23.69999877	0.00000000	-27.94660000	3.57406500
23.89999876	0.00000000	-44.56200000	4.26919300
24.09999875	0.00000000	-56.42224000	4.22613100
24.29999873	0.00000000	-59.40575000	3.15575800
24.49999872	0.00000000	-52.05462000	1.99311000
24.69999871	0.00000000	-35.82062000	1.11343500
24.89999870	0.00000000	-14.18553000	-0.41830710
25.09999869	0.00000000	7.82480200	-2.27608300
25.29999867	0.00000000	25.17839000	-3.06348400
25.49999866	0.00000000	33.64296000	-3.06348400
25.69999865	0.00000000	30.90551000	-2.18380900
25.89999864	0.00000000	17.35974000	0.55364170
26.09999863	0.00000000	-4.31840500	4.73671200
26.29999862	0.00000000	-29.34916000	8.96284400
26.49999860	0.00000000	-51.72859000	12.07554000
26.69999859	0.00000000	-65.64345000	13.56422000
26.89999858	0.00000000	-68.38705000	12.77067000
27.09999857	0.00000000	-59.49803000	9.25196800
27.29999856	0.00000000	-40.93873000	3.80782500
27.49999854	0.00000000	-17.01525000	-3.19881900
27.69999853	0.00000000	6.93897600	-10.49459000
27.89999852	0.00000000	25.08612000	-16.21555000
28.09999851	0.00000000	33.64296000	-18.44242000
28.29999850	0.00000000	30.94857000	-15.70497000
28.49999848	0.00000000	17.91339000	-8.36614100
28.69999847	0.00000000	-1.80856300	2.08538400
28.89999846	0.00000000	-23.44365000	13.65650000
29.09999845	0.00000000	-42.79650000	23.68971000
29.29999844	0.00000000	-55.17347000	29.82899000
29.49999843	0.00000000	-58.37844000	30.56717000
29.69999841	0.00000000	-52.61442000	25.08612000
29.89999840	0.00000000	-39.53617000	14.21629000
30.09999839	0.00000000	-22.50861000	-0.46751960
30.29999838	0.00000000	-5.47490100	-15.84030000
30.49999837	0.00000000	8.47071800	-27.82972000
30.69999835	0.00000000	16.24631000	-34.00591000
30.89999834	0.00000000	16.70768000	-33.12623000
31.09999833	0.00000000	10.56225000	-24.24951000
31.29999832	0.00000000	-0.64591530	-9.20275500
31.49999831	0.00000000	-14.18553000	8.17544300
31.69999829	0.00000000	-27.34990000	24.80315000
31.89999828	0.00000000	-37.40157000	36.74950000
32.09999827	0.00000000	-42.10138000	41.40009000
32.29999826	0.00000000	-41.03100000	37.91216000
32.49999825	0.00000000	-35.21161000	26.71629000
32.69999824	0.00000000	-25.94734000	10.49459000
32.89999822	0.00000000	-15.11442000	-7.29576700
33.09999821	0.00000000	-5.47490100	-23.13607000
33.29999820	0.00000000	1.16879900	-33.54453000
33.49999819	0.00000000	3.50024600	-36.28199000
33.69999818	0.00000000	1.58710600	-30.94242000
33.89999816	0.00000000	-4.18307100	-19.32825000
34.09999815	0.00000000	-12.27239000	-3.80782500
34.29999814	0.00000000	-20.37401000	13.14591000
34.49999813	0.00000000	-26.97465000	27.36835000
34.69999812	0.00000000	-30.41954000	35.16855000
34.89999810	0.00000000	-30.08735000	35.63607000
35.09999809	0.00000000	-26.23031000	29.40452000
35.29999808	0.00000000	-20.13410000	17.46432000
35.49999807	0.00000000	-13.57652000	2.41756900
35.69999806	0.00000000	-8.59375000	-11.85408000
35.89999805	0.00000000	-6.22539300	-22.67470000
36.09999803	0.00000000	-6.96973400	-27.27608000
36.29999802	0.00000000	-10.03937000	-24.62475000
36.49999801	0.00000000	-14.64690000	-15.79724000
36.69999800	0.00000000	-19.66658000	-3.15575800
36.89999799	0.00000000	-23.48671000	9.52263600
37.09999797	0.00000000	-25.43676000	18.81767000
37.29999796	0.00000000	-24.64936000	23.09301000
37.49999795	0.00000000	-21.62278000	21.55512000
37.69999794	0.00000000	-17.34744000	14.67766000
37.89999793	0.00000000	-12.73991000	4.73671200
38.09999791	0.00000000	-8.87672100	-5.25344500
38.29999790	0.00000000	-6.96973400	-12.50000000
38.49999789	0.00000000	-7.29576700	-14.81914000
38.69999788	0.00000000	-9.62106200	-11.38656000
38.89999787	0.00000000	-13.11516000	-3.80782500
39.09999786	0.00000000	-17.39050000	5.43184000
39.29999784	0.00000000	-21.62278000	13.47810000
39.49999783	0.00000000	-24.69857000	18.44857000
39.69999782	0.00000000	-25.90428000	18.39936000
39.89999781	0.00000000	-25.11688000	13.05979000
40.09999780	0.00000000	-22.78543000	4.27534400
40.29999778	0.00000000	-18.92839000	-5.33956700
40.49999777	0.00000000	-14.69611000	-13.01058000
40.69999776	0.00000000	-11.10974000	-16.81841000
40.89999775	0.00000000	-8.04010800	-15.28666000
41.09999774	0.00000000	-6.13927100	-8.78444900
41.29999772	0.00000000	-6.55142700	0.41830710
41.49999771	0.00000000	-8.79060000	10.03322000
41.69999770	0.00000000	-12.31545000	17.32899000
41.89999769	0.00000000	-16.18479000	20.44168000
42.09999768	0.00000000	-20.08489000	18.90994000
42.29999767	0.00000000	-23.16068000	13.19513000
42.49999765	0.00000000	-24.69857000	5.11195900
42.69999764	0.00000000	-24.36639000	-2.97736200
42.89999763	0.00000000	-22.46555000	-9.52263600
43.09999762	0.00000000	-20.13410000	-12.63533000
43.29999761	0.00000000	-17.39050000	-11.94021000
43.49999759	0.00000000	-14.69611000	-8.50147600
43.69999758	0.00000000	-12.73991000	-3.06963600
43.89999757	0.00000000	-11.57726000	3.06963600
44.09999756	0.00000000	-11.57726000	8.45226300
44.29999755	0.00000000	-12.64764000	11.52190000
44.49999753	0.00000000	-13.76107000	11.61417000
44.69999752	0.00000000	-14.18553000	9.38115100
44.89999751	0.00000000	-14.22859000	6.26845500
45.09999750	0.00000000	-14.27165000	2.78051200
45.29999749	0.00000000	-14.69611000	-0.69512790
45.49999748	0.00000000	-15.90182000	-2.97736200
45.69999746	0.00000000	-17.85802000	-3.80782500
45.89999745	0.00000000	-20.55241000	-3.02042300
46.09999744	0.00000000	-23.24680000	-1.15649600
46.29999743	0.00000000	-25.15994000	1.15649600
46.49999742	0.00000000	-25.85507000	3.11269700
46.69999740	0.00000000	-24.23105000	4.68750000
46.89999739	0.00000000	-19.99877000	5.85014700
47.09999738	0.00000000	-14.22859000	6.17618100
47.29999737	0.00000000	-8.41535400	5.47490100
47.49999736	0.00000000	-3.75861200	3.90625000
47.69999734	0.00000000	-1.10728300	2.31914400
47.89999733	0.00000000	-1.57480300	0.00000000
48.09999732	0.00000000	-5.85014700	-2.22687000
48.29999731	0.00000000	-13.15822000	-3.02042300
48.49999730	0.00000000	-21.66585000	-2.64517700
48.69999729	0.00000000	-29.34916000	-1.07037400
48.89999727	0.00000000	-34.32578000	1.62401600
49.09999726	0.00000000	-34.70103000	4.68750000
49.29999725	0.00000000	-30.51181000	7.38188900
49.49999724	0.00000000	-23.11762000	8.91978400
49.69999723	0.00000000	-13.85334000	8.91978400
49.89999721	0.00000000	-4.64443900	7.33882900
50.09999720	0.00000000	1.54404500	4.26919300
50.29999719	0.00000000	3.45103300	0.41830710
50.49999718	0.00000000	0.75049200	-3.06348400
50.69999717	0.00000000	-6.55142700	-5.75787400
50.89999715	0.00000000	-15.71727000	-6.87130900
51.09999714	0.00000000	-24.27411000	-5.71481200
51.29999713	0.00000000	-30.41954000	-2.64517700
51.49999712	0.00000000	-32.74483000	1.57480300
51.69999711	0.00000000	-30.41954000	5.85014700
51.89999710	0.00000000	-24.32333000	9.29502900
52.09999708	0.00000000	-16.22785000	11.23893000
52.29999707	0.00000000	-8.55068800	10.82677000
52.49999706	0.00000000	-3.15575800	8.54453700
52.69999705	0.00000000	-1.61786400	4.69365100
52.89999704	0.00000000	-4.26919300	0.51058070
53.09999702	0.00000000	-10.03937000	-2.64517700
53.29999701	0.00000000	-17.29823000	-4.60137700
53.49999700	0.00000000	-23.85581000	-5.33956700
53.69999699	0.00000000	-27.72515000	-4.13385800
53.89999698	0.00000000	-28.50640000	-1.15649600
54.09999696	0.00000000	-25.76895000	2.31914400
54.29999695	0.00000000	-20.04183000	4.97662400
54.49999694	0.00000000	-13.15822000	6.58833600
54.69999693	0.00000000	-7.43110200	6.55142700
54.89999692	0.00000000	-4.69365100	5.47490100
55.09999691	0.00000000	-5.43184000	3.53100400
55.29999689	0.00000000	-8.83366100	1.66707700
55.49999688	0.00000000	-13.89641000	0.46136810
55.69999687	0.00000000	-19.25443000	0.13533460
55.89999686	0.00000000	-23.85581000	0.87967510
56.09999685	0.00000000	-25.76895000	2.78051200
56.29999683	0.00000000	-24.69857000	4.60137700
56.49999682	0.00000000	-21.62278000	5.38262700
56.69999681	0.00000000	-17.39050000	4.60137700
56.89999680	0.00000000	-13.15822000	2.69439000
57.09999679	0.00000000	-10.03937000	-0.04306102
57.29999677	0.00000000	-8.50147600	-3.06348400
57.49999676	0.00000000	-8.87672100	-5.29650500
57.69999675	0.00000000	-11.15896000	-5.29650500
57.89999674	0.00000000	-14.22859000	-2.97736200
58.09999673	0.00000000	-17.34744000	0.87967510
58.29999672	0.00000000	-20.04183000	5.89320800
58.49999670	0.00000000	-21.57972000	10.45152000
58.69999669	0.00000000	-21.57972000	13.14591000
58.89999668	0.00000000	-20.08489000	13.14591000
59.09999667	0.00000000	-17.76575000	10.40846000
59.29999666	0.00000000	-15.47736000	5.38262700
59.49999664	0.00000000	-13.53346000	-1.15649600
59.69999663	0.00000000	-12.78297000	-7.24655500
59.89999662	0.00000000	-13.11516000	-11.10359000
60.09999661	0.00000000	-14.22859000	-11.52190000
60.29999660	0.00000000	-15.39124000	-8.82750900
60.49999658	0.00000000	-16.18479000	-3.76476400
60.69999657	0.00000000	-16.97219000	3.19881900
60.89999656	0.00000000	-17.29823000	10.45152000
61.09999655	0.00000000	-16.92298000	15.79109000
61.29999654	0.00000000	-15.80955000	17.37205000
61.49999653	0.00000000	-14.69611000	15.05290000
61.69999651	0.00000000	-14.32087000	9.65797200
61.89999650	0.00000000	-14.64690000	1.95004900
62.09999649	0.00000000	-15.43430000	-5.71481200
62.29999648	0.00000000	-16.22785000	-11.52190000
62.49999647	0.00000000	-17.39050000	-14.21629000
62.69999645	0.00000000	-18.46087000	-13.05364000
62.89999644	0.00000000	-18.46087000	-8.45226300
63.09999643	0.00000000	-17.39050000	-1.48868100
63.29999642	0.00000000	-16.22785000	6.18233200
63.49999641	0.00000000	-15.34203000	12.77067000
63.69999639	0.00000000	-13.85334000	16.63386000
63.89999638	0.00000000	-12.37082000	17.42126000
64.09999637	0.00000000	-12.36466000	14.67766000
64.29999636	0.00000000	-13.06594000	8.96284400
64.49999635	0.00000000	-14.27165000	2.04232300
64.69999634	0.00000000	-15.80955000	-4.14000900
64.89999632	0.00000000	-17.34744000	-8.45226300
65.09999631	0.00000000	-18.50394000	-10.40846000
65.29999630	0.00000000	-18.87918000	-10.03322000
65.49999629	0.00000000	-18.50394000	-7.33882900
65.69999628	0.00000000	-17.34744000	-3.11269700
65.89999626	0.00000000	-15.85261000	1.53174200
66.09999625	0.00000000	-14.69611000	5.85014700
66.29999624	0.00000000	-14.32087000	9.33809000
66.49999623	0.00000000	-14.69611000	11.65723000
66.69999622	0.00000000	-15.85261000	12.03248000
66.89999620	0.00000000	-17.34744000	10.53765000
67.09999619	0.00000000	-18.50394000	7.84940900
67.29999618	0.00000000	-18.87918000	4.73671200
67.49999617	0.00000000	-18.46087000	1.58095500
67.69999616	0.00000000	-16.92298000	-1.53174200
67.89999615	0.00000000	-14.60384000	-4.22613100
68.09999613	0.00000000	-12.31545000	-5.80093500
68.29999612	0.00000000	-10.41462000	-6.21924200
68.49999611	0.00000000	-10.08243000	-5.80093500
68.69999610	0.00000000	-11.62032000	-4.18307100
68.89999609	0.00000000	-14.69611000	-1.11343500
69.09999607	0.00000000	-18.55315000	2.78051200
69.29999606	0.00000000	-21.99803000	6.64370100
69.49999605	0.00000000	-24.32333000	10.16855000
69.69999604	0.00000000	-24.64936000	12.40157000
69.89999603	0.00000000	-22.74237000	12.81373000
70.09999601	0.00000000	-18.87918000	10.82677000
70.29999600	0.00000000	-14.22859000	7.00664300
70.49999599	0.00000000	-9.57800100	1.95004900
70.69999598	0.00000000	-5.76402500	-3.02042300
70.89999597	0.00000000	-4.22613100	-6.92052100
71.09999596	0.00000000	-5.38877900	-8.82750900
71.29999594	0.00000000	-8.87672100	-8.45226300
71.49999593	0.00000000	-14.27165000	-5.75787400
71.69999592	0.00000000	-20.04183000	-1.48868100
71.89999591	0.00000000	-24.69857000	3.48794300
72.09999590	0.00000000	-27.43602000	8.07701800
72.29999588	0.00000000	-27.76821000	10.40846000
72.49999587	0.00000000	-25.47982000	10.49459000
72.69999586	0.00000000	-20.83538000	8.96284400
72.89999585	0.00000000	-15.43430000	6.26845500
73.09999584	0.00000000	-9.99630800	3.19881900
73.29999582	0.00000000	-5.80708600	0.51058070
73.49999581	0.00000000	-4.22613100	-1.06422200
73.69999580	0.00000000	-5.33956700	-1.48253000
73.89999579	0.00000000	-8.45841400	-1.11343500
74.09999578	0.00000000	-13.06594000	0.04306102
74.29999577	0.00000000	-18.08563000	1.53174200
74.49999575	0.00000000	-21.95497000	2.64517700
74.69999574	0.00000000	-24.27411000	2.64517700
74.89999573	0.00000000	-24.27411000	1.57480300
75.09999572	0.00000000	-22.04109000	0.41830710
75.29999571	0.00000000	-18.97145000	-0.32603340
75.49999569	0.00000000	-15.85261000	-0.64591530
75.69999568	0.00000000	-13.15822000	0.55364170
75.89999567	0.00000000	-11.57726000	3.15575800
76.09999566	0.00000000	-11.15896000	5.85014700
76.29999565	0.00000000	-11.53420000	7.80019600
76.49999563	0.00000000	-12.69070000	8.91978400
76.69999562	0.00000000	-14.18553000	8.50147600
76.89999561	0.00000000	-15.34203000	6.17618100
77.09999560	0.00000000	-15.76649000	2.69439000
77.29999559	0.00000000	-15.80955000	-1.57480300
77.49999558	0.00000000	-15.80955000	-5.75787400
77.69999556	0.00000000	-15.85261000	-8.40920300
77.89999555	0.00000000	-16.22785000	-8.40920300
78.09999554	0.00000000	-17.01525000	-5.75787400
78.29999553	0.00000000	-17.76575000	-1.48868100
78.49999552	0.00000000	-18.55315000	3.53100400
78.69999550	0.00000000	-18.87918000	8.54453700
78.89999549	0.00000000	-18.46087000	11.98942000
79.09999548	0.00000000	-16.92298000	13.18898000
79.29999547	0.00000000	-14.64690000	12.03248000
79.49999546	0.00000000	-12.69070000	8.96284400
79.69999544	0.00000000	-11.10974000	4.69365100
79.89999543	0.00000000	-10.03937000	0.04306102
80.09999542	0.00000000	-10.45768000	-4.22613100
80.29999541	0.00000000	-12.69070000	-7.29576700
80.49999540	0.00000000	-15.39124000	-8.40920300
80.69999539	0.00000000	-17.76575000	-6.92052100
80.89999537	0.00000000	-20.08489000	-3.48794300
81.09999536	0.00000000	-21.57972000	0.37524600
81.29999535	0.00000000	-21.57972000	4.26919300
81.49999534	0.00000000	-20.04183000	7.38188900
81.69999533	0.00000000	-17.34744000	9.38115100
81.89999531	0.00000000	-14.27165000	10.53765000
82.09999530	0.00000000	-11.57726000	10.49459000
82.29999529	0.00000000	-10.03937000	8.96284400
82.49999528	0.00000000	-10.03937000	6.26845500
82.69999527	0.00000000	-11.53420000	3.15575800
82.89999525	0.00000000	-13.81028000	0.04306102
83.09999524	0.00000000	-15.76649000	-2.69439000
83.29999523	0.00000000	-17.34744000	-4.64443900
83.49999522	0.00000000	-18.46087000	-5.75787400
83.69999521	0.00000000	-18.50394000	-5.38262700
83.89999520	0.00000000	-17.76575000	-3.43873000
84.09999518	0.00000000	-17.01525000	-0.73818890
84.29999517	0.00000000	-16.22785000	2.78051200
84.49999516	0.00000000	-15.80955000	6.26845500
84.69999515	0.00000000	-15.39124000	9.38115100
84.89999514	0.00000000	-14.64690000	11.61417000
85.09999512	0.00000000	-14.27165000	11.61417000
85.29999511	0.00000000	-14.22859000	9.33809000
85.49999510	0.00000000	-14.22859000	5.85014700
85.69999509	0.00000000	-14.22859000	1.53174200
85.89999508	0.00000000	-14.22859000	-3.02042300
86.09999506	0.00000000	-14.22859000	-6.50221400
86.29999505	0.00000000	-14.27165000	-7.67101300
86.49999504	0.00000000	-14.69611000	-6.92052100
86.69999503	0.00000000	-15.85261000	-4.14000900
86.89999502	0.00000000	-17.34744000	0.41830710
87.09999501	0.00000000	-18.50394000	5.43184000
87.29999499	0.00000000	-18.87918000	9.29502900
87.49999498	0.00000000	-18.50394000	11.61417000
87.69999497	0.00000000	-17.34744000	11.61417000
87.89999496	0.00000000	-15.80955000	9.29502900
88.09999495	0.00000000	-14.22859000	5.43184000
88.29999493	0.00000000	-12.73991000	0.41830710
88.49999492	0.00000000	-11.95251000	-4.18307100
88.69999491	0.00000000	-12.36466000	-7.25270600
88.89999490	0.00000000	-13.44119000	-7.99089500
89.09999489	0.00000000	-15.05905000	-5.67175200
89.29999487	0.00000000	-16.56004000	-1.11343500
89.49999486	0.00000000	-18.13484000	4.27534400
89.69999485	0.00000000	-18.83612000	8.87672100
89.89999484	0.00000000	-18.50394000	11.61417000
90.09999483	0.00000000	-17.34744000	11.98327000
90.29999482	0.00000000	-15.85261000	10.03322000
90.49999480	0.00000000	-14.69611000	5.80093500
90.69999479	0.00000000	-14.27165000	0.46136810
90.89999478	0.00000000	-14.22859000	-4.14000900
91.09999477	0.00000000	-14.22859000	-6.87746000
91.29999476	0.00000000	-14.22859000	-7.24655500
91.49999474	0.00000000	-14.27165000	-5.29650500
91.69999473	0.00000000	-14.64690000	-1.06422200
91.89999472	0.00000000	-15.34203000	4.27534400
92.09999471	0.00000000	-15.34203000	8.87672100
92.29999470	0.00000000	-14.64690000	11.56496000
92.49999468	0.00000000	-14.27165000	11.56496000
92.69999467	0.00000000	-14.27165000	8.91978400
92.89999466	0.00000000	-14.69611000	4.69365100
93.09999465	0.00000000	-15.85261000	0.04306102
93.29999464	0.00000000	-17.34744000	-4.14000900
93.49999463	0.00000000	-18.46087000	-6.40994000
93.69999461	0.00000000	-18.46087000	-5.71481200
93.89999460	0.00000000	-17.34744000	-3.02042300
94.09999459	0.00000000	-15.80955000	0.83661410
94.29999458	0.00000000	-14.22859000	5.43184000
94.49999457	0.00000000	-12.64764000	8.82750900
94.69999455	0.00000000	-11.15896000	10.03322000
94.89999454	0.00000000	-10.41462000	8.91978400
95.09999453	0.00000000	-11.15896000	6.22539300
95.29999452	0.00000000	-12.73991000	2.73745100
95.49999451	0.00000000	-15.06521000	-1.11343500
95.69999449	0.00000000	-18.17790000	-4.13385800
95.89999448	0.00000000	-20.83538000	-5.29650500
96.09999447	0.00000000	-22.78543000	-4.18307100
96.29999446	0.00000000	-23.11762000	-1.53174200
96.49999445	0.00000000	-21.57972000	1.58095500
96.69999444	0.00000000	-18.50394000	4.64443900
96.89999442	0.00000000	-14.64690000	6.92052100
97.09999441	0.00000000	-11.15896000	7.33882900
97.29999440	0.00000000	-8.41535400	6.22539300
97.49999439	0.00000000	-6.92052100	4.31840500
97.69999438	0.00000000	-7.29576700	1.99311000
97.89999436	0.00000000	-9.62106200	0.09227362
98.09999435	0.00000000	-13.06594000	-1.06422200
98.29999434	0.00000000	-16.97219000	-1.11343500
98.49999433	0.00000000	-20.41708000	-0.37524600
98.69999432	0.00000000	-22.78543000	0.41830710
98.89999430	0.00000000	-23.53592000	1.57480300
99.09999429	0.00000000	-22.78543000	2.68823800
99.29999428	0.00000000	-20.41708000	3.11269700
99.49999427	0.00000000	-16.97219000	3.15575800
99.69999426	0.00000000	-13.11516000	3.19881900
99.89999425	0.00000000	-9.99630800	3.57406500
100.09999423	0.00000000	-8.04010800	4.31840500
100.29999422	0.00000000	-7.29576700	4.69365100
100.49999421	0.00000000	-8.45841400	4.73671200
100.69999420	0.00000000	-11.10974000	4.69365100
100.89999419	0.00000000	-14.22859000	4.26919300
101.09999417	0.00000000	-17.34744000	3.11269700
101.29999416	0.00000000	-20.04183000	1.57480300
101.49999415	0.00000000	-21.62278000	0.04306102
101.69999414	0.00000000	-21.99803000	-1.11343500
101.89999413	0.00000000	-21.20448000	-1.48253000
102.09999411	0.00000000	-18.92839000	-1.06422200
102.29999410	0.00000000	-16.22785000	0.51058070
102.49999409	0.00000000	-13.89641000	3.15575800
102.69999408	0.00000000	-11.90330000	5.85014700
102.89999407	0.00000000	-10.78371000	7.75713500
103.09999406	0.00000000	-10.37155000	8.54453700
103.29999404	0.00000000	-11.15896000	7.75713500
103.49999403	0.00000000	-12.69070000	5.85014700
103.69999402	0.00000000	-14.64690000	3.11269700
103.89999401	0.00000000	-16.92298000	0.04306102
104.09999400	0.00000000	-18.46087000	-2.60211600
104.29999398	0.00000000	-18.92839000	-3.76476400
104.49999397	0.00000000	-18.92839000	-3.02042300
104.69999396	0.00000000	-18.50394000	-1.15649600
104.89999395	0.00000000	-17.34744000	1.20570900
105.09999394	0.00000000	-15.80955000	3.57406500
105.29999392	0.00000000	-14.27165000	6.22539300
105.49999391	0.00000000	-13.11516000	8.07701800
105.69999390	0.00000000	-12.73991000	7.71407400
105.89999389	0.00000000	-13.11516000	5.85014700
106.09999388	0.00000000	-14.27165000	3.15575800
106.29999387	0.00000000	-15.76649000	0.51058070
106.49999385	0.00000000	-16.92298000	-1.06422200
106.69999384	0.00000000	-17.34744000	-1.48253000
106.89999383	0.00000000	-17.34744000	-1.11343500
107.09999382	0.00000000	-16.92298000	0.09227362
107.29999381	0.00000000	-15.80955000	1.95004900
107.49999379	0.00000000	-14.69611000	3.90009800
107.69999378	0.00000000	-14.22859000	5.01968500
107.89999377	0.00000000	-13.85334000	5.43184000
108.09999376	0.00000000	-13.53346000	4.64443900
108.29999375	0.00000000	-14.27165000	3.15575800
108.49999374	0.00000000	-15.39124000	1.57480300
108.69999372	0.00000000	-16.18479000	0.04306102
108.89999371	0.00000000	-16.97219000	-1.06422200
109.09999370	0.00000000	-17.29823000	-1.06422200
109.29999369	0.00000000	-16.92298000	0.04306102
109.49999368	0.00000000	-15.76649000	1.57480300
109.69999366	0.00000000	-14.27165000	3.15575800
109.89999365	0.00000000	-13.11516000	4.68750000
110.09999364	0.00000000	-12.69070000	5.80093500
110.29999363	0.00000000	-12.69070000	5.80093500
110.49999362	0.00000000	-13.11516000	4.68750000
110.69999360	0.00000000	-14.22859000	3.15575800
110.89999359	0.00000000	-15.34203000	1.62401600
111.09999358	0.00000000	-15.80955000	0.41830710
111.29999357	0.00000000	-16.18479000	-0.32603340
111.49999356	0.00000000	-16.55389000	-0.73818890
111.69999355	0.00000000	-16.18479000	-0.32603340
111.89999353	0.00000000	-15.85261000	0.41830710
112.09999352	0.00000000	-15.76649000	1.57480300
112.29999351	0.00000000	-15.43430000	2.73745100
112.49999350	0.00000000	-15.02214000	3.53100400
112.69999349	0.00000000	-15.01599000	4.26919300
112.89999347	0.00000000	-14.60384000	4.26919300
113.09999346	0.00000000	-14.32087000	3.53100400
113.29999345	0.00000000	-14.64690000	2.78051200
113.49999344	0.00000000	-15.34203000	1.99311000
113.69999343	0.00000000	-15.39124000	1.61786400
113.89999341	0.00000000	-15.06521000	1.57480300
114.09999340	0.00000000	-15.43430000	1.57480300
114.29999339	0.00000000	-15.76649000	1.57480300
114.49999338	0.00000000	-15.80955000	1.57480300
114.69999337	0.00000000	-15.80955000	1.53174200
114.89999336	0.00000000	-15.76649000	1.15649600
115.09999334	0.00000000	-15.39124000	0.46136810
115.29999333	0.00000000	-14.64690000	0.46136810
115.49999332	0.00000000	-14.27165000	1.19955700
115.69999331	0.00000000	-14.22859000	1.95004900
115.89999330	0.00000000	-14.27165000	2.73745100
116.09999328	0.00000000	-14.64690000	3.15575800
116.29999327	0.00000000	-15.39124000	3.57406500
116.49999326	0.00000000	-15.76649000	4.31840500
116.69999325	0.00000000	-15.80955000	4.64443900
116.89999324	0.00000000	-15.80955000	4.31840500
117.09999322	0.00000000	-15.76649000	3.53100400
117.29999321	0.00000000	-15.39124000	2.73745100
117.49999320	0.00000000	-14.64690000	1.57480300
117.69999319	0.00000000	-14.22859000	0.46136810
117.89999318	0.00000000	-13.85334000	0.04306102
118.09999317	0.00000000	-13.48425000	0.04306102
118.29999315	0.00000000	-13.85334000	0.41830710
118.49999314	0.00000000	-14.22859000	1.19955700
118.69999313	0.00000000	-14.69611000	1.95004900
118.89999312	0.00000000	-15.80955000	2.78051200
119.09999311	0.00000000	-16.92298000	3.53100400
119.29999309	0.00000000	-17.34744000	4.31840500
119.49999308	0.00000000	-17.34744000	4.64443900
119.69999307	0.00000000	-16.97219000	4.31840500
119.89999306	0.00000000	-16.18479000	3.57406500
120.09999305	0.00000000	-15.39124000	3.15575800
120.29999303	0.00000000	-14.18553000	2.73745100
120.49999302	0.00000000	-12.73991000	1.99311000
120.69999301	0.00000000	-11.95251000	1.57480300
120.89999300	0.00000000	-12.31545000	1.19955700
121.09999299	0.00000000	-13.02288000	0.83661410
121.29999298	0.00000000	-13.85334000	1.19955700
121.49999296	0.00000000	-14.64690000	1.53174200
121.69999295	0.00000000	-15.80955000	1.61786400
121.89999294	0.00000000	-16.92298000	1.99311000
122.09999293	0.00000000	-17.34744000	2.73745100
122.29999292	0.00000000	-17.34744000	3.11269700
122.49999290	0.00000000	-16.97219000	3.15575800
122.69999289	0.00000000	-16.18479000	3.15575800
122.89999288	0.00000000	-15.39124000	3.15575800
123.09999287	0.00000000	-14.22859000	3.15575800
123.29999286	0.00000000	-13.11516000	3.15575800
123.49999284	0.00000000	-12.69070000	3.11269700
123.69999283	0.00000000	-12.69070000	2.73745100
123.89999282	0.00000000	-13.06594000	1.99311000
124.09999281	0.00000000	-13.85334000	1.61786400
124.29999280	0.00000000	-14.60384000	1.57480300
124.49999279	0.00000000	-15.43430000	1.57480300
124.69999277	0.00000000	-16.18479000	1.57480300
124.89999276	0.00000000	-16.97219000	1.61786400
125.09999275	0.00000000	-17.34744000	1.99311000
125.29999274	0.00000000	-17.34744000	2.73745100
125.49999273	0.00000000	-16.92298000	3.15575800
125.69999271	0.00000000	-15.80955000	3.53100400
125.89999270	0.00000000	-14.64690000	3.90009800
126.09999269	0.00000000	-13.85334000	3.53100400
126.29999268	0.00000000	-13.06594000	3.19881900
126.49999267	0.00000000	-12.69070000	3.11269700
126.69999265	0.00000000	-12.69070000	2.73745100
126.89999264	0.00000000	-13.06594000	1.99311000
127.09999263	0.00000000	-13.85334000	1.61786400
127.29999262	0.00000000	-14.64690000	1.57480300
127.49999261	0.00000000	-15.80955000	1.57480300
127.69999260	0.00000000	-16.92298000	1.57480300
127.89999258	0.00000000	-17.34744000	1.61786400
128.09999257	0.00000000	-17.34744000	1.99311000
128.29999256	0.00000000	-16.92298000	2.73745100
128.49999255	0.00000000	-15.76649000	3.11269700
128.69999254	0.00000000	-14.27165000	3.15575800
128.89999252	0.00000000	-13.11516000	3.15575800
129.09999251	0.00000000	-12.69070000	3.11269700
129.29999250	0.00000000	-12.64764000	2.78051200
129.49999249	0.00000000	-12.73991000	2.32529500
129.69999248	0.00000000	-13.48425000	1.98695800
129.89999246	0.00000000	-15.01599000	1.21186000
130.09999245	0.00000000	-16.14173000	1.24877000
130.29999244	0.00000000	-16.92298000	1.57480300
130.49999243	0.00000000	-16.92298000	1.99311000
130.69999242	0.00000000	-16.18479000	2.73745100
130.89999241	0.00000000	-15.43430000	3.11269700
131.09999239	0.00000000	-14.60384000	3.15575800
131.29999238	0.00000000	-13.85334000	3.11269700
131.49999237	0.00000000	-13.11516000	2.73745100
131.69999236	0.00000000	-13.11516000	1.99311000
131.89999235	0.00000000	-13.85334000	1.61786400
132.09999233	0.00000000	-14.60384000	1.57480300
132.29999232	0.00000000	-15.39124000	1.57480300
132.49999231	0.00000000	-15.76649000	1.57480300
132.69999230	0.00000000	-15.80955000	1.61786400
132.89999229	0.00000000	-15.80955000	1.99311000
133.09999227	0.00000000	-15.76649000	2.73745100
133.29999226	0.00000000	-15.39124000	3.15575800
133.49999225	0.00000000	-14.69611000	3.57406500
133.69999224	0.00000000	-14.64690000	4.26919300
133.89999223	0.00000000	-14.97293000	4.26919300
134.09999222	0.00000000	-14.64690000	3.53100400
134.29999220	0.00000000	-14.64690000	2.78051200
134.49999219	0.00000000	-14.97293000	1.95004900
134.69999218	0.00000000	-14.60384000	1.19955700
134.89999217	0.00000000	-14.27165000	0.41830710
135.09999216	0.00000000	-14.22859000	0.09227362
135.29999214	0.00000000	-14.22859000	0.41830710
135.49999213	0.00000000	-14.22859000	1.19955700
135.69999212	0.00000000	-14.22859000	1.95004900
135.89999211	0.00000000	-14.27165000	2.73745100
136.09999210	0.00000000	-14.64690000	3.15575800
136.29999208	0.00000000	-15.39124000	3.57406500
136.49999207	0.00000000	-15.76649000	4.26919300
136.69999206	0.00000000	-15.80955000	4.26919300
136.89999205	0.00000000	-15.76649000	3.53100400
137.09999204	0.00000000	-15.39124000	2.78051200
137.29999203	0.00000000	-14.64690000	1.99311000
137.49999201	0.00000000	-14.22859000	1.61786400
137.69999200	0.00000000	-13.81028000	1.53174200
137.89999199	0.00000000	-13.11516000	1.19955700
138.09999198	0.00000000	-13.11516000	0.83661410
138.29999197	0.00000000	-13.81028000	1.19955700
138.49999195	0.00000000	-14.22859000	1.57480300
138.69999194	0.00000000	-14.64690000	1.99311000
138.89999193	0.00000000	-15.39124000	2.73745100
139.09999192	0.00000000	-15.76649000	3.15575800
139.29999191	0.00000000	-15.80955000	3.57406500
139.49999189	0.00000000	-15.76649000	4.26919300
139.69999188	0.00000000	-15.39124000	4.26919300
139.89999187	0.00000000	-14.64690000	3.53100400
140.09999186	0.00000000	-14.22859000	2.82357300
140.29999185	0.00000000	-13.85334000	2.36835600
140.49999184	0.00000000	-13.48425000	2.36220500
140.69999182	0.00000000	-13.85334000	1.90698800
140.89999181	0.00000000	-14.22859000	1.19955700
141.09999180	0.00000000	-14.64690000	0.46136810
141.29999179	0.00000000	-15.39124000	0.46136810
141.49999178	0.00000000	-15.76649000	1.19955700
141.69999176	0.00000000	-15.76649000	1.95004900
141.89999175	0.00000000	-15.39124000	2.78051200
142.09999174	0.00000000	-14.64690000	3.53100400
142.29999173	0.00000000	-14.27165000	4.31840500
142.49999172	0.00000000	-14.22859000	4.64443900
142.69999170	0.00000000	-14.22859000	4.31840500
142.89999169	0.00000000	-14.22859000	3.53100400
143.09999168	0.00000000	-14.22859000	2.78051200
143.29999167	0.00000000	-14.27165000	1.95004900
143.49999166	0.00000000	-14.64690000	1.24877000
143.69999165	0.00000000	-15.34203000	0.83661410
143.89999163	0.00000000	-15.34203000	1.19955700
144.09999162	0.00000000	-14.64690000	1.57480300
144.29999161	0.00000000	-14.27165000	1.99311000
144.49999160	0.00000000	-14.22859000	2.73745100
144.69999159	0.00000000	-14.22859000	3.15575800
144.89999157	0.00000000	-14.22859000	3.53100400
145.09999156	0.00000000	-14.22859000	3.90009800
145.29999155	0.00000000	-14.27165000	3.53100400
145.49999154	0.00000000	-14.64690000	3.19881900
145.69999153	0.00000000	-15.39124000	3.11269700
145.89999151	0.00000000	-15.76649000	2.73745100
146.09999150	0.00000000	-15.76649000	1.99311000
146.29999149	0.00000000	-15.39124000	1.61786400
146.49999148	0.00000000	-14.64690000	1.57480300
146.69999147	0.00000000	-14.27165000	1.57480300
146.89999146	0.00000000	-14.22859000	1.61786400
147.09999144	0.00000000	-14.22859000	1.99311000
147.29999143	0.00000000	-14.22859000	2.73745100
147.49999142	0.00000000	-14.22859000	3.11269700
147.69999141	0.00000000	-14.22859000	3.15575800
147.89999140	0.00000000	-14.27165000	3.15575800
148.09999138	0.00000000	-14.64690000	3.15575800
148.29999137	0.00000000	-15.34203000	3.15575800
148.49999136	0.00000000	-15.39124000	3.11269700
148.69999135	0.00000000	-15.02214000	2.73745100
148.89999134	0.00000000	-15.01599000	1.99311000
149.09999132	0.00000000	-14.60384000	1.61786400
149.29999131	0.00000000	-14.27165000	1.57480300
149.49999130	0.00000000	-14.22859000	1.57480300
149.69999129	0.00000000	-14.22859000	1.61786400
149.89999128	0.00000000	-14.22859000	1.95004900
150.09999127	0.00000000	-14.22859000	2.36220500
150.29999125	0.00000000	-14.22859000	2.36835600
150.49999124	0.00000000	-14.22859000	2.78051200
150.69999123	0.00000000	-14.27165000	3.11269700
150.89999122	0.00000000	-14.64690000	3.15575800
151.09999121	0.00000000	-15.39124000	3.11269700
151.29999119	0.00000000	-15.76649000	2.73745100
151.49999118	0.00000000	-15.76649000	1.99311000
151.69999117	0.00000000	-15.39124000	1.61786400
151.89999116	0.00000000	-14.64690000	1.57480300
152.09999115	0.00000000	-14.27165000	1.57480300
152.29999113	0.00000000	-14.22859000	1.57480300
152.49999112	0.00000000	-14.22859000	1.61786400
152.69999111	0.00000000	-14.22859000	1.99311000
152.89999110	0.00000000	-14.18553000	2.73745100
153.09999109	0.00000000	-13.85334000	3.11269700
153.29999108	0.00000000	-13.48425000	3.15575800
153.49999106	0.00000000	-13.85334000	3.15575800
153.69999105	0.00000000	-14.22859000	3.15575800
153.89999104	0.00000000	-14.64690000	3.15575800
154.09999103	0.00000000	-15.39124000	3.15575800
154.29999102	0.00000000	-15.76649000	3.11269700
154.49999100	0.00000000	-15.80955000	2.78051200
154.69999099	0.00000000	-15.76649000	2.41141700
154.89999098	0.00000000	-15.39124000	2.73745100
155.09999097	0.00000000	-14.64690000	2.68823800
155.29999096	0.00000000	-14.27165000	1.99311000
155.49999094	0.00000000	-14.18553000	1.61786400
155.69999093	0.00000000	-13.85334000	1.57480300
155.89999092	0.00000000	-13.48425000	1.61786400
156.09999091	0.00000000	-13.85334000	1.95004900
156.29999090	0.00000000	-14.18553000	2.36220500
156.49999089	0.00000000	-14.22859000	2.36835600
156.69999087	0.00000000	-14.27165000	2.78051200
156.89999086	0.00000000	-14.64690000	3.11269700
157.09999085	0.00000000	-15.39124000	3.15575800
157.29999084	0.00000000	-15.76649000	3.15575800
157.49999083	0.00000000	-15.76649000	3.15575800
157.69999081	0.00000000	-15.39124000	3.11269700
157.89999080	0.00000000	-14.64690000	2.73745100
158.09999079	0.00000000	-14.27165000	1.99311000
158.29999078	0.00000000	-14.22859000	1.61786400
158.49999077	0.00000000	-14.22859000	1.57480300
158.69999075	0.00000000	-14.22859000	1.57480300
158.89999074	0.00000000	-14.22859000	1.61786400
159.09999073	0.00000000	-14.22859000	1.99311000
159.29999072	0.00000000	-14.22859000	2.73745100
159.49999071	0.00000000	-14.22859000	3.15575800
159.69999070	0.00000000	-14.27165000	3.53100400
159.89999068	0.00000000	-14.64690000	3.90009800
160.09999067	0.00000000	-15.39124000	3.53100400
160.29999066	0.00000000	-15.76649000	3.19881900
160.49999065	0.00000000	-15.76649000	3.15575800
160.69999064	0.00000000	-15.39124000	3.11269700
160.89999062	0.00000000	-14.64690000	2.73745100
161.09999061	0.00000000	-14.27165000	1.99311000
161.29999060	0.00000000	-14.22859000	1.61786400
161.49999059	0.00000000	-14.22859000	1.57480300
161.69999058	0.00000000	-14.22859000	1.61786400
161.89999056	0.00000000	-14.22859000	1.95004900
162.09999055	0.00000000	-14.22859000	2.36220500
162.29999054	0.00000000	-14.22859000	2.36835600
162.49999053	0.00000000	-14.22859000	2.78051200
162.69999052	0.00000000	-14.22859000	3.11269700
162.89999051	0.00000000	-14.22859000	3.15575800
163.09999049	0.00000000	-14.27165000	3.15575800
163.29999048	0.00000000	-14.64690000	3.15575800
163.49999047	0.00000000	-15.39124000	3.15575800
163.69999046	0.00000000	-15.76649000	3.15575800
163.89999045	0.00000000	-15.76649000	3.11269700
164.09999043	0.00000000	-15.39124000	2.73745100
164.29999042	0.00000000	-14.64690000	1.99311000
164.49999041	0.00000000	-14.27165000	1.61786400
164.69999040	0.00000000	-14.18553000	1.61786400
164.89999039	0.00000000	-13.85334000	1.99311000
165.09999037	0.00000000	-13.48425000	2.73745100
165.29999036	0.00000000	-13.85334000	3.11269700
165.49999035	0.00000000	-14.18553000	3.15575800
165.69999034	0.00000000	-14.22859000	3.15575800
165.89999033	0.00000000	-14.22859000	3.15575800
166.09999032	0.00000000	-14.22859000	3.15575800
166.29999030	0.00000000	-14.27165000	3.15575800
166.49999029	0.00000000	-14.60384000	3.15575800
166.69999028	0.00000000	-14.97293000	3.15575800
166.89999027	0.00000000	-14.60384000	3.15575800
167.09999026	0.00000000	-14.27165000	3.11269700
167.29999024	0.00000000	-14.22859000	2.73745100
167.49999023	0.00000000	-14.22859000	2.04232300
167.69999022	0.00000000	-14.22859000	2.04232300
167.89999021	0.00000000	-14.22859000	2.68823800
168.09999020	0.00000000	-14.22859000	2.73745100
168.29999018	0.00000000	-14.22859000	2.36835600
168.49999017	0.00000000	-14.22859000	2.40526600
168.69999016	0.00000000	-14.22859000	2.36835600
168.89999015	0.00000000	-14.22859000	2.78051200
169.09999014	0.00000000	-14.22859000	3.06348400
169.29999013	0.00000000	-14.22859000	2.78051200
169.49999011	0.00000000	-14.22859000	2.41141700
169.69999010	0.00000000	-14.22859000	2.78051200
169.89999009	0.00000000	-14.22859000	3.11269700
170.09999008	0.00000000	-14.22859000	3.15575800
170.29999007	0.00000000	-14.22859000	3.15575800
170.49999005	0.00000000	-14.22859000	3.15575800
170.69999004	0.00000000	-14.22859000	3.11269700
170.89999003	0.00000000	-14.22859000	2.78051200
171.09999002	0.00000000	-14.22859000	2.36835600
171.29999001	0.00000000	-14.22859000	2.40526600
171.49998999	0.00000000	-14.22859000	2.32529500
171.69998998	0.00000000	-14.22859000	2.36220500
171.89998997	0.00000000	-14.22859000	1.95004900
172.09998996	0.00000000	-14.22859000	1.66707700
172.29998995	0.00000000	-14.22859000	1.95004900
172.49998994	0.00000000	-14.22859000	2.36220500
172.69998992	0.00000000	-14.22859000	2.32529500
172.89998991	0.00000000	-14.22859000	2.40526600
173.09998990	0.00000000	-14.22859000	2.36835600
173.29998989	0.00000000	-14.22859000	2.78051200
173.49998988	0.00000000	-14.22859000	3.11269700
173.69998986	0.00000000	-14.22859000	3.15575800
173.89998985	0.00000000	-14.22859000	3.11269700
174.09998984	0.00000000	-14.22859000	2.78051200
174.29998983	0.00000000	-14.22859000	2.41141700
174.49998982	0.00000000	-14.22859000	2.78051200
174.69998980	0.00000000	-14.22859000	3.11269700
174.89998979	0.00000000	-14.22859000	3.15575800
175.09998978	0.00000000	-14.22859000	3.11269700
175.29998977	0.00000000	-14.22859000	2.78051200
175.49998976	0.00000000	-14.22859000	2.41141700
175.69998975	0.00000000	-14.22859000	2.78051200
175.89998973	0.00000000	-14.22859000	3.11269700
176.09998972	0.00000000	-14.22859000	3.11269700
176.29998971	0.00000000	-14.22859000	2.78051200
176.49998970	0.00000000	-14.22859000	2.41141700
176.69998969	0.00000000	-14.22859000	2.78051200
176.89998967	0.00000000	-14.22859000	3.11269700
177.09998966	0.00000000	-14.22859000	3.11269700
177.29998965	0.00000000	-14.22859000	2.73745100
177.49998964	0.00000000	-14.22859000	2.04232300
177.69998963	0.00000000	-14.22859000	2.04232300
177.89998961	0.00000000	-14.22859000	2.68823800
178.09998960	0.00000000	-14.22859000	2.68823800
178.29998959	0.00000000	-14.22859000	2.04232300
178.49998958	0.00000000	-14.22859000	1.99311000
178.69998957	0.00000000	-14.22859000	2.36220500
178.89998956	0.00000000	-14.22859000	2.36835600
179.09998954	0.00000000	-14.22859000	2.78051200
179.29998953	0.00000000	-14.22859000	3.06348400
179.49998952	0.00000000	-14.22859000	2.78051200
179.69998951	0.00000000	-14.22859000	2.36835600
179.89998950	0.00000000	-14.22859000	2.36220500
180.09998948	0.00000000	-14.22859000	1.95004900
180.29998947	0.00000000	-14.22859000	1.61786400
180.49998946	0.00000000	-14.22859000	1.61786400
180.69998945	0.00000000	-14.22859000	1.99311000
180.89998944	0.00000000	-14.22859000	2.73745100
181.09998942	0.00000000	-14.22859000	3.11269700
181.29998941	0.00000000	-14.22859000	3.15575800
181.49998940	0.00000000	-14.22859000	3.15575800
181.69998939	0.00000000	-14.22859000	3.15575800
181.89998938	0.00000000	-14.22859000	3.15575800
182.09998937	0.00000000	-14.22859000	3.15575800
182.29998935	0.00000000	-14.22859000	3.15575800
182.49998934	0.00000000	-14.22859000	3.15575800
182.69998933	0.00000000	-14.22859000	3.11269700
182.89998932	0.00000000	-14.22859000	2.73745100
183.09998931	0.00000000	-14.22859000	1.99311000
183.29998929	0.00000000	-14.22859000	1.61786400
183.49998928	0.00000000	-14.22859000	1.57480300
183.69998927	0.00000000	-14.22859000	1.57480300
183.89998926	0.00000000	-14.22859000	1.61786400
184.09998925	0.00000000	-14.22859000	1.99311000
184.29998923	0.00000000	-14.22859000	2.73745100
184.49998922	0.00000000	-14.22859000	3.11269700
184.69998921	0.00000000	-14.22859000	3.15575800
184.89998920	0.00000000	-14.22859000	3.15575800
185.09998919	0.00000000	-14.22859000	3.15575800
185.29998918	0.00000000	-14.22859000	3.15575800
185.49998916	0.00000000	-14.22859000	3.11269700
185.69998915	0.00000000	-14.22859000	2.73745100
185.89998914	0.00000000	-14.22859000	1.99311000
186.09998913	0.00000000	-14.22859000	1.61786400
186.29998912	0.00000000	-14.22859000	1.57480300
186.49998910	0.00000000	-14.22859000	1.57480300
186.69998909	0.00000000	-14.22859000	1.61786400
186.89998908	0.00000000	-14.22859000	1.99311000
187.09998907	0.00000000	-14.22859000	2.73745100
187.29998906	0.00000000	-14.22859000	3.11269700
187.49998904	0.00000000	-14.22859000	3.15575800
187.69998903	0.00000000	-14.22859000	3.15575800
187.89998902	0.00000000	-14.22859000	3.15575800
188.09998901	0.00000000	-14.22859000	3.15575800
188.29998900	0.00000000	-14.22859000	3.15575800
188.49998899	0.00000000	-14.22859000	3.15575800
188.69998897	0.00000000	-14.22859000	3.11269700
188.89998896	0.00000000	-14.22859000	2.73745100
189.09998895	0.00000000	-14.22859000	1.99311000
189.29998894	0.00000000	-14.22859000	1.61786400
189.49998893	0.00000000	-14.22859000	1.57480300
189.69998891	0.00000000	-14.22859000	1.61786400
189.89998890	0.00000000	-14.22859000	1.99311000
190.09998889	0.00000000	-14.22859000	2.73745100
190.29998888	0.00000000	-14.22859000	3.11269700
190.49998887	0.00000000	-14.22859000	3.15575800
190.69998885	0.00000000	-14.22859000	3.15575800
190.89998884	0.00000000	-14.22859000	3.15575800
191.09998883	0.00000000	-14.22859000	3.15575800
191.29998882	0.00000000	-14.22859000	3.15575800
191.49998881	0.00000000	-14.22859000	3.15575800
191.69998880	0.00000000	-14.22859000	3.11269700
191.89998878	0.00000000	-14.22859000	2.78051200
192.09998877	0.00000000	-14.18553000	2.36835600
192.29998876	0.00000000	-13.85334000	2.40526600
192.49998875	0.00000000	-13.48425000	2.36835600
192.69998874	0.00000000	-13.85334000	2.78051200
192.89998872	0.00000000	-14.18553000	3.11269700
193.09998871	0.00000000	-14.22859000	3.15575800
193.29998870	0.00000000	-14.22859000	3.15575800
193.49998869	0.00000000	-14.22859000	3.15575800
193.69998868	0.00000000	-14.22859000	3.15575800
193.89998866	0.00000000	-14.22859000	3.15575800
194.09998865	0.00000000	-14.22859000	3.15575800
194.29998864	0.00000000	-14.22859000	3.15575800
194.49998863	0.00000000	-14.22859000	3.15575800
194.69998862	0.00000000	-14.22859000	3.15575800
194.89998861	0.00000000	-14.22859000	3.15575800
195.09998859	0.00000000	-14.22859000	3.15575800
195.29998858	0.00000000	-14.22859000	3.11269700
195.49998857	0.00000000	-14.22859000	2.73745100
195.69998856	0.00000000	-14.22859000	2.04232300
195.89998855	0.00000000	-14.22859000	2.04232300
196.09998853	0.00000000	-14.22859000	2.68823800
