Time	Channel A	Channel B	Channel C
(us)	(V)	(mV)	(mV)

-4.59999956	0.00000000	-58.50147000	-14.21014000
-4.39999957	0.00000000	-58.50147000	-14.21014000
-4.19999958	0.00000000	-58.50147000	-14.21014000
-3.99999959	0.00000000	-58.50147000	-14.21014000
-3.79999960	0.00000000	-58.50147000	-14.21014000
-3.59999962	0.00000000	-58.50147000	-14.21014000
-3.39999963	0.00000000	-58.50147000	-14.21014000
-3.19999964	0.00000000	-58.50147000	-14.21014000
-2.99999965	0.00000000	-58.50147000	-14.21014000
-2.79999966	0.00000000	-58.50147000	-14.21014000
-2.59999968	0.00000000	-58.50147000	-14.21014000
-2.39999969	0.00000000	-58.50147000	-14.21014000
-2.19999970	0.00000000	-58.50147000	-14.21014000
-1.99999971	0.00000000	-58.50147000	-14.21014000
-1.79999972	0.00000000	-58.50147000	-14.21014000
-1.59999973	0.00000000	-58.45841000	-14.21014000
-1.39999975	0.00000000	-58.12622000	-14.21014000
-1.19999976	0.00000000	-57.75713000	-14.16708000
-0.99999977	0.00000000	-58.08316000	-13.79183000
-0.79999978	0.00000000	-58.08316000	-13.09670000
-0.59999979	0.00000000	-57.71407000	-13.09670000
-0.39999981	0.15871060	-57.70792000	-13.79183000
-0.19999982	0.47736220	-57.29576000	-14.16708000
0.00000017	0.79601380	-57.01279000	-14.16708000
0.20000016	1.11466500	-57.33883000	-13.83489000
0.40000015	0.95533960	-58.08316000	-13.46580000
0.60000013	0.63668800	-58.45841000	-13.83489000
0.80000012	0.00000000	-58.50147000	-14.16708000
1.00000011	-0.95533960	-58.45841000	-14.21014000
1.20000010	-1.91129400	-58.08316000	-14.21014000
1.40000009	-2.54859700	-57.33883000	-14.21014000
1.60000008	-2.70792300	-57.01279000	-14.16708000
1.80000006	-2.07062000	-57.29576000	-13.83489000
2.00000005	-0.63668800	-57.66486000	-13.46580000
2.20000004	1.43331700	-57.33883000	-13.83489000
2.40000003	3.50393700	-57.38804000	-14.16708000
2.60000002	4.93786900	-58.08316000	-14.21014000
2.80000000	5.25652100	-58.45841000	-14.21014000
2.99999999	4.14124000	-58.50147000	-14.21014000
3.19999998	1.75196900	-58.50147000	-14.25320000
3.39999997	-1.43331700	-58.50147000	-14.58538000
3.59999996	-4.77854300	-58.50147000	-14.94833000
3.79999994	-7.16781500	-58.50147000	-14.58538000
3.99999993	-7.96444400	-58.45841000	-14.21014000
4.19999992	-6.69045300	-58.08316000	-13.79183000
4.39999991	-3.50393700	-57.33883000	-13.04749000
4.59999990	0.63668800	-57.01279000	-12.72146000
4.79999989	5.09719500	-57.33883000	-13.04749000
4.99999987	8.28309500	-58.08316000	-13.83489000
5.19999986	9.55770200	-58.45841000	-14.53617000
5.39999985	8.28309500	-58.50147000	-14.99139000
5.59999984	5.09719500	-58.50147000	-15.00369000
5.79999983	0.47736220	-58.50147000	-15.36663000
5.99999981	-4.30056600	-58.50147000	-15.32357000
6.19999980	-7.96444400	-58.50147000	-14.62844000
6.39999979	-9.39837600	-58.45841000	-14.21014000
6.59999978	-8.76107300	-58.08316000	-13.79183000
6.79999977	-5.73449800	-57.33883000	-13.04749000
6.99999975	-1.59264300	-57.01279000	-12.72146000
7.19999974	2.70792300	-57.29576000	-13.04749000
7.39999973	6.05315000	-57.70792000	-13.79183000
7.59999972	7.64579200	-57.71407000	-14.16708000
7.79999971	7.32714100	-58.12622000	-14.21014000
7.99999970	5.09719500	-58.45841000	-14.21014000
8.19999968	2.07062000	-58.50147000	-14.21014000
8.39999967	-1.11466500	-58.45841000	-14.21014000
8.59999966	-3.66326300	-58.08316000	-14.21014000
8.79999965	-5.09719500	-57.38804000	-14.16708000
8.99999964	-4.93786900	-57.38804000	-13.83489000
9.19999962	-3.66326300	-58.03395000	-13.46580000
9.39999961	-1.91129400	-58.03395000	-13.79183000
9.59999960	0.15871060	-57.38804000	-13.79183000
9.79999959	1.59264300	-57.33883000	-13.46580000
9.99999958	2.38927200	-57.66486000	-13.83489000
10.19999956	2.54859700	-57.33883000	-14.16708000
10.39999955	1.91129400	-57.38804000	-14.21014000
10.59999954	1.11466500	-58.03395000	-14.21014000
10.79999953	0.15871060	-58.03395000	-14.21014000
10.99999952	-0.47736220	-57.38804000	-14.21014000
11.19999951	-0.79601380	-57.33883000	-14.21014000
11.39999949	-0.95533960	-57.70792000	-14.21014000
11.59999948	-0.79601380	-57.67101000	-14.21014000
11.79999947	-0.63668800	-57.70792000	-14.21014000
11.99999946	-0.31803640	-57.33883000	-14.21014000
12.19999945	-0.15871060	-57.33883000	-14.21014000
12.39999943	-0.15871060	-57.70792000	-14.21014000
12.59999942	0.00000000	-57.67101000	-14.21014000
12.79999941	0.00000000	-57.70792000	-14.21014000
12.99999940	0.00000000	-57.29576000	-14.21014000
13.19999939	0.15871060	-56.96358000	-14.21014000
13.39999937	0.00000000	-56.92052000	-14.21014000
13.59999936	0.00000000	-56.92052000	-14.21014000
13.79999935	0.00000000	-56.92052000	-14.21014000
13.99999934	0.00000000	-56.92052000	-14.21014000
14.19999933	-0.15871060	-56.96358000	-14.21014000
14.39999932	-0.15871060	-57.33883000	-14.21014000
14.59999930	0.00000000	-58.08316000	-14.21014000
14.79999929	0.00000000	-58.45841000	-14.21014000
14.99999928	0.00000000	-58.45841000	-14.21014000
15.19999927	0.00000000	-58.12622000	-14.21014000
15.39999926	0.00000000	-57.75713000	-14.21014000
15.59999924	0.00000000	-58.08316000	-14.21014000
15.79999923	0.00000000	-58.08316000	-14.21014000
15.99999922	0.00000000	-57.75713000	-14.21014000
16.19999921	0.00000000	-58.12622000	-14.21014000
16.39999920	0.00000000	-58.40920000	-14.21014000
16.59999919	0.00000000	-58.08316000	-14.21014000
16.79999917	0.00000000	-57.33883000	-14.21014000
16.99999916	0.00000000	-56.92052000	-14.21014000
17.19999915	0.00000000	-56.50221000	-14.21014000
17.39999914	0.00000000	-55.75787000	-14.21014000
17.59999913	0.00000000	-55.43184000	-14.21014000
17.79999911	0.00000000	-55.80708000	-14.21014000
17.99999910	0.00000000	-56.92052000	-14.21014000
18.19999909	0.00000000	-58.12622000	-14.21014000
18.39999908	0.00000000	-59.29502000	-14.21014000
18.59999907	0.00000000	-60.86983000	-14.21014000
18.79999905	0.00000000	-61.99557000	-14.21014000
18.99999904	0.00000000	-62.73376000	-14.21014000
19.19999903	0.00000000	-62.27239000	-14.21014000
19.39999902	0.00000000	-59.99015000	-14.21014000
19.59999901	0.00000000	-56.87746000	-14.21014000
19.79999900	0.00000000	-53.34030000	-14.21014000
19.99999898	0.00000000	-49.48326000	-14.21014000
20.19999897	0.00000000	-46.45054000	-14.21014000
20.39999896	0.00000000	-45.38017000	-14.21014000
20.59999895	0.00000000	-47.38558000	-14.21014000
20.79999894	0.00000000	-52.77436000	-14.21014000
20.99999892	0.00000000	-60.13164000	-14.21014000
21.19999891	0.00000000	-67.90108000	-14.21014000
21.39999890	0.00000000	-74.79084000	-14.21014000
21.59999889	0.00000000	-78.60482000	-14.21014000
21.79999888	0.00000000	-77.76820000	-14.21014000
21.99999886	0.00000000	-72.27484000	-14.21014000
22.19999885	0.00000000	-62.18011000	-14.21014000
22.39999884	0.00000000	-49.48326000	-14.21014000
22.59999883	0.00000000	-37.47539000	-14.21014000
22.79999882	0.00000000	-28.62943000	-14.16708000
22.99999881	0.00000000	-25.28297000	-13.79183000
23.19999879	0.00000000	-29.60753000	-13.04749000
23.39999878	0.00000000	-41.19094000	-12.67224000
23.59999877	0.00000000	-57.47416000	-12.62918000
23.79999876	0.00000000	-75.25220000	-12.58612000
23.99999875	0.00000000	-90.60654000	-12.25394000
24.19999873	0.00000000	-99.07726000	-11.93405000
24.39999872	0.00000000	-98.24680000	-12.72146000
24.59999871	0.00000000	-88.13976000	-14.21014000
24.79999870	0.00000000	-69.91264000	-15.78494000
24.99999869	0.00000000	-47.57013000	-17.32283000
25.19999867	0.00000000	-26.35334000	-18.47933000
25.39999866	0.00000000	-11.69414000	-18.85458000
25.59999865	0.00000000	-7.08661400	-18.43627000
25.79999864	0.00000000	-13.74262000	-16.81225000
25.99999863	0.00000000	-31.09621000	-13.69956000
26.19999862	0.00000000	-55.00738000	-9.47342500
26.39999860	0.00000000	-79.34915000	-5.29035400
26.59999859	0.00000000	-99.07726000	-2.59596400
26.79999858	0.00000000	-109.45500000	-2.17150600
26.99999857	0.00000000	-107.91710000	-3.79552100
27.19999856	0.00000000	-94.83882000	-7.75098400
27.39999854	0.00000000	-73.57898000	-14.34547000
27.59999853	0.00000000	-49.24335000	-22.01649000
27.79999852	0.00000000	-26.82087000	-28.93701000
27.99999851	0.00000000	-11.78642000	-33.16314000
28.19999850	0.00000000	-7.46186000	-33.49532000
28.39999848	0.00000000	-14.39468000	-29.58907000
28.59999847	0.00000000	-30.54257000	-21.41363000
28.79999846	0.00000000	-51.80241000	-10.58686000
28.99999845	0.00000000	-73.07455000	0.97810030
29.19999844	0.00000000	-90.14517000	10.54995000
29.39999843	0.00000000	-99.40944000	15.15133000
29.59999841	0.00000000	-99.12032000	13.57037000
29.79999840	0.00000000	-89.91141000	5.77017700
29.99999839	0.00000000	-74.87697000	-7.33267600
30.19999838	0.00000000	-57.43110000	-22.75467000
30.39999837	0.00000000	-41.14788000	-36.69414000
30.59999835	0.00000000	-29.14001000	-46.73351000
30.79999834	0.00000000	-23.70202000	-50.49828000
30.99999833	0.00000000	-25.93504000	-46.22293000
31.19999832	0.00000000	-34.35654000	-34.65182000
31.39999831	0.00000000	-46.40748000	-18.43627000
31.59999829	0.00000000	-59.94709000	-1.02116100
31.79999828	0.00000000	-72.32407000	14.03789000
31.99999827	0.00000000	-80.46875000	23.65280000
32.19999826	0.00000000	-83.25540000	25.23376000
32.39999825	0.00000000	-80.56102000	18.68233000
32.59999824	0.00000000	-73.25295000	5.90551100
32.79999822	0.00000000	-63.20127000	-11.14050000
32.99999821	0.00000000	-52.73130000	-28.84473000
33.19999820	0.00000000	-43.84842000	-43.15945000
33.39999819	0.00000000	-38.45349000	-50.91658000
33.59999818	0.00000000	-37.98597000	-50.95964000
33.79999816	0.00000000	-41.79995000	-43.57775000
33.99999815	0.00000000	-48.36368000	-30.05044000
34.19999814	0.00000000	-56.50221000	-13.09670000
34.39999813	0.00000000	-64.18552000	3.11884800
34.59999812	0.00000000	-69.62352000	15.10827000
34.79999810	0.00000000	-71.53666000	20.54011000
34.99999809	0.00000000	-69.67273000	18.26402000
35.19999808	0.00000000	-64.68996000	9.38730200
35.39999807	0.00000000	-58.54454000	-4.08464600
35.59999806	0.00000000	-52.73130000	-19.13140000
35.79999805	0.00000000	-48.49901000	-31.87131000
35.99999803	0.00000000	-46.96112000	-40.04060000
36.19999802	0.00000000	-48.49901000	-41.90453000
36.39999801	0.00000000	-52.68823000	-36.97096000
36.59999800	0.00000000	-58.03395000	-26.61786000
36.79999799	0.00000000	-62.64764000	-14.29626000
36.99999797	0.00000000	-65.38509000	-2.73129900
37.19999796	0.00000000	-65.80955000	5.30265700
37.39999795	0.00000000	-64.27164000	7.30191900
37.59999794	0.00000000	-61.15280000	3.49409400
37.79999793	0.00000000	-56.87746000	-4.54601300
37.99999791	0.00000000	-52.31299000	-14.90526000
38.19999790	0.00000000	-48.83120000	-24.06496000
38.39999789	0.00000000	-47.70546000	-29.49680000
38.59999788	0.00000000	-48.78198000	-29.87205000
38.79999787	0.00000000	-51.89468000	-25.26452000
38.99999786	0.00000000	-55.75787000	-16.85531000
39.19999784	0.00000000	-60.03937000	-7.33267600
39.39999783	0.00000000	-63.85334000	-0.03690945
39.59999782	0.00000000	-65.85260000	3.02657500
39.79999781	0.00000000	-66.27091000	1.11958700
39.99999780	0.00000000	-65.43430000	-5.42568800
40.19999778	0.00000000	-62.69069000	-14.58538000
40.39999777	0.00000000	-58.50147000	-23.82505000
40.59999776	0.00000000	-54.22613000	-30.33341000
40.79999775	0.00000000	-50.68897000	-32.60949000
40.99999774	0.00000000	-47.98843000	-29.53986000
41.19999772	0.00000000	-46.87500000	-21.88115000
41.39999771	0.00000000	-48.03149000	-12.29700000
41.59999770	0.00000000	-51.06422000	-3.05733300
41.79999769	0.00000000	-54.96432000	3.07578700
41.99999768	0.00000000	-58.83366000	4.65059000
42.19999767	0.00000000	-62.35851000	1.58710600
42.39999765	0.00000000	-64.64690000	-5.29035400
42.59999764	0.00000000	-65.47736000	-13.74262000
42.79999763	0.00000000	-64.68996000	-21.46284000
42.99999762	0.00000000	-62.77681000	-26.89468000
43.19999761	0.00000000	-60.08243000	-28.80167000
43.39999759	0.00000000	-57.33883000	-26.93774000
43.59999758	0.00000000	-55.00738000	-21.96727000
43.79999757	0.00000000	-53.10654000	-15.83415000
43.99999756	0.00000000	-52.68823000	-10.02707000
44.19999755	0.00000000	-53.34030000	-5.75172200
44.39999753	0.00000000	-53.75861000	-3.80167300
44.59999752	0.00000000	-54.13385000	-4.17076700
44.79999751	0.00000000	-54.54601000	-6.82209600
44.99999750	0.00000000	-54.55216000	-10.62992000
45.19999749	0.00000000	-55.00738000	-14.11786000
45.39999748	0.00000000	-55.80708000	-16.90453000
45.59999746	0.00000000	-57.38804000	-18.76845000
45.79999745	0.00000000	-59.70718000	-19.18061000
45.99999744	0.00000000	-62.08169000	-17.69808000
46.19999743	0.00000000	-64.73917000	-15.78494000
46.39999742	0.00000000	-66.59695000	-13.79183000
46.59999740	0.00000000	-66.18479000	-11.51575000
46.79999739	0.00000000	-63.80413000	-9.93479300
46.99999738	0.00000000	-59.15354000	-9.14124000
47.19999737	0.00000000	-52.97121000	-8.82135800
47.39999736	0.00000000	-47.19488000	-9.98400600
47.59999734	0.00000000	-42.59350000	-12.25394000
47.79999733	0.00000000	-41.10482000	-14.58538000
47.99999732	0.00000000	-43.42396000	-16.90453000
48.19999731	0.00000000	-48.83120000	-18.39321000
48.39999730	0.00000000	-56.58833000	-18.43627000
48.59999729	0.00000000	-64.68996000	-17.27362000
48.79999727	0.00000000	-71.67200000	-15.32357000
48.99999726	0.00000000	-75.81815000	-12.62918000
49.19999725	0.00000000	-75.39369000	-9.93479300
49.39999724	0.00000000	-69.99876000	-7.98474400
49.59999723	0.00000000	-61.15280000	-6.86515700
49.79999721	0.00000000	-51.15034000	-7.28346400
49.99999720	0.00000000	-42.68578000	-9.60875900
50.19999719	0.00000000	-38.02903000	-13.04749000
50.39999718	0.00000000	-38.02903000	-16.90453000
50.59999717	0.00000000	-42.64272000	-20.01722000
50.79999715	0.00000000	-50.73204000	-21.92421000
50.99999714	0.00000000	-59.99631000	-22.29331000
51.19999713	0.00000000	-68.46087000	-20.34941000
51.39999712	0.00000000	-73.81274000	-16.94759000
51.59999711	0.00000000	-74.23720000	-13.00443000
51.79999710	0.00000000	-70.04182000	-9.19045200
51.99999708	0.00000000	-62.73376000	-6.12696800
52.19999707	0.00000000	-54.31225000	-5.33341500
52.39999706	0.00000000	-47.33637000	-6.44685000
52.59999705	0.00000000	-43.47318000	-8.82135800
52.79999704	0.00000000	-43.10408000	-12.67224000
52.99999702	0.00000000	-46.96112000	-16.85531000
53.19999701	0.00000000	-53.80167000	-19.92495000
53.39999700	0.00000000	-61.06668000	-21.13066000
53.59999699	0.00000000	-66.51082000	-20.39247000
53.79999698	0.00000000	-68.84227000	-18.47933000
53.99999696	0.00000000	-68.09177000	-15.74188000
54.19999695	0.00000000	-64.22859000	-12.72146000
54.39999694	0.00000000	-58.45841000	-10.40231000
54.59999693	0.00000000	-52.35605000	-9.60875900
54.79999692	0.00000000	-47.71161000	-9.98400600
54.99999691	0.00000000	-46.16756000	-11.51575000
55.19999689	0.00000000	-47.29330000	-13.74262000
55.39999688	0.00000000	-51.19340000	-15.27436000
55.59999687	0.00000000	-56.87746000	-15.69267000
55.79999686	0.00000000	-62.27239000	-15.32357000
55.99999685	0.00000000	-65.71727000	-14.11786000
56.19999683	0.00000000	-66.55389000	-12.25394000
56.39999682	0.00000000	-64.64690000	-10.40231000
56.59999681	0.00000000	-61.19586000	-10.07013000
56.79999680	0.00000000	-56.92052000	-11.51575000
56.99999679	0.00000000	-52.68823000	-13.87795000
57.19999677	0.00000000	-49.61245000	-16.57849000
57.39999676	0.00000000	-48.45595000	-19.59892000
57.59999675	0.00000000	-49.61245000	-21.08760000
57.79999674	0.00000000	-52.64517000	-20.30020000
57.99999673	0.00000000	-56.45300000	-17.59966000
58.19999672	0.00000000	-59.57185000	-12.96137000
58.39999670	0.00000000	-61.52805000	-8.02780400
58.59999669	0.00000000	-62.31545000	-4.12770700
58.79999668	0.00000000	-61.52805000	-2.26377900
58.99999667	0.00000000	-59.66412000	-3.05733300
59.19999666	0.00000000	-57.33883000	-6.90821800
59.39999664	0.00000000	-55.38263000	-12.67224000
59.59999663	0.00000000	-53.85088000	-18.85458000
59.79999662	0.00000000	-53.10654000	-24.24335000
59.99999661	0.00000000	-53.85088000	-27.26993000
60.19999660	0.00000000	-55.29650000	-26.84547000
60.39999658	0.00000000	-56.50221000	-22.66240000
60.59999657	0.00000000	-57.29576000	-16.11712000
60.79999656	0.00000000	-58.03395000	-9.14124000
60.99999655	0.00000000	-58.03395000	-2.59596400
61.19999654	0.00000000	-57.29576000	1.58710600
61.39999653	0.00000000	-56.54527000	1.95620100
61.59999651	0.00000000	-55.75787000	-1.48253000
61.79999650	0.00000000	-55.43184000	-8.02780400
61.99999649	0.00000000	-55.75787000	-15.74188000
62.19999648	0.00000000	-56.54527000	-23.08686000
62.39999647	0.00000000	-57.33883000	-28.42643000
62.59999645	0.00000000	-58.50147000	-29.95817000
62.79999644	0.00000000	-59.57185000	-27.31299000
62.99999643	0.00000000	-59.57185000	-21.54897000
63.19999642	0.00000000	-58.45841000	-14.21014000
63.39999641	0.00000000	-56.92052000	-6.86515700
63.59999639	0.00000000	-55.38263000	-1.10728300
63.79999638	0.00000000	-54.22613000	1.58710600
63.99999637	0.00000000	-53.80167000	0.46751960
64.19999636	0.00000000	-53.80167000	-3.70939900
64.39999635	0.00000000	-54.26919000	-9.51648500
64.59999634	0.00000000	-55.80708000	-15.74188000
64.79999632	0.00000000	-58.03395000	-21.50590000
64.99999631	0.00000000	-59.57185000	-25.35679000
65.19999630	0.00000000	-59.99015000	-26.19955000
65.39999629	0.00000000	-59.61491000	-24.66166000
65.59999628	0.00000000	-58.45841000	-21.17372000
65.79999626	0.00000000	-56.92052000	-16.20325000
65.99999625	0.00000000	-55.38263000	-11.55881000
66.19999624	0.00000000	-54.26919000	-7.98474400
66.39999623	0.00000000	-54.26919000	-5.29035400
66.59999622	0.00000000	-55.38263000	-4.12770700
66.79999620	0.00000000	-56.92052000	-4.82283400
66.99999619	0.00000000	-58.45841000	-6.40378900
67.19999618	0.00000000	-59.57185000	-8.77214500
67.39999617	0.00000000	-59.57185000	-12.21087000
67.59999616	0.00000000	-58.40920000	-15.32357000
67.79999615	0.00000000	-56.50221000	-17.74114000
67.99999613	0.00000000	-54.17691000	-20.06029000
68.19999612	0.00000000	-52.26993000	-21.59203000
68.39999611	0.00000000	-51.15034000	-21.96727000
68.59999610	0.00000000	-51.56865000	-21.17372000
68.79999609	0.00000000	-53.85088000	-18.81152000
68.99999607	0.00000000	-56.96358000	-15.32357000
69.19999606	0.00000000	-60.45767000	-11.04823000
69.39999605	0.00000000	-63.89641000	-6.82209600
69.59999604	0.00000000	-65.76033000	-3.75246000
69.79999603	0.00000000	-65.38509000	-2.54675200
69.99999601	0.00000000	-62.69069000	-3.37721400
70.19999600	0.00000000	-58.40920000	-6.08390700
70.39999599	0.00000000	-53.38336000	-10.72219000
70.59999598	0.00000000	-48.40674000	-15.69882000
70.79999597	0.00000000	-45.38017000	-20.01722000
70.99999596	0.00000000	-45.29404000	-23.08686000
71.19999594	0.00000000	-47.66240000	-24.24335000
71.39999593	0.00000000	-51.90083000	-23.08686000
71.59999592	0.00000000	-57.70792000	-19.97416000
71.79999591	0.00000000	-63.06594000	-15.36663000
71.99999590	0.00000000	-67.01525000	-10.40231000
72.19999588	0.00000000	-68.88533000	-6.91437000
72.39999587	0.00000000	-68.13484000	-5.29035400
72.59999586	0.00000000	-64.64690000	-5.29035400
72.79999585	0.00000000	-59.66412000	-6.86515700
72.99999584	0.00000000	-54.22613000	-9.89173200
73.19999582	0.00000000	-49.56939000	-13.32431000
73.39999581	0.00000000	-46.49975000	-15.64960000
73.59999580	0.00000000	-45.71235000	-16.85531000
73.79999579	0.00000000	-47.61319000	-16.85531000
73.99999578	0.00000000	-51.06422000	-15.74188000
74.19999577	0.00000000	-55.38263000	-14.25320000
74.39999575	0.00000000	-59.99015000	-13.09670000
74.59999574	0.00000000	-63.80413000	-12.72146000
74.79999573	0.00000000	-65.38509000	-13.09670000
74.99999572	0.00000000	-64.64690000	-14.21014000
75.19999571	0.00000000	-62.35851000	-15.32357000
75.39999569	0.00000000	-58.91978000	-15.69267000
75.59999568	0.00000000	-55.85014000	-15.27436000
75.79999567	0.00000000	-53.85088000	-13.74262000
75.99999566	0.00000000	-52.64517000	-11.42347000
76.19999565	0.00000000	-52.26993000	-9.09817800
76.39999563	0.00000000	-52.64517000	-6.82209600
76.59999562	0.00000000	-53.80167000	-5.75172200
76.79999561	0.00000000	-55.29650000	-6.91437000
76.99999560	0.00000000	-56.45300000	-9.98400600
77.19999559	0.00000000	-56.87746000	-14.25320000
77.39999558	0.00000000	-56.92052000	-18.85458000
77.59999556	0.00000000	-56.92052000	-22.71161000
77.79999555	0.00000000	-56.92052000	-24.57554000
77.99999554	0.00000000	-56.96358000	-23.82505000
78.19999553	0.00000000	-57.38804000	-20.34941000
78.39999552	0.00000000	-58.50147000	-15.36663000
78.59999550	0.00000000	-59.57185000	-9.93479300
78.79999549	0.00000000	-59.61491000	-5.33341500
78.99999548	0.00000000	-58.83366000	-2.59596400
79.19999547	0.00000000	-57.61565000	-2.22071800
79.39999546	0.00000000	-55.33957000	-4.12770700
79.59999544	0.00000000	-53.06348000	-8.02780400
79.79999543	0.00000000	-51.89468000	-13.00443000
79.99999542	0.00000000	-51.48252000	-18.01796000
80.19999541	0.00000000	-52.31299000	-21.50590000
80.39999540	0.00000000	-54.22613000	-23.12992000
80.59999539	0.00000000	-56.92052000	-23.12992000
80.79999537	0.00000000	-59.61491000	-21.54897000
80.99999536	0.00000000	-61.52805000	-18.43627000
81.19999535	0.00000000	-62.31545000	-14.21014000
81.39999534	0.00000000	-61.52805000	-9.98400600
81.59999533	0.00000000	-59.61491000	-6.86515700
81.79999531	0.00000000	-56.92052000	-5.24729300
81.99999530	0.00000000	-54.22613000	-4.87204700
82.19999529	0.00000000	-52.31299000	-5.66560000
82.39999528	0.00000000	-51.52559000	-7.98474400
82.59999527	0.00000000	-52.26993000	-11.04823000
82.79999525	0.00000000	-53.80167000	-14.16092000
82.99999524	0.00000000	-55.71481000	-16.94759000
83.19999523	0.00000000	-57.66486000	-19.27288000
83.39999522	0.00000000	-58.83366000	-21.17372000
83.59999521	0.00000000	-59.61491000	-21.54897000
83.79999520	0.00000000	-59.57185000	-20.43553000
83.99999518	0.00000000	-58.50147000	-18.43627000
84.19999517	0.00000000	-57.33883000	-15.32357000
84.39999516	0.00000000	-56.54527000	-11.46653000
84.59999515	0.00000000	-55.75787000	-7.98474400
84.79999514	0.00000000	-55.38263000	-5.29035400
84.99999512	0.00000000	-55.33957000	-4.17691900
85.19999511	0.00000000	-55.33957000	-5.29035400
85.39999510	0.00000000	-55.33957000	-7.98474400
85.59999509	0.00000000	-55.29650000	-11.51575000
85.79999508	0.00000000	-54.92125000	-15.78494000
85.99999506	0.00000000	-54.22613000	-19.97416000
86.19999505	0.00000000	-54.22613000	-22.66855000
86.39999504	0.00000000	-54.96432000	-23.08686000
86.59999503	0.00000000	-55.75787000	-21.50590000
86.79999502	0.00000000	-56.92052000	-18.01796000
86.99999501	0.00000000	-58.08316000	-13.04749000
87.19999499	0.00000000	-58.83366000	-8.44611200
87.39999498	0.00000000	-59.19660000	-5.29035400
87.59999497	0.00000000	-58.40920000	-3.75246000
87.79999496	0.00000000	-56.92052000	-4.21998000
87.99999495	0.00000000	-55.33957000	-7.28346400
88.19999493	0.00000000	-53.85088000	-12.25394000
88.39999492	0.00000000	-53.06348000	-17.23056000
88.59999491	0.00000000	-53.42642000	-21.13066000
88.79999490	0.00000000	-54.17691000	-23.03765000
88.99999489	0.00000000	-55.38263000	-22.61934000
89.19999487	0.00000000	-56.87746000	-19.55585000
89.39999486	0.00000000	-58.08316000	-14.58538000
89.59999485	0.00000000	-58.83366000	-9.56569900
89.79999484	0.00000000	-59.24582000	-5.33341500
89.99999483	0.00000000	-58.83366000	-3.05733300
90.19999482	0.00000000	-58.08316000	-3.79552100
90.39999480	0.00000000	-56.92052000	-6.86515700
90.59999479	0.00000000	-55.75787000	-11.51575000
90.79999478	0.00000000	-55.00738000	-16.85531000
90.99999477	0.00000000	-54.59522000	-21.08760000
91.19999476	0.00000000	-55.00738000	-23.03765000
91.39999474	0.00000000	-55.67175000	-22.61934000
91.59999473	0.00000000	-56.08390000	-19.50664000
91.79999472	0.00000000	-55.71481000	-14.21014000
91.99999471	0.00000000	-55.38263000	-8.82135800
92.19999470	0.00000000	-55.33957000	-4.95816900
92.39999468	0.00000000	-55.33957000	-3.05733300
92.59999467	0.00000000	-55.38263000	-4.21998000
92.79999466	0.00000000	-55.80708000	-8.02780400
92.99999465	0.00000000	-56.92052000	-13.00443000
93.19999464	0.00000000	-58.08316000	-18.01796000
93.39999463	0.00000000	-58.83366000	-21.46284000
93.59999461	0.00000000	-59.24582000	-22.61934000
93.79999460	0.00000000	-58.83366000	-21.08760000
93.99999459	0.00000000	-58.03395000	-17.27362000
94.19999458	0.00000000	-56.45300000	-12.67224000
94.39999457	0.00000000	-54.17691000	-8.44611200
94.59999455	0.00000000	-52.26993000	-5.75172200
94.79999454	0.00000000	-51.10728000	-5.33341500
94.99999453	0.00000000	-51.10728000	-6.86515700
95.19999452	0.00000000	-52.26993000	-9.98400600
95.39999451	0.00000000	-54.22613000	-14.16708000
95.59999449	0.00000000	-56.96358000	-17.97490000
95.79999448	0.00000000	-60.03937000	-19.93110000
95.99999447	0.00000000	-62.69069000	-19.97416000
96.19999446	0.00000000	-63.85334000	-18.43627000
96.39999445	0.00000000	-63.10900000	-15.74188000
96.59999444	0.00000000	-61.15280000	-12.67224000
96.79999442	0.00000000	-57.99089000	-9.93479300
96.99999441	0.00000000	-53.80167000	-8.07086500
97.19999440	0.00000000	-49.98769000	-7.65871000
97.39999439	0.00000000	-48.03149000	-9.18430000
97.59999438	0.00000000	-47.98843000	-11.42347000
97.79999436	0.00000000	-49.52633000	-13.79183000
97.99999435	0.00000000	-52.26993000	-15.69882000
98.19999434	0.00000000	-55.75787000	-16.85531000
98.39999433	0.00000000	-59.61491000	-16.85531000
98.59999432	0.00000000	-62.69069000	-15.78494000
98.79999430	0.00000000	-64.27164000	-14.62844000
98.99999429	0.00000000	-64.27164000	-13.83489000
99.19999428	0.00000000	-62.69069000	-13.04749000
99.39999427	0.00000000	-59.61491000	-12.67224000
99.59999426	0.00000000	-55.75787000	-12.62918000
99.79999425	0.00000000	-52.26993000	-12.58612000
99.99999423	0.00000000	-49.52633000	-12.21087000
100.19999422	0.00000000	-48.03149000	-11.46653000
100.39999421	0.00000000	-48.40674000	-11.09129000
100.59999420	0.00000000	-50.68897000	-11.04823000
100.79999419	0.00000000	-53.75861000	-11.09129000
100.99999417	0.00000000	-56.87746000	-11.55881000
101.19999416	0.00000000	-59.61491000	-13.09055000
101.39999415	0.00000000	-61.52805000	-15.32357000
101.59999414	0.00000000	-62.35851000	-16.89837000
101.79999413	0.00000000	-61.94635000	-17.64887000
101.99999411	0.00000000	-60.82677000	-17.64272000
102.19999410	0.00000000	-58.83366000	-16.07406000
102.39999409	0.00000000	-56.54527000	-13.79183000
102.59999408	0.00000000	-54.17691000	-11.09744000
102.79999407	0.00000000	-52.26993000	-8.77214500
102.99999406	0.00000000	-51.10728000	-7.60949800
103.19999404	0.00000000	-51.10728000	-7.24040300
103.39999403	0.00000000	-52.26993000	-8.44611200
103.59999402	0.00000000	-54.17691000	-11.09744000
103.79999401	0.00000000	-56.50221000	-14.16092000
103.99999400	0.00000000	-58.45841000	-16.90453000
104.19999398	0.00000000	-59.99015000	-18.81152000
104.39999397	0.00000000	-60.73450000	-19.55585000
104.59999396	0.00000000	-59.99015000	-18.39321000
104.79999395	0.00000000	-58.50147000	-15.78494000
104.99999394	0.00000000	-56.92052000	-13.04749000
105.19999392	0.00000000	-55.38263000	-10.72219000
105.39999391	0.00000000	-54.22613000	-8.77214500
105.59999390	0.00000000	-53.80167000	-8.02780400
105.79999389	0.00000000	-53.80167000	-8.40305000
105.99999388	0.00000000	-54.22613000	-9.98400600
106.19999387	0.00000000	-55.38263000	-12.62918000
106.39999385	0.00000000	-56.87746000	-15.27436000
106.59999384	0.00000000	-57.99089000	-16.85531000
106.79999383	0.00000000	-58.03395000	-17.23056000
106.99999382	0.00000000	-57.29576000	-16.48622000
107.19999381	0.00000000	-56.54527000	-14.58538000
107.39999379	0.00000000	-55.71481000	-12.67224000
107.59999378	0.00000000	-54.96432000	-11.09744000
107.79999377	0.00000000	-54.17691000	-9.98400600
107.99999376	0.00000000	-53.85088000	-9.98400600
108.19999375	0.00000000	-54.22613000	-11.09744000
108.39999374	0.00000000	-55.33957000	-12.62918000
108.59999372	0.00000000	-56.50221000	-14.21014000
108.79999371	0.00000000	-57.29576000	-15.69882000
108.99999370	0.00000000	-58.08316000	-16.48007000
109.19999369	0.00000000	-58.40920000	-16.06791000
109.39999368	0.00000000	-58.03395000	-14.94833000
109.59999366	0.00000000	-56.87746000	-13.00443000
109.79999365	0.00000000	-55.38263000	-11.14050000
109.99999364	0.00000000	-54.22613000	-9.93479300
110.19999363	0.00000000	-53.80167000	-9.56569900
110.39999362	0.00000000	-53.80167000	-9.93479300
110.59999360	0.00000000	-54.22613000	-11.09744000
110.79999359	0.00000000	-55.33957000	-12.62918000
110.99999358	0.00000000	-56.50221000	-14.21014000
111.19999357	0.00000000	-57.25270000	-15.69882000
111.39999356	0.00000000	-57.66486000	-16.48007000
111.59999355	0.00000000	-57.29576000	-16.11712000
111.79999353	0.00000000	-56.92052000	-15.40969000
111.99999352	0.00000000	-56.50221000	-14.58538000
112.19999351	0.00000000	-55.75787000	-13.79183000
112.39999350	0.00000000	-55.38263000	-12.62918000
112.59999349	0.00000000	-55.33957000	-11.51575000
112.79999347	0.00000000	-55.33957000	-11.14050000
112.99999346	0.00000000	-55.33957000	-11.46653000
113.19999345	0.00000000	-55.33957000	-12.21087000
113.39999344	0.00000000	-55.33957000	-12.58612000
113.59999343	0.00000000	-55.33957000	-12.67224000
113.79999341	0.00000000	-55.33957000	-13.04749000
113.99999340	0.00000000	-55.38263000	-13.79183000
114.19999339	0.00000000	-55.75787000	-14.16708000
114.39999338	0.00000000	-56.50221000	-14.25320000
114.59999337	0.00000000	-56.87746000	-14.58538000
114.79999336	0.00000000	-56.92052000	-14.94833000
114.99999334	0.00000000	-56.87746000	-14.58538000
115.19999333	0.00000000	-56.50221000	-14.25320000
115.39999332	0.00000000	-55.75787000	-14.16708000
115.59999331	0.00000000	-55.38263000	-13.79183000
115.79999330	0.00000000	-55.33957000	-13.00443000
115.99999328	0.00000000	-55.33957000	-12.25394000
116.19999327	0.00000000	-55.38263000	-11.46653000
116.39999326	0.00000000	-55.75787000	-11.09129000
116.59999325	0.00000000	-56.50221000	-11.04823000
116.79999324	0.00000000	-56.82825000	-11.09129000
116.99999322	0.00000000	-56.50221000	-11.46653000
117.19999321	0.00000000	-55.75787000	-12.25394000
117.39999320	0.00000000	-55.33957000	-13.00443000
117.59999319	0.00000000	-54.92125000	-13.83489000
117.79999318	0.00000000	-54.17691000	-14.53617000
117.99999317	0.00000000	-53.80167000	-14.94833000
118.19999315	0.00000000	-53.75861000	-14.58538000
118.39999314	0.00000000	-53.80167000	-14.21014000
118.59999313	0.00000000	-54.22613000	-13.74262000
118.79999312	0.00000000	-55.33957000	-12.62918000
118.99999311	0.00000000	-56.50221000	-11.51575000
119.19999309	0.00000000	-57.29576000	-11.09129000
119.39999308	0.00000000	-58.08316000	-11.04823000
119.59999307	0.00000000	-58.40920000	-11.09129000
119.79999306	0.00000000	-58.03395000	-11.46653000
119.99999305	0.00000000	-56.92052000	-12.21087000
120.19999303	0.00000000	-55.71481000	-12.62918000
120.39999302	0.00000000	-54.54601000	-13.04749000
120.59999301	0.00000000	-53.06348000	-13.79183000
120.79999300	0.00000000	-52.68823000	-14.16708000
120.99999299	0.00000000	-53.38336000	-14.21014000
121.19999298	0.00000000	-54.17691000	-14.21014000
121.39999296	0.00000000	-55.38263000	-14.21014000
121.59999295	0.00000000	-56.87746000	-14.16708000
121.79999294	0.00000000	-58.03395000	-13.79183000
121.99999293	0.00000000	-58.45841000	-13.04749000
122.19999292	0.00000000	-58.50147000	-12.67224000
122.39999290	0.00000000	-58.45841000	-12.58612000
122.59999289	0.00000000	-58.03395000	-12.21087000
122.79999288	0.00000000	-56.87746000	-11.46653000
122.99999287	0.00000000	-55.38263000	-11.09129000
123.19999286	0.00000000	-54.22613000	-11.09129000
123.39999284	0.00000000	-53.80167000	-11.46653000
123.59999283	0.00000000	-53.75861000	-12.25394000
123.79999282	0.00000000	-53.75861000	-13.00443000
123.99999281	0.00000000	-53.80167000	-13.79183000
124.19999280	0.00000000	-54.22613000	-14.16708000
124.39999279	0.00000000	-55.33957000	-14.21014000
124.59999277	0.00000000	-56.45300000	-14.16708000
124.79999276	0.00000000	-56.92052000	-13.79183000
124.99999275	0.00000000	-57.33883000	-13.04749000
125.19999274	0.00000000	-58.03395000	-12.67224000
125.39999273	0.00000000	-58.03395000	-12.58612000
125.59999271	0.00000000	-57.29576000	-12.21087000
125.79999270	0.00000000	-56.50221000	-11.46653000
125.99999269	0.00000000	-55.33957000	-11.09129000
126.19999268	0.00000000	-54.22613000	-11.04823000
126.39999267	0.00000000	-53.80167000	-11.09129000
126.59999265	0.00000000	-53.75861000	-11.46653000
126.79999264	0.00000000	-53.80167000	-12.25394000
126.99999263	0.00000000	-54.17691000	-13.00443000
127.19999262	0.00000000	-54.96432000	-13.79183000
127.39999261	0.00000000	-55.75787000	-14.16708000
127.59999260	0.00000000	-56.92052000	-14.21014000
127.79999258	0.00000000	-58.03395000	-14.16708000
127.99999257	0.00000000	-58.40920000	-13.79183000
128.19999256	0.00000000	-58.03395000	-13.04749000
128.39999255	0.00000000	-56.92052000	-12.67224000
128.59999254	0.00000000	-55.75787000	-12.62918000
128.79999252	0.00000000	-54.96432000	-12.62918000
128.99999251	0.00000000	-54.17691000	-12.62918000
129.19999250	0.00000000	-53.80167000	-12.67224000
129.39999249	0.00000000	-53.80167000	-13.04749000
129.59999248	0.00000000	-54.22613000	-13.79183000
129.79999246	0.00000000	-55.33957000	-14.16708000
129.99999245	0.00000000	-56.45300000	-14.21014000
130.19999244	0.00000000	-56.92052000	-14.21014000
130.39999243	0.00000000	-57.29576000	-14.16708000
130.59999242	0.00000000	-57.61565000	-13.79183000
130.79999241	0.00000000	-56.87746000	-13.04749000
130.99999239	0.00000000	-55.80708000	-12.67224000
131.19999238	0.00000000	-55.33957000	-12.62918000
131.39999237	0.00000000	-54.92125000	-12.62918000
131.59999236	0.00000000	-54.22613000	-12.67224000
131.79999235	0.00000000	-54.22613000	-13.04749000
131.99999233	0.00000000	-54.92125000	-13.79183000
132.19999232	0.00000000	-55.33957000	-14.16708000
132.39999231	0.00000000	-55.75787000	-14.21014000
132.59999230	0.00000000	-56.50221000	-14.21014000
132.79999229	0.00000000	-56.87746000	-14.16708000
132.99999227	0.00000000	-56.92052000	-13.79183000
133.19999226	0.00000000	-56.87746000	-13.00443000
133.39999225	0.00000000	-56.50221000	-12.25394000
133.59999224	0.00000000	-55.75787000	-11.46653000
133.79999223	0.00000000	-55.43184000	-11.14050000
133.99999222	0.00000000	-55.71481000	-11.46653000
134.19999220	0.00000000	-56.08390000	-12.21087000
134.39999219	0.00000000	-55.71481000	-12.62918000
134.59999218	0.00000000	-55.38263000	-13.04749000
134.79999217	0.00000000	-55.33957000	-13.79183000
134.99999216	0.00000000	-55.33957000	-14.16708000
135.19999214	0.00000000	-55.29650000	-14.21014000
135.39999213	0.00000000	-54.96432000	-14.16708000
135.59999212	0.00000000	-54.59522000	-13.79183000
135.79999211	0.00000000	-54.96432000	-13.00443000
135.99999210	0.00000000	-55.29650000	-12.25394000
136.19999208	0.00000000	-55.38263000	-11.46653000
136.39999207	0.00000000	-55.75787000	-11.09129000
136.59999206	0.00000000	-56.50221000	-11.04823000
136.79999205	0.00000000	-56.82825000	-11.09129000
136.99999204	0.00000000	-56.50221000	-11.46653000
137.19999203	0.00000000	-55.71481000	-12.25394000
137.39999201	0.00000000	-54.96432000	-13.00443000
137.59999200	0.00000000	-54.17691000	-13.79183000
137.79999199	0.00000000	-53.80167000	-14.16708000
137.99999198	0.00000000	-53.80167000	-14.21014000
138.19999197	0.00000000	-54.17691000	-14.21014000
138.39999195	0.00000000	-54.92125000	-14.16708000
138.59999194	0.00000000	-55.33957000	-13.79183000
138.79999193	0.00000000	-55.75787000	-13.04749000
138.99999192	0.00000000	-56.50221000	-12.62918000
139.19999191	0.00000000	-56.87746000	-12.21087000
139.39999189	0.00000000	-56.87746000	-11.46653000
139.59999188	0.00000000	-56.50221000	-11.09129000
139.79999187	0.00000000	-55.71481000	-11.09129000
139.99999186	0.00000000	-54.96432000	-11.46653000
140.19999185	0.00000000	-54.17691000	-12.25394000
140.39999184	0.00000000	-53.80167000	-13.00443000
140.59999182	0.00000000	-53.80167000	-13.79183000
140.79999181	0.00000000	-54.17691000	-14.16708000
140.99999180	0.00000000	-54.92125000	-14.21014000
141.19999179	0.00000000	-55.33957000	-14.21014000
141.39999178	0.00000000	-55.71481000	-14.16708000
141.59999176	0.00000000	-56.08390000	-13.79183000
141.79999175	0.00000000	-55.71481000	-13.00443000
141.99999174	0.00000000	-55.38263000	-12.25394000
142.19999173	0.00000000	-55.33957000	-11.46653000
142.39999172	0.00000000	-55.33957000	-11.09129000
142.59999170	0.00000000	-55.33957000	-11.09129000
142.79999169	0.00000000	-55.33957000	-11.46653000
142.99999168	0.00000000	-55.33957000	-12.25394000
143.19999167	0.00000000	-55.33957000	-13.00443000
143.39999166	0.00000000	-55.38263000	-13.79183000
143.59999165	0.00000000	-55.71481000	-14.16708000
143.79999163	0.00000000	-56.08390000	-14.21014000
143.99999162	0.00000000	-55.71481000	-14.16708000
144.19999161	0.00000000	-55.38263000	-13.79183000
144.39999160	0.00000000	-55.33957000	-13.04749000
144.59999159	0.00000000	-55.33957000	-12.62918000
144.79999157	0.00000000	-55.29650000	-12.21087000
144.99999156	0.00000000	-54.96432000	-11.46653000
145.19999155	0.00000000	-54.59522000	-11.14050000
145.39999154	0.00000000	-54.96432000	-11.46653000
145.59999153	0.00000000	-55.29650000	-12.21087000
145.79999151	0.00000000	-55.33957000	-12.62918000
145.99999150	0.00000000	-55.33957000	-13.04749000
146.19999149	0.00000000	-55.33957000	-13.79183000
146.39999148	0.00000000	-55.33957000	-14.16708000
146.59999147	0.00000000	-55.33957000	-14.21014000
146.79999146	0.00000000	-55.29650000	-14.16708000
146.99999144	0.00000000	-54.92125000	-13.79183000
147.19999143	0.00000000	-54.22613000	-13.04749000
147.39999142	0.00000000	-54.17691000	-12.62918000
147.59999141	0.00000000	-54.54601000	-12.21087000
147.79999140	0.00000000	-54.55216000	-11.46653000
147.99999138	0.00000000	-54.96432000	-11.14050000
148.19999137	0.00000000	-55.29650000	-11.46653000
148.39999136	0.00000000	-55.33957000	-12.21087000
148.59999135	0.00000000	-55.33957000	-12.62918000
148.79999134	0.00000000	-55.33957000	-13.04749000
148.99999132	0.00000000	-55.33957000	-13.74262000
149.19999131	0.00000000	-55.33957000	-13.79183000
149.39999130	0.00000000	-55.33957000	-13.42274000
149.59999129	0.00000000	-55.33957000	-13.41658000
149.79999128	0.00000000	-55.29650000	-13.00443000
149.99999127	0.00000000	-54.96432000	-12.67224000
150.19999125	0.00000000	-54.59522000	-12.62918000
150.39999124	0.00000000	-54.96432000	-12.58612000
150.59999123	0.00000000	-55.29650000	-12.25394000
150.79999122	0.00000000	-55.33957000	-11.88484000
150.99999121	0.00000000	-55.33957000	-12.25394000
151.19999119	0.00000000	-55.33957000	-12.58612000
151.39999118	0.00000000	-55.33957000	-12.62918000
151.59999117	0.00000000	-55.33957000	-12.62918000
151.79999116	0.00000000	-55.33957000	-12.62918000
151.99999115	0.00000000	-55.33957000	-12.62918000
152.19999113	0.00000000	-55.33957000	-12.62918000
152.39999112	0.00000000	-55.29650000	-12.62918000
152.59999111	0.00000000	-54.92125000	-12.62918000
152.79999110	0.00000000	-54.17691000	-12.62918000
152.99999109	0.00000000	-53.80167000	-12.62918000
153.19999108	0.00000000	-53.80167000	-12.62918000
153.39999106	0.00000000	-54.17691000	-12.62918000
153.59999105	0.00000000	-54.92125000	-12.62918000
153.79999104	0.00000000	-55.29650000	-12.62918000
153.99999103	0.00000000	-55.38263000	-12.62918000
154.19999102	0.00000000	-55.75787000	-12.62918000
154.39999100	0.00000000	-56.45300000	-12.62918000
154.59999099	0.00000000	-56.45300000	-12.62918000
154.79999098	0.00000000	-55.75787000	-12.62918000
154.99999097	0.00000000	-55.38263000	-12.67224000
155.19999096	0.00000000	-55.29650000	-13.04749000
155.39999094	0.00000000	-54.92125000	-13.74262000
155.59999093	0.00000000	-54.17691000	-13.79183000
155.79999092	0.00000000	-53.80167000	-13.42274000
155.99999091	0.00000000	-53.80167000	-13.41658000
156.19999090	0.00000000	-54.17691000	-13.00443000
156.39999089	0.00000000	-54.92125000	-12.67224000
156.59999087	0.00000000	-55.29650000	-12.62918000
156.79999086	0.00000000	-55.38263000	-12.62918000
156.99999085	0.00000000	-55.75787000	-12.62918000
157.19999084	0.00000000	-56.50221000	-12.62918000
157.39999083	0.00000000	-56.82825000	-12.62918000
157.59999081	0.00000000	-56.50221000	-12.62918000
157.79999080	0.00000000	-55.75787000	-12.62918000
157.99999079	0.00000000	-55.38263000	-12.67224000
158.19999078	0.00000000	-55.29650000	-13.04749000
158.39999077	0.00000000	-54.92125000	-13.79183000
158.59999075	0.00000000	-54.17691000	-14.11786000
158.79999074	0.00000000	-53.80167000	-13.79183000
158.99999073	0.00000000	-53.80167000	-13.04749000
159.19999072	0.00000000	-54.13385000	-12.67224000
159.39999071	0.00000000	-54.54601000	-12.62918000
159.59999070	0.00000000	-54.55216000	-12.58612000
159.79999068	0.00000000	-54.96432000	-12.21087000
159.99999067	0.00000000	-55.29650000	-11.51575000
160.19999066	0.00000000	-55.33957000	-11.51575000
160.39999065	0.00000000	-55.33957000	-12.21087000
160.59999064	0.00000000	-55.33957000	-12.62918000
160.79999062	0.00000000	-55.33957000	-13.00443000
160.99999061	0.00000000	-55.33957000	-13.41658000
161.19999060	0.00000000	-55.33957000	-13.42274000
161.39999059	0.00000000	-55.33957000	-13.79183000
161.59999058	0.00000000	-55.33957000	-13.74262000
161.79999056	0.00000000	-55.33957000	-13.04749000
161.99999055	0.00000000	-55.29650000	-12.67224000
162.19999054	0.00000000	-54.96432000	-12.62918000
162.39999053	0.00000000	-54.59522000	-12.62918000
162.59999052	0.00000000	-54.96432000	-12.62918000
162.79999051	0.00000000	-55.29650000	-12.62918000
162.99999049	0.00000000	-55.33957000	-12.62918000
163.19999048	0.00000000	-55.33957000	-12.62918000
163.39999047	0.00000000	-55.38263000	-12.62918000
163.59999046	0.00000000	-55.71481000	-12.62918000
163.79999045	0.00000000	-56.08390000	-12.62918000
163.99999043	0.00000000	-55.71481000	-12.62918000
164.19999042	0.00000000	-55.38263000	-12.62918000
164.39999041	0.00000000	-55.33957000	-12.62918000
164.59999040	0.00000000	-55.29650000	-12.62918000
164.79999039	0.00000000	-54.92125000	-12.62918000
164.99999037	0.00000000	-54.17691000	-12.62918000
165.19999036	0.00000000	-53.80167000	-12.62918000
165.39999035	0.00000000	-53.75861000	-12.62918000
165.59999034	0.00000000	-53.80167000	-12.62918000
165.79999033	0.00000000	-54.17691000	-12.62918000
165.99999032	0.00000000	-54.92125000	-12.58612000
166.19999030	0.00000000	-55.29650000	-12.25394000
166.39999029	0.00000000	-55.33957000	-11.88484000
166.59999028	0.00000000	-55.33957000	-12.25394000
166.79999027	0.00000000	-55.33957000	-12.58612000
166.99999026	0.00000000	-55.33957000	-12.67224000
167.19999024	0.00000000	-55.33957000	-13.00443000
167.39999023	0.00000000	-55.33957000	-13.37352000
167.59999022	0.00000000	-55.33957000	-13.00443000
167.79999021	0.00000000	-55.33957000	-12.67224000
167.99999020	0.00000000	-55.29650000	-12.62918000
168.19999018	0.00000000	-54.96432000	-12.62918000
168.39999017	0.00000000	-54.59522000	-12.62918000
168.59999016	0.00000000	-54.96432000	-12.62918000
168.79999015	0.00000000	-55.29650000	-12.67224000
168.99999014	0.00000000	-55.33957000	-13.00443000
169.19999013	0.00000000	-55.33957000	-13.41658000
169.39999011	0.00000000	-55.33957000	-13.37967000
169.59999010	0.00000000	-55.33957000	-13.41658000
169.79999009	0.00000000	-55.33957000	-13.00443000
169.99999008	0.00000000	-55.33957000	-12.67224000
170.19999007	0.00000000	-55.33957000	-12.62918000
170.39999005	0.00000000	-55.33957000	-12.62918000
170.59999004	0.00000000	-55.29650000	-12.62918000
170.79999003	0.00000000	-54.92125000	-12.62918000
170.99999002	0.00000000	-54.17691000	-12.62918000
171.19999001	0.00000000	-53.85088000	-12.62918000
171.39998999	0.00000000	-54.13385000	-12.62918000
171.59998998	0.00000000	-54.50295000	-12.62918000
171.79998997	0.00000000	-54.13385000	-12.62918000
171.99998996	0.00000000	-53.85088000	-12.62918000
172.19998995	0.00000000	-54.17691000	-12.62918000
172.39998994	0.00000000	-54.92125000	-12.62918000
172.59998992	0.00000000	-55.29650000	-12.62918000
172.79998991	0.00000000	-55.33957000	-12.62918000
172.99998990	0.00000000	-55.33957000	-12.62918000
173.19998989	0.00000000	-55.29650000	-12.62918000
173.39998988	0.00000000	-54.92125000	-12.62918000
173.59998986	0.00000000	-54.17691000	-12.62918000
173.79998985	0.00000000	-53.80167000	-12.62918000
173.99998984	0.00000000	-53.75861000	-12.62918000
174.19998983	0.00000000	-53.80167000	-12.62918000
174.39998982	0.00000000	-54.17691000	-12.62918000
174.59998980	0.00000000	-54.87204000	-12.62918000
174.79998979	0.00000000	-54.92125000	-12.62918000
174.99998978	0.00000000	-54.59522000	-12.62918000
175.19998977	0.00000000	-54.96432000	-12.62918000
175.39998976	0.00000000	-55.29650000	-12.62918000
175.59998975	0.00000000	-55.33957000	-12.62918000
175.79998973	0.00000000	-55.33957000	-12.62918000
175.99998972	0.00000000	-55.33957000	-12.62918000
176.19998971	0.00000000	-55.33957000	-12.62918000
176.39998970	0.00000000	-55.33957000	-12.62918000
176.59998969	0.00000000	-55.33957000	-12.62918000
176.79998967	0.00000000	-55.33957000	-12.62918000
176.99998966	0.00000000	-55.33957000	-12.62918000
177.19998965	0.00000000	-55.33957000	-12.62918000
177.39998964	0.00000000	-55.33957000	-12.62918000
177.59998963	0.00000000	-55.33957000	-12.62918000
177.79998961	0.00000000	-55.33957000	-12.62918000
177.99998960	0.00000000	-55.33957000	-12.62918000
178.19998959	0.00000000	-55.33957000	-12.62918000
178.39998958	0.00000000	-55.33957000	-12.62918000
178.59998957	0.00000000	-55.33957000	-12.62918000
178.79998956	0.00000000	-55.33957000	-12.62918000
178.99998954	0.00000000	-55.33957000	-12.62918000
179.19998953	0.00000000	-55.33957000	-12.62918000
179.39998952	0.00000000	-55.33957000	-12.62918000
179.59998951	0.00000000	-55.29650000	-12.67224000
179.79998950	0.00000000	-54.92125000	-13.00443000
179.99998948	0.00000000	-54.22613000	-13.41658000
180.19998947	0.00000000	-54.22613000	-13.37967000
180.39998946	0.00000000	-54.92125000	-13.41658000
180.59998945	0.00000000	-55.24729000	-13.00443000
180.79998944	0.00000000	-54.96432000	-12.67224000
180.99998942	0.00000000	-54.59522000	-12.62918000
181.19998941	0.00000000	-54.96432000	-12.62918000
181.39998940	0.00000000	-55.29650000	-12.62918000
181.59998939	0.00000000	-55.33957000	-12.62918000
181.79998938	0.00000000	-55.29650000	-12.62918000
181.99998937	0.00000000	-54.96432000	-12.58612000
182.19998935	0.00000000	-54.55216000	-12.25394000
182.39998934	0.00000000	-54.58907000	-11.88484000
182.59998933	0.00000000	-54.50910000	-12.25394000
182.79998932	0.00000000	-54.54601000	-12.58612000
182.99998931	0.00000000	-54.13385000	-12.62918000
183.19998929	0.00000000	-53.85088000	-12.62918000
183.39998928	0.00000000	-54.17691000	-12.62918000
183.59998927	0.00000000	-54.92125000	-12.62918000
183.79998926	0.00000000	-55.24729000	-12.62918000
183.99998925	0.00000000	-54.92125000	-12.58612000
184.19998923	0.00000000	-54.22613000	-12.25394000
184.39998922	0.00000000	-54.22613000	-11.84178000
184.59998921	0.00000000	-54.87204000	-11.83563000
184.79998920	0.00000000	-54.92125000	-11.42347000
184.99998919	0.00000000	-54.55216000	-11.14050000
185.19998918	0.00000000	-54.54601000	-11.46653000
185.39998916	0.00000000	-54.13385000	-12.21087000
185.59998915	0.00000000	-53.80167000	-12.58612000
185.79998914	0.00000000	-53.75861000	-12.62918000
185.99998913	0.00000000	-53.75861000	-12.62918000
186.19998912	0.00000000	-53.75861000	-12.62918000
186.39998910	0.00000000	-53.80167000	-12.62918000
186.59998909	0.00000000	-54.17691000	-12.62918000
186.79998908	0.00000000	-54.92125000	-12.62918000
186.99998907	0.00000000	-55.29650000	-12.62918000
187.19998906	0.00000000	-55.33957000	-12.58612000
187.39998904	0.00000000	-55.33957000	-12.21087000
187.59998903	0.00000000	-55.33957000	-11.51575000
187.79998902	0.00000000	-55.33957000	-11.51575000
187.99998901	0.00000000	-55.33957000	-12.21087000
188.19998900	0.00000000	-55.29650000	-12.58612000
188.39998899	0.00000000	-54.92125000	-12.62918000
188.59998897	0.00000000	-54.17691000	-12.62918000
188.79998896	0.00000000	-53.80167000	-12.67224000
188.99998895	0.00000000	-53.75861000	-13.04749000
189.19998894	0.00000000	-53.75861000	-13.74262000
189.39998893	0.00000000	-53.80167000	-13.79183000
189.59998891	0.00000000	-54.17691000	-13.42274000
189.79998890	0.00000000	-54.92125000	-13.41658000
189.99998889	0.00000000	-55.29650000	-13.00443000
190.19998888	0.00000000	-55.33957000	-12.67224000
190.39998887	0.00000000	-55.33957000	-12.62918000
190.59998885	0.00000000	-55.33957000	-12.62918000
190.79998884	0.00000000	-55.33957000	-12.62918000
190.99998883	0.00000000	-55.29650000	-12.62918000
191.19998882	0.00000000	-54.92125000	-12.62918000
191.39998881	0.00000000	-54.17691000	-12.62918000
191.59998880	0.00000000	-53.80167000	-12.62918000
191.79998878	0.00000000	-53.75861000	-12.62918000
191.99998877	0.00000000	-53.75861000	-12.62918000
192.19998876	0.00000000	-53.75861000	-12.62918000
192.39998875	0.00000000	-53.80167000	-12.62918000
192.59998874	0.00000000	-54.17691000	-12.62918000
192.79998872	0.00000000	-54.92125000	-12.62918000
192.99998871	0.00000000	-55.29650000	-12.62918000
193.19998870	0.00000000	-55.33957000	-12.62918000
193.39998869	0.00000000	-55.33957000	-12.62918000
193.59998868	0.00000000	-55.33957000	-12.62918000
193.79998866	0.00000000	-55.29650000	-12.62918000
193.99998865	0.00000000	-54.96432000	-12.62918000
194.19998864	0.00000000	-54.55216000	-12.62918000
194.39998863	0.00000000	-54.54601000	-12.62918000
194.59998862	0.00000000	-54.13385000	-12.58612000
194.79998861	0.00000000	-53.80167000	-12.25394000
194.99998859	0.00000000	-53.80167000	-11.88484000
195.19998858	0.00000000	-54.13385000	-12.25394000
195.39998857	0.00000000	-54.54601000	-12.58612000
195.59998856	0.00000000	-54.50910000	-12.62918000
195.79998855	0.00000000	-54.58907000	-12.62918000
195.99998853	0.00000000	-54.55216000	-12.67224000
