Time	Channel A	Channel B	Channel C
(us)	(V)	(mV)	(mV)

-4.49999956	0.00000000	-53.75861000	-12.58612000
-4.29999957	0.00000000	-53.75861000	-12.62918000
-4.09999958	0.00000000	-53.75861000	-12.62918000
-3.89999959	0.00000000	-53.75861000	-12.62918000
-3.69999960	0.00000000	-53.75861000	-12.58612000
-3.49999962	0.00000000	-53.75861000	-12.25394000
-3.29999963	0.00000000	-53.75861000	-11.88484000
-3.09999964	0.00000000	-53.75861000	-12.25394000
-2.89999965	0.00000000	-53.75861000	-12.58612000
-2.69999966	0.00000000	-53.71555000	-12.58612000
-2.49999968	0.00000000	-53.38336000	-12.25394000
-2.29999969	0.00000000	-53.01427000	-11.88484000
-2.09999970	0.00000000	-53.38336000	-12.25394000
-1.89999971	0.00000000	-53.71555000	-12.58612000
-1.69999972	0.00000000	-53.75861000	-12.62918000
-1.49999973	0.00000000	-53.75861000	-12.62918000
-1.29999975	0.00000000	-53.75861000	-12.62918000
-1.09999976	0.00000000	-53.75861000	-12.62918000
-0.89999977	0.00000000	-53.75861000	-12.62918000
-0.69999978	0.00000000	-53.75861000	-12.62918000
-0.49999979	0.00000000	-53.75861000	-12.62918000
-0.29999981	0.31803640	-53.75861000	-12.62918000
-0.09999982	0.63668800	-53.75861000	-12.62918000
0.10000017	0.95533960	-53.75861000	-12.62918000
0.30000016	1.11466500	-53.75861000	-12.62918000
0.50000015	0.79601380	-53.75861000	-12.62918000
0.70000013	0.31803640	-53.75861000	-12.62918000
0.90000012	-0.47736220	-53.75861000	-12.62918000
1.10000011	-1.59264300	-53.75861000	-12.58612000
1.30000010	-2.38927200	-53.75861000	-12.25394000
1.50000009	-2.70792300	-53.75861000	-11.88484000
1.70000008	-2.38927200	-53.75861000	-12.21087000
1.90000006	-1.27399100	-53.75861000	-12.21087000
2.10000005	0.63668800	-53.75861000	-11.88484000
2.30000004	2.70792300	-53.75861000	-12.25394000
2.50000003	4.45989200	-53.75861000	-12.58612000
2.70000002	5.41584600	-53.75861000	-12.62918000
2.90000000	4.77854300	-53.75861000	-12.62918000
3.09999999	2.86724900	-53.75861000	-12.62918000
3.29999998	-0.15871060	-53.75861000	-12.62918000
3.49999997	-3.66326300	-53.75861000	-12.62918000
3.69999996	-6.53112700	-53.75861000	-12.58612000
3.89999994	-7.96444400	-53.75861000	-12.21087000
4.09999993	-7.48646600	-53.75861000	-11.46653000
4.29999992	-4.93786900	-53.75861000	-11.09129000
4.49999991	-0.95533960	-53.75861000	-11.04823000
4.69999990	3.50393700	-53.75861000	-11.04823000
4.89999989	7.32714100	-53.75861000	-11.09129000
5.09999987	9.23905000	-53.75861000	-11.46653000
5.29999986	9.07972400	-53.75861000	-12.21087000
5.49999985	6.53112700	-53.75861000	-12.58612000
5.69999984	2.22994600	-53.75861000	-12.62918000
5.89999983	-2.54859700	-53.75861000	-12.62918000
6.09999981	-6.69045300	-53.75861000	-12.62918000
6.29999980	-9.07972400	-53.75861000	-12.58612000
6.49999979	-9.23905000	-53.75861000	-12.21087000
6.69999978	-7.00848900	-53.75861000	-11.46653000
6.89999977	-3.18590100	-53.75861000	-11.09129000
7.09999975	1.11466500	-53.75861000	-11.04823000
7.29999974	4.93786900	-53.75861000	-11.09129000
7.49999973	7.32714100	-53.75861000	-11.46653000
7.69999972	7.64579200	-53.75861000	-12.21087000
7.89999971	6.21247500	-53.75861000	-12.58612000
8.09999970	3.34522600	-53.75861000	-12.62918000
8.29999968	0.00000000	-53.75861000	-12.62918000
8.49999967	-2.86724900	-53.75861000	-12.62918000
8.69999966	-4.77854300	-53.75861000	-12.62918000
8.89999965	-5.09719500	-53.75861000	-12.62918000
9.09999964	-4.30056600	-53.75861000	-12.58612000
9.29999962	-2.70792300	-53.75861000	-12.25394000
9.49999961	-0.63668800	-53.75861000	-11.84178000
9.69999960	1.11466500	-53.75861000	-11.87869000
9.89999959	2.22994600	-53.75861000	-11.84178000
10.09999958	2.54859700	-53.75861000	-12.25394000
10.29999956	2.22994600	-53.75861000	-12.58612000
10.49999955	1.43331700	-53.71555000	-12.58612000
10.69999954	0.47736220	-53.38336000	-12.25394000
10.89999953	-0.15871060	-53.01427000	-11.88484000
11.09999952	-0.79601380	-53.38336000	-12.21087000
11.29999951	-0.95533960	-53.71555000	-12.21087000
11.49999949	-0.95533960	-53.75861000	-11.88484000
11.69999948	-0.63668800	-53.75861000	-12.25394000
11.89999947	-0.31803640	-53.75861000	-12.58612000
12.09999946	-0.15871060	-53.75861000	-12.58612000
12.29999945	-0.15871060	-53.75861000	-12.21087000
12.49999943	0.00000000	-53.75861000	-11.51575000
12.69999942	0.00000000	-53.75861000	-11.51575000
12.89999941	0.00000000	-53.75861000	-12.21087000
13.09999940	0.00000000	-53.75861000	-12.58612000
13.29999939	0.00000000	-53.75861000	-12.62918000
13.49999937	0.00000000	-53.75861000	-12.62918000
13.69999936	0.00000000	-53.75861000	-12.58612000
13.89999935	0.00000000	-53.75861000	-12.25394000
14.09999934	-0.15871060	-53.75861000	-11.88484000
14.29999933	-0.15871060	-53.75861000	-12.25394000
14.49999932	0.00000000	-53.75861000	-12.58612000
14.69999930	0.00000000	-53.75861000	-12.62918000
14.89999929	0.00000000	-53.75861000	-12.58612000
15.09999928	0.00000000	-53.75861000	-12.21087000
15.29999927	0.00000000	-53.75861000	-11.46653000
15.49999926	0.00000000	-53.75861000	-11.14050000
15.69999924	0.00000000	-53.75861000	-11.42347000
15.89999923	0.00000000	-53.75861000	-11.79257000
16.09999922	0.00000000	-53.75861000	-11.46653000
16.29999921	0.00000000	-53.71555000	-11.46653000
16.49999920	0.00000000	-53.34030000	-11.83563000
16.69999919	-0.15871060	-52.59596000	-11.84178000
16.89999917	0.00000000	-52.22071000	-12.25394000
17.09999916	0.00000000	-52.17765000	-12.58612000
17.29999915	0.00000000	-52.13459000	-12.62918000
17.49999914	0.00000000	-51.80241000	-12.58612000
17.69999913	0.00000000	-51.43332000	-12.21087000
17.89999911	0.00000000	-51.84547000	-11.51575000
18.09999910	0.00000000	-52.59596000	-11.51575000
18.29999909	0.00000000	-53.85088000	-12.16166000
18.49999908	0.00000000	-55.71481000	-12.21087000
18.69999907	0.00000000	-57.61565000	-11.84178000
18.89999905	0.00000000	-58.36614000	-11.87869000
19.09999904	0.00000000	-58.03395000	-11.84178000
19.29999903	0.00000000	-56.78519000	-12.25394000
19.49999902	0.00000000	-54.41068000	-12.58612000
19.69999901	0.00000000	-50.55364000	-12.62918000
19.89999900	0.00000000	-46.36442000	-12.58612000
20.09999898	0.00000000	-43.24557000	-12.25394000
20.29999897	0.00000000	-41.75689000	-11.84178000
20.49999896	0.00000000	-42.59350000	-11.83563000
20.69999895	0.00000000	-46.49975000	-11.42347000
20.89999894	0.00000000	-52.68823000	-11.14050000
21.09999892	0.00000000	-60.08243000	-11.46653000
21.29999891	0.00000000	-67.39050000	-12.21087000
21.49999890	0.00000000	-72.74237000	-12.58612000
21.69999889	0.00000000	-74.18799000	-12.62918000
21.89999888	0.00000000	-70.65083000	-12.62918000
22.09999886	0.00000000	-62.09399000	-12.62918000
22.29999885	0.00000000	-50.12918000	-12.62918000
22.49999884	0.00000000	-37.38312000	-12.62918000
22.69999883	0.00000000	-27.00541000	-12.58612000
22.89999882	0.00000000	-21.65354000	-12.21087000
23.09999881	0.00000000	-23.27756000	-11.46653000
23.29999879	0.00000000	-32.21579000	-11.04823000
23.49999878	0.00000000	-46.96112000	-10.62992000
23.69999877	0.00000000	-64.73917000	-9.89173200
23.89999876	0.00000000	-81.67445000	-9.56569900
24.09999875	0.00000000	-93.16560000	-9.89173200
24.29999873	0.00000000	-95.86613000	-10.67298000
24.49999872	0.00000000	-88.84719000	-11.46653000
24.69999871	0.00000000	-73.30216000	-12.67224000
24.89999870	0.00000000	-51.71013000	-14.21014000
25.09999869	0.00000000	-29.33686000	-15.74188000
25.29999867	0.00000000	-11.97096000	-16.85531000
25.49999866	0.00000000	-3.09424200	-16.85531000
25.69999865	0.00000000	-5.50565900	-15.64960000
25.89999864	0.00000000	-19.00221000	-13.28125000
26.09999863	0.00000000	-40.68036000	-9.43036400
26.29999862	0.00000000	-65.76648000	-5.24729300
26.49999860	0.00000000	-88.51500000	-2.12844500
26.69999859	0.00000000	-103.17420000	-0.59670270
26.89999858	0.00000000	-106.29310000	-1.06422200
27.09999857	0.00000000	-97.40403000	-4.21998000
27.29999856	0.00000000	-78.51254000	-10.02707000
27.49999854	0.00000000	-54.17691000	-17.36589000
27.69999853	0.00000000	-30.25959000	-24.71087000
27.89999852	0.00000000	-12.06939000	-30.42569000
28.09999851	0.00000000	-3.88164400	-32.65256000
28.29999850	0.00000000	-6.53297200	-29.91511000
28.49999848	0.00000000	-18.91609000	-22.57628000
28.69999847	0.00000000	-38.59498000	-12.11860000
28.89999846	0.00000000	-60.55610000	-0.51058070
29.09999845	0.00000000	-79.58292000	9.89788300
29.29999844	0.00000000	-92.00910000	16.77534000
29.49999843	0.00000000	-95.86613000	17.84572000
29.69999841	0.00000000	-90.13902000	12.03863000
29.89999840	0.00000000	-76.69783000	0.46751960
30.09999839	0.00000000	-59.66412000	-14.21014000
30.29999838	0.00000000	-42.21825000	-28.93701000
30.49999837	0.00000000	-27.93430000	-40.88336000
30.69999835	0.00000000	-20.11565000	-47.38558000
30.89999834	0.00000000	-19.65428000	-46.17987000
31.09999833	0.00000000	-25.79970000	-37.30315000
31.29999832	0.00000000	-37.00787000	-22.61934000
31.49999831	0.00000000	-50.55364000	-5.24729300
31.69999829	0.00000000	-63.71801000	10.96826000
31.89999828	0.00000000	-73.81274000	22.58243000
32.09999827	0.00000000	-78.88779000	27.23302000
32.29999826	0.00000000	-78.51254000	24.11417000
32.49999825	0.00000000	-72.74237000	13.61959000
32.69999824	0.00000000	-63.10900000	-2.55290300
32.89999822	0.00000000	-52.31299000	-20.71235000
33.09999821	0.00000000	-42.59350000	-36.56496000
33.29999820	0.00000000	-35.98671000	-47.38558000
33.49999819	0.00000000	-33.23696000	-50.49828000
33.69999818	0.00000000	-34.81791000	-45.47859000
33.89999816	0.00000000	-40.59424000	-33.90133000
34.09999815	0.00000000	-49.01575000	-17.69808000
34.29999814	0.00000000	-57.48031000	-1.10728300
34.49999813	0.00000000	-63.71801000	12.50615000
34.69999812	0.00000000	-66.83685000	20.95841000
34.89999810	0.00000000	-66.46161000	22.12106000
35.09999809	0.00000000	-62.64764000	15.61885000
35.29999808	0.00000000	-56.87746000	3.67249000
35.49999807	0.00000000	-50.68897000	-11.04823000
35.69999806	0.00000000	-45.33710000	-25.63976000
35.89999805	0.00000000	-42.64272000	-36.46653000
36.09999803	0.00000000	-43.33784000	-40.69882000
36.29999802	0.00000000	-46.36442000	-38.09055000
36.49999801	0.00000000	-50.68897000	-29.21998000
36.69999800	0.00000000	-55.62254000	-16.94759000
36.89999799	0.00000000	-59.84867000	-4.21998000
37.09999797	0.00000000	-61.39271000	5.72096400
37.29999796	0.00000000	-60.69144000	9.99630800
37.49999795	0.00000000	-57.94783000	7.76328700
37.69999794	0.00000000	-53.75861000	0.51673230
37.89999793	0.00000000	-49.52633000	-9.47342500
38.09999791	0.00000000	-46.36442000	-19.46358000
38.29999790	0.00000000	-44.45127000	-26.75935000
38.49999789	0.00000000	-44.08833000	-29.40452000
38.69999788	0.00000000	-46.03223000	-26.38410000
38.89999787	0.00000000	-49.48326000	-18.76845000
39.09999786	0.00000000	-53.75861000	-9.56569900
39.29999784	0.00000000	-57.99089000	-1.10728300
39.49999783	0.00000000	-61.06668000	4.18922200
39.69999782	0.00000000	-62.27239000	4.18922200
39.89999781	0.00000000	-61.52805000	-1.15649600
40.09999780	0.00000000	-59.57185000	-9.94094400
40.29999778	0.00000000	-56.40993000	-19.50664000
40.49999777	0.00000000	-52.17765000	-26.84547000
40.69999776	0.00000000	-47.94537000	-30.29035000
40.89999775	0.00000000	-44.82652000	-29.12155000
41.09999774	0.00000000	-43.24557000	-22.95152000
41.29999772	0.00000000	-43.28863000	-13.79183000
41.49999771	0.00000000	-45.20177000	-4.12770700
41.69999770	0.00000000	-48.68356000	3.53715500
41.89999769	0.00000000	-52.55290000	7.34498000
42.09999768	0.00000000	-56.45300000	5.85629900
42.29999767	0.00000000	-59.52879000	-0.22145670
42.49999765	0.00000000	-61.10974000	-8.31077700
42.69999764	0.00000000	-61.10974000	-16.81225000
42.89999763	0.00000000	-59.57185000	-23.68971000
43.09999762	0.00000000	-56.87746000	-26.80241000
43.29999761	0.00000000	-53.80167000	-25.73203000
43.49999759	0.00000000	-51.06422000	-21.54897000
43.69999758	0.00000000	-49.10802000	-15.78494000
43.89999757	0.00000000	-47.94537000	-9.93479300
44.09999756	0.00000000	-47.90231000	-4.91510800
44.29999755	0.00000000	-48.59744000	-1.48253000
44.49999753	0.00000000	-49.01575000	-1.06422200
44.69999752	0.00000000	-49.43405000	-3.29109200
44.89999751	0.00000000	-50.17839000	-6.72982200
45.09999750	0.00000000	-50.59670000	-10.62992000
45.29999749	0.00000000	-51.06422000	-14.07480000
45.49999748	0.00000000	-52.26993000	-16.43701000
45.69999746	0.00000000	-54.22613000	-17.23056000
45.89999745	0.00000000	-56.92052000	-16.85531000
46.09999744	0.00000000	-59.61491000	-15.32357000
46.29999743	0.00000000	-61.52805000	-13.00443000
46.49999742	0.00000000	-62.22318000	-10.72219000
46.69999740	0.00000000	-60.59916000	-8.77214500
46.89999739	0.00000000	-56.36687000	-7.98474400
47.09999738	0.00000000	-50.59670000	-7.93553100
47.29999737	0.00000000	-44.78346000	-8.40305000
47.49999736	0.00000000	-40.12672000	-9.93479300
47.69999734	0.00000000	-37.47539000	-12.25394000
47.89999733	0.00000000	-37.94291000	-14.53617000
48.09999732	0.00000000	-42.21825000	-16.48622000
48.29999731	0.00000000	-49.52633000	-17.23056000
48.49999730	0.00000000	-58.03395000	-16.85531000
48.69999729	0.00000000	-65.76648000	-15.27436000
48.89999727	0.00000000	-71.11835000	-12.58612000
49.09999726	0.00000000	-72.23179000	-9.51648500
49.29999725	0.00000000	-68.37475000	-6.82209600
49.49999724	0.00000000	-60.69144000	-5.29035400
49.69999723	0.00000000	-51.01501000	-5.29035400
49.89999721	0.00000000	-41.79995000	-6.86515700
50.09999720	0.00000000	-35.24237000	-9.93479300
50.29999719	0.00000000	-33.32923000	-13.79183000
50.49999718	0.00000000	-36.36196000	-17.23056000
50.69999717	0.00000000	-43.28863000	-19.59892000
50.89999715	0.00000000	-52.17765000	-20.34941000
51.09999714	0.00000000	-61.02362000	-19.55585000
51.29999713	0.00000000	-67.58119000	-16.81225000
51.49999712	0.00000000	-69.86343000	-12.62918000
51.69999711	0.00000000	-67.62426000	-8.35998900
51.89999710	0.00000000	-61.44193000	-4.87204700
52.09999708	0.00000000	-53.42642000	-2.59596400
52.29999707	0.00000000	-45.66929000	-2.63902500
52.49999706	0.00000000	-40.31127000	-5.29035400
52.69999705	0.00000000	-38.36122000	-9.47342500
52.89999704	0.00000000	-40.68651000	-13.69956000
53.09999702	0.00000000	-46.40748000	-16.81225000
53.29999701	0.00000000	-53.66634000	-18.39321000
53.49999700	0.00000000	-60.18085000	-18.39321000
53.69999699	0.00000000	-63.71801000	-16.85531000
53.89999698	0.00000000	-64.13631000	-14.16092000
54.09999696	0.00000000	-61.80487000	-11.09744000
54.29999695	0.00000000	-56.78519000	-8.44611200
54.49999694	0.00000000	-50.68897000	-7.24040300
54.69999693	0.00000000	-45.29404000	-7.60949800
54.89999692	0.00000000	-42.21825000	-8.72908400
55.09999691	0.00000000	-42.21825000	-10.67298000
55.29999689	0.00000000	-45.29404000	-12.49385000
55.49999688	0.00000000	-50.63976000	-13.32431000
55.69999687	0.00000000	-56.36687000	-12.96137000
55.89999686	0.00000000	-60.64222000	-12.16166000
56.09999685	0.00000000	-62.55536000	-10.58686000
56.29999683	0.00000000	-61.80487000	-8.40305000
56.49999682	0.00000000	-58.36614000	-7.28346400
56.69999681	0.00000000	-53.80167000	-8.07086500
56.89999680	0.00000000	-49.48326000	-10.35310000
57.09999679	0.00000000	-46.03223000	-13.83489000
57.29999677	0.00000000	-44.13140000	-17.23056000
57.49999676	0.00000000	-44.86958000	-19.50664000
57.69999675	0.00000000	-47.47785000	-19.46358000
57.89999674	0.00000000	-50.59670000	-16.81225000
58.09999673	0.00000000	-53.71555000	-12.58612000
58.29999672	0.00000000	-56.40993000	-7.93553100
58.49999670	0.00000000	-57.94783000	-3.70939900
58.69999669	0.00000000	-57.94783000	-1.01501000
58.89999668	0.00000000	-56.45300000	-0.68897630
59.09999667	0.00000000	-54.13385000	-3.01427100
59.29999666	0.00000000	-51.84547000	-8.07086500
59.49999664	0.00000000	-49.90157000	-14.53617000
59.69999663	0.00000000	-49.15108000	-20.71235000
59.89999662	0.00000000	-49.48326000	-24.52633000
60.09999661	0.00000000	-50.63976000	-25.31373000
60.29999660	0.00000000	-52.13459000	-22.57628000
60.49999658	0.00000000	-53.29109000	-16.81225000
60.69999657	0.00000000	-53.71555000	-9.51648500
60.89999656	0.00000000	-53.71555000	-2.59596400
61.09999655	0.00000000	-53.34030000	2.04847400
61.29999654	0.00000000	-52.55290000	3.58636800
61.49999653	0.00000000	-51.80241000	1.63016700
61.69999651	0.00000000	-51.06422000	-3.80167300
61.89999650	0.00000000	-51.10728000	-11.46653000
62.09999649	0.00000000	-52.17765000	-19.54970000
62.29999648	0.00000000	-53.34030000	-25.68897000
62.49999647	0.00000000	-54.13385000	-28.42643000
62.69999645	0.00000000	-54.92125000	-27.26993000
62.89999644	0.00000000	-55.24729000	-22.66240000
63.09999643	0.00000000	-54.87204000	-15.69882000
63.29999642	0.00000000	-53.71555000	-8.02780400
63.49999641	0.00000000	-52.17765000	-1.43946800
63.69999639	0.00000000	-50.63976000	2.42372000
63.89999638	0.00000000	-49.48326000	3.21112200
64.09999637	0.00000000	-49.10802000	0.51673230
64.29999636	0.00000000	-49.48326000	-4.87204700
64.49999635	0.00000000	-50.63976000	-11.42347000
64.69999634	0.00000000	-52.17765000	-17.97490000
64.89999632	0.00000000	-53.71555000	-22.61934000
65.09999631	0.00000000	-54.87204000	-24.57554000
65.29999630	0.00000000	-55.24729000	-23.87426000
65.49999629	0.00000000	-54.87204000	-20.76772000
65.69999628	0.00000000	-53.71555000	-16.52928000
65.89999626	0.00000000	-52.22071000	-11.46653000
66.09999625	0.00000000	-51.06422000	-6.86515700
66.29999624	0.00000000	-50.68897000	-3.70939900
66.49999623	0.00000000	-51.06422000	-2.12844500
66.69999622	0.00000000	-52.22071000	-2.12844500
66.89999620	0.00000000	-53.71555000	-3.66633800
67.09999619	0.00000000	-54.87204000	-6.31151500
67.29999618	0.00000000	-55.24729000	-9.09817800
67.49999617	0.00000000	-54.82898000	-11.84178000
67.69999616	0.00000000	-53.24803000	-14.94833000
67.89999615	0.00000000	-50.59670000	-17.27362000
68.09999613	0.00000000	-47.94537000	-18.90379000
68.29999612	0.00000000	-46.40748000	-20.01722000
68.49999611	0.00000000	-46.40748000	-19.97416000
68.69999610	0.00000000	-47.98843000	-18.39321000
68.89999609	0.00000000	-51.06422000	-15.27436000
69.09999607	0.00000000	-54.92125000	-11.04823000
69.29999606	0.00000000	-58.36614000	-6.77903500
69.49999605	0.00000000	-60.69144000	-3.29109200
69.69999604	0.00000000	-61.06668000	-0.97194880
69.89999603	0.00000000	-59.48573000	-0.63976370
70.09999601	0.00000000	-55.99163000	-2.54675200
70.29999600	0.00000000	-50.97194000	-6.44685000
70.49999599	0.00000000	-45.98917000	-11.46653000
70.69999598	0.00000000	-42.13213000	-16.85531000
70.89999597	0.00000000	-40.59424000	-21.03838000
71.09999596	0.00000000	-41.75689000	-22.66240000
71.29999594	0.00000000	-45.24483000	-21.92421000
71.49999593	0.00000000	-50.63976000	-19.59892000
71.69999592	0.00000000	-56.45300000	-15.69882000
71.89999591	0.00000000	-61.48499000	-11.09129000
72.09999590	0.00000000	-64.92371000	-6.82209600
72.29999588	0.00000000	-65.29897000	-3.75246000
72.49999587	0.00000000	-62.64764000	-2.59596400
72.69999586	0.00000000	-57.99089000	-3.75246000
72.89999585	0.00000000	-52.17765000	-6.77903500
73.09999584	0.00000000	-46.40748000	-10.58686000
73.29999582	0.00000000	-42.17519000	-13.65650000
73.49999581	0.00000000	-40.59424000	-15.23130000
73.69999580	0.00000000	-41.70767000	-15.32357000
73.89999579	0.00000000	-44.82652000	-14.53617000
74.09999578	0.00000000	-49.43405000	-13.41658000
74.29999577	0.00000000	-54.45374000	-11.88484000
74.49999575	0.00000000	-58.32308000	-11.18356000
74.69999574	0.00000000	-60.64222000	-11.46653000
74.89999573	0.00000000	-60.64222000	-12.25394000
75.09999572	0.00000000	-58.40920000	-13.00443000
75.29999571	0.00000000	-55.33957000	-13.74262000
75.49999569	0.00000000	-52.22071000	-13.69956000
75.69999568	0.00000000	-49.52633000	-12.53691000
75.89999567	0.00000000	-47.94537000	-10.58686000
76.09999566	0.00000000	-47.52707000	-7.89247000
76.29999565	0.00000000	-47.90231000	-5.24729300
76.49999563	0.00000000	-49.05881000	-3.75246000
76.69999562	0.00000000	-50.55364000	-4.17076700
76.89999561	0.00000000	-51.71013000	-6.86515700
77.09999560	0.00000000	-52.13459000	-11.09129000
77.29999559	0.00000000	-52.17765000	-15.69882000
77.49999558	0.00000000	-52.17765000	-19.59892000
77.69999556	0.00000000	-52.22071000	-21.88115000
77.89999555	0.00000000	-52.59596000	-22.24409000
78.09999554	0.00000000	-53.38336000	-19.92495000
78.29999553	0.00000000	-54.13385000	-15.69882000
78.49999552	0.00000000	-54.92125000	-10.62992000
78.69999550	0.00000000	-55.24729000	-5.24729300
78.89999549	0.00000000	-54.82898000	-1.06422200
79.09999548	0.00000000	-53.29109000	0.51673230
79.29999547	0.00000000	-51.01501000	-0.64591530
79.49999546	0.00000000	-49.05881000	-4.08464600
79.69999544	0.00000000	-47.47785000	-9.09817800
79.89999543	0.00000000	-46.40748000	-14.11786000
80.09999542	0.00000000	-46.82579000	-18.39321000
80.29999541	0.00000000	-49.05881000	-21.08760000
80.49999540	0.00000000	-51.75935000	-21.50590000
80.69999539	0.00000000	-54.13385000	-20.01722000
80.89999537	0.00000000	-56.45300000	-17.27977000
81.09999536	0.00000000	-57.94783000	-13.79183000
81.29999535	0.00000000	-57.90477000	-9.89173200
81.49999534	0.00000000	-56.03469000	-6.44685000
81.69999533	0.00000000	-52.97121000	-4.08464600
81.89999531	0.00000000	-50.26451000	-3.29109200
82.09999530	0.00000000	-47.94537000	-3.66633800
82.29999529	0.00000000	-46.78272000	-5.24729300
82.49999528	0.00000000	-47.10260000	-7.93553100
82.69999527	0.00000000	-47.90231000	-11.04823000
82.89999525	0.00000000	-49.52633000	-14.16092000
83.09999524	0.00000000	-52.13459000	-16.90453000
83.29999523	0.00000000	-54.41068000	-18.81152000
83.49999522	0.00000000	-55.20423000	-19.59892000
83.69999521	0.00000000	-54.92125000	-18.81152000
83.89999520	0.00000000	-54.13385000	-16.90453000
84.09999518	0.00000000	-53.38336000	-14.16092000
84.29999517	0.00000000	-52.59596000	-11.00517000
84.49999516	0.00000000	-52.22071000	-7.51722400
84.69999515	0.00000000	-52.13459000	-4.08464600
84.89999514	0.00000000	-51.75935000	-2.17150600
85.09999512	0.00000000	-51.01501000	-2.17150600
85.29999511	0.00000000	-50.63976000	-4.12770700
85.49999510	0.00000000	-50.59670000	-7.98474400
85.69999509	0.00000000	-50.55364000	-12.58612000
85.89999508	0.00000000	-50.22145000	-16.85531000
86.09999506	0.00000000	-49.90157000	-19.97416000
86.29999505	0.00000000	-50.63976000	-21.50590000
86.49999504	0.00000000	-51.75935000	-21.08760000
86.69999503	0.00000000	-52.59596000	-18.35015000
86.89999502	0.00000000	-53.75861000	-13.74262000
87.09999501	0.00000000	-54.87204000	-8.35998900
87.29999499	0.00000000	-55.24729000	-3.75246000
87.49999498	0.00000000	-54.87204000	-1.06422200
87.69999497	0.00000000	-53.71555000	-1.06422200
87.89999496	0.00000000	-52.17765000	-3.75246000
88.09999495	0.00000000	-50.59670000	-8.35998900
88.29999493	0.00000000	-49.10802000	-13.74262000
88.49999492	0.00000000	-48.36368000	-18.35015000
88.69999491	0.00000000	-49.10802000	-21.08760000
88.89999490	0.00000000	-50.59670000	-21.46284000
89.09999489	0.00000000	-52.17765000	-19.50664000
89.29999487	0.00000000	-53.71555000	-15.28051000
89.49999486	0.00000000	-54.87204000	-9.89173200
89.69999485	0.00000000	-55.24729000	-4.91510800
89.89999484	0.00000000	-54.87204000	-1.48253000
90.09999483	0.00000000	-53.71555000	-1.10728300
90.29999482	0.00000000	-52.22071000	-3.70939900
90.49999480	0.00000000	-51.06422000	-7.98474400
90.69999479	0.00000000	-50.63976000	-13.00443000
90.89999478	0.00000000	-50.59670000	-17.97490000
91.09999477	0.00000000	-50.59670000	-20.99532000
91.29999476	0.00000000	-50.63976000	-21.03838000
91.49999474	0.00000000	-51.01501000	-18.39321000
91.69999473	0.00000000	-51.71013000	-14.11786000
91.89999472	0.00000000	-51.75935000	-9.09817800
92.09999471	0.00000000	-51.39025000	-4.12770700
92.29999470	0.00000000	-51.38410000	-1.15034400
92.49999468	0.00000000	-51.01501000	-1.48253000
92.69999467	0.00000000	-51.10728000	-4.87204700
92.89999466	0.00000000	-52.17765000	-9.47342500
93.09999465	0.00000000	-53.34030000	-14.11786000
93.29999464	0.00000000	-54.13385000	-17.97490000
93.49999463	0.00000000	-54.92125000	-19.93110000
93.69999461	0.00000000	-55.24729000	-19.93110000
93.89999460	0.00000000	-54.82898000	-17.93184000
94.09999459	0.00000000	-53.29109000	-13.74262000
94.29999458	0.00000000	-50.97194000	-8.82135800
94.49999457	0.00000000	-48.68356000	-5.33341500
94.69999455	0.00000000	-46.73966000	-3.75246000
94.89999454	0.00000000	-46.03223000	-4.17076700
95.09999453	0.00000000	-46.78272000	-6.86515700
95.29999452	0.00000000	-49.05881000	-11.04823000
95.49999451	0.00000000	-51.75935000	-15.23130000
95.69999449	0.00000000	-54.17691000	-17.92569000
95.89999448	0.00000000	-56.87746000	-18.35015000
96.09999447	0.00000000	-59.11048000	-16.85531000
96.29999446	0.00000000	-59.48573000	-14.16092000
96.49999445	0.00000000	-57.94783000	-11.09744000
96.69999444	0.00000000	-54.87204000	-8.40305000
96.89999442	0.00000000	-51.01501000	-6.82209600
97.09999441	0.00000000	-47.52707000	-6.44685000
97.29999440	0.00000000	-44.78346000	-7.19734200
97.49999439	0.00000000	-43.28863000	-9.14124000
97.69999438	0.00000000	-43.66388000	-11.42347000
97.89999436	0.00000000	-45.98917000	-13.69956000
98.09999435	0.00000000	-49.48326000	-14.85605000
98.29999434	0.00000000	-53.71555000	-14.53617000
98.49999433	0.00000000	-57.57259000	-13.79183000
98.69999432	0.00000000	-59.90403000	-12.62918000
98.89999430	0.00000000	-60.69144000	-11.51575000
99.09999429	0.00000000	-59.52879000	-11.09129000
99.29999428	0.00000000	-56.82825000	-11.04823000
99.49999427	0.00000000	-53.34030000	-11.00517000
99.69999426	0.00000000	-49.48326000	-10.62992000
99.89999425	0.00000000	-46.36442000	-9.89173200
100.09999423	0.00000000	-44.45127000	-9.51648500
100.29999422	0.00000000	-44.03912000	-9.43036400
100.49999421	0.00000000	-45.57086000	-9.09817800
100.69999420	0.00000000	-47.85310000	-8.77829600
100.89999419	0.00000000	-50.63976000	-9.55954600
101.09999417	0.00000000	-53.71555000	-11.04823000
101.29999416	0.00000000	-56.40993000	-12.62918000
101.49999415	0.00000000	-57.94783000	-14.16092000
101.69999414	0.00000000	-57.99089000	-15.32357000
101.89999413	0.00000000	-56.82825000	-15.64960000
102.09999411	0.00000000	-54.92125000	-14.90526000
102.29999410	0.00000000	-52.55290000	-12.95522000
102.49999409	0.00000000	-50.26451000	-10.62992000
102.69999408	0.00000000	-48.27140000	-7.93553100
102.89999407	0.00000000	-47.15182000	-5.66560000
103.09999406	0.00000000	-46.69045000	-4.91510800
103.29999404	0.00000000	-47.15182000	-5.66560000
103.49999403	0.00000000	-48.32062000	-7.98474400
103.69999402	0.00000000	-50.63976000	-11.04823000
103.89999401	0.00000000	-53.24803000	-14.16092000
104.09999400	0.00000000	-54.82898000	-16.81225000
104.29999398	0.00000000	-55.29650000	-17.97490000
104.49999397	0.00000000	-55.29650000	-17.23056000
104.69999396	0.00000000	-54.87204000	-15.32357000
104.89999395	0.00000000	-53.71555000	-12.58612000
105.09999394	0.00000000	-52.17765000	-9.55954600
105.29999392	0.00000000	-50.63976000	-7.24040300
105.49999391	0.00000000	-49.48326000	-6.44685000
105.69999390	0.00000000	-49.10802000	-6.77903500
105.89999389	0.00000000	-49.48326000	-7.98474400
106.09999388	0.00000000	-50.59670000	-9.89173200
106.29999387	0.00000000	-51.75935000	-12.21087000
106.49999385	0.00000000	-52.55290000	-14.11786000
106.69999384	0.00000000	-53.34030000	-15.27436000
106.89999383	0.00000000	-53.66634000	-15.23130000
107.09999382	0.00000000	-53.29109000	-13.74262000
107.29999381	0.00000000	-52.17765000	-11.46653000
107.49999379	0.00000000	-51.01501000	-9.55954600
107.69999378	0.00000000	-50.26451000	-8.35998900
107.89999377	0.00000000	-49.85236000	-7.98474400
108.09999376	0.00000000	-50.26451000	-8.35998900
108.29999375	0.00000000	-51.01501000	-9.55954600
108.49999374	0.00000000	-52.17765000	-11.42347000
108.69999372	0.00000000	-53.29109000	-13.32431000
108.89999371	0.00000000	-53.71555000	-14.11786000
109.09999370	0.00000000	-53.71555000	-14.16708000
109.29999369	0.00000000	-53.29109000	-13.69956000
109.49999368	0.00000000	-52.17765000	-12.16781000
109.69999366	0.00000000	-51.01501000	-9.93479300
109.89999365	0.00000000	-50.22145000	-8.40305000
110.09999364	0.00000000	-49.48326000	-7.98474400
110.29999363	0.00000000	-49.48326000	-8.31077700
110.49999362	0.00000000	-50.22145000	-9.14124000
110.69999360	0.00000000	-50.97194000	-10.31004000
110.89999359	0.00000000	-51.80241000	-12.21087000
111.09999358	0.00000000	-52.55290000	-13.69956000
111.29999357	0.00000000	-53.34030000	-14.16708000
111.49999356	0.00000000	-53.66634000	-14.16708000
111.69999355	0.00000000	-53.34030000	-13.79183000
111.89999353	0.00000000	-52.55290000	-13.00443000
112.09999352	0.00000000	-51.80241000	-12.21087000
112.29999351	0.00000000	-51.01501000	-11.04823000
112.49999350	0.00000000	-50.63976000	-9.93479300
112.69999349	0.00000000	-50.59670000	-9.51648500
112.89999347	0.00000000	-50.59670000	-9.51648500
113.09999346	0.00000000	-50.63976000	-9.89173200
113.29999345	0.00000000	-51.01501000	-10.62992000
113.49999344	0.00000000	-51.75935000	-11.00517000
113.69999343	0.00000000	-52.13459000	-11.09129000
113.89999341	0.00000000	-52.17765000	-11.46653000
114.09999340	0.00000000	-52.17765000	-12.21087000
114.29999339	0.00000000	-52.17765000	-12.58612000
114.49999338	0.00000000	-52.17765000	-12.62918000
114.69999337	0.00000000	-52.17765000	-12.62918000
114.89999336	0.00000000	-52.17765000	-12.62918000
115.09999334	0.00000000	-52.13459000	-12.62918000
115.29999333	0.00000000	-51.75935000	-12.62918000
115.49999332	0.00000000	-51.01501000	-12.58612000
115.69999331	0.00000000	-50.68897000	-12.16166000
115.89999330	0.00000000	-50.97194000	-11.04823000
116.09999328	0.00000000	-51.38410000	-9.93479300
116.29999327	0.00000000	-51.39025000	-9.47342500
116.49999326	0.00000000	-51.80241000	-9.09817800
116.69999325	0.00000000	-52.08538000	-8.72908400
116.89999324	0.00000000	-51.80241000	-9.14124000
117.09999322	0.00000000	-51.43332000	-9.84867000
117.29999321	0.00000000	-51.75935000	-10.67298000
117.49999320	0.00000000	-51.71013000	-11.46653000
117.69999319	0.00000000	-50.97194000	-12.62918000
117.89999318	0.00000000	-50.22145000	-13.74262000
118.09999317	0.00000000	-49.48326000	-14.11786000
118.29999315	0.00000000	-49.48326000	-13.79183000
118.49999314	0.00000000	-50.22145000	-13.00443000
118.69999313	0.00000000	-50.97194000	-12.21087000
118.89999312	0.00000000	-51.84547000	-11.04823000
119.09999311	0.00000000	-52.92815000	-9.93479300
119.29999309	0.00000000	-54.07849000	-9.51648500
119.49999308	0.00000000	-54.04158000	-9.47342500
119.69999307	0.00000000	-53.38336000	-9.51648500
119.89999306	0.00000000	-52.55290000	-9.89173200
120.09999305	0.00000000	-51.75935000	-10.62992000
120.29999303	0.00000000	-50.59670000	-11.04823000
120.49999302	0.00000000	-49.43405000	-11.46653000
120.69999301	0.00000000	-48.68356000	-12.21087000
120.89999300	0.00000000	-48.32062000	-12.58612000
121.09999299	0.00000000	-49.10802000	-12.62918000
121.29999298	0.00000000	-50.55364000	-12.62918000
121.49999296	0.00000000	-51.75935000	-12.58612000
121.69999295	0.00000000	-52.55290000	-12.21087000
121.89999294	0.00000000	-53.34030000	-11.42347000
122.09999293	0.00000000	-53.71555000	-10.67298000
122.29999292	0.00000000	-53.71555000	-9.89173200
122.49999290	0.00000000	-53.34030000	-9.51648500
122.69999289	0.00000000	-52.55290000	-9.47342500
122.89999288	0.00000000	-51.75935000	-9.47342500
123.09999287	0.00000000	-50.59670000	-9.47342500
123.29999286	0.00000000	-49.48326000	-9.51648500
123.49999284	0.00000000	-49.05881000	-9.89173200
123.69999283	0.00000000	-49.01575000	-10.62992000
123.89999282	0.00000000	-49.05881000	-11.04823000
124.09999281	0.00000000	-49.48326000	-11.46653000
124.29999280	0.00000000	-50.59670000	-12.21087000
124.49999279	0.00000000	-51.75935000	-12.53691000
124.69999277	0.00000000	-52.55290000	-12.21087000
124.89999276	0.00000000	-53.34030000	-11.46653000
125.09999275	0.00000000	-53.71555000	-11.09129000
125.29999274	0.00000000	-53.71555000	-11.00517000
125.49999273	0.00000000	-53.29109000	-10.62992000
125.69999271	0.00000000	-52.22071000	-9.89173200
125.89999270	0.00000000	-51.39025000	-9.51648500
126.09999269	0.00000000	-50.96579000	-9.51648500
126.29999268	0.00000000	-49.80930000	-9.89173200
126.49999267	0.00000000	-49.10802000	-10.62992000
126.69999265	0.00000000	-49.05881000	-11.00517000
126.89999264	0.00000000	-49.43405000	-11.09129000
127.09999263	0.00000000	-50.22145000	-11.46653000
127.29999262	0.00000000	-51.01501000	-12.21087000
127.49999261	0.00000000	-52.17765000	-12.58612000
127.69999260	0.00000000	-53.29109000	-12.58612000
127.89999258	0.00000000	-53.71555000	-12.21087000
128.09999257	0.00000000	-53.71555000	-11.46653000
128.29999256	0.00000000	-53.29109000	-11.09129000
128.49999255	0.00000000	-52.13459000	-11.04823000
128.69999254	0.00000000	-50.63976000	-11.04823000
128.89999252	0.00000000	-49.48326000	-11.04823000
129.09999251	0.00000000	-49.05881000	-11.04823000
129.29999250	0.00000000	-49.05881000	-11.09129000
129.49999249	0.00000000	-49.48326000	-11.46653000
129.69999248	0.00000000	-50.59670000	-12.21087000
129.89999246	0.00000000	-51.75935000	-12.58612000
130.09999245	0.00000000	-52.55290000	-12.58612000
130.29999244	0.00000000	-53.34030000	-12.21087000
130.49999243	0.00000000	-53.66634000	-11.46653000
130.69999242	0.00000000	-53.29109000	-11.09129000
130.89999241	0.00000000	-52.17765000	-11.04823000
131.09999239	0.00000000	-51.06422000	-11.04823000
131.29999238	0.00000000	-50.59670000	-11.04823000
131.49999237	0.00000000	-50.17839000	-11.04823000
131.69999236	0.00000000	-49.48326000	-11.09129000
131.89999235	0.00000000	-49.48326000	-11.46653000
132.09999233	0.00000000	-50.22145000	-12.21087000
132.29999232	0.00000000	-50.97194000	-12.58612000
132.49999231	0.00000000	-51.75935000	-12.62918000
132.69999230	0.00000000	-52.13459000	-12.58612000
132.89999229	0.00000000	-52.17765000	-12.16166000
133.09999227	0.00000000	-52.13459000	-11.04823000
133.29999226	0.00000000	-51.75935000	-9.93479300
133.49999225	0.00000000	-51.01501000	-9.51648500
133.69999224	0.00000000	-50.63976000	-9.47342500
133.89999223	0.00000000	-50.59670000	-9.51648500
134.09999222	0.00000000	-50.59670000	-9.89173200
134.29999220	0.00000000	-50.59670000	-10.67298000
134.49999219	0.00000000	-50.59670000	-11.42347000
134.69999218	0.00000000	-50.59670000	-12.21087000
134.89999217	0.00000000	-50.55364000	-12.58612000
135.09999216	0.00000000	-50.22145000	-12.62918000
135.29999214	0.00000000	-49.85236000	-12.58612000
135.49999213	0.00000000	-50.22145000	-12.21087000
135.69999212	0.00000000	-50.55364000	-11.42347000
135.89999211	0.00000000	-50.63976000	-10.67298000
136.09999210	0.00000000	-51.01501000	-9.89173200
136.29999208	0.00000000	-51.75935000	-9.51648500
136.49999207	0.00000000	-52.13459000	-9.47342500
136.69999206	0.00000000	-52.13459000	-9.47342500
136.89999205	0.00000000	-51.75935000	-9.51648500
137.09999204	0.00000000	-51.01501000	-9.89173200
137.29999203	0.00000000	-50.59670000	-10.67298000
137.49999201	0.00000000	-50.17839000	-11.42347000
137.69999200	0.00000000	-49.43405000	-12.21087000
137.89999199	0.00000000	-49.05881000	-12.58612000
138.09999198	0.00000000	-49.05881000	-12.62918000
138.29999197	0.00000000	-49.43405000	-12.62918000
138.49999195	0.00000000	-50.22145000	-12.58612000
138.69999194	0.00000000	-50.97194000	-12.21087000
138.89999193	0.00000000	-51.75935000	-11.42347000
139.09999192	0.00000000	-52.13459000	-10.67298000
139.29999191	0.00000000	-52.13459000	-9.89173200
139.49999189	0.00000000	-51.75935000	-9.51648500
139.69999188	0.00000000	-51.01501000	-9.51648500
139.89999187	0.00000000	-50.63976000	-9.89173200
140.09999186	0.00000000	-50.59670000	-10.67298000
140.29999185	0.00000000	-50.59670000	-11.42347000
140.49999184	0.00000000	-50.59670000	-12.21087000
140.69999182	0.00000000	-50.59670000	-12.58612000
140.89999181	0.00000000	-50.63976000	-12.62918000
141.09999180	0.00000000	-51.01501000	-12.62918000
141.29999179	0.00000000	-51.75935000	-12.58612000
141.49999178	0.00000000	-52.13459000	-12.21087000
141.69999176	0.00000000	-52.13459000	-11.42347000
141.89999175	0.00000000	-51.75935000	-10.67298000
142.09999174	0.00000000	-51.01501000	-9.89173200
142.29999173	0.00000000	-50.63976000	-9.51648500
142.49999172	0.00000000	-50.59670000	-9.47342500
142.69999170	0.00000000	-50.59670000	-9.51648500
142.89999169	0.00000000	-50.59670000	-9.93479300
143.09999168	0.00000000	-50.59670000	-11.04823000
143.29999167	0.00000000	-50.63976000	-12.16166000
143.49999166	0.00000000	-51.01501000	-12.58612000
143.69999165	0.00000000	-51.75935000	-12.62918000
143.89999163	0.00000000	-52.08538000	-12.58612000
144.09999162	0.00000000	-51.75935000	-12.21087000
144.29999161	0.00000000	-51.01501000	-11.46653000
144.49999160	0.00000000	-50.63976000	-11.09129000
144.69999159	0.00000000	-50.59670000	-11.00517000
144.89999157	0.00000000	-50.59670000	-10.62992000
145.09999156	0.00000000	-50.59670000	-9.89173200
145.29999155	0.00000000	-50.63976000	-9.56569900
145.49999154	0.00000000	-51.01501000	-9.89173200
145.69999153	0.00000000	-51.75935000	-10.67298000
145.89999151	0.00000000	-52.13459000	-11.42347000
146.09999150	0.00000000	-52.13459000	-12.21087000
146.29999149	0.00000000	-51.75935000	-12.58612000
146.49999148	0.00000000	-51.01501000	-12.58612000
146.69999147	0.00000000	-50.63976000	-12.21087000
146.89999146	0.00000000	-50.59670000	-11.46653000
147.09999144	0.00000000	-50.59670000	-11.09129000
147.29999143	0.00000000	-50.59670000	-11.00517000
147.49999142	0.00000000	-50.59670000	-10.62992000
147.69999141	0.00000000	-50.59670000	-9.89173200
147.89999140	0.00000000	-50.59670000	-9.51648500
148.09999138	0.00000000	-50.59670000	-9.51648500
148.29999137	0.00000000	-50.63976000	-9.89173200
148.49999136	0.00000000	-50.97194000	-10.62992000
148.69999135	0.00000000	-51.38410000	-11.04823000
148.89999134	0.00000000	-51.34719000	-11.46653000
149.09999132	0.00000000	-51.38410000	-12.16166000
149.29999131	0.00000000	-50.97194000	-12.16166000
149.49999130	0.00000000	-50.63976000	-11.46653000
149.69999129	0.00000000	-50.59670000	-11.09129000
149.89999128	0.00000000	-50.59670000	-11.04823000
150.09999127	0.00000000	-50.59670000	-11.00517000
150.29999125	0.00000000	-50.59670000	-10.67298000
150.49999124	0.00000000	-50.59670000	-10.31004000
150.69999123	0.00000000	-50.63976000	-10.67298000
150.89999122	0.00000000	-51.01501000	-10.95595000
151.09999121	0.00000000	-51.71013000	-10.67298000
151.29999119	0.00000000	-51.75935000	-10.31004000
151.49999118	0.00000000	-51.43332000	-10.67298000
151.69999117	0.00000000	-51.75935000	-11.00517000
151.89999116	0.00000000	-51.71013000	-11.04823000
152.09999115	0.00000000	-51.01501000	-11.04823000
152.29999113	0.00000000	-50.63976000	-11.04823000
152.49999112	0.00000000	-50.55364000	-11.04823000
152.69999111	0.00000000	-50.22145000	-11.04823000
152.89999110	0.00000000	-49.85236000	-11.04823000
153.09999109	0.00000000	-50.22145000	-11.04823000
153.29999108	0.00000000	-50.55364000	-11.04823000
153.49999106	0.00000000	-50.59670000	-11.04823000
153.69999105	0.00000000	-50.63976000	-11.04823000
153.89999104	0.00000000	-51.01501000	-11.04823000
154.09999103	0.00000000	-51.75935000	-11.04823000
154.29999102	0.00000000	-52.13459000	-11.04823000
154.49999100	0.00000000	-52.17765000	-11.04823000
154.69999099	0.00000000	-52.13459000	-11.04823000
154.89999098	0.00000000	-51.75935000	-11.04823000
155.09999097	0.00000000	-51.01501000	-11.04823000
155.29999096	0.00000000	-50.59670000	-11.04823000
155.49999094	0.00000000	-50.17839000	-11.04823000
155.69999093	0.00000000	-49.43405000	-11.04823000
155.89999092	0.00000000	-49.10802000	-11.04823000
156.09999091	0.00000000	-49.43405000	-11.04823000
156.29999090	0.00000000	-50.17839000	-11.00517000
156.49999089	0.00000000	-50.59670000	-10.62992000
156.69999087	0.00000000	-51.01501000	-9.89173200
156.89999086	0.00000000	-51.75935000	-9.51648500
157.09999085	0.00000000	-52.13459000	-9.47342500
157.29999084	0.00000000	-52.17765000	-9.51648500
157.49999083	0.00000000	-52.13459000	-9.89173200
157.69999081	0.00000000	-51.75935000	-10.62992000
157.89999080	0.00000000	-51.01501000	-11.04823000
158.09999079	0.00000000	-50.63976000	-11.42347000
158.29999078	0.00000000	-50.55364000	-11.83563000
158.49999077	0.00000000	-50.22145000	-11.79872000
158.69999075	0.00000000	-49.85236000	-11.83563000
158.89999074	0.00000000	-50.22145000	-11.42347000
159.09999073	0.00000000	-50.55364000	-11.04823000
159.29999072	0.00000000	-50.59670000	-10.62992000
159.49999071	0.00000000	-50.59670000	-9.89173200
159.69999070	0.00000000	-50.59670000	-9.51648500
159.89999068	0.00000000	-50.59670000	-9.47342500
160.09999067	0.00000000	-50.63976000	-9.51648500
160.29999066	0.00000000	-50.97194000	-9.89173200
160.49999065	0.00000000	-51.34104000	-10.62992000
160.69999064	0.00000000	-50.97194000	-11.00517000
160.89999062	0.00000000	-50.63976000	-11.04823000
161.09999061	0.00000000	-50.59670000	-11.04823000
161.29999060	0.00000000	-50.59670000	-11.04823000
161.49999059	0.00000000	-50.59670000	-11.04823000
161.69999058	0.00000000	-50.59670000	-11.04823000
161.89999056	0.00000000	-50.55364000	-11.04823000
162.09999055	0.00000000	-50.22145000	-11.04823000
162.29999054	0.00000000	-49.85236000	-11.04823000
162.49999053	0.00000000	-50.22145000	-11.00517000
162.69999052	0.00000000	-50.55364000	-10.62992000
162.89999051	0.00000000	-50.59670000	-9.93479300
163.09999049	0.00000000	-50.63976000	-9.93479300
163.29999048	0.00000000	-51.01501000	-10.62992000
163.49999047	0.00000000	-51.75935000	-11.00517000
163.69999046	0.00000000	-52.08538000	-11.04823000
163.89999045	0.00000000	-51.75935000	-11.04823000
164.09999043	0.00000000	-51.01501000	-11.04823000
164.29999042	0.00000000	-50.63976000	-11.04823000
164.49999041	0.00000000	-50.59670000	-11.04823000
164.69999040	0.00000000	-50.59670000	-11.04823000
164.89999039	0.00000000	-50.55364000	-11.04823000
165.09999037	0.00000000	-50.22145000	-11.04823000
165.29999036	0.00000000	-49.85236000	-11.04823000
165.49999035	0.00000000	-50.22145000	-11.04823000
165.69999034	0.00000000	-50.55364000	-11.04823000
165.89999033	0.00000000	-50.59670000	-11.04823000
166.09999032	0.00000000	-50.63976000	-11.04823000
166.29999030	0.00000000	-51.01501000	-11.04823000
166.49999029	0.00000000	-51.71013000	-11.04823000
166.69999028	0.00000000	-51.71013000	-11.00517000
166.89999027	0.00000000	-51.01501000	-10.67298000
167.09999026	0.00000000	-50.63976000	-10.31004000
167.29999024	0.00000000	-50.59670000	-10.67298000
167.49999023	0.00000000	-50.59670000	-11.00517000
167.69999022	0.00000000	-50.59670000	-11.04823000
167.89999021	0.00000000	-50.59670000	-11.04823000
168.09999020	0.00000000	-50.55364000	-11.04823000
168.29999018	0.00000000	-50.22145000	-11.04823000
168.49999017	0.00000000	-49.85236000	-11.04823000
168.69999016	0.00000000	-50.22145000	-11.04823000
168.89999015	0.00000000	-50.55364000	-11.04823000
169.09999014	0.00000000	-50.59670000	-11.04823000
169.29999013	0.00000000	-50.59670000	-11.04823000
169.49999011	0.00000000	-50.59670000	-11.04823000
169.69999010	0.00000000	-50.59670000	-11.04823000
169.89999009	0.00000000	-50.59670000	-11.04823000
170.09999008	0.00000000	-50.59670000	-11.04823000
170.29999007	0.00000000	-50.59670000	-11.04823000
170.49999005	0.00000000	-50.59670000	-11.04823000
170.69999004	0.00000000	-50.59670000	-11.04823000
170.89999003	0.00000000	-50.59670000	-11.04823000
171.09999002	0.00000000	-50.55364000	-11.04823000
171.29999001	0.00000000	-50.22145000	-11.04823000
171.49998999	0.00000000	-49.85236000	-11.04823000
171.69998998	0.00000000	-50.22145000	-11.04823000
171.89998997	0.00000000	-50.55364000	-11.04823000
172.09998996	0.00000000	-50.59670000	-11.04823000
172.29998995	0.00000000	-50.59670000	-11.04823000
172.49998994	0.00000000	-50.59670000	-11.04823000
172.69998992	0.00000000	-50.59670000	-11.04823000
172.89998991	0.00000000	-50.59670000	-11.04823000
173.09998990	0.00000000	-50.59670000	-11.04823000
173.29998989	0.00000000	-50.59670000	-11.04823000
173.49998988	0.00000000	-50.59670000	-11.04823000
173.69998986	0.00000000	-50.59670000	-11.04823000
173.89998985	0.00000000	-50.55364000	-11.04823000
174.09998984	0.00000000	-50.22145000	-11.04823000
174.29998983	0.00000000	-49.85236000	-11.04823000
174.49998982	0.00000000	-50.22145000	-11.04823000
174.69998980	0.00000000	-50.55364000	-11.04823000
174.89998979	0.00000000	-50.59670000	-11.04823000
175.09998978	0.00000000	-50.59670000	-11.04823000
175.29998977	0.00000000	-50.59670000	-11.04823000
175.49998976	0.00000000	-50.59670000	-11.04823000
175.69998975	0.00000000	-50.59670000	-11.04823000
175.89998973	0.00000000	-50.59670000	-11.04823000
176.09998972	0.00000000	-50.59670000	-11.04823000
176.29998971	0.00000000	-50.59670000	-11.04823000
176.49998970	0.00000000	-50.59670000	-11.04823000
176.69998969	0.00000000	-50.59670000	-11.04823000
176.89998967	0.00000000	-50.55364000	-11.04823000
177.09998966	0.00000000	-50.22145000	-11.04823000
177.29998965	0.00000000	-49.85236000	-11.04823000
177.49998964	0.00000000	-50.22145000	-11.04823000
177.69998963	0.00000000	-50.55364000	-11.04823000
177.89998961	0.00000000	-50.59670000	-11.04823000
178.09998960	0.00000000	-50.59670000	-11.04823000
178.29998959	0.00000000	-50.59670000	-11.04823000
178.49998958	0.00000000	-50.59670000	-11.04823000
178.69998957	0.00000000	-50.59670000	-11.00517000
178.89998956	0.00000000	-50.59670000	-10.67298000
179.09998954	0.00000000	-50.59670000	-10.31004000
179.29998953	0.00000000	-50.59670000	-10.67298000
179.49998952	0.00000000	-50.59670000	-11.00517000
179.69998951	0.00000000	-50.55364000	-11.04823000
179.89998950	0.00000000	-50.22145000	-11.04823000
180.09998948	0.00000000	-49.85236000	-11.04823000
180.29998947	0.00000000	-50.22145000	-11.04823000
180.49998946	0.00000000	-50.55364000	-11.04823000
180.69998945	0.00000000	-50.59670000	-11.04823000
180.89998944	0.00000000	-50.59670000	-11.04823000
181.09998942	0.00000000	-50.59670000	-11.04823000
181.29998941	0.00000000	-50.59670000	-11.04823000
181.49998940	0.00000000	-50.59670000	-11.04823000
181.69998939	0.00000000	-50.59670000	-11.00517000
181.89998938	0.00000000	-50.59670000	-10.67298000
182.09998937	0.00000000	-50.55364000	-10.31004000
182.29998935	0.00000000	-50.22145000	-10.67298000
182.49998934	0.00000000	-49.85236000	-11.04823000
182.69998933	0.00000000	-50.17839000	-11.42347000
182.89998932	0.00000000	-50.17839000	-11.79257000
183.09998931	0.00000000	-49.85236000	-11.42347000
183.29998929	0.00000000	-50.22145000	-11.09129000
183.49998928	0.00000000	-50.55364000	-11.04823000
183.69998927	0.00000000	-50.59670000	-11.04823000
183.89998926	0.00000000	-50.59670000	-11.04823000
184.09998925	0.00000000	-50.59670000	-11.04823000
184.29998923	0.00000000	-50.59670000	-11.00517000
184.49998922	0.00000000	-50.59670000	-10.62992000
184.69998921	0.00000000	-50.59670000	-9.89173200
184.89998920	0.00000000	-50.59670000	-9.51648500
185.09998919	0.00000000	-50.59670000	-9.47342500
185.29998918	0.00000000	-50.55364000	-9.51648500
185.49998916	0.00000000	-50.17839000	-9.89173200
185.69998915	0.00000000	-49.43405000	-10.62992000
185.89998914	0.00000000	-49.05881000	-11.00517000
186.09998913	0.00000000	-49.01575000	-11.04823000
186.29998912	0.00000000	-49.05881000	-11.04823000
186.49998910	0.00000000	-49.43405000	-11.04823000
186.69998909	0.00000000	-50.17839000	-11.04823000
186.89998908	0.00000000	-50.55364000	-11.04823000
187.09998907	0.00000000	-50.59670000	-11.00517000
187.29998906	0.00000000	-50.59670000	-10.62992000
187.49998904	0.00000000	-50.59670000	-9.89173200
187.69998903	0.00000000	-50.59670000	-9.51648500
187.89998902	0.00000000	-50.59670000	-9.47342500
188.09998901	0.00000000	-50.59670000	-9.47342500
188.29998900	0.00000000	-50.55364000	-9.51648500
188.49998899	0.00000000	-50.22145000	-9.89173200
188.69998897	0.00000000	-49.80930000	-10.62992000
188.89998896	0.00000000	-49.80315000	-11.00517000
189.09998895	0.00000000	-49.39099000	-11.04823000
189.29998894	0.00000000	-49.10802000	-11.04823000
189.49998893	0.00000000	-49.43405000	-11.04823000
189.69998891	0.00000000	-50.17839000	-11.04823000
189.89998890	0.00000000	-50.55364000	-11.04823000
190.09998889	0.00000000	-50.59670000	-11.04823000
190.29998888	0.00000000	-50.59670000	-11.00517000
190.49998887	0.00000000	-50.59670000	-10.62992000
190.69998885	0.00000000	-50.59670000	-9.89173200
190.89998884	0.00000000	-50.55364000	-9.56569900
191.09998883	0.00000000	-50.22145000	-9.84867000
191.29998882	0.00000000	-49.80930000	-10.25467000
191.49998881	0.00000000	-49.80315000	-10.26698000
191.69998880	0.00000000	-49.39099000	-10.67298000
191.89998878	0.00000000	-49.05881000	-11.00517000
192.09998877	0.00000000	-49.01575000	-11.04823000
192.29998876	0.00000000	-49.05881000	-11.04823000
192.49998875	0.00000000	-49.43405000	-11.04823000
192.69998874	0.00000000	-50.12918000	-11.04823000
192.89998872	0.00000000	-50.17839000	-11.04823000
193.09998871	0.00000000	-49.85236000	-11.04823000
193.29998870	0.00000000	-50.22145000	-11.04823000
193.49998869	0.00000000	-50.55364000	-11.00517000
193.69998868	0.00000000	-50.59670000	-10.62992000
193.89998866	0.00000000	-50.59670000	-9.89173200
194.09998865	0.00000000	-50.55364000	-9.56569900
194.29998864	0.00000000	-50.17839000	-9.84867000
194.49998863	0.00000000	-49.43405000	-10.21161000
194.69998862	0.00000000	-49.05881000	-9.89173200
194.89998861	0.00000000	-49.01575000	-9.93479300
195.09998859	0.00000000	-49.01575000	-10.62992000
195.29998858	0.00000000	-49.05881000	-11.00517000
195.49998857	0.00000000	-49.43405000	-11.04823000
195.69998856	0.00000000	-50.17839000	-11.04823000
195.89998855	0.00000000	-50.55364000	-11.04823000
196.09998853	0.00000000	-50.59670000	-11.04823000
