Time	Channel A	Channel B	Channel C
(us)	(V)	(mV)	(mV)

-4.53333289	0.00000000	-8.74138700	4.73671200
-4.33333290	0.00000000	-9.11048200	4.73671200
-4.13333291	0.00000000	-9.39345400	4.73671200
-3.93333293	0.00000000	-9.11048200	4.73671200
-3.73333294	0.00000000	-8.69832600	4.73671200
-3.53333295	0.00000000	-8.69217500	4.73671200
-3.33333296	0.00000000	-8.28001900	4.73671200
-3.13333297	0.00000000	-7.94783400	4.73671200
-2.93333299	0.00000000	-7.90477300	4.73671200
-2.73333300	0.00000000	-7.90477300	4.73671200
-2.53333301	0.00000000	-7.90477300	4.73671200
-2.33333302	0.00000000	-7.90477300	4.73671200
-2.13333303	0.00000000	-7.90477300	4.73671200
-1.93333304	0.00000000	-7.94783400	4.73671200
-1.73333306	0.00000000	-8.32308000	4.73671200
-1.53333307	0.00000000	-9.01820900	4.73671200
-1.33333308	0.00000000	-9.06742000	4.73671200
-1.13333309	0.00000000	-8.69832600	4.73671200
-0.93333310	0.00000000	-8.69217500	4.73671200
-0.73333312	0.00000000	-8.28001900	4.73671200
-0.53333313	0.00000000	-7.94783400	4.73671200
-0.33333314	0.15871060	-7.90477300	4.73671200
-0.13333315	0.47736220	-7.90477300	4.73671200
0.06666684	0.95533960	-7.94783400	4.73671200
0.26666682	0.95533960	-8.28001900	4.73671200
0.46666681	0.95533960	-8.64911400	4.73671200
0.66666680	0.47736220	-8.28001900	4.73671200
0.86666679	-0.15871060	-7.94783400	4.73671200
1.06666678	-1.11466500	-7.90477300	4.73671200
1.26666677	-2.07062000	-7.90477300	4.73671200
1.46666675	-2.70792300	-7.90477300	4.73671200
1.66666674	-2.70792300	-7.90477300	4.73671200
1.86666673	-1.75196900	-7.90477300	4.73671200
2.06666672	0.00000000	-7.90477300	4.73671200
2.26666671	2.07062000	-7.90477300	4.73671200
2.46666669	3.98191400	-7.90477300	4.69365100
2.66666668	5.25652100	-7.90477300	4.36146600
2.86666667	5.25652100	-7.94783400	3.94931100
3.06666666	3.66326300	-8.32308000	3.94315900
3.26666665	0.95533960	-9.01820900	3.57406500
3.46666663	-2.38927200	-9.01820900	3.62327700
3.66666662	-5.57517200	-8.32308000	4.31840500
3.86666661	-7.64579200	-7.94783400	4.73671200
4.06666660	-7.80511800	-7.90477300	5.15501900
4.26666659	-5.89382400	-7.90477300	5.85014700
4.46666658	-2.54859700	-7.90477300	5.85014700
4.66666656	1.91129400	-7.90477300	5.15501900
4.86666655	6.05315000	-7.90477300	4.77977300
5.06666654	8.76107300	-7.94783400	4.69365100
5.26666653	9.39837600	-8.32308000	4.31840500
5.46666652	7.64579200	-9.06742000	3.57406500
5.66666650	3.98191400	-9.44266700	3.19881900
5.86666649	-0.79601380	-9.44266700	3.19881900
6.06666648	-5.41584600	-9.06742000	3.57406500
6.26666647	-8.44242100	-8.32308000	4.31840500
6.46666646	-9.55770200	-7.94783400	4.69365100
6.66666644	-8.12377000	-7.90477300	4.73671200
6.86666643	-4.77854300	-7.90477300	4.73671200
7.06666642	-0.31803640	-7.90477300	4.73671200
7.26666641	3.66326300	-7.90477300	4.73671200
7.46666640	6.69045300	-7.94783400	4.73671200
7.66666639	7.80511800	-8.28001900	4.73671200
7.86666637	6.84916400	-8.64911400	4.73671200
8.06666636	4.45989200	-8.28001900	4.73671200
8.26666635	1.11466500	-7.99704600	4.73671200
8.46666634	-1.91129400	-8.28001900	4.73671200
8.66666633	-4.30056600	-8.64911400	4.73671200
8.86666631	-5.25652100	-8.28001900	4.73671200
9.06666630	-4.77854300	-7.94783400	4.73671200
9.26666629	-3.34522600	-7.90477300	4.73671200
9.46666628	-1.27399100	-7.90477300	4.73671200
9.66666627	0.47736220	-7.90477300	4.73671200
9.86666625	1.91129400	-7.90477300	4.73671200
10.06666624	2.54859700	-7.90477300	4.73671200
10.26666623	2.38927200	-7.90477300	4.73671200
10.46666622	1.75196900	-7.90477300	4.73671200
10.66666621	0.79601380	-7.90477300	4.73671200
10.86666620	0.00000000	-7.90477300	4.73671200
11.06666618	-0.63668800	-7.90477300	4.73671200
11.26666617	-0.95533960	-7.90477300	4.73671200
11.46666616	-0.95533960	-7.90477300	4.73671200
11.66666615	-0.79601380	-7.90477300	4.73671200
11.86666614	-0.47736220	-7.90477300	4.73671200
12.06666612	-0.31803640	-7.90477300	4.73671200
12.26666611	-0.15871060	-7.90477300	4.73671200
12.46666610	0.00000000	-7.90477300	4.73671200
12.66666609	0.00000000	-7.90477300	4.73671200
12.86666608	0.00000000	-7.90477300	4.73671200
13.06666606	0.15871060	-7.90477300	4.73671200
13.26666605	0.15871060	-7.90477300	4.73671200
13.46666604	0.00000000	-7.90477300	4.73671200
13.66666603	0.00000000	-7.90477300	4.73671200
13.86666602	0.00000000	-7.90477300	4.73671200
14.06666601	-0.15871060	-7.90477300	4.73671200
14.26666599	-0.15871060	-7.90477300	4.73671200
14.46666598	-0.15871060	-7.90477300	4.73671200
14.66666597	-0.15871060	-7.90477300	4.73671200
14.86666596	0.00000000	-7.90477300	4.73671200
15.06666595	0.00000000	-7.90477300	4.73671200
15.26666593	0.00000000	-7.94783400	4.73671200
15.46666592	0.15871060	-8.32308000	4.69365100
15.66666591	0.00000000	-9.06742000	4.36146600
15.86666590	0.00000000	-9.44266700	3.99237200
16.06666589	0.00000000	-9.44266700	4.36146600
16.26666587	0.00000000	-9.06742000	4.69365100
16.46666586	-0.15871060	-8.32308000	4.73671200
16.66666585	0.00000000	-7.94783400	4.73671200
16.86666584	-0.15871060	-7.86171200	4.73671200
17.06666583	0.00000000	-7.48646600	4.73671200
17.26666582	0.00000000	-6.74212600	4.73671200
17.46666580	0.00000000	-6.36687900	4.73671200
17.66666579	0.00000000	-6.36687900	4.73671200
17.86666578	0.00000000	-6.79133800	4.73671200
18.06666577	0.00000000	-7.94783400	4.73671200
18.26666576	0.00000000	-9.48572700	4.73671200
18.46666574	0.00000000	-11.06668000	4.73671200
18.66666573	0.00000000	-12.60458000	4.73671200
18.86666572	0.00000000	-13.71801000	4.73671200
19.06666571	0.00000000	-13.71801000	4.73671200
19.26666570	0.00000000	-12.51230000	4.73671200
19.46666568	0.00000000	-10.18086000	4.73671200
19.66666567	0.00000000	-6.65600300	4.73671200
19.86666566	0.00000000	-2.82972400	4.73671200
20.06666565	0.00000000	0.65206690	4.73671200
20.26666564	0.00000000	2.56520700	4.73671200
20.46666563	0.00000000	2.51599400	4.73671200
20.66666561	0.00000000	0.09842519	4.73671200
20.86666560	0.00000000	-5.33956700	4.73671200
21.06666559	0.00000000	-12.69070000	4.73671200
21.26666558	0.00000000	-20.37401000	4.73671200
21.46666557	0.00000000	-26.50713000	4.73671200
21.66666555	0.00000000	-28.79552000	4.73671200
21.86666554	0.00000000	-26.83932000	4.73671200
22.06666553	0.00000000	-20.51550000	4.73671200
22.26666552	0.00000000	-10.04552000	4.73671200
22.46666551	0.00000000	2.69439000	4.73671200
22.66666549	0.00000000	14.60999000	4.73671200
22.86666548	0.00000000	22.61319000	4.73671200
23.06666547	0.00000000	23.72662000	4.77977300
23.26666546	0.00000000	17.12598000	5.15501900
23.46666545	0.00000000	4.33070900	5.89320800
23.66666544	0.00000000	-12.73991000	6.26845500
23.86666542	0.00000000	-30.46875000	6.31151500
24.06666541	0.00000000	-44.66043000	6.26845500
24.26666540	0.00000000	-51.17495000	5.89320800
24.46666539	0.00000000	-47.64394000	5.11195900
24.66666538	0.00000000	-34.84252000	4.26919300
24.86666536	0.00000000	-14.74532000	2.73745100
25.06666535	0.00000000	8.00319800	0.83661410
25.26666534	0.00000000	27.68824000	-0.28297240
25.46666533	0.00000000	40.01599000	-0.69512790
25.66666532	0.00000000	41.50467000	0.17839570
25.86666530	0.00000000	31.45915000	2.46063000
26.06666529	0.00000000	12.10015000	5.98548200
26.26666528	0.00000000	-12.60458000	9.79945900
26.46666527	0.00000000	-36.89099000	13.32431000
26.66666526	0.00000000	-54.61983000	15.56348000
26.86666525	0.00000000	-61.63877000	15.92642000
27.06666523	0.00000000	-56.61909000	13.52116000
27.26666522	0.00000000	-41.16634000	8.50147600
27.46666521	0.00000000	-18.37475000	1.53174200
27.66666520	0.00000000	6.32997000	-5.80708600
27.86666519	0.00000000	27.22072000	-11.94021000
28.06666517	0.00000000	39.92372000	-15.37278000
28.26666516	0.00000000	41.17864000	-14.49926000
28.46666515	0.00000000	31.22539000	-9.10433000
28.66666514	0.00000000	13.85950000	0.22760820
28.86666513	0.00000000	-7.48646600	11.42347000
29.06666511	0.00000000	-28.28494000	22.61934000
29.26666510	0.00000000	-43.77460000	31.02854000
29.46666509	0.00000000	-50.43061000	34.09818000
29.66666508	0.00000000	-47.82234000	30.94242000
29.86666507	0.00000000	-37.40157000	21.64739000
30.06666506	0.00000000	-21.53666000	7.71407400
30.26666504	0.00000000	-3.75861200	-7.71407400
30.46666503	0.00000000	12.10015000	-21.60433000
30.66666502	0.00000000	22.57013000	-30.38878000
30.86666501	0.00000000	25.77510000	-31.54527000
31.06666500	0.00000000	21.96112000	-24.62475000
31.26666498	0.00000000	12.65379000	-11.52190000
31.46666497	0.00000000	-0.46751960	4.77977300
31.66666496	0.00000000	-14.37008000	21.41363000
31.86666495	0.00000000	-25.63361000	35.30389000
32.06666494	0.00000000	-32.65871000	42.97490000
32.26666492	0.00000000	-34.19045000	42.59965000
32.46666491	0.00000000	-30.00123000	34.09818000
32.66666490	0.00000000	-21.53666000	19.46358000
32.86666489	0.00000000	-11.10974000	2.04232300
33.06666488	0.00000000	-1.02116100	-14.59153000
33.26666487	0.00000000	6.74827700	-27.36220000
33.46666485	0.00000000	11.02977000	-33.50147000
33.66666484	0.00000000	10.98671000	-31.59449000
33.86666483	0.00000000	6.42224400	-21.97957000
34.06666482	0.00000000	-1.24877000	-7.29576700
34.26666481	0.00000000	-9.35039300	9.33809000
34.46666479	0.00000000	-16.36934000	24.80315000
34.66666478	0.00000000	-20.97687000	35.58686000
34.86666477	0.00000000	-22.13952000	39.48696000
35.06666476	0.00000000	-19.48819000	35.62992000
35.26666475	0.00000000	-14.13632000	25.27067000
35.46666473	0.00000000	-7.99704600	10.96211000
35.66666472	0.00000000	-2.55290300	-4.04773600
35.86666471	0.00000000	0.89197830	-16.40010000
36.06666470	0.00000000	1.67938000	-22.95768000
36.26666469	0.00000000	-0.59670270	-22.63164000
36.46666468	0.00000000	-4.78592500	-15.74803000
36.66666466	0.00000000	-9.44266700	-4.60137700
36.86666465	0.00000000	-13.67495000	7.71407400
37.06666464	0.00000000	-16.36934000	18.49163000
37.26666463	0.00000000	-16.74459000	24.66781000
37.46666462	0.00000000	-14.83760000	25.13533000
37.66666460	0.00000000	-10.97441000	20.48474000
37.86666459	0.00000000	-6.36687900	11.65723000
38.06666458	0.00000000	-2.13459600	0.97194880
38.26666457	0.00000000	0.55979330	-7.81250000
38.46666456	0.00000000	0.98425190	-12.08169000
38.66666454	0.00000000	-0.55364170	-10.92520000
38.86666453	0.00000000	-3.67249000	-4.82898600
39.06666452	0.00000000	-7.90477300	4.36146600
39.26666451	0.00000000	-12.18012000	13.52116000
39.46666450	0.00000000	-15.63115000	20.02337000
39.66666449	0.00000000	-17.57505000	21.55512000
39.86666447	0.00000000	-17.21210000	17.74729000
40.06666446	0.00000000	-15.34203000	10.07628000
40.26666445	0.00000000	-12.55536000	0.46136810
40.46666444	0.00000000	-9.01820900	-8.31692900
40.66666443	0.00000000	-4.78592500	-13.70571000
40.86666441	0.00000000	-0.97194880	-14.08095000
41.06666440	0.00000000	1.02731300	-9.47957600
41.26666439	0.00000000	1.40255900	-1.02116100
41.46666438	0.00000000	0.23375980	8.96284400
41.66666437	0.00000000	-2.87893700	17.74729000
41.86666435	0.00000000	-6.69906400	22.81004000
42.06666434	0.00000000	-10.59916000	22.81619000
42.26666433	0.00000000	-13.71801000	18.62697000
42.46666432	0.00000000	-15.67421000	10.91289000
42.66666431	0.00000000	-16.41855000	2.12844500
42.86666430	0.00000000	-15.25591000	-5.25344500
43.06666428	0.00000000	-12.64764000	-9.84867000
43.26666427	0.00000000	-9.90403500	-10.63607000
43.46666426	0.00000000	-7.52952700	-7.24655500
43.66666425	0.00000000	-5.21038300	-1.53174200
43.86666424	0.00000000	-3.71555100	4.64443900
44.06666422	0.00000000	-3.62942900	10.07628000
44.26666421	0.00000000	-4.32455700	13.56422000
44.46666420	0.00000000	-4.74286400	14.76993000
44.66666419	0.00000000	-5.16117100	13.60728000
44.86666418	0.00000000	-5.90551100	10.58686000
45.06666416	0.00000000	-6.28075700	6.72982200
45.26666415	0.00000000	-6.36687900	3.24803100
45.46666414	0.00000000	-6.83439900	0.51058070
45.66666413	0.00000000	-8.41535400	-1.02116100
45.86666412	0.00000000	-11.10974000	-1.02116100
46.06666411	0.00000000	-14.18553000	0.46751960
46.26666409	0.00000000	-16.83686000	2.78051200
46.46666408	0.00000000	-17.95029000	5.11195900
46.66666407	0.00000000	-16.79380000	7.43110200
46.86666406	0.00000000	-13.67495000	8.91978400
47.06666405	0.00000000	-8.93208600	9.00590400
47.26666403	0.00000000	-2.78666300	8.22465500
47.46666402	0.00000000	3.34645700	7.01279500
47.66666401	0.00000000	7.17273600	4.73671200
47.86666400	0.00000000	7.95398600	2.46063000
48.06666399	0.00000000	5.16732200	1.24877000
48.26666397	0.00000000	-1.02116100	0.41830710
48.46666396	0.00000000	-9.48572700	0.13533460
48.66666395	0.00000000	-17.95029000	0.92888770
48.86666394	0.00000000	-24.13878000	3.24803100
49.06666393	0.00000000	-26.83932000	6.26845500
49.26666392	0.00000000	-25.21530000	9.00590400
49.46666390	0.00000000	-19.02067000	10.91289000
49.66666389	0.00000000	-9.44266700	11.65723000
49.86666388	0.00000000	0.51673230	10.49459000
50.06666387	0.00000000	7.86786400	7.80019600
50.26666386	0.00000000	10.98671000	4.31840500
50.46666384	0.00000000	9.49187900	0.46751960
50.66666383	0.00000000	4.05388800	-2.60211600
50.86666382	0.00000000	-4.09079700	-4.14000900
51.06666381	0.00000000	-13.63189000	-3.76476400
51.26666380	0.00000000	-21.34596000	-1.44562000
51.46666379	0.00000000	-24.84621000	2.04232300
51.66666377	0.00000000	-24.46481000	6.31151500
51.86666376	0.00000000	-19.39591000	10.49459000
52.06666375	0.00000000	-11.06668000	13.18898000
52.26666374	0.00000000	-2.60211600	13.61343000
52.46666373	0.00000000	3.58636800	12.07554000
52.66666371	0.00000000	6.32997000	8.96284400
52.86666370	0.00000000	5.16732200	4.77977300
53.06666369	0.00000000	0.55979330	0.92888770
53.26666368	0.00000000	-6.36687900	-1.43946800
53.46666367	0.00000000	-13.63189000	-2.60211600
53.66666365	0.00000000	-19.02067000	-2.18380900
53.86666364	0.00000000	-20.93381000	0.09227362
54.06666363	0.00000000	-19.06988000	3.15575800
54.26666362	0.00000000	-14.09326000	6.22539300
54.46666361	0.00000000	-7.94783400	8.50147600
54.66666360	0.00000000	-2.13459600	8.91978400
54.86666358	0.00000000	2.05462600	7.84940900
55.06666357	0.00000000	3.21112200	6.31151500
55.26666356	0.00000000	0.93503930	4.73671200
55.46666355	0.00000000	-3.62942900	3.24803100
55.66666354	0.00000000	-9.01820900	2.50369100
55.86666352	0.00000000	-13.67495000	3.24803100
56.06666351	0.00000000	-16.74459000	4.77977300
56.26666350	0.00000000	-17.48893000	6.64370100
56.46666349	0.00000000	-15.21284000	8.12622900
56.66666348	0.00000000	-11.02362000	7.71407400
56.86666346	0.00000000	-6.41609200	5.85014700
57.06666345	0.00000000	-2.55290300	3.15575800
57.26666344	0.00000000	-0.59670270	0.46751960
57.46666343	0.00000000	-0.55364170	-1.48868100
57.66666342	0.00000000	-2.09153500	-2.55905500
57.86666341	0.00000000	-4.78592500	-1.72244100
58.06666339	0.00000000	-7.86171200	1.71013800
58.26666338	0.00000000	-10.59916000	6.31151500
58.46666337	0.00000000	-12.51230000	10.95595000
58.66666336	0.00000000	-13.25664000	14.76993000
58.86666335	0.00000000	-12.13706000	16.25861000
59.06666333	0.00000000	-9.90403500	14.67766000
59.26666332	0.00000000	-7.94783400	10.11934000
59.46666331	0.00000000	-6.36687900	3.94931100
59.66666330	0.00000000	-5.21038300	-1.86392700
59.86666329	0.00000000	-4.83513700	-6.87130900
60.06666327	0.00000000	-5.21038300	-9.43036400
60.26666326	0.00000000	-6.36687900	-7.89862200
60.46666325	0.00000000	-7.86171200	-2.55905500
60.66666324	0.00000000	-9.01820900	4.73671200
60.86666323	0.00000000	-9.39345400	12.07554000
61.06666322	0.00000000	-9.06742000	17.83957000
61.26666320	0.00000000	-8.28001900	20.53395000
61.46666319	0.00000000	-7.52952700	19.37131000
61.66666318	0.00000000	-6.74212600	14.76993000
61.86666317	0.00000000	-6.41609200	7.80019600
62.06666316	0.00000000	-6.79133800	0.09227362
62.26666314	0.00000000	-7.90477300	-6.82824800
62.46666313	0.00000000	-9.06742000	-11.06053000
62.66666312	0.00000000	-9.86097400	-11.42962000
62.86666311	0.00000000	-10.59916000	-7.99089500
63.06666310	0.00000000	-10.55610000	-1.44562000
63.26666308	0.00000000	-9.44266700	6.22539300
63.46666307	0.00000000	-7.90477300	13.23819000
63.66666306	0.00000000	-6.32381900	18.21481000
63.86666305	0.00000000	-4.83513700	20.15871000
64.06666304	0.00000000	-4.09079700	18.25787000
64.26666303	0.00000000	-4.83513700	13.65650000
64.46666301	0.00000000	-6.32381900	7.47416300
64.66666300	0.00000000	-7.86171200	0.92888770
64.86666299	0.00000000	-9.06742000	-4.14000900
65.06666298	0.00000000	-9.86097400	-7.25270600
65.26666297	0.00000000	-10.59916000	-7.99089500
65.46666295	0.00000000	-10.55610000	-5.71481200
65.66666294	0.00000000	-9.44266700	-1.53174200
65.86666293	0.00000000	-7.90477300	3.15575800
66.06666292	0.00000000	-6.36687900	7.80019600
66.26666291	0.00000000	-5.25344500	11.65723000
66.46666289	0.00000000	-5.25344500	13.65650000
66.66666288	0.00000000	-6.36687900	14.07480000
66.86666287	0.00000000	-7.90477300	13.32431000
67.06666286	0.00000000	-9.44266700	11.38041000
67.26666285	0.00000000	-10.55610000	9.00590400
67.46666284	0.00000000	-10.51304000	5.89320800
67.66666282	0.00000000	-9.01820900	2.41141700
67.86666281	0.00000000	-6.74212600	-0.28297240
68.06666280	0.00000000	-4.78592500	-2.31914400
68.26666279	0.00000000	-3.25418300	-3.43873000
68.46666278	0.00000000	-2.50984200	-3.80782500
68.66666276	0.00000000	-3.34030500	-2.60211600
68.86666275	0.00000000	-5.62869100	0.09227362
69.06666274	0.00000000	-9.11048200	3.62327700
69.26666273	0.00000000	-12.55536000	7.89247000
69.46666272	0.00000000	-15.25591000	12.07554000
69.66666270	0.00000000	-16.36934000	14.81299000
69.86666269	0.00000000	-15.21284000	15.56348000
70.06666268	0.00000000	-12.13706000	14.39468000
70.26666267	0.00000000	-7.86171200	10.91289000
70.46666266	0.00000000	-3.20497000	6.31151500
70.66666265	0.00000000	1.02731300	1.62401600
70.86666263	0.00000000	3.67864200	-2.60211600
71.06666262	0.00000000	3.63558100	-5.29650500
71.26666261	0.00000000	0.60900590	-5.67175200
71.46666260	0.00000000	-4.41067900	-3.76476400
71.66666259	0.00000000	-9.86097400	0.09227362
71.86666257	0.00000000	-15.25591000	4.69365100
72.06666256	0.00000000	-19.06988000	8.96284400
72.26666255	0.00000000	-19.90650000	12.03248000
72.46666254	0.00000000	-18.37475000	13.23819000
72.66666253	0.00000000	-14.83760000	12.49385000
72.86666251	0.00000000	-9.44266700	10.53765000
73.06666250	0.00000000	-3.71555100	7.47416300
73.26666249	0.00000000	0.60900590	4.03543200
73.46666248	0.00000000	2.93430100	1.71013800
73.66666247	0.00000000	3.30339500	0.51058070
73.86666246	0.00000000	0.98425190	0.55364170
74.06666244	0.00000000	-3.20497000	1.99311000
74.26666243	0.00000000	-7.86171200	3.85088600
74.46666242	0.00000000	-12.09400000	4.64443900
74.66666241	0.00000000	-14.83760000	4.69365100
74.86666240	0.00000000	-15.63115000	4.26919300
75.06666238	0.00000000	-14.88066000	3.15575800
75.26666237	0.00000000	-12.55536000	2.08538400
75.46666236	0.00000000	-9.48572700	2.08538400
75.66666235	0.00000000	-6.41609200	3.24803100
75.86666234	0.00000000	-4.09079700	5.15501900
76.06666232	0.00000000	-3.29724400	7.51722400
76.26666231	0.00000000	-3.58021600	9.79945900
76.46666230	0.00000000	-4.41067900	11.70029000
76.66666229	0.00000000	-5.53641700	12.03248000
76.86666228	0.00000000	-7.06815900	10.49459000
77.06666227	0.00000000	-7.81250000	7.38188900
77.26666225	0.00000000	-7.90477300	3.11269700
77.46666224	0.00000000	-7.90477300	-1.43946800
77.66666223	0.00000000	-7.90477300	-4.87204700
77.86666222	0.00000000	-7.94783400	-5.67175200
78.06666221	0.00000000	-8.32308000	-4.18307100
78.26666219	0.00000000	-9.11048200	-1.02116100
78.46666218	0.00000000	-9.86097400	3.62327700
78.66666217	0.00000000	-10.59916000	9.00590400
78.86666216	0.00000000	-10.55610000	13.61343000
79.06666215	0.00000000	-9.39345400	16.30167000
79.26666213	0.00000000	-7.48646600	16.30167000
79.46666212	0.00000000	-5.16117100	13.61343000
79.66666211	0.00000000	-3.25418300	9.00590400
79.86666210	0.00000000	-2.09153500	3.62327700
80.06666209	0.00000000	-2.13459600	-1.02116100
80.26666208	0.00000000	-3.67249000	-4.13385800
80.46666206	0.00000000	-6.32381900	-5.33956700
80.66666205	0.00000000	-9.06742000	-4.55831700
80.86666204	0.00000000	-11.39887000	-2.22687000
81.06666203	0.00000000	-13.29970000	1.62401600
81.26666202	0.00000000	-13.63189000	5.85014700
81.46666200	0.00000000	-12.18012000	9.33809000
81.66666199	0.00000000	-9.86097400	11.74951000
81.86666198	0.00000000	-7.52952700	12.91215000
82.06666197	0.00000000	-5.16117100	13.28125000
82.26666196	0.00000000	-3.29724400	12.07554000
82.46666194	0.00000000	-2.50984200	9.42421200
82.66666193	0.00000000	-3.29724400	6.31151500
82.86666192	0.00000000	-5.16117100	3.19881900
83.06666191	0.00000000	-7.43725300	0.46751960
83.26666190	0.00000000	-9.01820900	-1.48868100
83.46666189	0.00000000	-9.86097400	-2.64517700
83.66666187	0.00000000	-10.59916000	-2.64517700
83.86666186	0.00000000	-10.55610000	-1.43946800
84.06666185	0.00000000	-9.48572700	0.88582670
84.26666184	0.00000000	-8.37229300	4.36146600
84.46666183	0.00000000	-7.90477300	7.84940900
84.66666181	0.00000000	-7.52952700	10.96211000
84.86666180	0.00000000	-7.11737200	13.28125000
85.06666179	0.00000000	-7.11122000	14.03174000
85.26666178	0.00000000	-6.69906400	13.23819000
85.46666177	0.00000000	-6.36687900	10.49459000
85.66666175	0.00000000	-6.32381900	6.26845500
85.86666174	0.00000000	-6.32381900	1.66707700
86.06666173	0.00000000	-6.32381900	-2.22687000
86.26666172	0.00000000	-6.36687900	-4.50910400
86.46666171	0.00000000	-6.79133800	-4.92125900
86.66666170	0.00000000	-7.94783400	-2.93430100
86.86666168	0.00000000	-9.44266700	0.87967510
87.06666167	0.00000000	-10.59916000	5.89320800
87.26666166	0.00000000	-10.97441000	10.49459000
87.46666165	0.00000000	-10.59916000	13.60728000
87.66666164	0.00000000	-9.44266700	14.72687000
87.86666162	0.00000000	-7.90477300	13.18898000
88.06666161	0.00000000	-6.36687900	9.33809000
88.26666160	0.00000000	-5.21038300	4.36146600
88.46666159	0.00000000	-4.78592500	-0.64591530
88.66666158	0.00000000	-4.78592500	-4.09079700
88.86666156	0.00000000	-5.21038300	-5.29650500
89.06666155	0.00000000	-6.36687900	-4.09079700
89.26666154	0.00000000	-7.90477300	-0.64591530
89.46666153	0.00000000	-9.44266700	4.36146600
89.66666152	0.00000000	-10.55610000	9.33809000
89.86666151	0.00000000	-10.59916000	13.18898000
90.06666149	0.00000000	-9.86097400	14.72687000
90.26666148	0.00000000	-9.06742000	13.56422000
90.46666147	0.00000000	-7.90477300	10.11934000
90.66666146	0.00000000	-6.79133800	5.11195900
90.86666145	0.00000000	-6.36687900	0.13533460
91.06666143	0.00000000	-6.32381900	-3.71555100
91.26666142	0.00000000	-6.32381900	-5.20423200
91.46666141	0.00000000	-6.36687900	-3.71555100
91.66666140	0.00000000	-6.74212600	0.13533460
91.86666139	0.00000000	-7.48646600	5.11195900
92.06666137	0.00000000	-7.81250000	10.11934000
92.26666136	0.00000000	-7.52952700	13.56422000
92.46666135	0.00000000	-7.16043300	14.72687000
92.66666134	0.00000000	-7.52952700	13.14591000
92.86666133	0.00000000	-7.90477300	8.96284400
93.06666132	0.00000000	-8.37229300	3.62327700
93.26666130	0.00000000	-9.48572700	-0.97810030
93.46666129	0.00000000	-10.55610000	-3.71555100
93.66666128	0.00000000	-10.59916000	-4.09079700
93.86666127	0.00000000	-9.81791200	-2.18380900
94.06666126	0.00000000	-8.64911400	1.66707700
94.26666124	0.00000000	-6.69906400	6.21924200
94.46666123	0.00000000	-4.78592500	10.07628000
94.66666122	0.00000000	-3.20497000	12.03248000
94.86666121	0.00000000	-2.09153500	12.03248000
95.06666120	0.00000000	-2.13459600	10.11934000
95.26666118	0.00000000	-3.67249000	6.64370100
95.46666117	0.00000000	-6.36687900	2.82972400
95.66666116	0.00000000	-9.44266700	-0.60285430
95.86666115	0.00000000	-12.18012000	-2.13459600
96.06666114	0.00000000	-14.09326000	-1.43946800
96.26666113	0.00000000	-14.88066000	0.46751960
96.46666111	0.00000000	-14.05020000	3.19881900
96.66666110	0.00000000	-11.71875000	6.26845500
96.86666109	0.00000000	-7.90477300	8.91978400
97.06666108	0.00000000	-4.04773600	10.07628000
97.26666107	0.00000000	-1.29798200	9.38115100
97.46666105	0.00000000	0.65206690	7.84940900
97.66666104	0.00000000	0.98425190	5.89320800
97.86666103	0.00000000	-0.55364170	3.61712600
98.06666102	0.00000000	-3.67249000	2.08538400
98.26666101	0.00000000	-7.90477300	1.66707700
98.46666099	0.00000000	-12.13706000	1.99311000
98.66666098	0.00000000	-15.21284000	2.78051200
98.86666097	0.00000000	-16.41855000	3.53100400
99.06666096	0.00000000	-15.63115000	4.36146600
99.26666095	0.00000000	-13.34276000	5.11195900
99.46666094	0.00000000	-9.86097400	5.89320800
99.66666092	0.00000000	-6.36687900	6.26845500
99.86666091	0.00000000	-3.20497000	6.31151500
100.06666090	0.00000000	-0.55364170	6.31151500
100.26666089	0.00000000	0.60900590	6.35457700
100.46666088	0.00000000	-0.13533460	6.68676100
100.66666086	0.00000000	-2.04847400	7.05585600
100.86666085	0.00000000	-4.78592500	6.64370100
101.06666084	0.00000000	-7.90477300	5.85014700
101.26666083	0.00000000	-10.97441000	4.31840500
101.46666082	0.00000000	-13.25664000	2.41141700
101.66666080	0.00000000	-13.67495000	1.24877000
101.86666079	0.00000000	-12.60458000	0.46136810
102.06666078	0.00000000	-11.02362000	0.55364170
102.26666077	0.00000000	-9.06742000	2.08538400
102.46666076	0.00000000	-6.74212600	4.77977300
102.66666075	0.00000000	-4.78592500	7.80019600
102.86666073	0.00000000	-3.25418300	10.11934000
103.06666072	0.00000000	-2.46678100	10.91289000
103.26666071	0.00000000	-2.87893700	10.53765000
103.46666070	0.00000000	-3.99852300	8.96284400
103.66666069	0.00000000	-5.94857300	6.26845500
103.86666067	0.00000000	-7.86171200	3.19881900
104.06666066	0.00000000	-9.44266700	0.51058070
104.26666065	0.00000000	-10.59916000	-1.02116100
104.46666064	0.00000000	-10.97441000	-1.06422200
104.66666063	0.00000000	-10.59916000	0.13533460
104.86666061	0.00000000	-9.44266700	2.41141700
105.06666060	0.00000000	-7.90477300	5.47490100
105.26666059	0.00000000	-6.36687900	7.80019600
105.46666058	0.00000000	-5.21038300	9.38115100
105.66666057	0.00000000	-4.83513700	10.11934000
105.86666056	0.00000000	-5.16117100	9.33809000
106.06666054	0.00000000	-5.94857300	7.43110200
106.26666053	0.00000000	-6.74212600	4.77977300
106.46666052	0.00000000	-7.90477300	2.46063000
106.66666051	0.00000000	-9.01820900	1.29183100
106.86666050	0.00000000	-9.39345400	0.87967510
107.06666048	0.00000000	-9.01820900	1.71013800
107.26666047	0.00000000	-7.90477300	3.57406500
107.46666046	0.00000000	-6.74212600	5.89320800
107.66666045	0.00000000	-5.99163300	7.75713500
107.86666044	0.00000000	-5.57947800	8.54453700
108.06666042	0.00000000	-5.99163300	7.80019600
108.26666041	0.00000000	-6.69906400	6.31151500
108.46666040	0.00000000	-7.52952700	4.73671200
108.66666039	0.00000000	-8.28001900	3.19881900
108.86666038	0.00000000	-9.06742000	2.04232300
109.06666037	0.00000000	-9.39345400	1.66707700
109.26666035	0.00000000	-9.01820900	2.08538400
109.46666034	0.00000000	-7.90477300	3.57406500
109.66666033	0.00000000	-6.74212600	5.47490100
109.86666032	0.00000000	-5.94857300	6.68676100
110.06666031	0.00000000	-5.16117100	7.84940900
110.26666029	0.00000000	-4.83513700	8.54453700
110.46666028	0.00000000	-5.21038300	7.80019600
110.66666027	0.00000000	-6.32381900	6.31151500
110.86666026	0.00000000	-7.48646600	4.73671200
111.06666025	0.00000000	-8.28001900	3.19881900
111.26666023	0.00000000	-9.06742000	2.04232300
111.46666022	0.00000000	-9.39345400	1.66707700
111.66666021	0.00000000	-9.06742000	1.99311000
111.86666020	0.00000000	-8.32308000	2.78051200
112.06666019	0.00000000	-7.90477300	3.57406500
112.26666018	0.00000000	-7.48646600	4.73671200
112.46666016	0.00000000	-6.74212600	5.85014700
112.66666015	0.00000000	-6.36687900	6.26845500
112.86666014	0.00000000	-6.32381900	6.31151500
113.06666013	0.00000000	-6.36687900	6.31151500
113.26666012	0.00000000	-6.69906400	6.26845500
113.46666010	0.00000000	-7.11122000	5.89320800
113.66666009	0.00000000	-7.11737200	5.15501900
113.86666008	0.00000000	-7.52952700	4.73671200
114.06666007	0.00000000	-7.86171200	4.36146600
114.26666006	0.00000000	-7.90477300	3.94931100
114.46666004	0.00000000	-7.90477300	3.94315900
114.66666003	0.00000000	-7.90477300	3.53100400
114.86666002	0.00000000	-7.86171200	3.19881900
115.06666001	0.00000000	-7.48646600	3.15575800
115.26666000	0.00000000	-6.79133800	3.15575800
115.46665999	0.00000000	-6.74212600	3.19881900
115.66665997	0.00000000	-7.06815900	3.62327700
115.86665996	0.00000000	-6.74212600	4.73671200
116.06665995	0.00000000	-6.74212600	5.85014700
116.26665994	0.00000000	-7.11122000	6.31151500
116.46665993	0.00000000	-7.11737200	6.68676100
116.66665991	0.00000000	-7.52952700	7.05585600
116.86665990	0.00000000	-7.86171200	6.68676100
117.06665989	0.00000000	-7.90477300	6.31151500
117.26665988	0.00000000	-7.86171200	5.85014700
117.46665987	0.00000000	-7.48646600	4.73671200
117.66665985	0.00000000	-6.69906400	3.62327700
117.86665984	0.00000000	-5.99163300	3.19881900
118.06665983	0.00000000	-5.57947800	3.15575800
118.26665982	0.00000000	-5.94857300	3.19881900
118.46665981	0.00000000	-6.32381900	3.57406500
118.66665980	0.00000000	-6.74212600	4.36146600
118.86665978	0.00000000	-7.52952700	5.11195900
119.06665977	0.00000000	-8.28001900	5.89320800
119.26665976	0.00000000	-9.06742000	6.26845500
119.46665975	0.00000000	-9.44266700	6.31151500
119.66665974	0.00000000	-9.44266700	6.31151500
119.86665972	0.00000000	-9.01820900	6.26845500
120.06665971	0.00000000	-7.86171200	5.89320800
120.26665970	0.00000000	-6.36687900	5.15501900
120.46665969	0.00000000	-5.16117100	4.77977300
120.66665968	0.00000000	-4.41067900	4.69365100
120.86665966	0.00000000	-3.99852300	4.31840500
121.06665965	0.00000000	-4.41067900	3.57406500
121.26665964	0.00000000	-5.16117100	3.24803100
121.46665963	0.00000000	-6.36687900	3.57406500
121.66665962	0.00000000	-7.86171200	4.31840500
121.86665961	0.00000000	-9.06742000	4.69365100
122.06665959	0.00000000	-9.81791200	4.77977300
122.26665958	0.00000000	-10.23007000	5.15501900
122.46665957	0.00000000	-9.81791200	5.89320800
122.66665956	0.00000000	-9.06742000	6.26845500
122.86665955	0.00000000	-7.90477300	6.31151500
123.06665953	0.00000000	-6.74212600	6.31151500
123.26665952	0.00000000	-5.94857300	6.26845500
123.46665951	0.00000000	-5.16117100	5.89320800
123.66665950	0.00000000	-4.78592500	5.15501900
123.86665949	0.00000000	-4.78592500	4.73671200
124.06665947	0.00000000	-5.21038300	4.31840500
124.26665946	0.00000000	-6.32381900	3.57406500
124.46665945	0.00000000	-7.48646600	3.19881900
124.66665944	0.00000000	-8.28001900	3.19881900
124.86665943	0.00000000	-9.06742000	3.57406500
125.06665942	0.00000000	-9.44266700	4.31840500
125.26665940	0.00000000	-9.44266700	4.73671200
125.46665939	0.00000000	-9.06742000	5.15501900
125.66665938	0.00000000	-8.28001900	5.89320800
125.86665937	0.00000000	-7.52952700	6.26845500
126.06665936	0.00000000	-6.69906400	6.31151500
126.26665934	0.00000000	-5.94857300	6.31151500
126.46665933	0.00000000	-5.16117100	6.26845500
126.66665932	0.00000000	-4.83513700	5.89320800
126.86665931	0.00000000	-5.16117100	5.15501900
127.06665930	0.00000000	-5.94857300	4.73671200
127.26665928	0.00000000	-6.74212600	4.36146600
127.46665927	0.00000000	-7.90477300	3.99237200
127.66665926	0.00000000	-9.01820900	4.36146600
127.86665925	0.00000000	-9.44266700	4.69365100
128.06665924	0.00000000	-9.44266700	4.73671200
128.26665923	0.00000000	-9.01820900	4.77977300
128.46665921	0.00000000	-7.90477300	5.15501900
128.66665920	0.00000000	-6.74212600	5.89320800
128.86665919	0.00000000	-5.94857300	6.21924200
129.06665918	0.00000000	-5.16117100	5.89320800
129.26665917	0.00000000	-4.83513700	5.15501900
129.46665915	0.00000000	-5.16117100	4.77977300
129.66665914	0.00000000	-5.94857300	4.73671200
129.86665913	0.00000000	-6.74212600	4.73671200
130.06665912	0.00000000	-7.90477300	4.73671200
130.26665911	0.00000000	-9.01820900	4.73671200
130.46665909	0.00000000	-9.39345400	4.73671200
130.66665908	0.00000000	-9.06742000	4.77977300
130.86665907	0.00000000	-8.28001900	5.15501900
131.06665906	0.00000000	-7.52952700	5.85014700
131.26665905	0.00000000	-6.74212600	5.85014700
131.46665904	0.00000000	-6.32381900	5.15501900
131.66665902	0.00000000	-5.94857300	4.77977300
131.86665901	0.00000000	-5.57947800	4.69365100
132.06665900	0.00000000	-5.99163300	4.31840500
132.26665899	0.00000000	-6.74212600	3.62327700
132.46665898	0.00000000	-7.86171200	3.57406500
132.66665896	0.00000000	-8.59990100	3.94315900
132.86665895	0.00000000	-8.28001900	3.99237200
133.06665894	0.00000000	-7.94783400	4.77977300
133.26665893	0.00000000	-7.90477300	5.85014700
133.46665892	0.00000000	-7.86171200	6.26845500
133.66665890	0.00000000	-7.48646600	6.31151500
133.86665889	0.00000000	-6.79133800	6.31151500
134.06665888	0.00000000	-6.79133800	6.26845500
134.26665887	0.00000000	-7.43725300	5.89320800
134.46665886	0.00000000	-7.43725300	5.11195900
134.66665885	0.00000000	-6.74212600	4.36146600
134.86665883	0.00000000	-6.36687900	3.57406500
135.06665882	0.00000000	-6.32381900	3.19881900
135.26665881	0.00000000	-6.32381900	3.19881900
135.46665880	0.00000000	-6.32381900	3.57406500
135.66665879	0.00000000	-6.32381900	4.36146600
135.86665877	0.00000000	-6.36687900	5.11195900
136.06665876	0.00000000	-6.74212600	5.89320800
136.26665875	0.00000000	-7.48646600	6.26845500
136.46665874	0.00000000	-7.86171200	6.31151500
136.66665873	0.00000000	-7.90477300	6.31151500
136.86665871	0.00000000	-7.90477300	6.26845500
137.06665870	0.00000000	-7.86171200	5.89320800
137.26665869	0.00000000	-7.48646600	5.11195900
137.46665868	0.00000000	-6.74212600	4.36146600
137.66665867	0.00000000	-6.32381900	3.57406500
137.86665866	0.00000000	-5.94857300	3.19881900
138.06665864	0.00000000	-5.57947800	3.15575800
138.26665863	0.00000000	-5.94857300	3.19881900
138.46665862	0.00000000	-6.32381900	3.57406500
138.66665861	0.00000000	-6.74212600	4.31840500
138.86665860	0.00000000	-7.48646600	4.73671200
139.06665858	0.00000000	-7.86171200	5.15501900
139.26665857	0.00000000	-7.90477300	5.89320800
139.46665856	0.00000000	-7.86171200	6.26845500
139.66665855	0.00000000	-7.48646600	6.31151500
139.86665854	0.00000000	-6.74212600	6.26845500
140.06665852	0.00000000	-6.36687900	5.89320800
140.26665851	0.00000000	-6.32381900	5.15501900
140.46665850	0.00000000	-6.32381900	4.73671200
140.66665849	0.00000000	-6.36687900	4.31840500
140.86665848	0.00000000	-6.74212600	3.57406500
141.06665847	0.00000000	-7.48646600	3.19881900
141.26665845	0.00000000	-7.86171200	3.19881900
141.46665844	0.00000000	-7.90477300	3.57406500
141.66665843	0.00000000	-7.90477300	4.36146600
141.86665842	0.00000000	-7.86171200	5.11195900
142.06665841	0.00000000	-7.48646600	5.89320800
142.26665839	0.00000000	-6.74212600	6.26845500
142.46665838	0.00000000	-6.36687900	6.31151500
142.66665837	0.00000000	-6.32381900	6.26845500
142.86665836	0.00000000	-6.36687900	5.89320800
143.06665835	0.00000000	-6.74212600	5.15501900
143.26665834	0.00000000	-7.48646600	4.73671200
143.46665832	0.00000000	-7.86171200	4.31840500
143.66665831	0.00000000	-7.90477300	3.57406500
143.86665830	0.00000000	-7.86171200	3.24803100
144.06665829	0.00000000	-7.48646600	3.57406500
144.26665828	0.00000000	-6.74212600	4.36146600
144.46665826	0.00000000	-6.36687900	5.11195900
144.66665825	0.00000000	-6.32381900	5.89320800
144.86665824	0.00000000	-6.32381900	6.26845500
145.06665823	0.00000000	-6.32381900	6.31151500
145.26665822	0.00000000	-6.32381900	6.26845500
145.46665820	0.00000000	-6.36687900	5.89320800
145.66665819	0.00000000	-6.74212600	5.15501900
145.86665818	0.00000000	-7.48646600	4.73671200
146.06665817	0.00000000	-7.86171200	4.31840500
146.26665816	0.00000000	-7.90477300	3.57406500
146.46665815	0.00000000	-7.86171200	3.19881900
146.66665813	0.00000000	-7.48646600	3.19881900
146.86665812	0.00000000	-6.74212600	3.57406500
147.06665811	0.00000000	-6.36687900	4.31840500
147.26665810	0.00000000	-6.32381900	4.73671200
147.46665809	0.00000000	-6.32381900	5.15501900
147.66665807	0.00000000	-6.36687900	5.89320800
147.86665806	0.00000000	-6.69906400	6.26845500
148.06665805	0.00000000	-7.11122000	6.31151500
148.26665804	0.00000000	-7.11737200	6.26845500
148.46665803	0.00000000	-7.52952700	5.89320800
148.66665801	0.00000000	-7.86171200	5.15501900
148.86665800	0.00000000	-7.90477300	4.77977300
149.06665799	0.00000000	-7.86171200	4.69365100
149.26665798	0.00000000	-7.48646600	4.36146600
149.46665797	0.00000000	-6.74212600	3.99237200
149.66665796	0.00000000	-6.36687900	4.36146600
149.86665794	0.00000000	-6.32381900	4.69365100
150.06665793	0.00000000	-6.32381900	4.77977300
150.26665792	0.00000000	-6.32381900	5.15501900
150.46665791	0.00000000	-6.32381900	5.89320800
150.66665790	0.00000000	-6.36687900	6.26845500
150.86665788	0.00000000	-6.74212600	6.26845500
151.06665787	0.00000000	-7.48646600	5.93626900
151.26665786	0.00000000	-7.86171200	5.53026500
151.46665785	0.00000000	-7.90477300	5.51796200
151.66665784	0.00000000	-7.90477300	5.11195900
151.86665782	0.00000000	-7.90477300	4.77977300
152.06665781	0.00000000	-7.86171200	4.73671200
152.26665780	0.00000000	-7.48646600	4.73671200
152.46665779	0.00000000	-6.74212600	4.73671200
152.66665778	0.00000000	-6.36687900	4.73671200
152.86665777	0.00000000	-6.28075700	4.77977300
153.06665775	0.00000000	-5.94857300	5.11195900
153.26665774	0.00000000	-5.57947800	5.51796200
153.46665773	0.00000000	-5.99163300	5.48105300
153.66665772	0.00000000	-6.69906400	5.56717500
153.86665771	0.00000000	-7.48646600	5.53026500
154.06665769	0.00000000	-7.86171200	5.89320800
154.26665768	0.00000000	-7.90477300	5.85014700
154.46665767	0.00000000	-7.90477300	5.15501900
154.66665766	0.00000000	-7.90477300	4.77977300
154.86665765	0.00000000	-7.86171200	4.73671200
155.06665763	0.00000000	-7.48646600	4.73671200
155.26665762	0.00000000	-6.74212600	4.73671200
155.46665761	0.00000000	-6.36687900	4.73671200
155.66665760	0.00000000	-6.32381900	4.73671200
155.86665759	0.00000000	-6.32381900	4.77977300
156.06665758	0.00000000	-6.32381900	5.11195900
156.26665756	0.00000000	-6.36687900	5.51796200
156.46665755	0.00000000	-6.69906400	5.53026500
156.66665754	0.00000000	-7.11122000	5.93626900
156.86665753	0.00000000	-7.11737200	6.26845500
157.06665752	0.00000000	-7.52952700	6.31151500
157.26665750	0.00000000	-7.86171200	6.26845500
157.46665749	0.00000000	-7.90477300	5.89320800
157.66665748	0.00000000	-7.86171200	5.15501900
157.86665747	0.00000000	-7.48646600	4.77977300
158.06665746	0.00000000	-6.74212600	4.73671200
158.26665744	0.00000000	-6.36687900	4.73671200
158.46665743	0.00000000	-6.32381900	4.73671200
158.66665742	0.00000000	-6.32381900	4.73671200
158.86665741	0.00000000	-6.32381900	4.73671200
159.06665740	0.00000000	-6.32381900	4.73671200
159.26665739	0.00000000	-6.32381900	4.77977300
159.46665737	0.00000000	-6.36687900	5.15501900
159.66665736	0.00000000	-6.74212600	5.89320800
159.86665735	0.00000000	-7.48646600	6.26845500
160.06665734	0.00000000	-7.86171200	6.31151500
160.26665733	0.00000000	-7.90477300	6.26845500
160.46665731	0.00000000	-7.90477300	5.89320800
160.66665730	0.00000000	-7.86171200	5.15501900
160.86665729	0.00000000	-7.48646600	4.77977300
161.06665728	0.00000000	-6.74212600	4.73671200
161.26665727	0.00000000	-6.36687900	4.73671200
161.46665725	0.00000000	-6.32381900	4.73671200
161.66665724	0.00000000	-6.32381900	4.73671200
161.86665723	0.00000000	-6.32381900	4.77977300
162.06665722	0.00000000	-6.32381900	5.15501900
162.26665721	0.00000000	-6.32381900	5.85014700
162.46665720	0.00000000	-6.32381900	5.89320800
162.66665718	0.00000000	-6.32381900	5.57332700
162.86665717	0.00000000	-6.36687900	5.93626900
163.06665716	0.00000000	-6.69906400	6.21924200
163.26665715	0.00000000	-7.11122000	5.89320800
163.46665714	0.00000000	-7.11737200	5.15501900
163.66665712	0.00000000	-7.52952700	4.77977300
163.86665711	0.00000000	-7.86171200	4.73671200
164.06665710	0.00000000	-7.90477300	4.73671200
164.26665709	0.00000000	-7.86171200	4.69365100
164.46665708	0.00000000	-7.48646600	4.36146600
164.66665706	0.00000000	-6.69906400	3.99237200
164.86665705	0.00000000	-5.99163300	4.36146600
165.06665704	0.00000000	-5.57947800	4.69365100
165.26665703	0.00000000	-5.94857300	4.77977300
165.46665702	0.00000000	-6.28075700	5.11195900
165.66665701	0.00000000	-6.32381900	5.47490100
165.86665699	0.00000000	-6.36687900	5.11195900
166.06665698	0.00000000	-6.74212600	4.77977300
166.26665697	0.00000000	-7.48646600	4.73671200
166.46665696	0.00000000	-7.86171200	4.73671200
166.66665695	0.00000000	-7.90477300	4.73671200
166.86665693	0.00000000	-7.90477300	4.73671200
167.06665692	0.00000000	-7.86171200	4.73671200
167.26665691	0.00000000	-7.48646600	4.73671200
167.46665690	0.00000000	-6.74212600	4.73671200
167.66665689	0.00000000	-6.36687900	4.73671200
167.86665687	0.00000000	-6.32381900	4.73671200
168.06665686	0.00000000	-6.32381900	4.73671200
168.26665685	0.00000000	-6.32381900	4.73671200
168.46665684	0.00000000	-6.32381900	4.73671200
168.66665683	0.00000000	-6.32381900	4.73671200
168.86665682	0.00000000	-6.32381900	4.73671200
169.06665680	0.00000000	-6.32381900	4.73671200
169.26665679	0.00000000	-6.32381900	4.73671200
169.46665678	0.00000000	-6.32381900	4.73671200
169.66665677	0.00000000	-6.32381900	4.73671200
169.86665676	0.00000000	-6.36687900	4.73671200
170.06665674	0.00000000	-6.69906400	4.73671200
170.26665673	0.00000000	-7.06815900	4.73671200
170.46665672	0.00000000	-6.69906400	4.73671200
170.66665671	0.00000000	-6.36687900	4.73671200
170.86665670	0.00000000	-6.32381900	4.73671200
171.06665668	0.00000000	-6.32381900	4.73671200
171.26665667	0.00000000	-6.32381900	4.73671200
171.46665666	0.00000000	-6.32381900	4.73671200
171.66665665	0.00000000	-6.32381900	4.73671200
171.86665664	0.00000000	-6.32381900	4.73671200
172.06665663	0.00000000	-6.32381900	4.73671200
172.26665661	0.00000000	-6.32381900	4.73671200
172.46665660	0.00000000	-6.32381900	4.73671200
172.66665659	0.00000000	-6.32381900	4.73671200
172.86665658	0.00000000	-6.32381900	4.73671200
173.06665657	0.00000000	-6.32381900	4.73671200
173.26665655	0.00000000	-6.32381900	4.73671200
173.46665654	0.00000000	-6.32381900	4.73671200
173.66665653	0.00000000	-6.32381900	4.73671200
173.86665652	0.00000000	-6.32381900	4.73671200
174.06665651	0.00000000	-6.32381900	4.73671200
174.26665649	0.00000000	-6.32381900	4.73671200
174.46665648	0.00000000	-6.32381900	4.73671200
174.66665647	0.00000000	-6.32381900	4.73671200
174.86665646	0.00000000	-6.32381900	4.73671200
175.06665645	0.00000000	-6.32381900	4.73671200
175.26665644	0.00000000	-6.32381900	4.73671200
175.46665642	0.00000000	-6.32381900	4.73671200
175.66665641	0.00000000	-6.32381900	4.73671200
175.86665640	0.00000000	-6.32381900	4.73671200
176.06665639	0.00000000	-6.32381900	4.73671200
176.26665638	0.00000000	-6.32381900	4.73671200
176.46665636	0.00000000	-6.32381900	4.73671200
176.66665635	0.00000000	-6.32381900	4.73671200
176.86665634	0.00000000	-6.32381900	4.73671200
177.06665633	0.00000000	-6.32381900	4.73671200
177.26665632	0.00000000	-6.32381900	4.73671200
177.46665630	0.00000000	-6.32381900	4.73671200
177.66665629	0.00000000	-6.32381900	4.73671200
177.86665628	0.00000000	-6.32381900	4.73671200
178.06665627	0.00000000	-6.32381900	4.73671200
178.26665626	0.00000000	-6.32381900	4.73671200
178.46665625	0.00000000	-6.32381900	4.73671200
178.66665623	0.00000000	-6.32381900	4.73671200
178.86665622	0.00000000	-6.32381900	4.73671200
179.06665621	0.00000000	-6.32381900	4.77977300
179.26665620	0.00000000	-6.36687900	5.11195900
179.46665619	0.00000000	-6.69906400	5.47490100
179.66665617	0.00000000	-7.06815900	5.11195900
179.86665616	0.00000000	-6.69906400	4.77977300
180.06665615	0.00000000	-6.41609200	4.69365100
180.26665614	0.00000000	-6.69906400	4.36146600
180.46665613	0.00000000	-7.06815900	3.99237200
180.66665611	0.00000000	-6.69906400	4.36146600
180.86665610	0.00000000	-6.36687900	4.69365100
181.06665609	0.00000000	-6.32381900	4.73671200
181.26665608	0.00000000	-6.32381900	4.73671200
181.46665607	0.00000000	-6.32381900	4.77977300
181.66665606	0.00000000	-6.32381900	5.15501900
181.86665604	0.00000000	-6.32381900	5.89320800
182.06665603	0.00000000	-6.32381900	6.21924200
182.26665602	0.00000000	-6.32381900	5.89320800
182.46665601	0.00000000	-6.32381900	5.15501900
182.66665600	0.00000000	-6.32381900	4.77977300
182.86665598	0.00000000	-6.32381900	4.73671200
183.06665597	0.00000000	-6.32381900	4.73671200
183.26665596	0.00000000	-6.32381900	4.73671200
183.46665595	0.00000000	-6.32381900	4.73671200
183.66665594	0.00000000	-6.32381900	4.73671200
183.86665592	0.00000000	-6.32381900	4.73671200
184.06665591	0.00000000	-6.32381900	4.77977300
184.26665590	0.00000000	-6.32381900	5.11195900
184.46665589	0.00000000	-6.32381900	5.51796200
184.66665588	0.00000000	-6.32381900	5.53026500
184.86665587	0.00000000	-6.32381900	5.93626900
185.06665585	0.00000000	-6.32381900	6.21924200
185.26665584	0.00000000	-6.32381900	5.89320800
185.46665583	0.00000000	-6.32381900	5.15501900
185.66665582	0.00000000	-6.32381900	4.77977300
185.86665581	0.00000000	-6.32381900	4.73671200
186.06665579	0.00000000	-6.32381900	4.73671200
186.26665578	0.00000000	-6.32381900	4.73671200
186.46665577	0.00000000	-6.32381900	4.73671200
186.66665576	0.00000000	-6.32381900	4.73671200
186.86665575	0.00000000	-6.32381900	4.73671200
187.06665573	0.00000000	-6.32381900	4.73671200
187.26665572	0.00000000	-6.32381900	4.77977300
187.46665571	0.00000000	-6.32381900	5.15501900
187.66665570	0.00000000	-6.32381900	5.89320800
187.86665569	0.00000000	-6.32381900	6.26845500
188.06665568	0.00000000	-6.36687900	6.26845500
188.26665566	0.00000000	-6.69906400	5.89320800
188.46665565	0.00000000	-7.01894700	5.15501900
188.66665564	0.00000000	-6.32381900	4.77977300
188.86665563	0.00000000	-5.62869100	4.73671200
189.06665562	0.00000000	-5.94857300	4.69365100
189.26665560	0.00000000	-6.28075700	4.36146600
189.46665559	0.00000000	-6.32381900	3.99237200
189.66665558	0.00000000	-6.32381900	4.36146600
189.86665557	0.00000000	-6.32381900	4.69365100
190.06665556	0.00000000	-6.32381900	4.73671200
190.26665554	0.00000000	-6.32381900	4.73671200
190.46665553	0.00000000	-6.32381900	4.77977300
190.66665552	0.00000000	-6.32381900	5.11195900
190.86665551	0.00000000	-6.32381900	5.51796200
191.06665550	0.00000000	-6.32381900	5.48105300
191.26665549	0.00000000	-6.32381900	5.51796200
191.46665547	0.00000000	-6.32381900	5.11195900
191.66665546	0.00000000	-6.32381900	4.77977300
191.86665545	0.00000000	-6.32381900	4.73671200
192.06665544	0.00000000	-6.32381900	4.73671200
192.26665543	0.00000000	-6.32381900	4.73671200
192.46665541	0.00000000	-6.32381900	4.73671200
192.66665540	0.00000000	-6.32381900	4.73671200
192.86665539	0.00000000	-6.32381900	4.73671200
193.06665538	0.00000000	-6.36687900	4.73671200
193.26665537	0.00000000	-6.69906400	4.73671200
193.46665535	0.00000000	-7.11122000	4.73671200
193.66665534	0.00000000	-7.07431000	4.77977300
193.86665533	0.00000000	-7.11122000	5.11195900
194.06665532	0.00000000	-6.69906400	5.51796200
194.26665531	0.00000000	-6.36687900	5.53026500
194.46665530	0.00000000	-6.32381900	5.93626900
194.66665528	0.00000000	-6.32381900	6.26845500
194.86665527	0.00000000	-6.32381900	6.26845500
195.06665526	0.00000000	-6.32381900	5.89320800
195.26665525	0.00000000	-6.32381900	5.15501900
195.46665524	0.00000000	-6.32381900	4.77977300
195.66665522	0.00000000	-6.32381900	4.73671200
195.86665521	0.00000000	-6.32381900	4.73671200
196.06665520	0.00000000	-6.32381900	4.73671200
