Time	Channel A	Channel B	Channel C
(us)	(V)	(mV)	(mV)

-4.59999956	0.00000000	-12.64764000	3.15575800
-4.39999957	0.00000000	-12.60458000	3.15575800
-4.19999958	0.00000000	-12.27239000	3.15575800
-3.99999959	0.00000000	-11.90330000	3.15575800
-3.79999960	0.00000000	-12.22933000	3.15575800
-3.59999962	0.00000000	-12.22933000	3.15575800
-3.39999963	0.00000000	-11.90330000	3.15575800
-3.19999964	0.00000000	-12.27239000	3.15575800
-2.99999965	0.00000000	-12.60458000	3.15575800
-2.79999966	0.00000000	-12.64764000	3.15575800
-2.59999968	0.00000000	-12.64764000	3.15575800
-2.39999969	0.00000000	-12.64764000	3.15575800
-2.19999970	0.00000000	-12.64764000	3.15575800
-1.99999971	0.00000000	-12.64764000	3.15575800
-1.79999972	0.00000000	-12.64764000	3.15575800
-1.59999973	0.00000000	-12.64764000	3.15575800
-1.39999975	0.00000000	-12.64764000	3.15575800
-1.19999976	0.00000000	-12.64764000	3.15575800
-0.99999977	0.00000000	-12.64764000	3.15575800
-0.79999978	0.00000000	-12.64764000	3.15575800
-0.59999979	0.00000000	-12.64764000	3.15575800
-0.39999981	0.15871060	-12.64764000	3.15575800
-0.19999982	0.47736220	-12.64764000	3.15575800
0.00000017	0.79601380	-12.64764000	3.15575800
0.20000016	0.95533960	-12.64764000	3.15575800
0.40000015	0.95533960	-12.64764000	3.15575800
0.60000013	0.63668800	-12.64764000	3.15575800
0.80000012	0.00000000	-12.64764000	3.15575800
1.00000011	-0.95533960	-12.64764000	3.15575800
1.20000010	-2.07062000	-12.64764000	3.15575800
1.40000009	-2.70792300	-12.64764000	3.15575800
1.60000008	-2.70792300	-12.64764000	3.19881900
1.80000006	-1.91129400	-12.64764000	3.53100400
2.00000005	-0.47736220	-12.64764000	3.90009800
2.20000004	1.59264300	-12.64764000	3.53100400
2.40000003	3.66326300	-12.64764000	3.19881900
2.60000002	5.09719500	-12.64764000	3.15575800
2.80000000	5.25652100	-12.64764000	3.15575800
2.99999999	3.98191400	-12.64764000	3.11269700
3.19999998	1.59264300	-12.64764000	2.78051200
3.39999997	-1.75196900	-12.64764000	2.41141700
3.59999996	-5.09719500	-12.60458000	2.78051200
3.79999994	-7.32714100	-12.27239000	3.15575800
3.99999993	-7.96444400	-11.90330000	3.57406500
4.19999992	-6.53112700	-12.22933000	4.26919300
4.39999991	-3.18590100	-12.18012000	4.26919300
4.59999990	1.27399100	-11.53420000	3.62327700
4.79999989	5.41584600	-11.48499000	3.57406500
4.99999987	8.44242100	-11.85408000	3.90009800
5.19999986	9.55770200	-11.86024000	3.53100400
5.39999985	8.12377000	-12.27239000	3.19881900
5.59999984	4.61921700	-12.60458000	3.15575800
5.79999983	0.00000000	-12.64764000	3.15575800
5.99999981	-4.61921700	-12.64764000	3.15575800
6.19999980	-8.12377000	-12.64764000	3.15575800
6.39999979	-9.55770200	-12.60458000	3.19881900
6.59999978	-8.44242100	-12.22933000	3.53100400
6.79999977	-5.41584600	-11.53420000	3.90009800
6.99999975	-1.27399100	-11.48499000	3.53100400
7.19999974	3.02657500	-11.85408000	3.19881900
7.39999973	6.21247500	-11.86024000	3.15575800
7.59999972	7.80511800	-12.27239000	3.15575800
7.79999971	7.16781500	-12.60458000	3.15575800
7.99999970	4.93786900	-12.64764000	3.15575800
8.19999968	1.75196900	-12.64764000	3.15575800
8.39999967	-1.43331700	-12.64764000	3.15575800
8.59999966	-3.98191400	-12.64764000	3.15575800
8.79999965	-5.09719500	-12.64764000	3.15575800
8.99999964	-4.93786900	-12.64764000	3.15575800
9.19999962	-3.50393700	-12.64764000	3.15575800
9.39999961	-1.59264300	-12.64764000	3.15575800
9.59999960	0.31803640	-12.64764000	3.15575800
9.79999959	1.75196900	-12.60458000	3.15575800
9.99999958	2.54859700	-12.27239000	3.15575800
10.19999956	2.38927200	-11.86024000	3.15575800
10.39999955	1.91129400	-11.89715000	3.15575800
10.59999954	0.95533960	-11.86024000	3.15575800
10.79999953	0.15871060	-12.27239000	3.15575800
10.99999952	-0.47736220	-12.60458000	3.15575800
11.19999951	-0.95533960	-12.60458000	3.15575800
11.39999949	-0.95533960	-12.22933000	3.15575800
11.59999948	-0.79601380	-11.53420000	3.15575800
11.79999947	-0.63668800	-11.53420000	3.15575800
11.99999946	-0.31803640	-12.22933000	3.15575800
12.19999945	-0.15871060	-12.60458000	3.15575800
12.39999943	-0.15871060	-12.64764000	3.15575800
12.59999942	0.00000000	-12.64764000	3.15575800
12.79999941	0.00000000	-12.60458000	3.15575800
12.99999940	0.00000000	-12.22933000	3.15575800
13.19999939	0.15871060	-11.53420000	3.15575800
13.39999937	0.00000000	-11.53420000	3.15575800
13.59999936	0.00000000	-12.22933000	3.15575800
13.79999935	0.00000000	-12.60458000	3.15575800
13.99999934	0.00000000	-12.64764000	3.15575800
14.19999933	-0.15871060	-12.64764000	3.15575800
14.39999932	-0.15871060	-12.64764000	3.15575800
14.59999930	0.00000000	-12.64764000	3.15575800
14.79999929	0.00000000	-12.64764000	3.15575800
14.99999928	0.00000000	-12.60458000	3.15575800
15.19999927	0.00000000	-12.27239000	3.15575800
15.39999926	0.00000000	-11.90330000	3.15575800
15.59999924	0.00000000	-12.27239000	3.15575800
15.79999923	0.00000000	-12.60458000	3.15575800
15.99999922	0.00000000	-12.64764000	3.15575800
16.19999921	0.00000000	-12.60458000	3.15575800
16.39999920	0.00000000	-12.22933000	3.15575800
16.59999919	-0.15871060	-11.48499000	3.15575800
16.79999917	0.00000000	-11.06668000	3.15575800
16.99999916	0.00000000	-10.69144000	3.15575800
17.19999915	0.00000000	-10.27928000	3.15575800
17.39999914	0.00000000	-10.27313000	3.15575800
17.59999913	0.00000000	-9.90403500	3.15575800
17.79999911	0.00000000	-9.99630800	3.15575800
17.99999910	0.00000000	-11.10974000	3.15575800
18.19999909	0.00000000	-12.64764000	3.15575800
18.39999908	0.00000000	-14.18553000	3.15575800
18.59999907	0.00000000	-15.39124000	3.15575800
18.79999905	0.00000000	-16.18479000	3.19881900
18.99999904	0.00000000	-16.87992000	3.57406500
19.19999903	0.00000000	-16.41855000	4.26919300
19.39999902	0.00000000	-14.09326000	4.26919300
19.59999901	0.00000000	-10.64838000	3.57406500
19.79999900	0.00000000	-6.74212600	3.19881900
19.99999898	0.00000000	-3.29724400	3.15575800
20.19999897	0.00000000	-0.97194880	3.15575800
20.39999896	0.00000000	-0.68897630	3.15575800
20.59999895	0.00000000	-3.02042300	3.15575800
20.79999894	0.00000000	-8.13238100	3.15575800
20.99999892	0.00000000	-15.06521000	3.15575800
21.19999891	0.00000000	-22.82849000	3.15575800
21.39999890	0.00000000	-29.30610000	3.15575800
21.59999889	0.00000000	-32.74483000	3.15575800
21.79999888	0.00000000	-31.48991000	3.15575800
21.99999886	0.00000000	-25.30143000	3.15575800
22.19999885	0.00000000	-15.21284000	3.15575800
22.39999884	0.00000000	-3.20497000	3.15575800
22.59999883	0.00000000	8.37844500	3.15575800
22.79999882	0.00000000	16.79995000	3.15575800
22.99999881	0.00000000	19.40822000	3.19881900
23.19999879	0.00000000	14.70842000	3.57406500
23.39999878	0.00000000	3.03272600	4.31840500
23.59999877	0.00000000	-13.57652000	4.73671200
23.79999876	0.00000000	-31.67446000	5.11195900
23.99999875	0.00000000	-46.33366000	5.47490100
24.19999873	0.00000000	-54.01082000	5.06274600
24.39999872	0.00000000	-52.75591000	4.31840500
24.59999871	0.00000000	-41.45546000	3.11269700
24.79999870	0.00000000	-22.18873000	1.57480300
24.99999869	0.00000000	0.60900590	0.00000000
25.19999867	0.00000000	21.40748000	-1.48868100
25.39999866	0.00000000	35.31619000	-2.22687000
25.59999865	0.00000000	38.71801000	-1.43946800
25.79999864	0.00000000	30.61639000	0.51058070
25.99999863	0.00000000	12.43233000	3.62327700
26.19999862	0.00000000	-11.48499000	7.47416300
26.39999860	0.00000000	-35.86368000	10.96211000
26.59999859	0.00000000	-55.13041000	13.65650000
26.79999858	0.00000000	-64.75763000	14.72687000
26.99999857	0.00000000	-62.06324000	13.10285000
27.19999856	0.00000000	-47.82234000	8.45226300
27.39999854	0.00000000	-25.81201000	1.48868100
27.59999853	0.00000000	-1.10728300	-6.22539300
27.79999852	0.00000000	20.57087000	-13.10285000
27.99999851	0.00000000	34.48573000	-16.91068000
28.19999850	0.00000000	38.01673000	-16.16634000
28.39999848	0.00000000	30.29650000	-11.47884000
28.59999847	0.00000000	13.77338000	-3.25418300
28.79999846	0.00000000	-7.52952700	7.94168200
28.99999845	0.00000000	-28.75246000	19.46358000
29.19999844	0.00000000	-45.40477000	28.34030000
29.39999843	0.00000000	-53.59251000	32.52337000
29.59999841	0.00000000	-52.52214000	30.52411000
29.79999840	0.00000000	-43.25787000	22.02264000
29.99999839	0.00000000	-27.81742000	8.87672100
30.19999838	0.00000000	-10.08243000	-6.22539300
30.39999837	0.00000000	5.86860200	-20.48474000
30.59999835	0.00000000	17.12598000	-30.43184000
30.79999834	0.00000000	22.19488000	-33.12623000
30.99999833	0.00000000	19.86959000	-27.73745000
31.19999832	0.00000000	11.07283000	-15.74803000
31.39999831	0.00000000	-1.67322800	0.51058070
31.59999829	0.00000000	-15.25591000	17.88263000
31.79999828	0.00000000	-27.25763000	32.56643000
31.99999827	0.00000000	-35.40231000	41.44316000
32.19999826	0.00000000	-37.77682000	42.55659000
32.39999825	0.00000000	-34.75024000	35.21776000
32.59999824	0.00000000	-27.39296000	20.95226000
32.79999822	0.00000000	-17.34744000	3.20497000
32.99999821	0.00000000	-6.87746000	-14.21629000
33.19999820	0.00000000	2.00541300	-27.73745000
33.39999819	0.00000000	7.40034400	-34.75024000
33.59999818	0.00000000	7.82480200	-33.96284000
33.79999816	0.00000000	3.63558100	-25.83046000
33.99999815	0.00000000	-3.67249000	-11.52190000
34.19999814	0.00000000	-12.13706000	5.75787400
34.39999813	0.00000000	-19.48819000	21.64739000
34.59999812	0.00000000	-24.18799000	32.89862000
34.79999810	0.00000000	-25.71973000	37.91216000
34.99999809	0.00000000	-23.81275000	35.21776000
35.19999808	0.00000000	-18.83612000	25.63976000
35.39999807	0.00000000	-12.69070000	12.11860000
35.59999806	0.00000000	-6.87746000	-2.60211600
35.79999805	0.00000000	-2.64517700	-15.66191000
35.99999803	0.00000000	-1.10728300	-23.73892000
36.19999802	0.00000000	-2.64517700	-24.58169000
36.39999801	0.00000000	-6.83439900	-18.86688000
36.59999800	0.00000000	-12.18012000	-8.45841400
36.79999799	0.00000000	-16.83686000	4.22613100
36.99999797	0.00000000	-19.90650000	15.74803000
37.19999796	0.00000000	-20.69390000	23.09301000
37.39999795	0.00000000	-18.79306000	24.66781000
37.59999794	0.00000000	-15.34203000	20.44168000
37.79999793	0.00000000	-11.06668000	11.65723000
37.99999791	0.00000000	-6.83439900	0.97194880
38.19999790	0.00000000	-3.75861200	-7.85556000
38.39999789	0.00000000	-2.60211600	-12.50615000
38.59999788	0.00000000	-3.71555100	-12.13091000
38.79999787	0.00000000	-6.41609200	-6.78518600
38.99999786	0.00000000	-9.95324800	1.62401600
39.19999784	0.00000000	-14.18553000	10.45152000
39.39999783	0.00000000	-18.04257000	17.32899000
39.59999782	0.00000000	-20.37401000	19.98031000
39.79999781	0.00000000	-21.16142000	17.32899000
39.99999780	0.00000000	-19.95571000	10.40846000
40.19999778	0.00000000	-16.87992000	1.19955700
40.39999777	0.00000000	-12.64764000	-7.99089500
40.59999776	0.00000000	-8.37229300	-14.08095000
40.79999775	0.00000000	-4.87819900	-15.28666000
40.99999774	0.00000000	-2.55290300	-11.42962000
41.19999772	0.00000000	-2.17765700	-3.76476400
41.39999771	0.00000000	-3.67249000	5.85014700
41.59999770	0.00000000	-6.41609200	14.67766000
41.79999769	0.00000000	-9.90403500	20.44168000
41.99999768	0.00000000	-13.76107000	21.60433000
42.19999767	0.00000000	-16.87992000	17.83957000
42.39999765	0.00000000	-18.83612000	10.91289000
42.59999764	0.00000000	-19.62352000	2.82972400
42.79999763	0.00000000	-18.83612000	-4.92125900
42.99999762	0.00000000	-16.92298000	-10.22392000
43.19999761	0.00000000	-14.18553000	-11.84178000
43.39999759	0.00000000	-11.15896000	-9.20275500
43.59999758	0.00000000	-8.79060000	-4.27534400
43.79999757	0.00000000	-7.62180000	1.57480300
43.99999756	0.00000000	-7.16043300	7.33882900
44.19999755	0.00000000	-7.57258800	11.56496000
44.39999753	0.00000000	-8.28001900	13.14591000
44.59999752	0.00000000	-9.06742000	12.07554000
44.79999751	0.00000000	-9.44266700	9.38115100
44.99999750	0.00000000	-9.48572700	5.89320800
45.19999749	0.00000000	-9.52879000	2.04232300
45.39999748	0.00000000	-9.99630800	-1.02116100
45.59999746	0.00000000	-11.57726000	-2.60211600
45.79999745	0.00000000	-14.27165000	-2.64517700
45.99999744	0.00000000	-17.34744000	-1.48868100
46.19999743	0.00000000	-20.04183000	0.46751960
46.39999742	0.00000000	-21.53666000	3.15575800
46.59999740	0.00000000	-21.11220000	5.80093500
46.79999739	0.00000000	-18.37475000	7.38188900
46.99999738	0.00000000	-13.71801000	7.80019600
47.19999737	0.00000000	-7.86171200	7.42495000
47.39999736	0.00000000	-1.75935000	6.22539300
47.59999734	0.00000000	2.84202700	4.31840500
47.79999733	0.00000000	3.96161400	1.99311000
47.99999732	0.00000000	1.63016700	0.09227362
48.19999731	0.00000000	-4.18307100	-1.06422200
48.39999730	0.00000000	-12.27239000	-1.06422200
48.59999729	0.00000000	-20.41708000	0.09227362
48.79999727	0.00000000	-27.30069000	2.04232300
48.99999726	0.00000000	-30.73942000	4.73671200
49.19999725	0.00000000	-29.21383000	7.43110200
49.39999724	0.00000000	-23.81275000	9.33809000
49.59999723	0.00000000	-15.25591000	10.11934000
49.79999721	0.00000000	-5.29650500	9.33809000
49.99999720	0.00000000	3.16806100	7.38188900
50.19999719	0.00000000	7.77559000	4.26919300
50.39999718	0.00000000	7.40034400	0.46751960
50.59999717	0.00000000	2.05462600	-2.60211600
50.79999715	0.00000000	-6.36687900	-4.18307100
50.99999714	0.00000000	-15.29897000	-4.18307100
51.19999713	0.00000000	-23.02534000	-2.60211600
51.39999712	0.00000000	-28.00197000	0.51058070
51.59999711	0.00000000	-28.37721000	4.73671200
51.79999710	0.00000000	-24.18799000	8.91978400
51.99999708	0.00000000	-16.87992000	11.61417000
52.19999707	0.00000000	-8.41535400	12.03248000
52.39999706	0.00000000	-1.15649600	10.53765000
52.59999705	0.00000000	2.70669300	7.80019600
52.79999704	0.00000000	1.96235200	4.31840500
52.99999702	0.00000000	-2.55290300	0.46751960
53.19999701	0.00000000	-9.11048200	-2.60211600
53.39999700	0.00000000	-15.67421000	-4.14000900
53.59999699	0.00000000	-21.06914000	-3.76476400
53.79999698	0.00000000	-23.72047000	-1.48868100
53.99999696	0.00000000	-22.60704000	1.53174200
54.19999695	0.00000000	-18.41781000	4.26919300
54.39999694	0.00000000	-12.60458000	6.22539300
54.59999693	0.00000000	-6.50221400	7.38188900
54.79999692	0.00000000	-1.90083600	7.33882900
54.99999691	0.00000000	-0.73203740	5.85014700
55.19999689	0.00000000	-2.60211600	3.61712600
55.39999688	0.00000000	-6.83439900	2.08538400
55.59999687	0.00000000	-12.22933000	1.66707700
55.79999686	0.00000000	-17.21210000	2.08538400
55.99999685	0.00000000	-20.69390000	3.61712600
56.19999683	0.00000000	-21.44439000	5.85014700
56.39999682	0.00000000	-19.58046000	7.33882900
56.59999681	0.00000000	-15.71727000	7.33882900
56.79999680	0.00000000	-11.10974000	5.80093500
56.99999679	0.00000000	-6.87746000	3.11269700
57.19999677	0.00000000	-4.18307100	0.04306102
57.39999676	0.00000000	-3.75861200	-2.60211600
57.59999675	0.00000000	-5.29650500	-3.76476400
57.79999674	0.00000000	-8.32308000	-2.93430100
57.99999673	0.00000000	-11.81102000	-0.22760820
58.19999672	0.00000000	-14.56078000	4.36146600
58.39999670	0.00000000	-16.83686000	9.00590400
58.59999669	0.00000000	-17.57505000	12.82603000
58.79999668	0.00000000	-16.14173000	15.08981000
58.99999667	0.00000000	-14.22859000	13.89641000
59.19999666	0.00000000	-12.22933000	10.07628000
59.39999664	0.00000000	-9.95324800	4.22613100
59.59999663	0.00000000	-8.45841400	-2.64517700
59.79999662	0.00000000	-8.41535400	-8.36614100
59.99999661	0.00000000	-9.48572700	-11.01132000
60.19999660	0.00000000	-10.64838000	-9.56569900
60.39999658	0.00000000	-11.44193000	-4.92741100
60.59999657	0.00000000	-12.22933000	1.25492100
60.79999656	0.00000000	-12.60458000	8.63681000
60.99999655	0.00000000	-12.60458000	15.10212000
61.19999654	0.00000000	-12.22933000	18.95300000
61.39999653	0.00000000	-11.44193000	18.90994000
61.59999651	0.00000000	-10.73450000	14.72687000
61.79999650	0.00000000	-10.32234000	7.80019600
61.99999649	0.00000000	-10.73450000	0.09227362
62.19999648	0.00000000	-11.48499000	-6.87746000
62.39999647	0.00000000	-12.64764000	-11.47884000
62.59999645	0.00000000	-13.76107000	-12.63533000
62.79999644	0.00000000	-14.13632000	-9.94094400
62.99999643	0.00000000	-13.76107000	-4.14000900
63.19999642	0.00000000	-12.60458000	3.53100400
63.39999641	0.00000000	-11.06668000	11.23893000
63.59999639	0.00000000	-9.52879000	16.63386000
63.79999638	0.00000000	-8.37229300	19.00221000
63.99999637	0.00000000	-7.99704600	17.79650000
64.19999636	0.00000000	-8.37229300	13.23819000
64.39999635	0.00000000	-9.52879000	6.68676100
64.59999634	0.00000000	-11.06668000	0.13533460
64.79999632	0.00000000	-12.60458000	-5.29650500
64.99999631	0.00000000	-13.76107000	-8.40920300
65.19999630	0.00000000	-14.13632000	-8.87672100
65.39999629	0.00000000	-13.76107000	-7.29576700
65.59999628	0.00000000	-12.60458000	-3.80782500
65.79999626	0.00000000	-11.10974000	1.15649600
65.99999625	0.00000000	-9.95324800	5.80093500
66.19999624	0.00000000	-9.52879000	9.38115100
66.39999623	0.00000000	-9.52879000	12.07554000
66.59999622	0.00000000	-9.95324800	13.23819000
66.79999620	0.00000000	-11.10974000	12.49385000
66.99999619	0.00000000	-12.60458000	10.58686000
67.19999618	0.00000000	-13.71801000	7.84940900
67.39999617	0.00000000	-13.71801000	4.77977300
67.59999616	0.00000000	-12.55536000	1.99311000
67.79999615	0.00000000	-10.64838000	-0.37524600
67.99999613	0.00000000	-8.32308000	-2.73745100
68.19999612	0.00000000	-6.45915300	-4.60137700
68.39999611	0.00000000	-5.67175200	-5.38262700
68.59999610	0.00000000	-6.50221400	-4.55831700
68.79999609	0.00000000	-8.79060000	-2.22687000
68.99999607	0.00000000	-12.27239000	1.62401600
69.19999606	0.00000000	-15.71727000	5.89320800
69.39999605	0.00000000	-18.46087000	9.79945900
69.59999604	0.00000000	-19.95571000	13.23819000
69.79999603	0.00000000	-19.53125000	14.72687000
69.99999601	0.00000000	-16.83686000	13.60728000
70.19999600	0.00000000	-12.60458000	10.49459000
70.39999599	0.00000000	-7.94783400	5.85014700
70.59999598	0.00000000	-3.67249000	0.46136810
70.79999597	0.00000000	-0.64591530	-4.14000900
70.99999596	0.00000000	0.09842519	-6.87746000
71.19999594	0.00000000	-2.22687000	-7.29576700
71.39999593	0.00000000	-6.83439900	-5.75787400
71.59999592	0.00000000	-12.60458000	-2.60211600
71.79999591	0.00000000	-18.04257000	1.99311000
71.99999590	0.00000000	-21.90576000	6.96358300
72.19999588	0.00000000	-23.81275000	10.45152000
72.39999587	0.00000000	-22.65010000	12.03248000
72.59999586	0.00000000	-18.83612000	11.65723000
72.79999585	0.00000000	-13.81028000	9.38115100
72.99999584	0.00000000	-8.37229300	6.31151500
73.19999582	0.00000000	-3.75861200	3.19881900
73.39999581	0.00000000	-1.02116100	0.51058070
73.59999580	0.00000000	-0.64591530	-1.02116100
73.79999579	0.00000000	-2.55290300	-1.06422200
73.99999578	0.00000000	-6.41609200	0.09227362
74.19999577	0.00000000	-11.02362000	1.95004900
74.39999575	0.00000000	-15.29897000	3.85088600
74.59999574	0.00000000	-18.37475000	4.60137700
74.79999573	0.00000000	-19.58046000	4.26919300
74.99999572	0.00000000	-18.83612000	3.11269700
75.19999571	0.00000000	-16.87992000	1.62401600
75.39999569	0.00000000	-13.81028000	0.55364170
75.59999568	0.00000000	-10.37155000	0.92888770
75.79999567	0.00000000	-8.04010800	2.82972400
75.99999566	0.00000000	-6.83439900	5.15501900
76.19999565	0.00000000	-6.83439900	7.84940900
76.39999563	0.00000000	-7.90477300	10.07628000
76.59999562	0.00000000	-9.06742000	10.45152000
76.79999561	0.00000000	-9.86097400	8.91978400
76.99999560	0.00000000	-10.64838000	5.85014700
77.19999559	0.00000000	-11.02362000	1.95004900
77.39999558	0.00000000	-11.06668000	-1.90698800
77.59999556	0.00000000	-11.06668000	-5.38262700
77.79999555	0.00000000	-11.10974000	-7.20349400
77.99999554	0.00000000	-11.53420000	-6.45300100
78.19999553	0.00000000	-12.64764000	-2.97736200
78.39999552	0.00000000	-13.76107000	1.99311000
78.59999550	0.00000000	-14.13632000	7.42495000
78.79999549	0.00000000	-13.76107000	12.03248000
78.99999548	0.00000000	-12.60458000	14.76993000
79.19999547	0.00000000	-11.06668000	15.14518000
79.39999546	0.00000000	-9.48572700	13.18898000
79.59999544	0.00000000	-7.94783400	8.96284400
79.79999543	0.00000000	-6.79133800	3.57406500
79.99999542	0.00000000	-6.45915300	-1.43946800
80.19999541	0.00000000	-7.25270600	-5.33956700
80.39999540	0.00000000	-9.52879000	-7.24655500
80.59999539	0.00000000	-12.18012000	-6.87746000
80.79999537	0.00000000	-14.18553000	-4.22613100
80.99999536	0.00000000	-15.76649000	-0.37524600
81.19999535	0.00000000	-16.83686000	3.48794300
81.39999534	0.00000000	-16.41855000	7.05585600
81.59999533	0.00000000	-14.13632000	9.75639700
81.79999531	0.00000000	-11.10974000	11.70029000
81.99999530	0.00000000	-8.41535400	12.07554000
82.19999529	0.00000000	-6.83439900	10.96211000
82.39999528	0.00000000	-6.41609200	9.00590400
82.59999527	0.00000000	-6.79133800	6.26845500
82.79999525	0.00000000	-7.99704600	3.15575800
82.99999524	0.00000000	-9.90403500	0.04306102
83.19999523	0.00000000	-12.18012000	-2.64517700
83.39999522	0.00000000	-13.71801000	-4.18307100
83.59999521	0.00000000	-14.13632000	-4.22613100
83.79999520	0.00000000	-13.81028000	-3.06348400
83.99999518	0.00000000	-13.02288000	-1.07037400
84.19999517	0.00000000	-12.27239000	2.04232300
84.39999516	0.00000000	-11.48499000	5.89320800
84.59999515	0.00000000	-11.10974000	9.33809000
84.79999514	0.00000000	-11.06668000	11.70029000
84.99999512	0.00000000	-11.06668000	12.45079000
85.19999511	0.00000000	-11.02362000	11.65723000
85.39999510	0.00000000	-10.64838000	8.91978400
85.59999509	0.00000000	-9.90403500	4.73671200
85.79999508	0.00000000	-9.52879000	0.46751960
85.99999506	0.00000000	-9.48572700	-3.06348400
86.19999505	0.00000000	-9.52879000	-5.71481200
86.39999504	0.00000000	-9.95324800	-6.45300100
86.59999503	0.00000000	-11.10974000	-4.50910400
86.79999502	0.00000000	-12.60458000	-0.69512790
86.99999501	0.00000000	-13.76107000	4.31840500
87.19999499	0.00000000	-14.13632000	8.91978400
87.39999498	0.00000000	-13.81028000	12.03248000
87.59999497	0.00000000	-13.02288000	13.18898000
87.79999496	0.00000000	-12.18012000	12.03248000
87.99999495	0.00000000	-10.64838000	8.91978400
88.19999493	0.00000000	-8.79060000	4.31840500
88.39999492	0.00000000	-7.99704600	-0.69512790
88.59999491	0.00000000	-7.94783400	-4.50910400
88.79999490	0.00000000	-8.37229300	-6.45300100
88.99999489	0.00000000	-9.52879000	-5.67175200
89.19999487	0.00000000	-11.06668000	-2.60211600
89.39999486	0.00000000	-12.60458000	2.04232300
89.59999485	0.00000000	-13.71801000	7.42495000
89.79999484	0.00000000	-13.76107000	11.94021000
89.99999483	0.00000000	-13.02288000	13.92717000
90.19999482	0.00000000	-12.22933000	12.77682000
90.39999480	0.00000000	-11.06668000	9.70103300
90.59999479	0.00000000	-9.95324800	4.69365100
90.79999478	0.00000000	-9.52879000	-0.64591530
90.99999477	0.00000000	-9.48572700	-4.50910400
91.19999476	0.00000000	-9.52879000	-6.45300100
91.39999474	0.00000000	-9.90403500	-5.62253900
91.59999473	0.00000000	-10.64838000	-2.18380900
91.79999472	0.00000000	-11.02362000	3.15575800
91.99999471	0.00000000	-11.02362000	8.50147600
92.19999470	0.00000000	-10.64838000	11.98942000
92.39999468	0.00000000	-9.95324800	13.18898000
92.59999467	0.00000000	-9.95324800	11.98942000
92.79999466	0.00000000	-10.69144000	8.54453700
92.99999465	0.00000000	-11.44193000	3.57406500
93.19999464	0.00000000	-12.27239000	-1.02116100
93.39999463	0.00000000	-13.02288000	-4.13385800
93.59999461	0.00000000	-13.76107000	-5.29650500
93.79999460	0.00000000	-13.71801000	-4.09079700
93.99999459	0.00000000	-12.60458000	-0.64591530
94.19999458	0.00000000	-11.02362000	4.27534400
94.39999457	0.00000000	-9.06742000	8.50147600
94.59999455	0.00000000	-6.79133800	10.82677000
94.79999454	0.00000000	-5.29650500	11.23893000
94.99999453	0.00000000	-5.29650500	9.29502900
95.19999452	0.00000000	-6.83439900	5.89320800
95.39999451	0.00000000	-9.52879000	2.04232300
95.59999449	0.00000000	-12.60458000	-1.02116100
95.79999448	0.00000000	-15.34203000	-2.60211600
95.99999447	0.00000000	-17.25517000	-2.60211600
96.19999446	0.00000000	-18.04257000	-1.07037400
96.39999445	0.00000000	-17.25517000	1.62401600
96.59999444	0.00000000	-15.29897000	4.68750000
96.79999442	0.00000000	-12.18012000	7.38188900
96.99999441	0.00000000	-8.32308000	8.91978400
97.19999440	0.00000000	-4.87819900	8.91978400
97.39999439	0.00000000	-2.55290300	7.43110200
97.59999438	0.00000000	-2.17765700	5.11195900
97.79999436	0.00000000	-3.71555100	2.82972400
97.99999435	0.00000000	-6.79133800	0.87967510
98.19999434	0.00000000	-10.69144000	0.13533460
98.39999433	0.00000000	-14.56078000	0.46136810
98.59999432	0.00000000	-17.99951000	1.57480300
98.79999430	0.00000000	-19.53125000	2.73745100
98.99999429	0.00000000	-18.83612000	3.53100400
99.19999428	0.00000000	-16.92298000	4.31840500
99.39999427	0.00000000	-14.13632000	4.69365100
99.59999426	0.00000000	-10.69144000	4.73671200
99.79999425	0.00000000	-7.20964500	4.73671200
99.99999423	0.00000000	-4.87819900	4.77977300
100.19999422	0.00000000	-3.71555100	5.15501900
100.39999421	0.00000000	-4.09079700	5.89320800
100.59999420	0.00000000	-5.99163300	6.21924200
100.79999419	0.00000000	-8.32308000	5.85014700
100.99999417	0.00000000	-11.06668000	4.68750000
101.19999416	0.00000000	-13.76107000	3.15575800
101.39999415	0.00000000	-15.71727000	1.57480300
101.59999414	0.00000000	-16.87992000	0.09227362
101.79999413	0.00000000	-16.83686000	-0.69512790
101.99999411	0.00000000	-15.34203000	-0.28297240
102.19999410	0.00000000	-13.02288000	0.87967510
102.39999409	0.00000000	-10.69144000	3.19881900
102.59999408	0.00000000	-8.37229300	5.85014700
102.79999407	0.00000000	-6.83439900	7.84940900
102.99999406	0.00000000	-6.41609200	9.33809000
103.19999404	0.00000000	-6.79133800	9.70103300
103.39999403	0.00000000	-7.94783400	8.13238100
103.59999402	0.00000000	-9.48572700	5.51796200
103.79999401	0.00000000	-11.06668000	2.36835600
103.99999400	0.00000000	-12.64764000	-0.28297240
104.19999398	0.00000000	-14.13632000	-2.22687000
104.39999397	0.00000000	-14.92372000	-2.60211600
104.59999396	0.00000000	-14.56078000	-1.43946800
104.79999395	0.00000000	-13.76107000	0.83661410
104.99999394	0.00000000	-12.18012000	3.94315900
105.19999392	0.00000000	-9.95324800	6.60063900
105.39999391	0.00000000	-8.41535400	8.58759800
105.59999390	0.00000000	-7.99704600	9.29502900
105.79999389	0.00000000	-8.32308000	8.58759800
105.99999388	0.00000000	-9.11048200	6.64370100
106.19999387	0.00000000	-9.90403500	4.36146600
106.39999385	0.00000000	-11.06668000	1.99311000
106.59999384	0.00000000	-12.18012000	0.13533460
106.79999383	0.00000000	-12.55536000	-0.65206690
106.99999382	0.00000000	-12.22933000	0.13533460
107.19999381	0.00000000	-11.44193000	1.99311000
107.39999379	0.00000000	-10.69144000	4.31840500
107.59999378	0.00000000	-9.90403500	6.17618100
107.79999377	0.00000000	-9.52879000	7.00664300
107.99999376	0.00000000	-9.52879000	6.64370100
108.19999375	0.00000000	-9.95324800	5.85014700
108.39999374	0.00000000	-11.06668000	4.26919300
108.59999372	0.00000000	-12.22933000	2.04232300
108.79999371	0.00000000	-12.97982000	0.55364170
108.99999370	0.00000000	-13.39198000	0.46136810
109.19999369	0.00000000	-12.97982000	1.19955700
109.39999368	0.00000000	-12.22933000	2.04232300
109.59999366	0.00000000	-11.06668000	3.57406500
109.79999365	0.00000000	-9.90403500	5.47490100
109.99999364	0.00000000	-9.15354300	6.59448800
110.19999363	0.00000000	-8.74138700	7.05585600
110.39999362	0.00000000	-9.15354300	6.59448800
110.59999360	0.00000000	-9.86097400	5.47490100
110.79999359	0.00000000	-10.69144000	3.53100400
110.99999358	0.00000000	-11.44193000	1.66707700
111.19999357	0.00000000	-12.22933000	0.46136810
111.39999356	0.00000000	-12.60458000	0.09227362
111.59999355	0.00000000	-12.60458000	0.46136810
111.79999353	0.00000000	-12.22933000	1.57480300
111.99999352	0.00000000	-11.48499000	2.73745100
112.19999351	0.00000000	-11.06668000	3.53100400
112.39999350	0.00000000	-10.64838000	4.36146600
112.59999349	0.00000000	-9.90403500	5.06274600
112.79999347	0.00000000	-9.52879000	5.47490100
112.99999346	0.00000000	-9.52879000	5.11195900
113.19999345	0.00000000	-9.90403500	4.77977300
113.39999344	0.00000000	-10.64838000	4.69365100
113.59999343	0.00000000	-11.02362000	4.31840500
113.79999341	0.00000000	-11.06668000	3.57406500
113.99999340	0.00000000	-11.06668000	3.19881900
114.19999339	0.00000000	-11.06668000	3.11269700
114.39999338	0.00000000	-11.06668000	2.78051200
114.59999337	0.00000000	-11.06668000	2.36835600
114.79999336	0.00000000	-11.06668000	2.36220500
114.99999334	0.00000000	-11.06668000	1.95004900
115.19999333	0.00000000	-11.06668000	1.66707700
115.39999332	0.00000000	-11.06668000	1.99311000
115.59999331	0.00000000	-11.06668000	2.78051200
115.79999330	0.00000000	-11.06668000	3.53100400
115.99999328	0.00000000	-11.06668000	4.36146600
116.19999327	0.00000000	-11.06668000	5.11195900
116.39999326	0.00000000	-11.06668000	5.89320800
116.59999325	0.00000000	-11.06668000	6.21924200
116.79999324	0.00000000	-11.06668000	5.89320800
116.99999322	0.00000000	-11.06668000	5.11195900
117.19999321	0.00000000	-11.02362000	4.36146600
117.39999320	0.00000000	-10.64838000	3.53100400
117.59999319	0.00000000	-9.90403500	2.78051200
117.79999318	0.00000000	-9.48572700	1.99311000
117.99999317	0.00000000	-9.11048200	1.61786400
118.19999315	0.00000000	-8.74138700	1.61786400
118.39999314	0.00000000	-9.15354300	1.99311000
118.59999313	0.00000000	-9.90403500	2.78051200
118.79999312	0.00000000	-11.06668000	3.53100400
118.99999311	0.00000000	-12.18012000	4.36146600
119.19999309	0.00000000	-12.64764000	5.06274600
119.39999308	0.00000000	-13.02288000	5.51796200
119.59999307	0.00000000	-13.34276000	5.48105300
119.79999306	0.00000000	-12.55536000	5.51796200
119.99999305	0.00000000	-11.06668000	5.06274600
120.19999303	0.00000000	-9.52879000	4.36146600
120.39999302	0.00000000	-8.37229300	3.57406500
120.59999301	0.00000000	-7.94783400	3.19881900
120.79999300	0.00000000	-7.90477300	3.11269700
120.99999299	0.00000000	-7.94783400	2.73745100
121.19999298	0.00000000	-8.37229300	2.04232300
121.39999296	0.00000000	-9.52879000	2.04232300
121.59999295	0.00000000	-11.06668000	2.73745100
121.79999294	0.00000000	-12.55536000	3.15575800
121.99999293	0.00000000	-13.39198000	3.57406500
122.19999292	0.00000000	-13.39813000	4.31840500
122.39999290	0.00000000	-13.39198000	4.69365100
122.59999289	0.00000000	-12.55536000	4.73671200
122.79999288	0.00000000	-11.10974000	4.73671200
122.99999287	0.00000000	-9.90403500	4.73671200
123.19999286	0.00000000	-9.11048200	4.73671200
123.39999284	0.00000000	-8.32308000	4.69365100
123.59999283	0.00000000	-7.94783400	4.31840500
123.79999282	0.00000000	-7.94783400	3.57406500
123.99999281	0.00000000	-8.32308000	3.19881900
124.19999280	0.00000000	-9.11048200	3.11269700
124.39999279	0.00000000	-9.86097400	2.78051200
124.59999277	0.00000000	-10.69144000	2.41141700
124.79999276	0.00000000	-11.44193000	2.78051200
124.99999275	0.00000000	-12.22933000	3.15575800
125.19999274	0.00000000	-12.60458000	3.57406500
125.39999273	0.00000000	-12.60458000	4.31840500
125.59999271	0.00000000	-12.22933000	4.69365100
125.79999270	0.00000000	-11.44193000	4.73671200
125.99999269	0.00000000	-10.64838000	4.73671200
126.19999268	0.00000000	-9.48572700	4.73671200
126.39999267	0.00000000	-8.37229300	4.69365100
126.59999265	0.00000000	-7.99704600	4.31840500
126.79999264	0.00000000	-8.32308000	3.57406500
126.99999263	0.00000000	-9.11048200	3.19881900
127.19999262	0.00000000	-9.90403500	3.15575800
127.39999261	0.00000000	-11.06668000	3.15575800
127.59999260	0.00000000	-12.22933000	3.15575800
127.79999258	0.00000000	-12.97982000	3.15575800
127.99999257	0.00000000	-13.39198000	3.19881900
128.19999256	0.00000000	-12.97982000	3.57406500
128.39999255	0.00000000	-12.22933000	4.31840500
128.59999254	0.00000000	-11.02362000	4.69365100
128.79999252	0.00000000	-9.52879000	4.73671200
128.99999251	0.00000000	-8.41535400	4.69365100
129.19999250	0.00000000	-8.37229300	4.31840500
129.39999249	0.00000000	-9.06742000	3.57406500
129.59999248	0.00000000	-9.48572700	3.19881900
129.79999246	0.00000000	-9.95324800	3.15575800
129.99999245	0.00000000	-11.06668000	3.15575800
130.19999244	0.00000000	-12.18012000	3.15575800
130.39999243	0.00000000	-12.60458000	3.19881900
130.59999242	0.00000000	-12.60458000	3.57406500
130.79999241	0.00000000	-12.18012000	4.31840500
130.99999239	0.00000000	-11.06668000	4.69365100
131.19999238	0.00000000	-9.95324800	4.73671200
131.39999237	0.00000000	-9.52879000	4.69365100
131.59999236	0.00000000	-9.48572700	4.31840500
131.79999235	0.00000000	-9.48572700	3.53100400
131.99999233	0.00000000	-9.48572700	2.78051200
132.19999232	0.00000000	-9.52879000	1.99311000
132.39999231	0.00000000	-9.90403500	1.66707700
132.59999230	0.00000000	-10.64838000	1.99311000
132.79999229	0.00000000	-11.02362000	2.78051200
132.99999227	0.00000000	-11.06668000	3.53100400
133.19999226	0.00000000	-11.06668000	4.31840500
133.39999225	0.00000000	-11.06668000	4.69365100
133.59999224	0.00000000	-11.06668000	4.73671200
133.79999223	0.00000000	-11.06668000	4.73671200
133.99999222	0.00000000	-11.06668000	4.73671200
134.19999220	0.00000000	-11.06668000	4.69365100
134.39999219	0.00000000	-11.06668000	4.26919300
134.59999218	0.00000000	-11.02362000	3.15575800
134.79999217	0.00000000	-10.64838000	2.04232300
134.99999216	0.00000000	-9.90403500	1.61786400
135.19999214	0.00000000	-9.52879000	1.61786400
135.39999213	0.00000000	-9.48572700	1.99311000
135.59999212	0.00000000	-9.52879000	2.73745100
135.79999211	0.00000000	-9.90403500	3.19881900
135.99999210	0.00000000	-10.64838000	3.94931100
136.19999208	0.00000000	-11.02362000	5.05659400
136.39999207	0.00000000	-11.10974000	5.06274600
136.59999206	0.00000000	-11.44193000	4.77977300
136.79999205	0.00000000	-11.81102000	4.69365100
136.99999204	0.00000000	-11.39887000	4.31840500
137.19999203	0.00000000	-10.69144000	3.57406500
137.39999201	0.00000000	-9.90403500	3.15575800
137.59999200	0.00000000	-9.52879000	2.73745100
137.79999199	0.00000000	-9.48572700	1.99311000
137.99999198	0.00000000	-9.48572700	1.66707700
138.19999197	0.00000000	-9.48572700	1.99311000
138.39999195	0.00000000	-9.52879000	2.73745100
138.59999194	0.00000000	-9.90403500	3.15575800
138.79999193	0.00000000	-10.69144000	3.57406500
138.99999192	0.00000000	-11.39887000	4.31840500
139.19999191	0.00000000	-11.85408000	4.69365100
139.39999189	0.00000000	-11.81717000	4.73671200
139.59999188	0.00000000	-11.81102000	4.73671200
139.79999187	0.00000000	-11.02362000	4.73671200
139.99999186	0.00000000	-9.95324800	4.69365100
140.19999185	0.00000000	-9.52879000	4.31840500
140.39999184	0.00000000	-9.48572700	3.53100400
140.59999182	0.00000000	-9.48572700	2.78051200
140.79999181	0.00000000	-9.52879000	1.99311000
140.99999180	0.00000000	-9.90403500	1.61786400
141.19999179	0.00000000	-10.64838000	1.61786400
141.39999178	0.00000000	-11.02362000	2.04232300
141.59999176	0.00000000	-11.06668000	3.15575800
141.79999175	0.00000000	-11.06668000	4.26919300
141.99999174	0.00000000	-11.02362000	4.69365100
142.19999173	0.00000000	-10.64838000	4.77977300
142.39999172	0.00000000	-9.90403500	5.11195900
142.59999170	0.00000000	-9.52879000	5.47490100
142.79999169	0.00000000	-9.48572700	5.06274600
142.99999168	0.00000000	-9.52879000	4.36146600
143.19999167	0.00000000	-9.90403500	3.53100400
143.39999166	0.00000000	-10.64838000	2.78051200
143.59999165	0.00000000	-11.02362000	1.99311000
143.79999163	0.00000000	-11.06668000	1.66707700
143.99999162	0.00000000	-11.02362000	1.99311000
144.19999161	0.00000000	-10.64838000	2.78051200
144.39999160	0.00000000	-9.90403500	3.53100400
144.59999159	0.00000000	-9.52879000	4.36146600
144.79999157	0.00000000	-9.48572700	5.11195900
144.99999156	0.00000000	-9.48572700	5.85014700
145.19999155	0.00000000	-9.52879000	5.85014700
145.39999154	0.00000000	-9.86097400	5.15501900
145.59999153	0.00000000	-10.27313000	4.73671200
145.79999151	0.00000000	-10.27928000	4.26919300
145.99999150	0.00000000	-10.69144000	3.15575800
146.19999149	0.00000000	-11.02362000	2.08538400
146.39999148	0.00000000	-11.06668000	2.04232300
146.59999147	0.00000000	-11.02362000	2.73745100
146.79999146	0.00000000	-10.64838000	3.11269700
146.99999144	0.00000000	-9.90403500	3.19881900
147.19999143	0.00000000	-9.52879000	3.57406500
147.39999142	0.00000000	-9.48572700	4.31840500
147.59999141	0.00000000	-9.52879000	4.69365100
147.79999140	0.00000000	-9.90403500	4.73671200
147.99999138	0.00000000	-10.64838000	4.73671200
148.19999137	0.00000000	-11.02362000	4.73671200
148.39999136	0.00000000	-11.06668000	4.69365100
148.59999135	0.00000000	-11.06668000	4.31840500
148.79999134	0.00000000	-11.06668000	3.57406500
148.99999132	0.00000000	-11.02362000	3.19881900
149.19999131	0.00000000	-10.64838000	3.15575800
149.39999130	0.00000000	-9.90403500	3.15575800
149.59999129	0.00000000	-9.52879000	3.15575800
149.79999128	0.00000000	-9.48572700	3.15575800
149.99999127	0.00000000	-9.48572700	3.19881900
150.19999125	0.00000000	-9.48572700	3.57406500
150.39999124	0.00000000	-9.48572700	4.31840500
150.59999123	0.00000000	-9.52879000	4.69365100
150.79999122	0.00000000	-9.90403500	4.73671200
150.99999121	0.00000000	-10.64838000	4.69365100
151.19999119	0.00000000	-11.02362000	4.31840500
151.39999118	0.00000000	-11.06668000	3.57406500
151.59999117	0.00000000	-11.06668000	3.19881900
151.79999116	0.00000000	-11.02362000	3.15575800
151.99999115	0.00000000	-10.69144000	3.19881900
152.19999113	0.00000000	-10.27928000	3.53100400
152.39999112	0.00000000	-10.27313000	3.90009800
152.59999111	0.00000000	-9.86097400	3.53100400
152.79999110	0.00000000	-9.52879000	3.24803100
152.99999109	0.00000000	-9.48572700	3.57406500
153.19999108	0.00000000	-9.48572700	4.31840500
153.39999106	0.00000000	-9.52879000	4.69365100
153.59999105	0.00000000	-9.90403500	4.73671200
153.79999104	0.00000000	-10.64838000	4.73671200
153.99999103	0.00000000	-10.97441000	4.73671200
154.19999102	0.00000000	-10.73450000	4.73671200
154.39999100	0.00000000	-10.69759000	4.73671200
154.59999099	0.00000000	-11.43578000	4.69365100
154.79999098	0.00000000	-11.39887000	4.31840500
154.99999097	0.00000000	-11.06668000	3.57406500
155.19999096	0.00000000	-10.64838000	3.19881900
155.39999094	0.00000000	-9.90403500	3.15575800
155.59999093	0.00000000	-9.52879000	3.15575800
155.79999092	0.00000000	-9.48572700	3.15575800
155.99999091	0.00000000	-9.48572700	3.19881900
156.19999090	0.00000000	-9.52879000	3.57406500
156.39999089	0.00000000	-9.90403500	4.31840500
156.59999087	0.00000000	-10.64838000	4.69365100
156.79999086	0.00000000	-11.02362000	4.73671200
156.99999085	0.00000000	-11.06668000	4.73671200
157.19999084	0.00000000	-11.06668000	4.73671200
157.39999083	0.00000000	-11.06668000	4.73671200
157.59999081	0.00000000	-11.06668000	4.69365100
157.79999080	0.00000000	-11.02362000	4.31840500
157.99999079	0.00000000	-10.64838000	3.57406500
158.19999078	0.00000000	-9.90403500	3.19881900
158.39999077	0.00000000	-9.52879000	3.15575800
158.59999075	0.00000000	-9.48572700	3.15575800
158.79999074	0.00000000	-9.48572700	3.15575800
158.99999073	0.00000000	-9.48572700	3.19881900
159.19999072	0.00000000	-9.52879000	3.57406500
159.39999071	0.00000000	-9.90403500	4.31840500
159.59999070	0.00000000	-10.64838000	4.69365100
159.79999068	0.00000000	-11.02362000	4.73671200
159.99999067	0.00000000	-11.06668000	4.73671200
160.19999066	0.00000000	-11.06668000	4.73671200
160.39999065	0.00000000	-11.06668000	4.69365100
160.59999064	0.00000000	-11.06668000	4.31840500
160.79999062	0.00000000	-11.06668000	3.57406500
160.99999061	0.00000000	-11.02362000	3.19881900
161.19999060	0.00000000	-10.64838000	3.15575800
161.39999059	0.00000000	-9.90403500	3.15575800
161.59999058	0.00000000	-9.52879000	3.15575800
161.79999056	0.00000000	-9.48572700	3.15575800
161.99999055	0.00000000	-9.48572700	3.15575800
162.19999054	0.00000000	-9.48572700	3.19881900
162.39999053	0.00000000	-9.48572700	3.57406500
162.59999052	0.00000000	-9.48572700	4.31840500
162.79999051	0.00000000	-9.52879000	4.69365100
162.99999049	0.00000000	-9.90403500	4.73671200
163.19999048	0.00000000	-10.64838000	4.73671200
163.39999047	0.00000000	-11.02362000	4.73671200
163.59999046	0.00000000	-11.06668000	4.69365100
163.79999045	0.00000000	-11.06668000	4.31840500
163.99999043	0.00000000	-11.06668000	3.57406500
164.19999042	0.00000000	-11.02362000	3.19881900
164.39999041	0.00000000	-10.64838000	3.15575800
164.59999040	0.00000000	-9.90403500	3.15575800
164.79999039	0.00000000	-9.52879000	3.15575800
164.99999037	0.00000000	-9.48572700	3.15575800
165.19999036	0.00000000	-9.48572700	3.15575800
165.39999035	0.00000000	-9.48572700	3.19881900
165.59999034	0.00000000	-9.48572700	3.57406500
165.79999033	0.00000000	-9.52879000	4.31840500
165.99999032	0.00000000	-9.90403500	4.64443900
166.19999030	0.00000000	-10.64838000	4.36146600
166.39999029	0.00000000	-11.02362000	3.94931100
166.59999028	0.00000000	-11.06668000	3.94315900
166.79999027	0.00000000	-11.06668000	3.53100400
166.99999026	0.00000000	-11.02362000	3.19881900
167.19999024	0.00000000	-10.64838000	3.15575800
167.39999023	0.00000000	-9.90403500	3.15575800
167.59999022	0.00000000	-9.52879000	3.15575800
167.79999021	0.00000000	-9.48572700	3.15575800
167.99999020	0.00000000	-9.48572700	3.15575800
168.19999018	0.00000000	-9.48572700	3.19881900
168.39999017	0.00000000	-9.48572700	3.53100400
168.59999016	0.00000000	-9.48572700	3.90009800
168.79999015	0.00000000	-9.48572700	3.57406500
168.99999014	0.00000000	-9.52879000	3.57406500
169.19999013	0.00000000	-9.86097400	3.90009800
169.39999011	0.00000000	-10.27313000	3.53100400
169.59999010	0.00000000	-10.23622000	3.24803100
169.79999009	0.00000000	-10.27313000	3.53100400
169.99999008	0.00000000	-9.86097400	3.94315900
170.19999007	0.00000000	-9.57800100	3.90625000
170.39999005	0.00000000	-9.86097400	3.94315900
170.59999004	0.00000000	-10.23007000	3.53100400
170.79999003	0.00000000	-9.86097400	3.24803100
170.99999002	0.00000000	-9.52879000	3.53100400
171.19999001	0.00000000	-9.48572700	3.90009800
171.39998999	0.00000000	-9.48572700	3.57406500
171.59998998	0.00000000	-9.48572700	3.57406500
171.79998997	0.00000000	-9.48572700	3.90009800
171.99998996	0.00000000	-9.48572700	3.53100400
172.19998995	0.00000000	-9.52879000	3.24803100
172.39998994	0.00000000	-9.86097400	3.57406500
172.59998992	0.00000000	-10.27313000	4.26919300
172.79998991	0.00000000	-10.27928000	4.31840500
172.99998990	0.00000000	-10.64838000	3.94931100
173.19998989	0.00000000	-10.59916000	3.94315900
173.39998988	0.00000000	-9.90403500	3.53100400
173.59998986	0.00000000	-9.52879000	3.24803100
173.79998985	0.00000000	-9.48572700	3.53100400
173.99998984	0.00000000	-9.48572700	3.90009800
174.19998983	0.00000000	-9.48572700	3.53100400
174.39998982	0.00000000	-9.48572700	3.19881900
174.59998980	0.00000000	-9.52879000	3.15575800
174.79998979	0.00000000	-9.86097400	3.15575800
174.99998978	0.00000000	-10.23007000	3.15575800
175.19998977	0.00000000	-9.86097400	3.15575800
175.39998976	0.00000000	-9.57800100	3.15575800
175.59998975	0.00000000	-9.86097400	3.15575800
175.79998973	0.00000000	-10.23007000	3.19881900
175.99998972	0.00000000	-9.86097400	3.53100400
176.19998971	0.00000000	-9.52879000	3.90009800
176.39998970	0.00000000	-9.48572700	3.57406500
176.59998969	0.00000000	-9.48572700	3.57406500
176.79998967	0.00000000	-9.48572700	3.90009800
176.99998966	0.00000000	-9.52879000	3.53100400
177.19998965	0.00000000	-9.86097400	3.19881900
177.39998964	0.00000000	-10.23007000	3.15575800
177.59998963	0.00000000	-9.90403500	3.15575800
177.79998961	0.00000000	-9.90403500	3.15575800
177.99998960	0.00000000	-10.23007000	3.15575800
178.19998959	0.00000000	-9.86097400	3.19881900
178.39998958	0.00000000	-9.52879000	3.57406500
178.59998957	0.00000000	-9.48572700	4.31840500
178.79998956	0.00000000	-9.48572700	4.69365100
178.99998954	0.00000000	-9.48572700	4.73671200
179.19998953	0.00000000	-9.48572700	4.73671200
179.39998952	0.00000000	-9.48572700	4.69365100
179.59998951	0.00000000	-9.48572700	4.31840500
179.79998950	0.00000000	-9.48572700	3.57406500
179.99998948	0.00000000	-9.48572700	3.19881900
180.19998947	0.00000000	-9.48572700	3.15575800
180.39998946	0.00000000	-9.48572700	3.15575800
180.59998945	0.00000000	-9.48572700	3.15575800
180.79998944	0.00000000	-9.48572700	3.15575800
180.99998942	0.00000000	-9.52879000	3.19881900
181.19998941	0.00000000	-9.86097400	3.53100400
181.39998940	0.00000000	-10.23007000	3.94315900
181.59998939	0.00000000	-9.86097400	3.94931100
181.79998938	0.00000000	-9.52879000	4.36146600
181.99998937	0.00000000	-9.48572700	4.64443900
182.19998935	0.00000000	-9.48572700	4.36146600
182.39998934	0.00000000	-9.48572700	3.99237200
182.59998933	0.00000000	-9.48572700	4.31840500
182.79998932	0.00000000	-9.48572700	4.26919300
182.99998931	0.00000000	-9.48572700	3.57406500
183.19998929	0.00000000	-9.48572700	3.19881900
183.39998928	0.00000000	-9.48572700	3.15575800
183.59998927	0.00000000	-9.48572700	3.15575800
183.79998926	0.00000000	-9.48572700	3.19881900
183.99998925	0.00000000	-9.48572700	3.57406500
184.19998923	0.00000000	-9.48572700	4.31840500
184.39998922	0.00000000	-9.48572700	4.69365100
184.59998921	0.00000000	-9.48572700	4.73671200
184.79998920	0.00000000	-9.48572700	4.73671200
184.99998919	0.00000000	-9.48572700	4.73671200
185.19998918	0.00000000	-9.48572700	4.73671200
185.39998916	0.00000000	-9.48572700	4.69365100
185.59998915	0.00000000	-9.48572700	4.31840500
185.79998914	0.00000000	-9.48572700	3.57406500
185.99998913	0.00000000	-9.48572700	3.19881900
186.19998912	0.00000000	-9.48572700	3.15575800
186.39998910	0.00000000	-9.52879000	3.15575800
186.59998909	0.00000000	-9.86097400	3.15575800
186.79998908	0.00000000	-10.23007000	3.19881900
186.99998907	0.00000000	-9.90403500	3.57406500
187.19998906	0.00000000	-9.90403500	4.31840500
187.39998904	0.00000000	-10.27313000	4.69365100
187.59998903	0.00000000	-10.23622000	4.73671200
187.79998902	0.00000000	-10.27313000	4.73671200
187.99998901	0.00000000	-9.86097400	4.73671200
188.19998900	0.00000000	-9.52879000	4.73671200
188.39998899	0.00000000	-9.48572700	4.69365100
188.59998897	0.00000000	-9.48572700	4.31840500
188.79998896	0.00000000	-9.48572700	3.57406500
188.99998895	0.00000000	-9.48572700	3.19881900
189.19998894	0.00000000	-9.48572700	3.15575800
189.39998893	0.00000000	-9.48572700	3.15575800
189.59998891	0.00000000	-9.48572700	3.15575800
189.79998890	0.00000000	-9.48572700	3.15575800
189.99998889	0.00000000	-9.52879000	3.19881900
190.19998888	0.00000000	-9.86097400	3.57406500
190.39998887	0.00000000	-10.23007000	4.31840500
190.59998885	0.00000000	-9.86097400	4.69365100
190.79998884	0.00000000	-9.52879000	4.73671200
190.99998883	0.00000000	-9.48572700	4.73671200
191.19998882	0.00000000	-9.48572700	4.73671200
191.39998881	0.00000000	-9.48572700	4.69365100
191.59998880	0.00000000	-9.48572700	4.31840500
191.79998878	0.00000000	-9.48572700	3.57406500
191.99998877	0.00000000	-9.48572700	3.19881900
192.19998876	0.00000000	-9.48572700	3.15575800
192.39998875	0.00000000	-9.48572700	3.15575800
192.59998874	0.00000000	-9.48572700	3.15575800
192.79998872	0.00000000	-9.48572700	3.15575800
192.99998871	0.00000000	-9.48572700	3.15575800
193.19998870	0.00000000	-9.52879000	3.19881900
193.39998869	0.00000000	-9.86097400	3.57406500
193.59998868	0.00000000	-10.23007000	4.26919300
193.79998866	0.00000000	-9.86097400	4.31840500
193.99998865	0.00000000	-9.52879000	3.99237200
194.19998864	0.00000000	-9.48572700	4.36146600
194.39998863	0.00000000	-9.48572700	4.69365100
194.59998862	0.00000000	-9.48572700	4.73671200
194.79998861	0.00000000	-9.48572700	4.73671200
194.99998859	0.00000000	-9.48572700	4.73671200
195.19998858	0.00000000	-9.48572700	4.73671200
195.39998857	0.00000000	-9.48572700	4.69365100
195.59998856	0.00000000	-9.48572700	4.31840500
195.79998855	0.00000000	-9.48572700	3.57406500
195.99998853	0.00000000	-9.52879000	3.19881900
