Time	Channel A	Channel B	Channel C
(us)	(V)	(mV)	(mV)

-4.49999956	0.00000000	-30.03814000	-3.11269700
-4.29999957	0.00000000	-30.03814000	-2.73745100
-4.09999958	0.00000000	-30.03814000	-2.04232300
-3.89999959	0.00000000	-30.03814000	-2.04232300
-3.69999960	0.00000000	-30.03814000	-2.68823800
-3.49999962	0.00000000	-30.03814000	-2.73745100
-3.29999963	0.00000000	-30.03814000	-2.41141700
-3.09999964	0.00000000	-30.03814000	-2.78051200
-2.89999965	0.00000000	-30.03814000	-3.11269700
-2.69999966	0.00000000	-30.03814000	-3.11269700
-2.49999968	0.00000000	-30.03814000	-2.78051200
-2.29999969	0.00000000	-30.03814000	-2.36835600
-2.09999970	0.00000000	-30.03814000	-2.40526600
-1.89999971	0.00000000	-30.03814000	-2.36835600
-1.69999972	0.00000000	-30.03814000	-2.73745100
-1.49999973	0.00000000	-30.03814000	-2.73745100
-1.29999975	0.00000000	-29.99508000	-2.41141700
-1.09999976	0.00000000	-29.66289000	-2.73745100
-0.89999977	0.00000000	-29.29380000	-2.73745100
-0.69999978	0.00000000	-29.61983000	-2.36835600
-0.49999979	0.00000000	-29.61983000	-2.40526600
-0.29999981	0.31803640	-29.29380000	-2.32529500
-0.09999982	0.63668800	-29.66289000	-2.40526600
0.10000017	0.95533960	-29.99508000	-2.36835600
0.30000016	1.11466500	-30.03814000	-2.78051200
0.50000015	0.79601380	-30.03814000	-3.11269700
0.70000013	0.15871060	-30.03814000	-3.15575800
0.90000012	-0.63668800	-30.03814000	-3.15575800
1.10000011	-1.59264300	-30.03814000	-3.11269700
1.30000010	-2.38927200	-30.03814000	-2.78051200
1.50000009	-2.70792300	-30.03814000	-2.36835600
1.70000008	-2.38927200	-30.03814000	-2.36220500
1.90000006	-1.11466500	-29.99508000	-1.95004900
2.10000005	0.79601380	-29.66289000	-1.61786400
2.30000004	2.86724900	-29.29380000	-1.57480300
2.50000003	4.61921700	-29.66289000	-1.61786400
2.70000002	5.41584600	-29.99508000	-1.99311000
2.90000000	4.77854300	-30.03814000	-2.73745100
3.09999999	2.70792300	-30.03814000	-3.11269700
3.29999998	-0.47736220	-30.03814000	-3.15575800
3.49999997	-3.98191400	-30.03814000	-3.15575800
3.69999996	-6.69045300	-29.99508000	-3.11269700
3.89999994	-7.96444400	-29.61983000	-2.73745100
4.09999993	-7.32714100	-28.87549000	-1.99311000
4.29999992	-4.61921700	-28.50024000	-1.61786400
4.49999991	-0.47736220	-28.45718000	-1.57480300
4.69999990	3.82258900	-28.50024000	-1.61786400
4.89999989	7.48646600	-28.87549000	-1.99311000
5.09999987	9.39837600	-29.61983000	-2.73745100
5.29999986	8.92039900	-29.99508000	-3.11269700
5.49999985	6.21247500	-30.03814000	-3.15575800
5.69999984	1.91129400	-30.03814000	-3.15575800
5.89999983	-2.86724900	-30.03814000	-3.15575800
6.09999981	-6.84916400	-30.03814000	-3.11269700
6.29999980	-9.23905000	-29.99508000	-2.73745100
6.49999979	-9.07972400	-29.61983000	-1.99311000
6.69999978	-6.84916400	-28.92470000	-1.61786400
6.89999977	-2.86724900	-28.92470000	-1.57480300
7.09999975	1.43331700	-29.61983000	-1.57480300
7.29999974	5.25652100	-29.99508000	-1.57480300
7.49999973	7.48646600	-30.03814000	-1.61786400
7.69999972	7.64579200	-30.03814000	-1.99311000
7.89999971	6.05315000	-30.03814000	-2.73745100
8.09999970	3.18590100	-30.03814000	-3.11269700
8.29999968	-0.31803640	-30.03814000	-3.15575800
8.49999967	-3.02657500	-30.03814000	-3.11269700
8.69999966	-4.77854300	-30.03814000	-2.78051200
8.89999965	-5.09719500	-29.99508000	-2.36835600
9.09999964	-4.30056600	-29.66289000	-2.40526600
9.29999962	-2.38927200	-29.25074000	-2.32529500
9.49999961	-0.47736220	-29.24459000	-2.36220500
9.69999960	1.27399100	-28.87549000	-1.95004900
9.89999959	2.22994600	-28.87549000	-1.66707700
10.09999958	2.54859700	-29.24459000	-1.99311000
10.29999956	2.07062000	-29.25074000	-2.73745100
10.49999955	1.27399100	-29.66289000	-3.06348400
10.69999954	0.47736220	-29.99508000	-2.78051200
10.89999953	-0.31803640	-30.03814000	-2.41141700
11.09999952	-0.79601380	-30.03814000	-2.78051200
11.29999951	-0.95533960	-29.99508000	-3.11269700
11.49999949	-0.95533960	-29.66289000	-3.15575800
11.69999948	-0.63668800	-29.29380000	-3.15575800
11.89999947	-0.31803640	-29.61983000	-3.11269700
12.09999946	-0.15871060	-29.57062000	-2.78051200
12.29999945	-0.15871060	-28.92470000	-2.36835600
12.49999943	-0.15871060	-28.92470000	-2.40526600
12.69999942	0.00000000	-29.61983000	-2.32529500
12.89999941	0.00000000	-29.99508000	-2.36220500
13.09999940	0.00000000	-29.99508000	-1.99311000
13.29999939	0.15871060	-29.61983000	-1.99311000
13.49999937	0.00000000	-28.92470000	-2.31914400
13.69999936	0.00000000	-28.87549000	-1.95004900
13.89999935	0.00000000	-29.20152000	-1.61786400
14.09999934	-0.15871060	-28.83243000	-1.57480300
14.29999933	-0.15871060	-28.54946000	-1.61786400
14.49999932	0.00000000	-28.87549000	-1.99311000
14.69999930	-0.15871060	-29.57062000	-2.68823800
14.89999929	0.00000000	-29.61983000	-2.68823800
15.09999928	0.00000000	-29.25074000	-1.99311000
15.29999927	0.00000000	-29.28765000	-1.66707700
15.49999926	0.00000000	-29.25074000	-1.95004900
15.69999924	0.00000000	-29.66289000	-2.36220500
15.89999923	0.00000000	-29.99508000	-2.32529500
16.09999922	0.00000000	-29.99508000	-2.36220500
16.29999921	0.00000000	-29.61983000	-1.95004900
16.49999920	0.00000000	-28.87549000	-1.66707700
16.69999919	0.00000000	-28.50024000	-1.95004900
16.89999917	0.00000000	-28.41412000	-2.31914400
17.09999916	0.00000000	-28.03888000	-1.95004900
17.29999915	0.00000000	-27.29453000	-1.66707700
17.49999914	0.00000000	-26.91929000	-1.99311000
17.69999913	0.00000000	-26.91929000	-2.68823800
17.89999911	0.00000000	-27.34375000	-2.73745100
18.09999910	0.00000000	-28.50024000	-2.36835600
18.29999909	0.00000000	-30.03814000	-2.36220500
18.49999908	0.00000000	-31.61909000	-1.95004900
18.69999907	0.00000000	-33.15699000	-1.61786400
18.89999905	0.00000000	-34.27657000	-1.57480300
19.09999904	0.00000000	-34.23351000	-1.57480300
19.29999903	0.00000000	-32.68946000	-1.57480300
19.49999902	0.00000000	-29.94586000	-1.61786400
19.69999901	0.00000000	-26.45792000	-1.95004900
19.89999900	0.00000000	-22.55167000	-2.31914400
20.09999898	0.00000000	-19.14985000	-1.99311000
20.29999897	0.00000000	-17.29208000	-1.99311000
20.49999896	0.00000000	-18.49778000	-2.31914400
20.69999895	0.00000000	-22.73007000	-1.95004900
20.89999894	0.00000000	-29.01082000	-1.66707700
21.09999892	0.00000000	-36.74335000	-1.99311000
21.29999891	0.00000000	-44.41437000	-2.68823800
21.49999890	0.00000000	-49.35408000	-2.73745100
21.69999889	0.00000000	-50.09227000	-2.41141700
21.89999888	0.00000000	-45.77386000	-2.78051200
22.09999886	0.00000000	-36.88484000	-3.11269700
22.29999885	0.00000000	-25.20915000	-3.15575800
22.49999884	0.00000000	-12.82603000	-3.15575800
22.69999883	0.00000000	-2.12844500	-3.11269700
22.89999882	0.00000000	3.17421200	-2.73745100
23.09999881	0.00000000	0.85506890	-1.95004900
23.29999879	0.00000000	-8.49532500	-1.24877000
23.49999878	0.00000000	-23.61589000	-0.79355310
23.69999877	0.00000000	-41.76304000	-0.78124990
23.89999876	0.00000000	-58.32923000	-0.41830710
24.09999875	0.00000000	-69.45128000	-0.51058070
24.29999873	0.00000000	-71.68430000	-1.57480300
24.49999872	0.00000000	-63.54577000	-2.73745100
24.69999871	0.00000000	-46.93036000	-3.57406500
24.89999870	0.00000000	-25.25221000	-4.77977300
25.09999869	0.00000000	-3.29109200	-6.26845500
25.29999867	0.00000000	13.68725000	-7.38188900
25.49999866	0.00000000	21.37057000	-7.33882900
25.69999865	0.00000000	17.83341000	-5.80093500
25.89999864	0.00000000	3.13115100	-3.06348400
26.09999863	0.00000000	-19.61737000	0.41830710
26.29999862	0.00000000	-44.69734000	4.31840500
26.49999860	0.00000000	-66.33243000	7.71407400
26.69999859	0.00000000	-79.50295000	9.61491000
26.89999858	0.00000000	-81.40993000	8.78444900
27.09999857	0.00000000	-71.77657000	5.29650500
27.29999856	0.00000000	-52.42372000	-0.55364170
27.49999854	0.00000000	-28.13115000	-7.89247000
27.69999853	0.00000000	-4.17691900	-15.18824000
27.89999852	0.00000000	13.55192000	-20.57702000
28.09999851	0.00000000	20.99532000	-22.44094000
28.29999850	0.00000000	17.18135000	-20.02337000
28.49999848	0.00000000	3.68479300	-12.68455000
28.69999847	0.00000000	-16.41240000	-1.86392700
28.89999846	0.00000000	-38.41658000	9.71333600
29.09999845	0.00000000	-57.35728000	20.11565000
29.29999844	0.00000000	-69.03297000	26.20571000
29.49999843	0.00000000	-71.40748000	26.24877000
29.69999841	0.00000000	-64.88680000	20.34941000
29.89999840	0.00000000	-51.02116000	9.10433000
30.09999839	0.00000000	-33.66756000	-5.94242000
30.29999838	0.00000000	-16.96604000	-20.95226000
30.49999837	0.00000000	-3.75246000	-32.56643000
30.69999835	0.00000000	3.64173200	-38.28740000
30.89999834	0.00000000	4.06003900	-36.33120000
31.09999833	0.00000000	-2.08538400	-26.66708000
31.29999832	0.00000000	-13.29355000	-11.61417000
31.49999831	0.00000000	-26.83317000	5.80708600
31.69999829	0.00000000	-39.99754000	22.02264000
31.89999828	0.00000000	-50.04921000	33.58760000
32.09999827	0.00000000	-54.74901000	37.81988000
32.29999826	0.00000000	-53.67864000	33.58760000
32.49999825	0.00000000	-47.85925000	21.97342000
32.69999824	0.00000000	-38.55192000	5.38262700
32.89999822	0.00000000	-27.38681000	-12.77682000
33.09999821	0.00000000	-17.38435000	-28.24803000
33.29999820	0.00000000	-11.14665000	-38.33046000
33.49999819	0.00000000	-9.52263600	-40.97564000
33.69999818	0.00000000	-12.17397000	-35.21776000
33.89999816	0.00000000	-17.98720000	-22.53322000
34.09999815	0.00000000	-25.71358000	-6.31766700
34.29999814	0.00000000	-33.80905000	9.99015700
34.49999813	0.00000000	-40.00369000	23.51132000
34.69999812	0.00000000	-43.11638000	31.59449000
34.89999810	0.00000000	-42.74114000	31.96973000
35.09999809	0.00000000	-38.88410000	24.71703000
35.29999808	0.00000000	-32.78174000	11.98942000
35.49999807	0.00000000	-26.22416000	-3.06963600
35.69999806	0.00000000	-21.24139000	-17.32899000
35.89999805	0.00000000	-18.87303000	-27.36835000
36.09999803	0.00000000	-19.61737000	-30.89936000
36.29999802	0.00000000	-22.68701000	-27.82972000
36.49999801	0.00000000	-27.29453000	-19.00221000
36.69999800	0.00000000	-32.32037000	-6.68676100
36.89999799	0.00000000	-36.14050000	5.62253900
37.09999797	0.00000000	-38.09055000	15.23745000
37.29999796	0.00000000	-37.30315000	19.46973000
37.49999795	0.00000000	-34.27657000	17.23671000
37.69999794	0.00000000	-29.99508000	9.99015700
37.89999793	0.00000000	-25.38755000	0.00000000
38.09999791	0.00000000	-21.52436000	-9.94094400
38.29999790	0.00000000	-19.61737000	-16.86762000
38.49999789	0.00000000	-19.94340000	-18.77460000
38.69999788	0.00000000	-22.26870000	-15.37894000
38.89999787	0.00000000	-25.76279000	-7.71407400
39.09999786	0.00000000	-30.03814000	1.48868100
39.29999784	0.00000000	-34.27657000	9.89788300
39.49999783	0.00000000	-37.35236000	14.81914000
39.69999782	0.00000000	-38.50886000	14.08095000
39.89999781	0.00000000	-37.39542000	8.36614100
40.09999780	0.00000000	-34.69488000	-0.46136810
40.29999778	0.00000000	-31.20078000	-10.03322000
40.49999777	0.00000000	-27.34375000	-17.37205000
40.69999776	0.00000000	-24.13263000	-20.77387000
40.89999775	0.00000000	-21.42593000	-19.22982000
41.09999774	0.00000000	-19.16216000	-12.31545000
41.29999772	0.00000000	-19.24212000	-2.78051200
41.49999771	0.00000000	-21.43824000	6.87746000
41.69999770	0.00000000	-24.96309000	14.12401000
41.89999769	0.00000000	-28.83243000	16.86147000
42.09999768	0.00000000	-32.73868000	14.59153000
42.29999767	0.00000000	-35.81446000	8.45226300
42.49999765	0.00000000	-37.39542000	0.00000000
42.69999764	0.00000000	-37.35236000	-8.45226300
42.89999763	0.00000000	-35.43922000	-14.63459000
43.09999762	0.00000000	-32.03740000	-17.37205000
43.29999761	0.00000000	-28.96776000	-16.25861000
43.49999759	0.00000000	-26.91929000	-12.07554000
43.69999758	0.00000000	-25.33834000	-6.26845500
43.89999757	0.00000000	-24.22490000	-0.13533460
44.09999756	0.00000000	-24.18184000	4.87819900
44.29999755	0.00000000	-24.92003000	7.24655500
44.49999753	0.00000000	-25.62746000	7.29576700
44.69999752	0.00000000	-26.08268000	5.38262700
44.89999751	0.00000000	-26.13189000	1.95004900
45.09999750	0.00000000	-26.91929000	-1.53174200
45.29999749	0.00000000	-28.03888000	-4.64443900
45.49999748	0.00000000	-28.92470000	-6.96358300
45.69999746	0.00000000	-30.54872000	-7.71407400
45.89999745	0.00000000	-33.20005000	-7.01279500
46.09999744	0.00000000	-35.90059000	-5.06274600
46.29999743	0.00000000	-37.81373000	-2.82972400
46.49999742	0.00000000	-38.50886000	-0.79355310
46.69999740	0.00000000	-36.88484000	0.75049200
46.89999739	0.00000000	-32.64640000	2.27608300
47.09999738	0.00000000	-26.83317000	2.60211600
47.29999737	0.00000000	-20.64468000	1.48868100
47.49999736	0.00000000	-15.29281000	-0.41830710
47.69999734	0.00000000	-12.64149000	-2.78051200
47.89999733	0.00000000	-13.80413000	-5.01968500
48.09999732	0.00000000	-18.45472000	-6.58833600
48.29999731	0.00000000	-25.80585000	-6.59448800
48.49999730	0.00000000	-34.31963000	-5.89320800
48.69999729	0.00000000	-42.00295000	-4.60137700
48.89999727	0.00000000	-46.97957000	-2.31914400
49.09999726	0.00000000	-47.35482000	0.73818890
49.29999725	0.00000000	-43.11638000	3.02042300
49.49999724	0.00000000	-35.39001000	4.22613100
49.69999723	0.00000000	-25.76279000	4.18307100
49.89999721	0.00000000	-16.91683000	2.60211600
50.09999720	0.00000000	-11.10359000	-0.46751960
50.29999719	0.00000000	-9.56569900	-4.31840500
50.49999718	0.00000000	-12.68455000	-7.75713500
50.69999717	0.00000000	-19.94340000	-10.07628000
50.89999715	0.00000000	-29.20152000	-10.45152000
51.09999714	0.00000000	-37.67839000	-8.96284400
51.29999713	0.00000000	-43.86073000	-6.22539300
51.49999712	0.00000000	-45.77386000	-2.69439000
51.69999711	0.00000000	-43.11638000	1.53174200
51.89999710	0.00000000	-36.92790000	5.29650500
52.09999708	0.00000000	-28.50640000	6.87130900
52.29999707	0.00000000	-20.45399000	6.13312000
52.49999706	0.00000000	-15.42815000	3.85088600
52.69999705	0.00000000	-14.22244000	0.33218500
52.89999704	0.00000000	-16.91683000	-3.48794300
53.09999702	0.00000000	-22.68701000	-6.96358300
53.29999701	0.00000000	-29.95201000	-8.87672100
53.49999700	0.00000000	-36.46653000	-8.91978400
53.69999699	0.00000000	-39.95448000	-7.38188900
53.89999698	0.00000000	-40.00369000	-4.68750000
54.09999696	0.00000000	-36.92790000	-1.66707700
54.29999695	0.00000000	-31.53297000	0.69512790
54.49999694	0.00000000	-25.38755000	1.85777500
54.69999693	0.00000000	-20.03568000	2.22687000
54.89999692	0.00000000	-17.34129000	1.07037400
55.09999691	0.00000000	-18.07948000	-1.15649600
55.29999689	0.00000000	-21.52436000	-3.06348400
55.49999688	0.00000000	-26.87623000	-4.22613100
55.69999687	0.00000000	-32.27116000	-4.18307100
55.89999686	0.00000000	-36.18971000	-2.69439000
56.09999685	0.00000000	-38.46580000	-0.46751960
56.29999683	0.00000000	-38.04749000	1.06422200
56.49999682	0.00000000	-34.60876000	1.48253000
56.69999681	0.00000000	-29.66289000	1.02116100
56.89999680	0.00000000	-24.64321000	-0.92888770
57.09999679	0.00000000	-21.19833000	-4.31840500
57.29999677	0.00000000	-19.99262000	-7.33882900
57.49999676	0.00000000	-21.10605000	-8.91978400
57.69999675	0.00000000	-23.75738000	-8.87672100
57.89999674	0.00000000	-26.87623000	-6.87746000
58.09999673	0.00000000	-29.99508000	-2.64517700
58.29999672	0.00000000	-32.64640000	2.64517700
58.49999670	0.00000000	-33.80905000	6.87746000
58.69999669	0.00000000	-33.11393000	8.82750900
58.89999668	0.00000000	-31.57603000	8.45226300
59.09999667	0.00000000	-29.61983000	5.67175200
59.29999666	0.00000000	-27.34375000	0.64591530
59.49999664	0.00000000	-25.80585000	-5.85014700
59.69999663	0.00000000	-25.38755000	-11.60802000
59.89999662	0.00000000	-25.71358000	-15.09596000
60.09999661	0.00000000	-26.50098000	-15.84030000
60.29999660	0.00000000	-27.29453000	-13.10285000
60.49999658	0.00000000	-28.45718000	-7.33882900
60.69999657	0.00000000	-29.57062000	-0.04306102
60.89999656	0.00000000	-29.94586000	6.87746000
61.09999655	0.00000000	-29.57062000	11.52190000
61.29999654	0.00000000	-28.45718000	13.05364000
61.49999653	0.00000000	-27.34375000	11.06053000
61.69999651	0.00000000	-26.96850000	5.29650500
61.89999650	0.00000000	-27.29453000	-2.73745100
62.09999649	0.00000000	-28.08194000	-10.40846000
62.29999648	0.00000000	-28.87549000	-15.84030000
62.49999647	0.00000000	-30.03814000	-17.79035000
62.69999645	0.00000000	-31.10851000	-16.25861000
62.89999644	0.00000000	-31.15157000	-11.61417000
63.09999643	0.00000000	-30.41338000	-4.69365100
63.29999642	0.00000000	-29.57062000	2.64517700
63.49999641	0.00000000	-28.03888000	8.82750900
63.69999639	0.00000000	-26.13189000	12.68455000
63.89999638	0.00000000	-25.01230000	13.05364000
64.09999637	0.00000000	-24.60015000	9.99015700
64.29999636	0.00000000	-25.38755000	4.22613100
64.49999635	0.00000000	-26.87623000	-2.69439000
64.69999634	0.00000000	-28.45718000	-8.87672100
64.89999632	0.00000000	-29.99508000	-13.14591000
65.09999631	0.00000000	-31.10851000	-14.72687000
65.29999630	0.00000000	-31.10851000	-13.60728000
65.49999629	0.00000000	-29.99508000	-10.53765000
65.69999628	0.00000000	-28.50024000	-6.26845500
65.89999626	0.00000000	-27.29453000	-1.62401600
66.09999625	0.00000000	-26.54404000	2.64517700
66.29999624	0.00000000	-26.13189000	5.75787400
66.49999623	0.00000000	-26.54404000	7.33882900
66.69999622	0.00000000	-27.29453000	7.33882900
66.89999620	0.00000000	-28.50024000	5.80093500
67.09999619	0.00000000	-29.94586000	3.11269700
67.29999618	0.00000000	-30.69020000	0.00000000
67.49999617	0.00000000	-29.94586000	-3.11269700
67.69999616	0.00000000	-28.41412000	-5.89320800
67.89999615	0.00000000	-26.45792000	-8.21850300
68.09999613	0.00000000	-24.18184000	-10.16855000
68.29999612	0.00000000	-22.68701000	-10.91289000
68.49999611	0.00000000	-22.68701000	-10.49459000
68.69999610	0.00000000	-24.26796000	-8.54453700
68.89999609	0.00000000	-27.34375000	-5.06274600
69.09999607	0.00000000	-31.20078000	-1.15649600
69.29999606	0.00000000	-34.65182000	3.11269700
69.49999605	0.00000000	-36.97712000	6.96358300
69.69999604	0.00000000	-37.30315000	9.24581600
69.89999603	0.00000000	-35.39001000	9.61491000
70.09999601	0.00000000	-31.48376000	7.29576700
70.29999600	0.00000000	-26.50098000	3.06963600
70.49999599	0.00000000	-21.48130000	-1.95004900
70.69999598	0.00000000	-18.03642000	-7.00664300
70.89999597	0.00000000	-16.87377000	-10.86983000
71.09999596	0.00000000	-18.41166000	-13.14591000
71.29999594	0.00000000	-22.26870000	-12.77067000
71.49999593	0.00000000	-27.29453000	-9.71333600
71.69999592	0.00000000	-32.73868000	-5.47490100
71.89999591	0.00000000	-37.34621000	-0.46136810
72.09999590	0.00000000	-40.08981000	3.76476400
72.29999588	0.00000000	-40.42199000	6.13312000
72.49999587	0.00000000	-38.09055000	6.92052100
72.69999586	0.00000000	-33.11393000	5.71481200
72.89999585	0.00000000	-27.34375000	2.69439000
73.09999584	0.00000000	-22.26870000	-1.11343500
73.29999582	0.00000000	-18.41166000	-4.18307100
73.49999581	0.00000000	-16.91683000	-5.75787400
73.69999580	0.00000000	-18.36245000	-5.80093500
73.89999579	0.00000000	-21.85039000	-4.68750000
74.09999578	0.00000000	-26.08883000	-3.19881900
74.29999577	0.00000000	-30.78248000	-2.04232300
74.49999575	0.00000000	-34.55955000	-1.61786400
74.69999574	0.00000000	-36.55265000	-1.66707700
74.89999573	0.00000000	-36.18971000	-2.41141700
75.09999572	0.00000000	-34.31963000	-3.90009800
75.29999571	0.00000000	-31.57603000	-4.60137700
75.49999569	0.00000000	-28.50024000	-4.26919300
75.69999568	0.00000000	-25.80585000	-3.06348400
75.89999567	0.00000000	-24.22490000	-1.11343500
76.09999566	0.00000000	-23.80659000	1.58095500
76.29999565	0.00000000	-24.18184000	4.22613100
76.49999563	0.00000000	-25.33834000	5.71481200
76.69999562	0.00000000	-26.83317000	5.29650500
76.89999561	0.00000000	-27.98966000	2.60211600
77.09999560	0.00000000	-28.41412000	-1.62401600
77.29999559	0.00000000	-28.45718000	-6.21924200
77.49999558	0.00000000	-28.45718000	-10.07628000
77.69999556	0.00000000	-28.45718000	-12.03248000
77.89999555	0.00000000	-28.50024000	-12.03248000
78.09999554	0.00000000	-28.87549000	-10.03322000
78.29999553	0.00000000	-29.66289000	-5.75787400
78.49999552	0.00000000	-30.41338000	-0.04306102
78.69999550	0.00000000	-31.10851000	5.33956700
78.89999549	0.00000000	-30.69020000	8.82750900
79.09999548	0.00000000	-28.83243000	9.99015700
79.29999547	0.00000000	-26.87623000	8.45226300
79.49999546	0.00000000	-24.92003000	4.64443900
79.69999544	0.00000000	-23.01919000	0.00000000
79.89999543	0.00000000	-22.31176000	-4.69365100
80.09999542	0.00000000	-23.01919000	-8.91978400
80.29999541	0.00000000	-25.01230000	-11.61417000
80.49999540	0.00000000	-27.66978000	-12.03248000
80.69999539	0.00000000	-30.78248000	-10.49459000
80.89999537	0.00000000	-33.02165000	-7.42495000
81.09999536	0.00000000	-33.85211000	-3.53100400
81.29999535	0.00000000	-33.06471000	0.33218500
81.49999534	0.00000000	-31.15157000	3.80782500
81.69999533	0.00000000	-28.45718000	5.75787400
81.89999531	0.00000000	-25.76279000	6.21924200
82.09999530	0.00000000	-23.80659000	5.80093500
82.29999529	0.00000000	-22.64394000	4.22613100
82.49999528	0.00000000	-22.68701000	1.53174200
82.69999527	0.00000000	-24.18184000	-1.58095500
82.89999525	0.00000000	-26.45792000	-4.68750000
83.09999524	0.00000000	-28.41412000	-7.38188900
83.29999523	0.00000000	-29.99508000	-8.96284400
83.49999522	0.00000000	-31.10851000	-9.38115100
83.69999521	0.00000000	-31.10851000	-8.96284400
83.89999520	0.00000000	-30.03814000	-7.38188900
84.09999518	0.00000000	-28.87549000	-4.64443900
84.29999517	0.00000000	-28.08194000	-1.15649600
84.49999516	0.00000000	-27.29453000	2.69439000
84.69999515	0.00000000	-26.91929000	5.75787400
84.89999514	0.00000000	-26.87623000	7.29576700
85.09999512	0.00000000	-26.87623000	6.92052100
85.29999511	0.00000000	-26.87623000	4.60137700
85.49999510	0.00000000	-26.83317000	1.11343500
85.69999509	0.00000000	-26.45792000	-3.15575800
85.89999508	0.00000000	-25.76279000	-7.38188900
86.09999506	0.00000000	-25.76279000	-10.45152000
86.29999505	0.00000000	-26.50098000	-11.60802000
86.49999504	0.00000000	-27.29453000	-10.45152000
86.69999503	0.00000000	-28.50024000	-7.38188900
86.89999502	0.00000000	-29.99508000	-3.11269700
87.09999501	0.00000000	-31.10851000	1.53174200
87.29999499	0.00000000	-31.15157000	5.71481200
87.49999498	0.00000000	-30.37032000	8.03395600
87.69999497	0.00000000	-29.24459000	7.66486200
87.89999496	0.00000000	-27.66978000	5.33956700
88.09999495	0.00000000	-26.50098000	1.06422200
88.29999493	0.00000000	-25.29527000	-4.27534400
88.49999492	0.00000000	-24.22490000	-8.87672100
88.69999491	0.00000000	-24.22490000	-11.56496000
88.89999490	0.00000000	-25.33834000	-11.56496000
89.09999489	0.00000000	-26.87623000	-8.91978400
89.29999487	0.00000000	-28.45718000	-4.64443900
89.49999486	0.00000000	-29.99508000	0.37524600
89.69999485	0.00000000	-31.10851000	5.33956700
89.89999484	0.00000000	-31.10851000	8.36614100
90.09999483	0.00000000	-30.03814000	8.36614100
90.29999482	0.00000000	-28.87549000	5.38262700
90.49999480	0.00000000	-28.03888000	0.75049200
90.69999479	0.00000000	-26.91929000	-3.90625000
90.89999478	0.00000000	-26.18110000	-8.54453700
91.09999477	0.00000000	-26.50098000	-11.52190000
91.29999476	0.00000000	-26.83317000	-11.56496000
91.49999474	0.00000000	-26.87623000	-8.87672100
91.69999473	0.00000000	-26.87623000	-4.27534400
91.89999472	0.00000000	-26.87623000	1.11343500
92.09999471	0.00000000	-26.87623000	5.67175200
92.29999470	0.00000000	-26.87623000	8.03395600
92.49999468	0.00000000	-26.91929000	7.62180000
92.69999467	0.00000000	-27.29453000	4.96432100
92.89999466	0.00000000	-28.08194000	0.32603340
93.09999465	0.00000000	-28.83243000	-4.60137700
93.29999464	0.00000000	-29.61983000	-8.50147600
93.49999463	0.00000000	-29.99508000	-10.40846000
93.69999461	0.00000000	-29.99508000	-10.03322000
93.89999460	0.00000000	-29.57062000	-7.33882900
94.09999459	0.00000000	-28.36491000	-3.11269700
94.29999458	0.00000000	-26.45792000	1.43946800
94.49999457	0.00000000	-24.18184000	4.92125900
94.69999455	0.00000000	-22.64394000	6.09005900
94.89999454	0.00000000	-22.22564000	5.33956700
95.09999453	0.00000000	-22.64394000	2.60211600
95.29999452	0.00000000	-24.22490000	-1.53174200
95.49999451	0.00000000	-26.91929000	-5.38262700
95.69999449	0.00000000	-29.99508000	-7.71407400
95.89999448	0.00000000	-32.68946000	-8.50147600
96.09999447	0.00000000	-34.23351000	-7.33882900
96.29999446	0.00000000	-34.23351000	-4.68750000
96.49999445	0.00000000	-32.68946000	-1.62401600
96.69999444	0.00000000	-29.94586000	1.11343500
96.89999442	0.00000000	-26.45792000	3.02042300
97.09999441	0.00000000	-22.64394000	3.76476400
97.29999440	0.00000000	-19.94340000	2.64517700
97.49999439	0.00000000	-19.14985000	0.37524600
97.69999438	0.00000000	-19.90034000	-1.90698800
97.89999436	0.00000000	-22.26870000	-3.85088600
98.09999435	0.00000000	-25.71358000	-4.64443900
98.29999434	0.00000000	-29.61983000	-4.69365100
98.49999433	0.00000000	-33.06471000	-4.26919300
98.69999432	0.00000000	-35.39001000	-3.15575800
98.89999430	0.00000000	-35.76525000	-2.04232300
99.09999429	0.00000000	-34.27657000	-1.57480300
99.29999428	0.00000000	-31.57603000	-1.15649600
99.49999427	0.00000000	-28.45718000	-0.41830710
99.69999426	0.00000000	-25.29527000	-0.04306102
99.89999425	0.00000000	-22.22564000	0.00000000
100.09999423	0.00000000	-19.94340000	0.04306102
100.29999422	0.00000000	-19.56816000	0.41830710
100.49999421	0.00000000	-21.06299000	1.11343500
100.69999420	0.00000000	-23.75738000	1.06422200
100.89999419	0.00000000	-26.83317000	-0.04306102
101.09999417	0.00000000	-29.61983000	-1.57480300
101.29999416	0.00000000	-31.90822000	-3.15575800
101.49999415	0.00000000	-33.47687000	-4.68750000
101.69999414	0.00000000	-33.43996000	-5.80093500
101.89999413	0.00000000	-32.36343000	-5.80093500
102.09999411	0.00000000	-30.37032000	-4.64443900
102.29999410	0.00000000	-28.08194000	-2.73745100
102.49999409	0.00000000	-25.71358000	-0.37524600
102.69999408	0.00000000	-23.80659000	1.90698800
102.89999407	0.00000000	-22.64394000	3.85088600
103.09999406	0.00000000	-22.64394000	4.55831700
103.29999404	0.00000000	-23.75738000	3.80782500
103.49999403	0.00000000	-25.29527000	1.48868100
103.69999402	0.00000000	-26.87623000	-1.58095500
103.89999401	0.00000000	-28.45718000	-4.68750000
104.09999400	0.00000000	-29.99508000	-7.33882900
104.29999398	0.00000000	-31.10851000	-8.50147600
104.49999397	0.00000000	-31.10851000	-7.75713500
104.69999396	0.00000000	-29.99508000	-5.85014700
104.89999395	0.00000000	-28.45718000	-3.11269700
105.09999394	0.00000000	-26.91929000	-0.04306102
105.29999392	0.00000000	-25.71358000	2.60211600
105.49999391	0.00000000	-24.96309000	3.76476400
105.69999390	0.00000000	-24.55093000	3.06348400
105.89999389	0.00000000	-24.96309000	1.53174200
106.09999388	0.00000000	-25.71358000	-0.41830710
106.29999387	0.00000000	-26.91929000	-2.73745100
106.49999385	0.00000000	-28.41412000	-4.64443900
106.69999384	0.00000000	-29.52756000	-5.85014700
106.89999383	0.00000000	-29.52756000	-6.13312000
107.09999382	0.00000000	-28.41412000	-5.00738200
107.29999381	0.00000000	-26.91929000	-2.36835600
107.49999379	0.00000000	-25.76279000	-0.13533460
107.69999378	0.00000000	-25.33834000	1.11343500
107.89999377	0.00000000	-25.33834000	1.48253000
108.09999376	0.00000000	-25.76279000	1.11343500
108.29999375	0.00000000	-26.87623000	-0.04306102
108.49999374	0.00000000	-28.03888000	-1.57480300
108.69999372	0.00000000	-28.83243000	-3.11269700
108.89999371	0.00000000	-29.57062000	-4.22613100
109.09999370	0.00000000	-29.57062000	-4.22613100
109.29999369	0.00000000	-28.83243000	-3.11269700
109.49999368	0.00000000	-28.03888000	-1.57480300
109.69999366	0.00000000	-26.87623000	0.00000000
109.89999365	0.00000000	-25.76279000	1.48868100
110.09999364	0.00000000	-25.33834000	2.26993100
110.29999363	0.00000000	-25.33834000	1.90698800
110.49999362	0.00000000	-25.71358000	1.11343500
110.69999360	0.00000000	-26.50098000	-0.46751960
110.89999359	0.00000000	-27.29453000	-2.69439000
111.09999358	0.00000000	-28.41412000	-4.22613100
111.29999357	0.00000000	-29.15231000	-4.69365100
111.49999356	0.00000000	-28.83243000	-4.69365100
111.69999355	0.00000000	-28.45718000	-4.26919300
111.89999353	0.00000000	-28.03888000	-3.15575800
112.09999352	0.00000000	-27.29453000	-1.99311000
112.29999351	0.00000000	-26.91929000	-1.19955700
112.49999350	0.00000000	-26.87623000	-0.41830710
112.69999349	0.00000000	-26.87623000	-0.04306102
112.89999347	0.00000000	-26.87623000	0.00000000
113.09999346	0.00000000	-26.87623000	-0.04306102
113.29999345	0.00000000	-26.87623000	-0.41830710
113.49999344	0.00000000	-26.87623000	-1.15649600
113.69999343	0.00000000	-26.87623000	-1.53174200
113.89999341	0.00000000	-26.87623000	-1.57480300
114.09999340	0.00000000	-26.87623000	-1.61786400
114.29999339	0.00000000	-26.87623000	-1.99311000
114.49999338	0.00000000	-26.87623000	-2.73745100
114.69999337	0.00000000	-26.87623000	-3.11269700
114.89999336	0.00000000	-26.87623000	-3.15575800
115.09999334	0.00000000	-26.87623000	-3.15575800
115.29999333	0.00000000	-26.87623000	-3.15575800
115.49999332	0.00000000	-26.87623000	-3.11269700
115.69999331	0.00000000	-26.87623000	-2.68823800
115.89999330	0.00000000	-26.87623000	-1.57480300
116.09999328	0.00000000	-26.87623000	-0.46136810
116.29999327	0.00000000	-26.91929000	-0.04306102
116.49999326	0.00000000	-27.29453000	0.00000000
116.69999325	0.00000000	-28.03888000	0.00000000
116.89999324	0.00000000	-28.36491000	-0.04306102
117.09999322	0.00000000	-28.03888000	-0.46136810
117.29999321	0.00000000	-27.25147000	-1.57480300
117.49999320	0.00000000	-26.50098000	-2.68823800
117.69999319	0.00000000	-25.71358000	-3.15575800
117.89999318	0.00000000	-25.33834000	-3.53100400
118.09999317	0.00000000	-25.29527000	-3.90009800
118.29999315	0.00000000	-25.33834000	-3.48794300
118.49999314	0.00000000	-25.76279000	-2.78051200
118.69999313	0.00000000	-26.87623000	-1.95004900
118.89999312	0.00000000	-28.03888000	-1.19955700
119.09999311	0.00000000	-28.83243000	-0.41830710
119.29999309	0.00000000	-29.61983000	-0.04306102
119.49999308	0.00000000	-29.90280000	0.00000000
119.69999307	0.00000000	-29.24459000	0.00000000
119.89999306	0.00000000	-28.04503000	-0.04306102
120.09999305	0.00000000	-27.24532000	-0.41830710
120.29999303	0.00000000	-25.67052000	-1.15649600
120.49999302	0.00000000	-24.22490000	-1.57480300
120.69999301	0.00000000	-23.75738000	-1.99311000
120.89999300	0.00000000	-23.75738000	-2.73745100
121.09999299	0.00000000	-24.18184000	-3.11269700
121.29999298	0.00000000	-25.33834000	-3.15575800
121.49999296	0.00000000	-26.87623000	-3.11269700
121.69999295	0.00000000	-28.41412000	-2.73745100
121.89999294	0.00000000	-29.57062000	-1.99311000
122.09999293	0.00000000	-29.99508000	-1.57480300
122.29999292	0.00000000	-29.99508000	-1.15649600
122.49999290	0.00000000	-29.57062000	-0.41830710
122.69999289	0.00000000	-28.45718000	-0.04306102
122.89999288	0.00000000	-27.29453000	0.00000000
123.09999287	0.00000000	-26.45792000	-0.04306102
123.29999286	0.00000000	-25.33834000	-0.37524600
123.49999284	0.00000000	-24.60015000	-0.78124990
123.69999283	0.00000000	-24.92003000	-0.83661410
123.89999282	0.00000000	-25.29527000	-1.62401600
124.09999281	0.00000000	-25.71358000	-2.68823800
124.29999280	0.00000000	-26.50098000	-3.11269700
124.49999279	0.00000000	-27.25147000	-3.11269700
124.69999277	0.00000000	-28.08194000	-2.73745100
124.89999276	0.00000000	-28.83243000	-1.99311000
125.09999275	0.00000000	-29.57062000	-1.57480300
125.29999274	0.00000000	-29.57062000	-1.15649600
125.49999273	0.00000000	-28.83243000	-0.41830710
125.69999271	0.00000000	-28.08194000	-0.04306102
125.89999270	0.00000000	-27.25147000	0.00000000
126.09999269	0.00000000	-26.45792000	0.00000000
126.29999268	0.00000000	-25.29527000	-0.04306102
126.49999267	0.00000000	-24.22490000	-0.41830710
126.69999265	0.00000000	-24.18184000	-1.15649600
126.89999264	0.00000000	-24.92003000	-1.57480300
127.09999263	0.00000000	-25.71358000	-1.99311000
127.29999262	0.00000000	-26.87623000	-2.73745100
127.49999261	0.00000000	-28.03888000	-3.06348400
127.69999260	0.00000000	-28.83243000	-2.73745100
127.89999258	0.00000000	-29.57062000	-1.99311000
128.09999257	0.00000000	-29.52756000	-1.57480300
128.29999256	0.00000000	-28.41412000	-1.15649600
128.49999255	0.00000000	-26.91929000	-0.41830710
128.69999254	0.00000000	-25.71358000	-0.04306102
128.89999252	0.00000000	-24.96309000	0.00000000
129.09999251	0.00000000	-24.55093000	-0.04306102
129.29999250	0.00000000	-24.96309000	-0.41830710
129.49999249	0.00000000	-25.67052000	-1.15649600
129.69999248	0.00000000	-26.50098000	-1.57480300
129.89999246	0.00000000	-27.25147000	-1.95004900
130.09999245	0.00000000	-28.08194000	-2.31914400
130.29999244	0.00000000	-28.78937000	-1.95004900
130.49999243	0.00000000	-29.15231000	-1.61786400
130.69999242	0.00000000	-28.41412000	-1.53174200
130.89999241	0.00000000	-27.29453000	-1.15649600
131.09999239	0.00000000	-26.50098000	-0.46136810
131.29999238	0.00000000	-25.71358000	-0.46136810
131.49999237	0.00000000	-25.33834000	-1.15649600
131.69999236	0.00000000	-25.33834000	-1.57480300
131.89999235	0.00000000	-25.71358000	-1.99311000
132.09999233	0.00000000	-26.45792000	-2.73745100
132.29999232	0.00000000	-26.87623000	-3.11269700
132.49999231	0.00000000	-27.29453000	-3.11269700
132.69999230	0.00000000	-28.03888000	-2.73745100
132.89999229	0.00000000	-28.36491000	-1.95004900
133.09999227	0.00000000	-28.03888000	-1.19955700
133.29999226	0.00000000	-27.29453000	-0.41830710
133.49999225	0.00000000	-26.91929000	-0.04306102
133.69999224	0.00000000	-26.87623000	0.00000000
133.89999223	0.00000000	-26.87623000	-0.04306102
134.09999222	0.00000000	-26.87623000	-0.41830710
134.29999220	0.00000000	-26.87623000	-1.19955700
134.49999219	0.00000000	-26.87623000	-1.95004900
134.69999218	0.00000000	-26.87623000	-2.73745100
134.89999217	0.00000000	-26.83317000	-3.11269700
135.09999216	0.00000000	-26.50098000	-3.15575800
135.29999214	0.00000000	-26.13189000	-3.11269700
135.49999213	0.00000000	-26.50098000	-2.73745100
135.69999212	0.00000000	-26.83317000	-1.95004900
135.89999211	0.00000000	-26.87623000	-1.19955700
136.09999210	0.00000000	-26.91929000	-0.41830710
136.29999208	0.00000000	-27.29453000	-0.04306102
136.49999207	0.00000000	-28.03888000	0.00000000
136.69999206	0.00000000	-28.36491000	-0.04306102
136.89999205	0.00000000	-28.03888000	-0.41830710
137.09999204	0.00000000	-27.25147000	-1.19955700
137.29999203	0.00000000	-26.50098000	-1.95004900
137.49999201	0.00000000	-25.71358000	-2.73745100
137.69999200	0.00000000	-25.33834000	-3.11269700
137.89999199	0.00000000	-25.29527000	-3.15575800
138.09999198	0.00000000	-25.33834000	-3.11269700
138.29999197	0.00000000	-25.71358000	-2.73745100
138.49999195	0.00000000	-26.50098000	-1.99311000
138.69999194	0.00000000	-27.25147000	-1.57480300
138.89999193	0.00000000	-28.03888000	-1.15649600
139.09999192	0.00000000	-28.41412000	-0.41830710
139.29999191	0.00000000	-28.41412000	-0.04306102
139.49999189	0.00000000	-28.03888000	0.00000000
139.69999188	0.00000000	-27.25147000	0.00000000
139.89999187	0.00000000	-26.50098000	-0.04306102
140.09999186	0.00000000	-25.71358000	-0.41830710
140.29999185	0.00000000	-25.33834000	-1.15649600
140.49999184	0.00000000	-25.33834000	-1.57480300
140.69999182	0.00000000	-25.71358000	-1.99311000
140.89999181	0.00000000	-26.45792000	-2.73745100
141.09999180	0.00000000	-26.83317000	-3.11269700
141.29999179	0.00000000	-26.87623000	-3.11269700
141.49999178	0.00000000	-26.87623000	-2.68823800
141.69999176	0.00000000	-26.87623000	-1.57480300
141.89999175	0.00000000	-26.87623000	-0.46136810
142.09999174	0.00000000	-26.83317000	-0.04306102
142.29999173	0.00000000	-26.45792000	0.00000000
142.49999172	0.00000000	-25.71358000	0.00000000
142.69999170	0.00000000	-25.33834000	0.00000000
142.89999169	0.00000000	-25.33834000	-0.09227362
143.09999168	0.00000000	-25.71358000	-0.83661410
143.29999167	0.00000000	-26.45792000	-2.31914400
143.49999166	0.00000000	-26.83317000	-3.06348400
143.69999165	0.00000000	-26.87623000	-3.15575800
143.89999163	0.00000000	-26.87623000	-3.11269700
144.09999162	0.00000000	-26.87623000	-2.73745100
144.29999161	0.00000000	-26.83317000	-1.95004900
144.49999160	0.00000000	-26.45792000	-1.19955700
144.69999159	0.00000000	-25.76279000	-0.41830710
144.89999157	0.00000000	-25.76279000	-0.04306102
145.09999156	0.00000000	-26.45792000	0.00000000
145.29999155	0.00000000	-26.83317000	-0.04306102
145.49999154	0.00000000	-26.87623000	-0.41830710
145.69999153	0.00000000	-26.87623000	-1.15649600
145.89999151	0.00000000	-26.87623000	-1.57480300
146.09999150	0.00000000	-26.87623000	-1.99311000
146.29999149	0.00000000	-26.87623000	-2.73745100
146.49999148	0.00000000	-26.87623000	-3.06348400
146.69999147	0.00000000	-26.83317000	-2.73745100
146.89999146	0.00000000	-26.45792000	-1.99311000
147.09999144	0.00000000	-25.71358000	-1.57480300
147.29999143	0.00000000	-25.33834000	-1.15649600
147.49999142	0.00000000	-25.33834000	-0.41830710
147.69999141	0.00000000	-25.71358000	-0.04306102
147.89999140	0.00000000	-26.45792000	0.00000000
148.09999138	0.00000000	-26.83317000	-0.04306102
148.29999137	0.00000000	-26.87623000	-0.41830710
148.49999136	0.00000000	-26.87623000	-1.15649600
148.69999135	0.00000000	-26.87623000	-1.53174200
148.89999134	0.00000000	-26.87623000	-1.57480300
149.09999132	0.00000000	-26.87623000	-1.61786400
149.29999131	0.00000000	-26.87623000	-1.95004900
149.49999130	0.00000000	-26.83317000	-2.31914400
149.69999129	0.00000000	-26.45792000	-1.95004900
149.89999128	0.00000000	-25.71358000	-1.57480300
150.09999127	0.00000000	-25.33834000	-1.15649600
150.29999125	0.00000000	-25.33834000	-0.41830710
150.49999124	0.00000000	-25.71358000	-0.04306102
150.69999123	0.00000000	-26.45792000	0.00000000
150.89999122	0.00000000	-26.83317000	-0.04306102
151.09999121	0.00000000	-26.87623000	-0.41830710
151.29999119	0.00000000	-26.87623000	-1.15649600
151.49999118	0.00000000	-26.87623000	-1.53174200
151.69999117	0.00000000	-26.91929000	-1.61786400
151.89999116	0.00000000	-27.20841000	-1.95004900
152.09999115	0.00000000	-27.19611000	-2.31914400
152.29999113	0.00000000	-26.08883000	-1.95004900
152.49999112	0.00000000	-25.38755000	-1.61786400
152.69999111	0.00000000	-25.29527000	-1.57480300
152.89999110	0.00000000	-25.29527000	-1.57480300
153.09999109	0.00000000	-25.29527000	-1.53174200
153.29999108	0.00000000	-25.33834000	-1.15649600
153.49999106	0.00000000	-25.71358000	-0.41830710
153.69999105	0.00000000	-26.45792000	-0.09227362
153.89999104	0.00000000	-26.83317000	-0.41830710
154.09999103	0.00000000	-26.87623000	-1.15649600
154.29999102	0.00000000	-26.87623000	-1.53174200
154.49999100	0.00000000	-26.87623000	-1.57480300
154.69999099	0.00000000	-26.87623000	-1.57480300
154.89999098	0.00000000	-26.83317000	-1.57480300
155.09999097	0.00000000	-26.45792000	-1.57480300
155.29999096	0.00000000	-25.71358000	-1.57480300
155.49999094	0.00000000	-25.33834000	-1.57480300
155.69999093	0.00000000	-25.29527000	-1.57480300
155.89999092	0.00000000	-25.29527000	-1.57480300
156.09999091	0.00000000	-25.33834000	-1.57480300
156.29999090	0.00000000	-25.71358000	-1.53174200
156.49999089	0.00000000	-26.45792000	-1.15649600
156.69999087	0.00000000	-26.83317000	-0.41830710
156.89999086	0.00000000	-26.87623000	-0.04306102
157.09999085	0.00000000	-26.87623000	0.00000000
157.29999084	0.00000000	-26.87623000	-0.04306102
157.49999083	0.00000000	-26.87623000	-0.41830710
157.69999081	0.00000000	-26.87623000	-1.15649600
157.89999080	0.00000000	-26.83317000	-1.53174200
158.09999079	0.00000000	-26.45792000	-1.57480300
158.29999078	0.00000000	-25.71358000	-1.57480300
158.49999077	0.00000000	-25.33834000	-1.57480300
158.69999075	0.00000000	-25.29527000	-1.57480300
158.89999074	0.00000000	-25.29527000	-1.57480300
159.09999073	0.00000000	-25.29527000	-1.53174200
159.29999072	0.00000000	-25.33834000	-1.15649600
159.49999071	0.00000000	-25.71358000	-0.41830710
159.69999070	0.00000000	-26.45792000	-0.04306102
159.89999068	0.00000000	-26.83317000	0.00000000
160.09999067	0.00000000	-26.87623000	0.00000000
160.29999066	0.00000000	-26.87623000	0.00000000
160.49999065	0.00000000	-26.87623000	-0.04306102
160.69999064	0.00000000	-26.87623000	-0.41830710
160.89999062	0.00000000	-26.87623000	-1.15649600
161.09999061	0.00000000	-26.87623000	-1.53174200
161.29999060	0.00000000	-26.83317000	-1.57480300
161.49999059	0.00000000	-26.45792000	-1.57480300
161.69999058	0.00000000	-25.71358000	-1.57480300
161.89999056	0.00000000	-25.33834000	-1.53174200
162.09999055	0.00000000	-25.29527000	-1.19955700
162.29999054	0.00000000	-25.29527000	-0.79355310
162.49999053	0.00000000	-25.29527000	-0.78124990
162.69999052	0.00000000	-25.33834000	-0.37524600
162.89999051	0.00000000	-25.71358000	-0.04306102
163.09999049	0.00000000	-26.45792000	0.00000000
163.29999048	0.00000000	-26.83317000	-0.04306102
163.49999047	0.00000000	-26.87623000	-0.41830710
163.69999046	0.00000000	-26.87623000	-1.15649600
163.89999045	0.00000000	-26.87623000	-1.53174200
164.09999043	0.00000000	-26.87623000	-1.57480300
164.29999042	0.00000000	-26.83317000	-1.57480300
164.49999041	0.00000000	-26.45792000	-1.57480300
164.69999040	0.00000000	-25.71358000	-1.57480300
164.89999039	0.00000000	-25.33834000	-1.57480300
165.09999037	0.00000000	-25.29527000	-1.53174200
165.29999036	0.00000000	-25.29527000	-1.19955700
165.49999035	0.00000000	-25.33834000	-0.83661410
165.69999034	0.00000000	-25.71358000	-1.15649600
165.89999033	0.00000000	-26.45792000	-1.15649600
166.09999032	0.00000000	-26.83317000	-0.83661410
166.29999030	0.00000000	-26.87623000	-1.19955700
166.49999029	0.00000000	-26.87623000	-1.48253000
166.69999028	0.00000000	-26.87623000	-1.19955700
166.89999027	0.00000000	-26.87623000	-0.83661410
167.09999026	0.00000000	-26.83317000	-1.19955700
167.29999024	0.00000000	-26.45792000	-1.53174200
167.49999023	0.00000000	-25.71358000	-1.57480300
167.69999022	0.00000000	-25.33834000	-1.57480300
167.89999021	0.00000000	-25.29527000	-1.57480300
168.09999020	0.00000000	-25.29527000	-1.57480300
168.29999018	0.00000000	-25.29527000	-1.57480300
168.49999017	0.00000000	-25.33834000	-1.57480300
168.69999016	0.00000000	-25.67052000	-1.57480300
168.89999015	0.00000000	-26.03961000	-1.57480300
169.09999014	0.00000000	-25.71358000	-1.57480300
169.29999013	0.00000000	-25.71358000	-1.57480300
169.49999011	0.00000000	-26.03961000	-1.57480300
169.69999010	0.00000000	-25.71358000	-1.57480300
169.89999009	0.00000000	-25.76279000	-1.57480300
170.09999008	0.00000000	-26.45792000	-1.57480300
170.29999007	0.00000000	-26.78395000	-1.57480300
170.49999005	0.00000000	-26.50098000	-1.57480300
170.69999004	0.00000000	-26.08883000	-1.57480300
170.89999003	0.00000000	-26.08268000	-1.57480300
171.09999002	0.00000000	-25.67052000	-1.57480300
171.29999001	0.00000000	-25.33834000	-1.57480300
171.49998999	0.00000000	-25.29527000	-1.57480300
171.69998998	0.00000000	-25.29527000	-1.57480300
171.89998997	0.00000000	-25.33834000	-1.57480300
172.09998996	0.00000000	-25.67052000	-1.57480300
172.29998995	0.00000000	-26.03961000	-1.57480300
172.49998994	0.00000000	-25.71358000	-1.57480300
172.69998992	0.00000000	-25.76279000	-1.57480300
172.89998991	0.00000000	-26.40871000	-1.57480300
173.09998990	0.00000000	-26.40871000	-1.57480300
173.29998989	0.00000000	-25.71358000	-1.57480300
173.49998988	0.00000000	-25.33834000	-1.57480300
173.69998986	0.00000000	-25.33834000	-1.57480300
173.89998985	0.00000000	-25.67052000	-1.57480300
174.09998984	0.00000000	-26.03961000	-1.57480300
174.29998983	0.00000000	-25.67052000	-1.57480300
174.49998982	0.00000000	-25.33834000	-1.57480300
174.69998980	0.00000000	-25.29527000	-1.57480300
174.89998979	0.00000000	-25.29527000	-1.57480300
175.09998978	0.00000000	-25.29527000	-1.57480300
175.29998977	0.00000000	-25.29527000	-1.57480300
175.49998976	0.00000000	-25.29527000	-1.57480300
175.69998975	0.00000000	-25.29527000	-1.57480300
175.89998973	0.00000000	-25.29527000	-1.57480300
176.09998972	0.00000000	-25.29527000	-1.57480300
176.29998971	0.00000000	-25.29527000	-1.57480300
176.49998970	0.00000000	-25.29527000	-1.53174200
176.69998969	0.00000000	-25.29527000	-1.19955700
176.89998967	0.00000000	-25.29527000	-0.83661410
177.09998966	0.00000000	-25.29527000	-1.19955700
177.29998965	0.00000000	-25.29527000	-1.53174200
177.49998964	0.00000000	-25.33834000	-1.57480300
177.69998963	0.00000000	-25.71358000	-1.57480300
177.89998961	0.00000000	-26.40871000	-1.57480300
178.09998960	0.00000000	-26.45792000	-1.57480300
178.29998959	0.00000000	-26.13189000	-1.57480300
178.49998958	0.00000000	-26.45792000	-1.57480300
178.69998957	0.00000000	-26.45792000	-1.57480300
178.89998956	0.00000000	-26.08883000	-1.57480300
179.09998954	0.00000000	-26.08268000	-1.57480300
179.29998953	0.00000000	-25.67052000	-1.57480300
179.49998952	0.00000000	-25.33834000	-1.57480300
179.69998951	0.00000000	-25.29527000	-1.57480300
179.89998950	0.00000000	-25.29527000	-1.57480300
180.09998948	0.00000000	-25.29527000	-1.57480300
180.29998947	0.00000000	-25.29527000	-1.57480300
180.49998946	0.00000000	-25.29527000	-1.57480300
180.69998945	0.00000000	-25.33834000	-1.57480300
180.89998944	0.00000000	-25.67052000	-1.57480300
181.09998942	0.00000000	-26.03961000	-1.53174200
181.29998941	0.00000000	-25.67052000	-1.15649600
181.49998940	0.00000000	-25.33834000	-0.46136810
181.69998939	0.00000000	-25.29527000	-0.41830710
181.89998938	0.00000000	-25.29527000	-0.73818890
182.09998937	0.00000000	-25.29527000	-0.41830710
182.29998935	0.00000000	-25.29527000	-0.46136810
182.49998934	0.00000000	-25.29527000	-1.15649600
182.69998933	0.00000000	-25.29527000	-1.53174200
182.89998932	0.00000000	-25.29527000	-1.57480300
183.09998931	0.00000000	-25.29527000	-1.57480300
183.29998929	0.00000000	-25.29527000	-1.57480300
183.49998928	0.00000000	-25.29527000	-1.57480300
183.69998927	0.00000000	-25.29527000	-1.53174200
183.89998926	0.00000000	-25.29527000	-1.15649600
184.09998925	0.00000000	-25.33834000	-0.41830710
184.29998923	0.00000000	-25.67052000	-0.04306102
184.49998922	0.00000000	-26.03961000	0.00000000
184.69998921	0.00000000	-25.67052000	0.00000000
184.89998920	0.00000000	-25.33834000	0.00000000
185.09998919	0.00000000	-25.29527000	0.00000000
185.29998918	0.00000000	-25.29527000	-0.04306102
185.49998916	0.00000000	-25.29527000	-0.41830710
185.69998915	0.00000000	-25.29527000	-1.15649600
185.89998914	0.00000000	-25.29527000	-1.53174200
186.09998913	0.00000000	-25.29527000	-1.57480300
186.29998912	0.00000000	-25.29527000	-1.57480300
186.49998910	0.00000000	-25.29527000	-1.53174200
186.69998909	0.00000000	-25.29527000	-1.19955700
186.89998908	0.00000000	-25.29527000	-0.79355310
187.09998907	0.00000000	-25.33834000	-0.83046260
187.29998906	0.00000000	-25.71358000	-0.74434050
187.49998904	0.00000000	-26.40871000	-0.78124990
187.69998903	0.00000000	-26.40871000	-0.37524600
187.89998902	0.00000000	-25.71358000	-0.04306102
188.09998901	0.00000000	-25.33834000	0.00000000
188.29998900	0.00000000	-25.29527000	0.00000000
188.49998899	0.00000000	-25.29527000	-0.04306102
188.69998897	0.00000000	-25.29527000	-0.41830710
188.89998896	0.00000000	-25.29527000	-1.15649600
189.09998895	0.00000000	-25.29527000	-1.53174200
189.29998894	0.00000000	-25.29527000	-1.57480300
189.49998893	0.00000000	-25.29527000	-1.57480300
189.69998891	0.00000000	-25.29527000	-1.57480300
189.89998890	0.00000000	-25.33834000	-1.57480300
190.09998889	0.00000000	-25.67052000	-1.57480300
190.29998888	0.00000000	-26.03961000	-1.57480300
190.49998887	0.00000000	-25.67052000	-1.57480300
190.69998885	0.00000000	-25.33834000	-1.57480300
190.89998884	0.00000000	-25.29527000	-1.57480300
191.09998883	0.00000000	-25.29527000	-1.53174200
191.29998882	0.00000000	-25.29527000	-1.19955700
191.49998881	0.00000000	-25.29527000	-0.83661410
191.69998880	0.00000000	-25.29527000	-1.19955700
191.89998878	0.00000000	-25.29527000	-1.53174200
192.09998877	0.00000000	-25.29527000	-1.57480300
192.29998876	0.00000000	-25.29527000	-1.57480300
192.49998875	0.00000000	-25.29527000	-1.57480300
192.69998874	0.00000000	-25.29527000	-1.57480300
192.89998872	0.00000000	-25.29527000	-1.57480300
193.09998871	0.00000000	-25.29527000	-1.57480300
193.29998870	0.00000000	-25.29527000	-1.57480300
193.49998869	0.00000000	-25.29527000	-1.53174200
193.69998868	0.00000000	-25.29527000	-1.19955700
193.89998866	0.00000000	-25.29527000	-0.79355310
194.09998865	0.00000000	-25.29527000	-0.78124990
194.29998864	0.00000000	-25.29527000	-0.37524600
194.49998863	0.00000000	-25.29527000	-0.09227362
194.69998862	0.00000000	-25.29527000	-0.41830710
194.89998861	0.00000000	-25.29527000	-1.15649600
195.09998859	0.00000000	-25.29527000	-1.53174200
195.29998858	0.00000000	-25.29527000	-1.53174200
195.49998857	0.00000000	-25.33834000	-1.19955700
195.69998856	0.00000000	-25.67052000	-0.83661410
195.89998855	0.00000000	-26.03961000	-1.19955700
196.09998853	0.00000000	-25.67052000	-1.53174200
