Time	Channel A	Channel B	Channel C
(us)	(V)	(mV)	(mV)

-4.59999956	0.00000000	45.85384000	24.42790000
-4.39999957	0.00000000	45.85384000	24.05881000
-4.19999958	0.00000000	45.85384000	23.72662000
-3.99999959	0.00000000	45.85384000	23.68356000
-3.79999960	0.00000000	45.85384000	23.68356000
-3.59999962	0.00000000	45.85384000	23.72662000
-3.39999963	0.00000000	45.85384000	24.10187000
-3.19999964	0.00000000	45.81078000	24.84621000
-2.99999965	0.00000000	45.47859000	25.22145000
-2.79999966	0.00000000	45.10950000	25.26452000
-2.59999968	0.00000000	45.47859000	25.26452000
-2.39999969	0.00000000	45.81078000	25.22145000
-2.19999970	0.00000000	45.85384000	24.88927000
-1.99999971	0.00000000	45.85384000	24.47712000
-1.79999972	0.00000000	45.85384000	24.51402000
-1.59999973	0.00000000	45.85384000	24.47712000
-1.39999975	0.00000000	45.85384000	24.88927000
-1.19999976	0.00000000	45.85384000	25.22145000
-0.99999977	0.00000000	45.85384000	25.26452000
-0.79999978	0.00000000	45.85384000	25.26452000
-0.59999979	0.00000000	45.85384000	25.26452000
-0.39999981	0.15871060	45.85384000	25.26452000
-0.19999982	0.47736220	45.85384000	25.26452000
0.00000017	0.79601380	45.85384000	25.22145000
0.20000016	0.95533960	45.85384000	24.84621000
0.40000015	0.95533960	45.85384000	24.10187000
0.60000013	0.63668800	45.85384000	23.72662000
0.80000012	0.00000000	45.85384000	23.68356000
1.00000011	-0.95533960	45.85384000	23.68356000
1.20000010	-1.91129400	45.85384000	23.72662000
1.40000009	-2.54859700	45.85384000	24.10187000
1.60000008	-2.70792300	45.85384000	24.84621000
1.80000006	-2.22994600	45.85384000	25.22145000
2.00000005	-0.63668800	45.85384000	25.26452000
2.20000004	1.27399100	45.85384000	25.22145000
2.40000003	3.34522600	45.85384000	24.84621000
2.60000002	4.93786900	45.85384000	24.10187000
2.80000000	5.25652100	45.85384000	23.72662000
2.99999999	4.30056600	45.85384000	23.68356000
3.19999998	1.91129400	45.85384000	23.68356000
3.39999997	-1.27399100	45.85384000	23.68356000
3.59999996	-4.61921700	45.85384000	23.68356000
3.79999994	-7.16781500	45.85384000	23.68356000
3.99999993	-7.96444400	45.85384000	23.72662000
4.19999992	-6.84916400	45.85384000	24.10187000
4.39999991	-3.82258900	45.85384000	24.84621000
4.59999990	0.47736220	45.85384000	25.17224000
4.79999989	4.77854300	45.85384000	24.84621000
4.99999987	8.12377000	45.85384000	24.10187000
5.19999986	9.39837600	45.85384000	23.72662000
5.39999985	8.44242100	45.85384000	23.68356000
5.59999984	5.25652100	45.85384000	23.68356000
5.79999983	0.63668800	45.85384000	23.68356000
5.99999981	-3.98191400	45.85384000	23.68356000
6.19999980	-7.80511800	45.85384000	23.72662000
6.39999979	-9.39837600	45.85384000	24.10187000
6.59999978	-8.76107300	45.85384000	24.84621000
6.79999977	-6.05315000	45.89690000	25.22145000
6.99999975	-1.75196900	46.22908000	25.22145000
7.19999974	2.38927200	46.59818000	24.88927000
7.39999973	5.89382400	46.22908000	24.47712000
7.59999972	7.64579200	45.89690000	24.47096000
7.79999971	7.32714100	45.85384000	24.05881000
7.99999970	5.41584600	45.85384000	23.72662000
8.19999968	2.22994600	45.85384000	23.68356000
8.39999967	-0.95533960	45.85384000	23.72662000
8.59999966	-3.66326300	45.85384000	24.10187000
8.79999965	-4.93786900	45.85384000	24.84621000
8.99999964	-5.09719500	45.85384000	25.22145000
9.19999962	-3.82258900	45.85384000	25.26452000
9.39999961	-2.07062000	45.85384000	25.26452000
9.59999960	0.00000000	45.89690000	25.26452000
9.79999959	1.59264300	46.22908000	25.26452000
9.99999958	2.38927200	46.59818000	25.26452000
10.19999956	2.54859700	46.27214000	25.26452000
10.39999955	1.91129400	46.32135000	25.26452000
10.59999954	1.11466500	47.01648000	25.26452000
10.79999953	0.31803640	47.39173000	25.26452000
10.99999952	-0.47736220	47.43479000	25.26452000
11.19999951	-0.79601380	47.43479000	25.26452000
11.39999949	-0.95533960	47.43479000	25.26452000
11.59999948	-0.95533960	47.43479000	25.26452000
11.79999947	-0.63668800	47.43479000	25.26452000
11.99999946	-0.31803640	47.43479000	25.26452000
12.19999945	-0.15871060	47.43479000	25.26452000
12.39999943	-0.15871060	47.43479000	25.26452000
12.59999942	0.00000000	47.43479000	25.26452000
12.79999941	0.00000000	47.39173000	25.26452000
12.99999940	0.00000000	47.01648000	25.26452000
13.19999939	0.15871060	46.27214000	25.26452000
13.39999937	0.00000000	45.94611000	25.26452000
13.59999936	0.00000000	46.27214000	25.26452000
13.79999935	0.00000000	47.01648000	25.26452000
13.99999934	-0.15871060	47.39173000	25.26452000
14.19999933	-0.15871060	47.43479000	25.26452000
14.39999932	-0.15871060	47.43479000	25.26452000
14.59999930	-0.15871060	47.43479000	25.26452000
14.79999929	0.00000000	47.39173000	25.26452000
14.99999928	0.00000000	47.05954000	25.26452000
15.19999927	0.00000000	46.69045000	25.22145000
15.39999926	0.00000000	47.01648000	24.88927000
15.59999924	0.00000000	46.96727000	24.47712000
15.79999923	0.00000000	46.32135000	24.51402000
15.99999922	0.00000000	46.27214000	24.43405000
16.19999921	0.00000000	46.59818000	24.51402000
16.39999920	0.00000000	46.27214000	24.47712000
16.59999919	-0.15871060	46.32135000	24.84621000
16.79999917	-0.15871060	47.01648000	24.79700000
16.99999916	-0.15871060	47.39173000	24.15108000
17.19999915	0.00000000	47.43479000	24.15108000
17.39999914	0.00000000	47.47785000	24.79700000
17.59999913	0.00000000	47.81004000	24.79700000
17.79999911	0.00000000	48.17913000	24.10187000
17.99999910	0.00000000	47.76698000	23.72662000
18.19999909	0.00000000	47.01648000	23.68356000
18.39999908	0.00000000	45.81078000	23.68356000
18.59999907	0.00000000	44.27288000	23.68356000
18.79999905	0.00000000	42.73499000	23.68356000
18.99999904	0.00000000	41.62155000	23.68356000
19.19999903	0.00000000	41.66461000	23.68356000
19.39999902	0.00000000	43.24557000	23.68356000
19.59999901	0.00000000	46.36442000	23.68356000
19.79999900	0.00000000	50.59670000	23.68356000
19.99999898	0.00000000	54.78592000	23.68356000
20.19999897	0.00000000	57.52953000	23.68356000
20.39999896	0.00000000	58.23080000	23.68356000
20.59999895	0.00000000	56.64370000	23.68356000
20.79999894	0.00000000	51.95005000	23.72662000
20.99999892	0.00000000	45.38631000	24.10187000
21.19999891	0.00000000	37.99213000	24.79700000
21.39999890	0.00000000	31.05930000	24.79700000
21.59999889	0.00000000	26.53789000	24.10187000
21.79999888	0.00000000	26.21801000	23.72662000
21.99999886	0.00000000	31.32997000	23.68356000
22.19999885	0.00000000	40.96949000	23.68356000
22.39999884	0.00000000	53.38336000	23.68356000
22.59999883	0.00000000	65.71727000	23.68356000
22.79999882	0.00000000	75.30142000	23.72662000
22.99999881	0.00000000	79.07233000	24.10187000
23.19999879	0.00000000	75.17224000	24.88927000
23.39999878	0.00000000	64.32701000	25.63976000
23.59999877	0.00000000	48.41289000	26.42101000
23.79999876	0.00000000	30.68405000	26.79626000
23.99999875	0.00000000	15.24360000	26.83932000
24.19999873	0.00000000	6.07160400	26.79626000
24.39999872	0.00000000	5.74557000	26.37795000
24.59999871	0.00000000	15.46506000	25.21530000
24.79999870	0.00000000	33.23696000	23.68356000
24.99999869	0.00000000	55.29650000	22.10261000
25.19999867	0.00000000	76.88238000	20.57087000
25.39999866	0.00000000	92.66116000	19.50049000
25.59999865	0.00000000	98.43134000	19.91880000
25.79999864	0.00000000	92.56889000	22.19488000
25.99999863	0.00000000	75.95348000	25.30758000
26.19999862	0.00000000	52.04232000	28.83858000
26.39999860	0.00000000	26.96235000	32.68946000
26.59999859	0.00000000	6.48991100	35.71604000
26.79999858	0.00000000	-4.71825800	36.82948000
26.99999857	0.00000000	-3.98006900	35.24852000
27.19999856	0.00000000	7.97859100	30.97933000
27.39999854	0.00000000	28.49409000	24.75394000
27.59999853	0.00000000	53.20496000	17.41511000
27.79999852	0.00000000	76.37794000	10.48843000
27.99999851	0.00000000	92.61195000	5.93626900
28.19999850	0.00000000	98.43134000	5.19192900
28.39999848	0.00000000	92.66116000	9.13508800
28.59999847	0.00000000	76.88238000	17.26747000
28.79999846	0.00000000	55.29650000	28.46333000
28.99999845	0.00000000	33.23696000	40.03444000
29.19999844	0.00000000	15.42200000	49.28642000
29.39999843	0.00000000	5.32726300	54.25689000
29.59999841	0.00000000	4.86589500	53.00197000
29.79999840	0.00000000	13.33046000	45.28789000
29.99999839	0.00000000	28.40797000	32.51107000
30.19999838	0.00000000	46.92421000	17.45817000
30.39999837	0.00000000	64.32701000	3.14960600
30.59999835	0.00000000	76.79625000	-7.21579700
30.79999834	0.00000000	82.65871000	-11.06668000
30.99999833	0.00000000	81.12081000	-7.16658400
31.19999832	0.00000000	72.65009000	3.66018700
31.39999831	0.00000000	59.52879000	19.50049000
31.59999829	0.00000000	44.82652000	36.87869000
31.79999828	0.00000000	31.65600000	51.93159000
31.99999827	0.00000000	22.72392000	61.59571000
32.19999826	0.00000000	19.61122000	63.50270000
32.39999825	0.00000000	22.63779000	57.32037000
32.59999824	0.00000000	30.72711000	44.17446000
32.79999822	0.00000000	41.52928000	26.79626000
32.99999821	0.00000000	52.78666000	9.04896600
33.19999820	0.00000000	62.04478000	-5.25959600
33.39999819	0.00000000	67.48892000	-13.01673000
33.59999818	0.00000000	67.90723000	-13.05979000
33.79999816	0.00000000	63.67495000	-5.67790300
33.99999815	0.00000000	55.99163000	7.84325700
34.19999814	0.00000000	46.78272000	24.79700000
34.39999813	0.00000000	39.05635000	41.01255000
34.59999812	0.00000000	34.35654000	53.05118000
34.79999810	0.00000000	33.15083000	58.85826000
34.99999809	0.00000000	35.47613000	57.27731000
35.19999808	0.00000000	40.45890000	48.44980000
35.39999807	0.00000000	47.01648000	34.60261000
35.59999806	0.00000000	53.16190000	19.54355000
35.79999805	0.00000000	57.39419000	6.39763700
35.99999803	0.00000000	58.55069000	-2.05462600
36.19999802	0.00000000	56.27460000	-3.63558100
36.39999801	0.00000000	51.71013000	1.70398600
36.59999800	0.00000000	46.32135000	12.06939000
36.79999799	0.00000000	41.70767000	24.75394000
36.99999797	0.00000000	38.97022000	36.32505000
37.19999796	0.00000000	38.59498000	44.03912000
37.39999795	0.00000000	40.55118000	46.35826000
37.59999794	0.00000000	44.78346000	42.50738000
37.79999793	0.00000000	50.12918000	33.76599000
37.99999791	0.00000000	54.74286000	23.03149000
38.19999790	0.00000000	57.48031000	13.82874000
38.39999789	0.00000000	57.90477000	8.43996000
38.59999788	0.00000000	56.36687000	8.43996000
38.79999787	0.00000000	53.24803000	13.73647000
38.99999786	0.00000000	49.01575000	22.19488000
39.19999784	0.00000000	44.74040000	31.39763000
39.39999783	0.00000000	41.24631000	39.01944000
39.59999782	0.00000000	38.92101000	42.08907000
39.79999781	0.00000000	38.54576000	39.81299000
39.99999780	0.00000000	40.08366000	33.25541000
40.19999778	0.00000000	43.20251000	23.68356000
40.39999777	0.00000000	47.43479000	14.15477000
40.59999776	0.00000000	51.66707000	7.97244000
40.79999775	0.00000000	54.82898000	6.44069800
40.99999774	0.00000000	56.78519000	9.92864100
41.19999772	0.00000000	57.52953000	17.96260000
41.39999771	0.00000000	56.36687000	27.90969000
41.59999770	0.00000000	53.66634000	36.78642000
41.79999769	0.00000000	50.17839000	42.59350000
41.99999768	0.00000000	46.32135000	44.13140000
42.19999767	0.00000000	43.20251000	41.06176000
42.39999765	0.00000000	41.24631000	34.14124000
42.59999764	0.00000000	40.45890000	25.30758000
42.79999763	0.00000000	41.24631000	16.84916000
42.99999762	0.00000000	43.15945000	11.09129000
43.19999761	0.00000000	45.85384000	9.46112100
43.39999759	0.00000000	48.54823000	11.73720000
43.59999758	0.00000000	50.50443000	16.71383000
43.79999757	0.00000000	51.71013000	23.26525000
43.99999756	0.00000000	52.13459000	29.44759000
44.19999755	0.00000000	52.13459000	34.09203000
44.39999753	0.00000000	51.75935000	36.41117000
44.59999752	0.00000000	51.01501000	35.67298000
44.79999751	0.00000000	50.63976000	32.64640000
44.99999750	0.00000000	50.59670000	28.42027000
45.19999749	0.00000000	50.55364000	24.19414000
45.39999748	0.00000000	50.08612000	21.03838000
45.59999746	0.00000000	48.50517000	19.08218000
45.79999745	0.00000000	45.81078000	18.33784000
45.99999744	0.00000000	42.78420000	19.50049000
46.19999743	0.00000000	40.41584000	22.10261000
46.39999742	0.00000000	39.29010000	24.84621000
46.59999740	0.00000000	39.34547000	27.17150000
46.79999739	0.00000000	41.75689000	29.11540000
46.99999738	0.00000000	46.36442000	29.86589000
47.19999737	0.00000000	52.17765000	29.53371000
47.39999736	0.00000000	57.94783000	28.32800000
47.59999734	0.00000000	62.18011000	26.37795000
47.79999733	0.00000000	63.66880000	23.68356000
47.99999732	0.00000000	61.71259000	21.03838000
48.19999731	0.00000000	56.27460000	19.50049000
48.39999730	0.00000000	48.54823000	19.45743000
48.59999729	0.00000000	40.04060000	20.61393000
48.79999727	0.00000000	32.77559000	22.57013000
48.99999726	0.00000000	28.91240000	25.30758000
49.19999725	0.00000000	29.69980000	28.37721000
49.39999724	0.00000000	34.73179000	31.06545000
49.59999723	0.00000000	43.24557000	32.56028000
49.79999721	0.00000000	53.24803000	32.18504000
49.99999720	0.00000000	62.09399000	29.86589000
50.19999719	0.00000000	67.48892000	26.37795000
50.39999718	0.00000000	67.86417000	22.14567000
50.59999717	0.00000000	63.25048000	18.33784000
50.79999715	0.00000000	54.82898000	16.38164000
50.99999714	0.00000000	45.20177000	16.33858000
51.19999713	0.00000000	37.10014000	17.91953000
51.39999712	0.00000000	32.03125000	21.03838000
51.59999711	0.00000000	31.28075000	25.26452000
51.79999710	0.00000000	34.73179000	29.53371000
51.99999708	0.00000000	41.66461000	32.93553000
52.19999707	0.00000000	50.08612000	34.45497000
52.39999706	0.00000000	57.43725000	32.97859000
52.59999705	0.00000000	62.04478000	29.95201000
52.79999704	0.00000000	62.78912000	26.42101000
52.99999702	0.00000000	58.97515000	22.57013000
53.19999701	0.00000000	52.13459000	19.54355000
53.39999700	0.00000000	44.82652000	18.33784000
53.59999699	0.00000000	39.05635000	19.08218000
53.79999698	0.00000000	36.36196000	20.98917000
53.99999696	0.00000000	37.47539000	23.68356000
54.19999695	0.00000000	41.66461000	26.37795000
54.39999694	0.00000000	47.43479000	28.28494000
54.59999693	0.00000000	53.20496000	29.07234000
54.79999692	0.00000000	57.43725000	28.32800000
54.99999691	0.00000000	58.97515000	26.83932000
55.19999689	0.00000000	57.48031000	25.26452000
55.39999688	0.00000000	53.62328000	23.77584000
55.59999687	0.00000000	48.59744000	23.03149000
55.79999686	0.00000000	43.24557000	23.81890000
55.99999685	0.00000000	39.43159000	25.68282000
56.19999683	0.00000000	38.63804000	27.95891000
56.39999682	0.00000000	40.50196000	29.44759000
56.59999681	0.00000000	44.36515000	29.44759000
56.79999680	0.00000000	48.97269000	27.90969000
56.99999679	0.00000000	53.24803000	25.17224000
57.19999677	0.00000000	56.32381000	21.72736000
57.39999676	0.00000000	57.48031000	18.33784000
57.59999675	0.00000000	56.32381000	16.84916000
57.79999674	0.00000000	53.24803000	17.96260000
57.99999673	0.00000000	49.05881000	21.08145000
58.19999672	0.00000000	45.24483000	25.72589000
58.39999670	0.00000000	43.24557000	31.11466000
58.59999669	0.00000000	42.82726000	35.67298000
58.79999668	0.00000000	43.57775000	37.99213000
58.99999667	0.00000000	45.52165000	37.16166000
59.19999666	0.00000000	47.81004000	33.34153000
59.39999664	0.00000000	50.12918000	27.17150000
59.59999663	0.00000000	51.66707000	20.61393000
59.79999662	0.00000000	52.08538000	14.85605000
59.99999661	0.00000000	51.71013000	11.41732000
60.19999660	0.00000000	50.55364000	11.82948000
60.39999658	0.00000000	49.05881000	15.64345000
60.59999657	0.00000000	47.90231000	22.23794000
60.79999656	0.00000000	47.52707000	29.90895000
60.99999655	0.00000000	47.85310000	36.82948000
61.19999654	0.00000000	48.64050000	41.01255000
61.39999653	0.00000000	49.39099000	41.05561000
61.59999651	0.00000000	50.17839000	37.20472000
61.79999650	0.00000000	50.50443000	30.64714000
61.99999649	0.00000000	50.12918000	22.57013000
62.19999648	0.00000000	48.97269000	15.22515000
62.39999647	0.00000000	47.47785000	10.20546000
62.59999645	0.00000000	46.32135000	8.30462600
62.79999644	0.00000000	45.94611000	10.66683000
62.99999643	0.00000000	46.32135000	16.76304000
63.19999642	0.00000000	47.47785000	24.79700000
63.39999641	0.00000000	48.97269000	32.14198000
63.59999639	0.00000000	50.17839000	37.25394000
63.79999638	0.00000000	50.97194000	39.94832000
63.99999637	0.00000000	51.71013000	39.53002000
64.19999636	0.00000000	51.66707000	35.67298000
64.39999635	0.00000000	50.55364000	29.53371000
64.59999634	0.00000000	49.01575000	22.61319000
64.79999632	0.00000000	47.47785000	16.80610000
64.99999631	0.00000000	46.32135000	13.26895000
65.19999630	0.00000000	45.94611000	12.11245000
65.39999629	0.00000000	46.32135000	13.64419000
65.59999628	0.00000000	47.47785000	17.45817000
65.79999626	0.00000000	48.97269000	22.05955000
65.99999625	0.00000000	50.12918000	26.42101000
66.19999624	0.00000000	50.55364000	30.28420000
66.39999623	0.00000000	50.55364000	33.39075000
66.59999622	0.00000000	50.12918000	34.55955000
66.79999620	0.00000000	48.97269000	34.22736000
66.99999619	0.00000000	47.47785000	32.64640000
67.19999618	0.00000000	46.32135000	29.95201000
67.39999617	0.00000000	45.98917000	26.83932000
67.59999616	0.00000000	46.78272000	23.68356000
67.79999615	0.00000000	49.05881000	20.57087000
67.99999613	0.00000000	51.71013000	17.87647000
68.19999612	0.00000000	53.66634000	16.29552000
68.39999611	0.00000000	54.78592000	15.92027000
68.59999610	0.00000000	54.36761000	16.71383000
68.79999609	0.00000000	52.04232000	19.12524000
68.99999607	0.00000000	48.54823000	22.98843000
69.19999606	0.00000000	44.36515000	27.95275000
69.39999605	0.00000000	40.92643000	32.22810000
69.59999604	0.00000000	39.75763000	34.97785000
69.79999603	0.00000000	40.50196000	36.50344000
69.99999601	0.00000000	43.28863000	35.67298000
70.19999600	0.00000000	47.90231000	32.64640000
70.39999599	0.00000000	53.29109000	28.32800000
70.59999598	0.00000000	57.94783000	23.30832000
70.79999597	0.00000000	61.01746000	18.33784000
70.99999596	0.00000000	61.76181000	15.27436000
71.19999594	0.00000000	59.39345000	14.80684000
71.39999593	0.00000000	54.41068000	16.38779000
71.59999592	0.00000000	47.85310000	19.87574000
71.79999591	0.00000000	41.70767000	24.84621000
71.99999590	0.00000000	37.43233000	29.44759000
72.19999588	0.00000000	35.89444000	32.60334000
72.39999587	0.00000000	37.43233000	34.14124000
72.59999586	0.00000000	41.66461000	33.76599000
72.79999585	0.00000000	47.43479000	31.48991000
72.99999584	0.00000000	53.24803000	28.42027000
73.19999582	0.00000000	57.94783000	25.35064000
73.39999581	0.00000000	61.01746000	23.03149000
73.59999580	0.00000000	61.76181000	22.23794000
73.79999579	0.00000000	59.43651000	22.57013000
73.99999578	0.00000000	54.87204000	23.72662000
74.19999577	0.00000000	49.43405000	25.21530000
74.39999575	0.00000000	44.45127000	26.37795000
74.59999574	0.00000000	40.92643000	26.74705000
74.79999573	0.00000000	39.80069000	26.37795000
74.99999572	0.00000000	40.87721000	25.21530000
75.19999571	0.00000000	43.98991000	23.72662000
75.39999569	0.00000000	47.76698000	22.65625000
75.59999568	0.00000000	51.29183000	23.07455000
75.79999567	0.00000000	53.62328000	25.35064000
75.99999566	0.00000000	54.82898000	28.37721000
76.19999565	0.00000000	54.82898000	31.11466000
76.39999563	0.00000000	53.66634000	33.02165000
76.59999562	0.00000000	51.80241000	33.71678000
76.79999561	0.00000000	49.85236000	32.14198000
76.99999560	0.00000000	48.73277000	28.32800000
77.19999559	0.00000000	48.27140000	23.68356000
77.39999558	0.00000000	48.64050000	19.03912000
77.59999556	0.00000000	49.01575000	15.22515000
77.79999555	0.00000000	49.39099000	13.73647000
77.99999554	0.00000000	49.76009000	15.22515000
78.19999553	0.00000000	49.34793000	19.08218000
78.39999552	0.00000000	48.64050000	24.10187000
78.59999550	0.00000000	47.85310000	29.53371000
78.79999549	0.00000000	47.52707000	34.14124000
78.99999548	0.00000000	47.90231000	36.82948000
79.19999547	0.00000000	49.10802000	36.82948000
79.39999546	0.00000000	50.97194000	34.18430000
79.59999544	0.00000000	52.92200000	29.90895000
79.79999543	0.00000000	54.04158000	24.88927000
79.99999542	0.00000000	54.45374000	19.87574000
80.19999541	0.00000000	53.62328000	16.43085000
80.39999540	0.00000000	51.71013000	15.18209000
80.59999539	0.00000000	48.97269000	15.92027000
80.79999537	0.00000000	45.94611000	17.91953000
80.99999536	0.00000000	43.66388000	21.36442000
81.19999535	0.00000000	43.24557000	25.58440000
81.39999534	0.00000000	44.36515000	28.70325000
81.59999533	0.00000000	46.32135000	31.11466000
81.79999531	0.00000000	49.05881000	32.60334000
81.99999530	0.00000000	52.08538000	32.64640000
82.19999529	0.00000000	54.41068000	31.53297000
82.39999528	0.00000000	55.16117000	29.95201000
82.59999527	0.00000000	54.45374000	27.95891000
82.79999525	0.00000000	52.50984000	25.21530000
82.99999524	0.00000000	50.22145000	22.15182000
83.19999523	0.00000000	47.90231000	19.45743000
83.39999522	0.00000000	46.40748000	17.91953000
83.59999521	0.00000000	46.32135000	17.87647000
83.79999520	0.00000000	47.05954000	19.03912000
83.99999518	0.00000000	47.85310000	21.03838000
84.19999517	0.00000000	49.01575000	24.15108000
84.39999516	0.00000000	50.12918000	28.00197000
84.59999515	0.00000000	50.55364000	31.44069000
84.79999514	0.00000000	50.59670000	33.80905000
84.99999512	0.00000000	50.59670000	34.55955000
85.19999511	0.00000000	50.59670000	33.76599000
85.39999510	0.00000000	50.59670000	31.06545000
85.59999509	0.00000000	50.59670000	27.21457000
85.79999508	0.00000000	50.59670000	23.30832000
85.99999506	0.00000000	50.59670000	19.45743000
86.19999505	0.00000000	50.59670000	16.80610000
86.39999504	0.00000000	50.55364000	16.38164000
86.59999503	0.00000000	50.12918000	17.96260000
86.79999502	0.00000000	49.01575000	21.45669000
86.99999501	0.00000000	47.90231000	26.42101000
87.19999499	0.00000000	47.47785000	31.02239000
87.39999498	0.00000000	47.47785000	34.13509000
87.59999497	0.00000000	47.90231000	35.29773000
87.79999496	0.00000000	49.05881000	34.13509000
87.99999495	0.00000000	50.59670000	31.06545000
88.19999493	0.00000000	52.13459000	26.79626000
88.39999492	0.00000000	53.29109000	22.19488000
88.59999491	0.00000000	53.66634000	18.38090000
88.79999490	0.00000000	53.29109000	16.84916000
88.99999489	0.00000000	52.13459000	17.96260000
89.19999487	0.00000000	50.59670000	21.08145000
89.39999486	0.00000000	49.05881000	25.68282000
89.59999485	0.00000000	47.90231000	30.64714000
89.79999484	0.00000000	47.52707000	34.09203000
89.99999483	0.00000000	47.90231000	35.29773000
90.19999482	0.00000000	49.01575000	34.13509000
90.39999480	0.00000000	50.17839000	31.06545000
90.59999479	0.00000000	50.97194000	26.79626000
90.79999478	0.00000000	51.75935000	22.19488000
90.99999477	0.00000000	52.13459000	18.38090000
91.19999476	0.00000000	52.13459000	16.84916000
91.39999474	0.00000000	51.75935000	17.96260000
91.59999473	0.00000000	51.01501000	21.08145000
91.79999472	0.00000000	50.63976000	25.68282000
91.99999471	0.00000000	50.59670000	30.60408000
92.19999470	0.00000000	50.59670000	33.71678000
92.39999468	0.00000000	50.59670000	34.51033000
92.59999467	0.00000000	50.59670000	33.34769000
92.79999466	0.00000000	50.55364000	29.86589000
92.99999465	0.00000000	50.12918000	25.30758000
93.19999464	0.00000000	49.01575000	21.03838000
93.39999463	0.00000000	47.90231000	18.01181000
93.59999461	0.00000000	47.47785000	17.22441000
93.79999460	0.00000000	47.52707000	19.12524000
93.99999459	0.00000000	48.32062000	22.57013000
94.19999458	0.00000000	50.22145000	26.79626000
94.39999457	0.00000000	52.13459000	30.64714000
94.59999455	0.00000000	53.75861000	32.92938000
94.79999454	0.00000000	55.20423000	33.29847000
94.99999453	0.00000000	55.57332000	31.02239000
95.19999452	0.00000000	54.04158000	27.21457000
95.39999451	0.00000000	51.75935000	23.35138000
95.59999449	0.00000000	48.97269000	19.91880000
95.79999448	0.00000000	45.89690000	18.38706000
95.99999447	0.00000000	43.24557000	19.08218000
96.19999446	0.00000000	42.08292000	20.98917000
96.39999445	0.00000000	42.87032000	23.72662000
96.59999444	0.00000000	45.20177000	26.79626000
96.79999442	0.00000000	49.05881000	29.49065000
96.99999441	0.00000000	53.24803000	30.97933000
97.19999440	0.00000000	56.40993000	30.64714000
97.39999439	0.00000000	58.36614000	28.79552000
97.59999438	0.00000000	59.11048000	26.83932000
97.79999436	0.00000000	57.90477000	24.88927000
97.99999435	0.00000000	54.82898000	22.98843000
98.19999434	0.00000000	50.59670000	22.23794000
98.39999433	0.00000000	46.36442000	22.57013000
98.59999432	0.00000000	43.24557000	23.72662000
98.79999430	0.00000000	41.66461000	25.21530000
98.99999429	0.00000000	41.70767000	26.37795000
99.19999428	0.00000000	43.62082000	26.79626000
99.39999427	0.00000000	47.10260000	26.83932000
99.59999426	0.00000000	50.92888000	26.83932000
99.79999425	0.00000000	54.45374000	26.88238000
99.99999423	0.00000000	56.78519000	27.30684000
100.19999422	0.00000000	57.94783000	28.37721000
100.39999421	0.00000000	57.57259000	29.11540000
100.59999420	0.00000000	55.67175000	28.79552000
100.79999419	0.00000000	53.34030000	28.42027000
100.99999417	0.00000000	50.59670000	27.90969000
101.19999416	0.00000000	47.90231000	26.37795000
101.39999415	0.00000000	45.94611000	24.14493000
101.59999414	0.00000000	44.78346000	22.61319000
101.79999413	0.00000000	44.78346000	22.19488000
101.99999411	0.00000000	45.94611000	22.57013000
102.19999410	0.00000000	47.85310000	23.77584000
102.39999409	0.00000000	50.22145000	25.72589000
102.59999408	0.00000000	52.50984000	28.42027000
102.79999407	0.00000000	54.45374000	31.06545000
102.99999406	0.00000000	55.24729000	32.64640000
103.19999404	0.00000000	55.24729000	33.02165000
103.39999403	0.00000000	54.45374000	32.18504000
103.59999402	0.00000000	52.55290000	29.49065000
103.79999401	0.00000000	50.63976000	25.72589000
103.99999400	0.00000000	49.01575000	22.61319000
104.19999398	0.00000000	47.52707000	20.66314000
104.39999397	0.00000000	46.78272000	19.91880000
104.59999396	0.00000000	47.47785000	21.08145000
104.79999395	0.00000000	48.59744000	23.72662000
104.99999394	0.00000000	49.43405000	26.79626000
105.19999392	0.00000000	50.63976000	29.53371000
105.39999391	0.00000000	52.13459000	31.44069000
105.59999390	0.00000000	53.24803000	32.18504000
105.79999389	0.00000000	53.24803000	31.06545000
105.99999388	0.00000000	52.17765000	28.79552000
106.19999387	0.00000000	51.01501000	26.46407000
106.39999385	0.00000000	50.22145000	24.14493000
106.59999384	0.00000000	49.43405000	22.61319000
106.79999383	0.00000000	49.10802000	22.19488000
106.99999382	0.00000000	49.43405000	22.57013000
107.19999381	0.00000000	50.22145000	23.77584000
107.39999379	0.00000000	50.97194000	25.63976000
107.59999378	0.00000000	51.75935000	27.58366000
107.79999377	0.00000000	52.13459000	28.70325000
107.99999376	0.00000000	52.13459000	29.11540000
108.19999375	0.00000000	51.71013000	28.32800000
108.39999374	0.00000000	50.59670000	26.83932000
108.59999372	0.00000000	49.48326000	25.26452000
108.79999371	0.00000000	49.05881000	23.77584000
108.99999370	0.00000000	49.01575000	23.03149000
109.19999369	0.00000000	49.05881000	23.77584000
109.39999368	0.00000000	49.48326000	25.26452000
109.59999366	0.00000000	50.63976000	26.79626000
109.79999365	0.00000000	52.13459000	28.00197000
109.99999364	0.00000000	53.24803000	28.75246000
110.19999363	0.00000000	53.29109000	29.16461000
110.39999362	0.00000000	52.55290000	28.75246000
110.59999360	0.00000000	51.80241000	28.00197000
110.79999359	0.00000000	50.97194000	26.79626000
110.99999358	0.00000000	50.22145000	25.30758000
111.19999357	0.00000000	49.43405000	24.15108000
111.39999356	0.00000000	49.05881000	23.72662000
111.59999355	0.00000000	49.05881000	23.68356000
111.79999353	0.00000000	49.43405000	23.72662000
111.99999352	0.00000000	50.22145000	24.15108000
112.19999351	0.00000000	50.97194000	25.26452000
112.39999350	0.00000000	51.75935000	26.42101000
112.59999349	0.00000000	52.13459000	27.21457000
112.79999347	0.00000000	52.17765000	27.95275000
112.99999346	0.00000000	52.13459000	27.95275000
113.19999345	0.00000000	51.75935000	27.25763000
113.39999344	0.00000000	51.01501000	26.83932000
113.59999343	0.00000000	50.63976000	26.42101000
113.79999341	0.00000000	50.59670000	25.68282000
113.99999340	0.00000000	50.59670000	25.30758000
114.19999339	0.00000000	50.59670000	25.26452000
114.39999338	0.00000000	50.59670000	25.26452000
114.59999337	0.00000000	50.59670000	25.26452000
114.79999336	0.00000000	50.59670000	25.22145000
114.99999334	0.00000000	50.63976000	24.88927000
115.19999333	0.00000000	50.97194000	24.52018000
115.39999332	0.00000000	51.34104000	24.93233000
115.59999331	0.00000000	50.97194000	25.63976000
115.79999330	0.00000000	50.63976000	26.42101000
115.99999328	0.00000000	50.59670000	26.79626000
116.19999327	0.00000000	50.59670000	26.88238000
116.39999326	0.00000000	50.59670000	27.25763000
116.59999325	0.00000000	50.59670000	28.00197000
116.79999324	0.00000000	50.59670000	28.32800000
116.99999322	0.00000000	50.59670000	27.95275000
117.19999321	0.00000000	50.63976000	26.83932000
117.39999320	0.00000000	51.01501000	25.68282000
117.59999319	0.00000000	51.80241000	24.88927000
117.79999318	0.00000000	52.55290000	24.10187000
117.99999317	0.00000000	53.29109000	23.77584000
118.19999315	0.00000000	53.29109000	24.10187000
118.39999314	0.00000000	52.55290000	24.88927000
118.59999313	0.00000000	51.80241000	25.68282000
118.79999312	0.00000000	50.97194000	26.83932000
118.99999311	0.00000000	50.22145000	27.95275000
119.19999309	0.00000000	49.43405000	28.37721000
119.39999308	0.00000000	49.05881000	28.42027000
119.59999307	0.00000000	49.05881000	28.42027000
119.79999306	0.00000000	49.48326000	28.37721000
119.99999305	0.00000000	50.63976000	28.00197000
120.19999303	0.00000000	52.13459000	27.25763000
120.39999302	0.00000000	53.34030000	26.83932000
120.59999301	0.00000000	54.09079000	26.42101000
120.79999300	0.00000000	54.50295000	25.68282000
120.99999299	0.00000000	54.09079000	25.30758000
121.19999298	0.00000000	53.34030000	25.26452000
121.39999296	0.00000000	52.17765000	25.26452000
121.59999295	0.00000000	51.01501000	25.30758000
121.79999294	0.00000000	50.22145000	25.68282000
121.99999293	0.00000000	49.43405000	26.42101000
122.19999292	0.00000000	49.05881000	26.83932000
122.39999290	0.00000000	49.05881000	27.25763000
122.59999289	0.00000000	49.48326000	28.00197000
122.79999288	0.00000000	50.63976000	28.37721000
122.99999287	0.00000000	52.13459000	28.42027000
123.19999286	0.00000000	53.29109000	28.37721000
123.39999284	0.00000000	53.71555000	28.00197000
123.59999283	0.00000000	53.75861000	27.25763000
123.79999282	0.00000000	53.75861000	26.83932000
123.99999281	0.00000000	53.71555000	26.42101000
124.19999280	0.00000000	53.29109000	25.68282000
124.39999279	0.00000000	52.17765000	25.30758000
124.59999277	0.00000000	51.01501000	25.26452000
124.79999276	0.00000000	50.22145000	25.26452000
124.99999275	0.00000000	49.43405000	25.30758000
125.19999274	0.00000000	49.10802000	25.68282000
125.39999273	0.00000000	49.43405000	26.42101000
125.59999271	0.00000000	50.22145000	26.79626000
125.79999270	0.00000000	50.97194000	26.83932000
125.99999269	0.00000000	51.80241000	26.83932000
126.19999268	0.00000000	52.55290000	26.83932000
126.39999267	0.00000000	53.34030000	26.83932000
126.59999265	0.00000000	53.71555000	26.79626000
126.79999264	0.00000000	53.71555000	26.42101000
126.99999263	0.00000000	53.29109000	25.68282000
127.19999262	0.00000000	52.17765000	25.30758000
127.39999261	0.00000000	51.01501000	25.26452000
127.59999260	0.00000000	50.22145000	25.26452000
127.79999258	0.00000000	49.43405000	25.26452000
127.99999257	0.00000000	49.10802000	25.30758000
128.19999256	0.00000000	49.48326000	25.68282000
128.39999255	0.00000000	50.59670000	26.42101000
128.59999254	0.00000000	51.75935000	26.79626000
128.79999252	0.00000000	52.55290000	26.83932000
128.99999251	0.00000000	53.34030000	26.83932000
129.19999250	0.00000000	53.66634000	26.79626000
129.39999249	0.00000000	53.34030000	26.46407000
129.59999248	0.00000000	52.55290000	26.05807000
129.79999246	0.00000000	51.80241000	26.04577000
129.99999245	0.00000000	50.97194000	25.63976000
130.19999244	0.00000000	50.26451000	25.35679000
130.39999243	0.00000000	49.85236000	25.68282000
130.59999242	0.00000000	50.26451000	26.42101000
130.79999241	0.00000000	50.97194000	26.79626000
130.99999239	0.00000000	51.80241000	26.83932000
131.19999238	0.00000000	52.55290000	26.83932000
131.39999237	0.00000000	53.29109000	26.83932000
131.59999236	0.00000000	53.29109000	26.83932000
131.79999235	0.00000000	52.59596000	26.79626000
131.99999233	0.00000000	52.22071000	26.42101000
132.19999232	0.00000000	52.13459000	25.68282000
132.39999231	0.00000000	51.75935000	25.30758000
132.59999230	0.00000000	51.01501000	25.30758000
132.79999229	0.00000000	50.68897000	25.72589000
132.99999227	0.00000000	51.01501000	26.83932000
133.19999226	0.00000000	51.75935000	27.95275000
133.39999225	0.00000000	52.13459000	28.37721000
133.59999224	0.00000000	52.17765000	28.42027000
133.79999223	0.00000000	52.17765000	28.42027000
133.99999222	0.00000000	52.17765000	28.37721000
134.19999220	0.00000000	52.17765000	28.00197000
134.39999219	0.00000000	52.17765000	27.21457000
134.59999218	0.00000000	52.17765000	26.46407000
134.79999217	0.00000000	52.22071000	25.68282000
134.99999216	0.00000000	52.59596000	25.30758000
135.19999214	0.00000000	53.34030000	25.30758000
135.39999213	0.00000000	53.66634000	25.68282000
135.59999212	0.00000000	53.34030000	26.42101000
135.79999211	0.00000000	52.59596000	26.83932000
135.99999210	0.00000000	52.17765000	27.25763000
136.19999208	0.00000000	51.75935000	28.00197000
136.39999207	0.00000000	51.01501000	28.37721000
136.59999206	0.00000000	50.63976000	28.42027000
136.79999205	0.00000000	50.63976000	28.37721000
136.99999204	0.00000000	51.01501000	28.00197000
137.19999203	0.00000000	51.75935000	27.25763000
137.39999201	0.00000000	52.17765000	26.83932000
137.59999200	0.00000000	52.59596000	26.42101000
137.79999199	0.00000000	53.34030000	25.68282000
137.99999198	0.00000000	53.71555000	25.30758000
138.19999197	0.00000000	53.71555000	25.26452000
138.39999195	0.00000000	53.34030000	25.30758000
138.59999194	0.00000000	52.55290000	25.68282000
138.79999193	0.00000000	51.80241000	26.42101000
138.99999192	0.00000000	51.01501000	26.79626000
139.19999191	0.00000000	50.68897000	26.88238000
139.39999189	0.00000000	51.01501000	27.25763000
139.59999188	0.00000000	51.75935000	28.00197000
139.79999187	0.00000000	52.13459000	28.32800000
139.99999186	0.00000000	52.22071000	28.00197000
140.19999185	0.00000000	52.59596000	27.21457000
140.39999184	0.00000000	53.29109000	26.46407000
140.59999182	0.00000000	53.29109000	25.68282000
140.79999181	0.00000000	52.59596000	25.26452000
140.99999180	0.00000000	52.22071000	24.88927000
141.19999179	0.00000000	52.13459000	24.52018000
141.39999178	0.00000000	51.75935000	24.93233000
141.59999176	0.00000000	51.06422000	25.63976000
141.79999175	0.00000000	51.06422000	26.46407000
141.99999174	0.00000000	51.75935000	27.21457000
142.19999173	0.00000000	52.13459000	28.00197000
142.39999172	0.00000000	52.17765000	28.32800000
142.59999170	0.00000000	52.17765000	28.00197000
142.79999169	0.00000000	52.17765000	27.21457000
142.99999168	0.00000000	52.17765000	26.46407000
143.19999167	0.00000000	52.17765000	25.68282000
143.39999166	0.00000000	52.17765000	25.30758000
143.59999165	0.00000000	52.17765000	25.26452000
143.79999163	0.00000000	52.17765000	25.26452000
143.99999162	0.00000000	52.17765000	25.26452000
144.19999161	0.00000000	52.22071000	25.30758000
144.39999160	0.00000000	52.55290000	25.72589000
144.59999159	0.00000000	52.96506000	26.83932000
144.79999157	0.00000000	52.92815000	27.95275000
144.99999156	0.00000000	52.96506000	28.37721000
145.19999155	0.00000000	52.55290000	28.37721000
145.39999154	0.00000000	52.22071000	28.00197000
145.59999153	0.00000000	52.17765000	27.21457000
145.79999151	0.00000000	52.17765000	26.51329000
145.99999150	0.00000000	52.13459000	26.00886000
146.19999149	0.00000000	51.80241000	25.71973000
146.39999148	0.00000000	51.43332000	25.27067000
146.59999147	0.00000000	51.84547000	25.71973000
146.79999146	0.00000000	52.55290000	26.00886000
146.99999144	0.00000000	53.34030000	26.51329000
147.19999143	0.00000000	53.71555000	27.21457000
147.39999142	0.00000000	53.75861000	28.00197000
147.59999141	0.00000000	53.71555000	28.37721000
147.79999140	0.00000000	53.34030000	28.42027000
147.99999138	0.00000000	52.59596000	28.42027000
148.19999137	0.00000000	52.22071000	28.42027000
148.39999136	0.00000000	52.17765000	28.37721000
148.59999135	0.00000000	52.17765000	28.00197000
148.79999134	0.00000000	52.17765000	27.25763000
148.99999132	0.00000000	52.17765000	26.88238000
149.19999131	0.00000000	52.22071000	26.83932000
149.39999130	0.00000000	52.59596000	26.83932000
149.59999129	0.00000000	53.34030000	26.83932000
149.79999128	0.00000000	53.71555000	26.83932000
149.99999127	0.00000000	53.75861000	26.88238000
150.19999125	0.00000000	53.75861000	27.25763000
150.39999124	0.00000000	53.71555000	28.00197000
150.59999123	0.00000000	53.34030000	28.37721000
150.79999122	0.00000000	52.59596000	28.42027000
150.99999121	0.00000000	52.22071000	28.42027000
151.19999119	0.00000000	52.17765000	28.37721000
151.39999118	0.00000000	52.17765000	28.00197000
151.59999117	0.00000000	52.17765000	27.21457000
151.79999116	0.00000000	52.22071000	26.51329000
151.99999115	0.00000000	52.59596000	26.10113000
152.19999113	0.00000000	53.34030000	26.46407000
152.39999112	0.00000000	53.71555000	26.79626000
152.59999111	0.00000000	53.75861000	26.83932000
152.79999110	0.00000000	53.75861000	26.88238000
152.99999109	0.00000000	53.75861000	27.21457000
153.19999108	0.00000000	53.71555000	27.62672000
153.39999106	0.00000000	53.34030000	27.58981000
153.59999105	0.00000000	52.59596000	27.62672000
153.79999104	0.00000000	52.17765000	27.21457000
153.99999103	0.00000000	51.80241000	26.88238000
154.19999102	0.00000000	51.43332000	26.83932000
154.39999100	0.00000000	51.80241000	26.83932000
154.59999099	0.00000000	52.13459000	26.83932000
154.79999098	0.00000000	52.17765000	26.83932000
154.99999097	0.00000000	52.22071000	26.79626000
155.19999096	0.00000000	52.59596000	26.42101000
155.39999094	0.00000000	53.34030000	25.68282000
155.59999093	0.00000000	53.71555000	25.30758000
155.79999092	0.00000000	53.75861000	25.30758000
155.99999091	0.00000000	53.71555000	25.68282000
156.19999090	0.00000000	53.34030000	26.42101000
156.39999089	0.00000000	52.59596000	26.79626000
156.59999087	0.00000000	52.22071000	26.83932000
156.79999086	0.00000000	52.17765000	26.88238000
156.99999085	0.00000000	52.17765000	27.21457000
157.19999084	0.00000000	52.17765000	27.58366000
157.39999083	0.00000000	52.17765000	27.21457000
157.59999081	0.00000000	52.17765000	26.88238000
157.79999080	0.00000000	52.22071000	26.83932000
157.99999079	0.00000000	52.59596000	26.83932000
158.19999078	0.00000000	53.34030000	26.79626000
158.39999077	0.00000000	53.71555000	26.46407000
158.59999075	0.00000000	53.75861000	26.10113000
158.79999074	0.00000000	53.75861000	26.46407000
158.99999073	0.00000000	53.75861000	26.79626000
159.19999072	0.00000000	53.71555000	26.83932000
159.39999071	0.00000000	53.34030000	26.88238000
159.59999070	0.00000000	52.59596000	27.25763000
159.79999068	0.00000000	52.22071000	28.00197000
159.99999067	0.00000000	52.17765000	28.37721000
160.19999066	0.00000000	52.17765000	28.42027000
160.39999065	0.00000000	52.17765000	28.37721000
160.59999064	0.00000000	52.17765000	28.00197000
160.79999062	0.00000000	52.22071000	27.25763000
160.99999061	0.00000000	52.55290000	26.88238000
161.19999060	0.00000000	52.96506000	26.83932000
161.39999059	0.00000000	52.97121000	26.79626000
161.59999058	0.00000000	53.38336000	26.46407000
161.79999056	0.00000000	53.71555000	26.10113000
161.99999055	0.00000000	53.75861000	26.51329000
162.19999054	0.00000000	53.75861000	27.21457000
162.39999053	0.00000000	53.75861000	27.95275000
162.59999052	0.00000000	53.75861000	27.95275000
162.79999051	0.00000000	53.71555000	27.30684000
162.99999049	0.00000000	53.34030000	27.30684000
163.19999048	0.00000000	52.59596000	27.95275000
163.39999047	0.00000000	52.22071000	27.95275000
163.59999046	0.00000000	52.17765000	27.25763000
163.79999045	0.00000000	52.17765000	26.88238000
163.99999043	0.00000000	52.17765000	26.83932000
164.19999042	0.00000000	52.22071000	26.83932000
164.39999041	0.00000000	52.59596000	26.83932000
164.59999040	0.00000000	53.34030000	26.83932000
164.79999039	0.00000000	53.71555000	26.83932000
164.99999037	0.00000000	53.75861000	26.83932000
165.19999036	0.00000000	53.75861000	26.83932000
165.39999035	0.00000000	53.75861000	26.83932000
165.59999034	0.00000000	53.75861000	26.83932000
165.79999033	0.00000000	53.71555000	26.83932000
165.99999032	0.00000000	53.38336000	26.83932000
166.19999030	0.00000000	52.97121000	26.83932000
166.39999029	0.00000000	52.96506000	26.83932000
166.59999028	0.00000000	52.55290000	26.83932000
166.79999027	0.00000000	52.26993000	26.83932000
166.99999026	0.00000000	52.59596000	26.83932000
167.19999024	0.00000000	53.34030000	26.83932000
167.39999023	0.00000000	53.66634000	26.83932000
167.59999022	0.00000000	53.38336000	26.83932000
167.79999021	0.00000000	53.01427000	26.83932000
167.99999020	0.00000000	53.38336000	26.83932000
168.19999018	0.00000000	53.71555000	26.83932000
168.39999017	0.00000000	53.75861000	26.83932000
168.59999016	0.00000000	53.75861000	26.83932000
168.79999015	0.00000000	53.75861000	26.83932000
168.99999014	0.00000000	53.75861000	26.83932000
169.19999013	0.00000000	53.75861000	26.83932000
169.39999011	0.00000000	53.75861000	26.83932000
169.59999010	0.00000000	53.75861000	26.83932000
169.79999009	0.00000000	53.75861000	26.83932000
169.99999008	0.00000000	53.75861000	26.88238000
170.19999007	0.00000000	53.75861000	27.21457000
170.39999005	0.00000000	53.75861000	27.58366000
170.59999004	0.00000000	53.75861000	27.21457000
170.79999003	0.00000000	53.75861000	26.88238000
170.99999002	0.00000000	53.75861000	26.83932000
171.19999001	0.00000000	53.75861000	26.83932000
171.39998999	0.00000000	53.75861000	26.83932000
171.59998998	0.00000000	53.75861000	26.83932000
171.79998997	0.00000000	53.75861000	26.83932000
171.99998996	0.00000000	53.75861000	26.83932000
172.19998995	0.00000000	53.75861000	26.83932000
172.39998994	0.00000000	53.75861000	26.83932000
172.59998992	0.00000000	53.75861000	26.83932000
172.79998991	0.00000000	53.75861000	26.83932000
172.99998990	0.00000000	53.75861000	26.83932000
173.19998989	0.00000000	53.71555000	26.83932000
173.39998988	0.00000000	53.38336000	26.83932000
173.59998986	0.00000000	53.01427000	26.83932000
173.79998985	0.00000000	53.38336000	26.83932000
173.99998984	0.00000000	53.71555000	26.83932000
174.19998983	0.00000000	53.75861000	26.83932000
174.39998982	0.00000000	53.75861000	26.83932000
174.59998980	0.00000000	53.75861000	26.83932000
174.79998979	0.00000000	53.75861000	26.83932000
174.99998978	0.00000000	53.75861000	26.83932000
175.19998977	0.00000000	53.75861000	26.83932000
175.39998976	0.00000000	53.75861000	26.83932000
175.59998975	0.00000000	53.75861000	26.83932000
175.79998973	0.00000000	53.75861000	26.83932000
175.99998972	0.00000000	53.75861000	26.83932000
176.19998971	0.00000000	53.80167000	26.83932000
176.39998970	0.00000000	54.13385000	26.83932000
176.59998969	0.00000000	54.50295000	26.83932000
176.79998967	0.00000000	54.13385000	26.83932000
176.99998966	0.00000000	53.80167000	26.83932000
177.19998965	0.00000000	53.75861000	26.83932000
177.39998964	0.00000000	53.75861000	26.83932000
177.59998963	0.00000000	53.75861000	26.83932000
177.79998961	0.00000000	53.75861000	26.83932000
177.99998960	0.00000000	53.75861000	26.83932000
178.19998959	0.00000000	53.75861000	26.83932000
178.39998958	0.00000000	53.75861000	26.83932000
178.59998957	0.00000000	53.75861000	26.88238000
178.79998956	0.00000000	53.75861000	27.25763000
178.99998954	0.00000000	53.75861000	28.00197000
179.19998953	0.00000000	53.75861000	28.37721000
179.39998952	0.00000000	53.75861000	28.37721000
179.59998951	0.00000000	53.75861000	28.00197000
179.79998950	0.00000000	53.75861000	27.30684000
179.99998948	0.00000000	53.75861000	27.25763000
180.19998947	0.00000000	53.75861000	27.58366000
180.39998946	0.00000000	53.75861000	27.25763000
180.59998945	0.00000000	53.75861000	27.30684000
180.79998944	0.00000000	53.75861000	28.00197000
180.99998942	0.00000000	53.75861000	28.37721000
181.19998941	0.00000000	53.75861000	28.42027000
181.39998940	0.00000000	53.75861000	28.42027000
181.59998939	0.00000000	53.75861000	28.42027000
181.79998938	0.00000000	53.75861000	28.42027000
181.99998937	0.00000000	53.75861000	28.42027000
182.19998935	0.00000000	53.75861000	28.42027000
182.39998934	0.00000000	53.80167000	28.42027000
182.59998933	0.00000000	54.17691000	28.37721000
182.79998932	0.00000000	54.87204000	28.00197000
182.99998931	0.00000000	54.87204000	27.25763000
183.19998929	0.00000000	54.17691000	26.88238000
183.39998928	0.00000000	53.80167000	26.83932000
183.59998927	0.00000000	53.75861000	26.83932000
183.79998926	0.00000000	53.75861000	26.88238000
183.99998925	0.00000000	53.75861000	27.21457000
184.19998923	0.00000000	53.75861000	27.62672000
184.39998922	0.00000000	53.75861000	27.63287000
184.59998921	0.00000000	53.75861000	28.04503000
184.79998920	0.00000000	53.75861000	28.37721000
184.99998919	0.00000000	53.75861000	28.42027000
185.19998918	0.00000000	53.80167000	28.37721000
185.39998916	0.00000000	54.13385000	28.00197000
185.59998915	0.00000000	54.50295000	27.25763000
185.79998914	0.00000000	54.13385000	26.88238000
185.99998913	0.00000000	53.80167000	26.83932000
186.19998912	0.00000000	53.75861000	26.83932000
186.39998910	0.00000000	53.75861000	26.79626000
186.59998909	0.00000000	53.75861000	26.46407000
186.79998908	0.00000000	53.75861000	26.10113000
186.99998907	0.00000000	53.75861000	26.46407000
187.19998906	0.00000000	53.75861000	26.83932000
187.39998904	0.00000000	53.75861000	27.25763000
187.59998903	0.00000000	53.75861000	28.00197000
187.79998902	0.00000000	53.75861000	28.32800000
187.99998901	0.00000000	53.75861000	28.00197000
188.19998900	0.00000000	53.75861000	27.25763000
188.39998899	0.00000000	53.75861000	26.88238000
188.59998897	0.00000000	53.75861000	26.83932000
188.79998896	0.00000000	53.75861000	26.83932000
188.99998895	0.00000000	53.75861000	26.83932000
189.19998894	0.00000000	53.75861000	26.83932000
189.39998893	0.00000000	53.75861000	26.83932000
189.59998891	0.00000000	53.75861000	26.83932000
189.79998890	0.00000000	53.75861000	26.83932000
189.99998889	0.00000000	53.75861000	26.83932000
190.19998888	0.00000000	53.75861000	26.83932000
190.39998887	0.00000000	53.75861000	26.83932000
190.59998885	0.00000000	53.75861000	26.83932000
190.79998884	0.00000000	53.75861000	26.83932000
190.99998883	0.00000000	53.75861000	26.83932000
191.19998882	0.00000000	53.75861000	26.83932000
191.39998881	0.00000000	53.80167000	26.83932000
191.59998880	0.00000000	54.13385000	26.83932000
191.79998878	0.00000000	54.50295000	26.83932000
191.99998877	0.00000000	54.17691000	26.83932000
192.19998876	0.00000000	54.22613000	26.83932000
192.39998875	0.00000000	54.87204000	26.83932000
192.59998874	0.00000000	54.87204000	26.83932000
192.79998872	0.00000000	54.17691000	26.83932000
192.99998871	0.00000000	53.80167000	26.83932000
193.19998870	0.00000000	53.75861000	26.88238000
193.39998869	0.00000000	53.75861000	27.25763000
193.59998868	0.00000000	53.75861000	28.00197000
193.79998866	0.00000000	53.80167000	28.37721000
193.99998865	0.00000000	54.17691000	28.42027000
194.19998864	0.00000000	54.92125000	28.42027000
194.39998863	0.00000000	55.29650000	28.42027000
194.59998862	0.00000000	55.33957000	28.42027000
194.79998861	0.00000000	55.33957000	28.42027000
194.99998859	0.00000000	55.33957000	28.42027000
195.19998858	0.00000000	55.29650000	28.37721000
195.39998857	0.00000000	54.92125000	28.04503000
195.59998856	0.00000000	54.17691000	27.67593000
195.79998855	0.00000000	53.80167000	28.04503000
195.99998853	0.00000000	53.75861000	28.37721000
