Time	Channel A	Channel B	Channel C
(us)	(V)	(mV)	(mV)

-4.49999956	0.00000000	11.48499000	7.89247000
-4.29999957	0.00000000	11.48499000	7.89247000
-4.09999958	0.00000000	11.85408000	7.89247000
-3.89999959	0.00000000	11.81717000	7.89247000
-3.69999960	0.00000000	11.89715000	7.89247000
-3.49999962	0.00000000	11.86024000	7.89247000
-3.29999963	0.00000000	12.22933000	7.89247000
-3.09999964	0.00000000	12.18012000	7.89247000
-2.89999965	0.00000000	11.48499000	7.89247000
-2.69999966	0.00000000	11.10974000	7.89247000
-2.49999968	0.00000000	11.06668000	7.89247000
-2.29999969	0.00000000	11.06668000	7.89247000
-2.09999970	0.00000000	11.10974000	7.89247000
-1.89999971	0.00000000	11.44193000	7.89247000
-1.69999972	0.00000000	11.81102000	7.89247000
-1.49999973	0.00000000	11.48499000	7.89247000
-1.29999975	0.00000000	11.48499000	7.89247000
-1.09999976	0.00000000	11.81102000	7.89247000
-0.89999977	0.00000000	11.48499000	7.89247000
-0.69999978	0.00000000	11.48499000	7.89247000
-0.49999979	0.00000000	11.81102000	7.89247000
-0.29999981	0.31803640	11.44193000	7.89247000
-0.09999982	0.63668800	11.10974000	7.89247000
0.10000017	0.95533960	11.06668000	7.89247000
0.30000016	1.11466500	11.06668000	7.89247000
0.50000015	0.79601380	11.06668000	7.89247000
0.70000013	0.31803640	11.06668000	7.89247000
0.90000012	-0.47736220	11.06668000	7.89247000
1.10000011	-1.59264300	11.06668000	7.89247000
1.30000010	-2.38927200	11.10974000	7.89247000
1.50000009	-2.86724900	11.44193000	7.89247000
1.70000008	-2.38927200	11.81102000	7.93553100
1.90000006	-1.27399100	11.48499000	8.26771600
2.10000005	0.63668800	11.48499000	8.63681000
2.30000004	2.70792300	11.81102000	8.26771600
2.50000003	4.45989200	11.44193000	7.93553100
2.70000002	5.25652100	11.10974000	7.89247000
2.90000000	4.77854300	11.06668000	7.89247000
3.09999999	2.86724900	11.06668000	7.89247000
3.29999998	-0.15871060	11.06668000	7.89247000
3.49999997	-3.66326300	11.06668000	7.89247000
3.69999996	-6.53112700	11.06668000	7.89247000
3.89999994	-7.96444400	11.10974000	7.93553100
4.09999993	-7.32714100	11.44193000	8.26771600
4.29999992	-4.93786900	11.85408000	8.67987200
4.49999991	-1.11466500	11.86024000	8.68602300
4.69999990	3.50393700	12.27239000	9.05511800
4.89999989	7.16781500	12.55536000	9.00590400
5.09999987	9.23905000	12.22933000	8.31077700
5.29999986	9.07972400	11.48499000	7.89247000
5.49999985	6.53112700	11.10974000	7.47416300
5.69999984	2.22994600	11.06668000	6.77903500
5.89999983	-2.54859700	11.06668000	6.77903500
6.09999981	-6.69045300	11.06668000	7.47416300
6.29999980	-9.07972400	11.10974000	7.89247000
6.49999979	-9.23905000	11.48499000	8.31077700
6.69999978	-7.16781500	12.22933000	9.05511800
6.89999977	-3.18590100	12.55536000	9.43036400
7.09999975	1.11466500	12.27239000	9.43036400
7.29999974	4.93786900	11.90330000	9.05511800
7.49999973	7.32714100	12.27239000	8.31077700
7.69999972	7.64579200	12.55536000	7.93553100
7.89999971	6.21247500	12.22933000	7.89247000
8.09999970	3.34522600	11.48499000	7.89247000
8.29999968	0.00000000	11.10974000	7.89247000
8.49999967	-2.86724900	11.10974000	7.89247000
8.69999966	-4.77854300	11.48499000	7.89247000
8.89999965	-5.25652100	12.22933000	7.89247000
9.09999964	-4.30056600	12.60458000	7.89247000
9.29999962	-2.70792300	12.60458000	7.89247000
9.49999961	-0.63668800	12.22933000	7.89247000
9.69999960	1.11466500	11.53420000	7.89247000
9.89999959	2.22994600	11.53420000	7.89247000
10.09999958	2.54859700	12.18012000	7.89247000
10.29999956	2.22994600	12.22933000	7.89247000
10.49999955	1.43331700	11.86024000	7.89247000
10.69999954	0.47736220	11.85408000	7.89247000
10.89999953	-0.31803640	11.48499000	7.89247000
11.09999952	-0.79601380	11.53420000	7.89247000
11.29999951	-0.95533960	12.18012000	7.89247000
11.49999949	-0.95533960	12.18012000	7.89247000
11.69999948	-0.79601380	11.48499000	7.89247000
11.89999947	-0.47736220	11.10974000	7.89247000
12.09999946	-0.15871060	11.10974000	7.89247000
12.29999945	-0.15871060	11.44193000	7.89247000
12.49999943	0.00000000	11.85408000	7.89247000
12.69999942	0.00000000	11.86024000	7.89247000
12.89999941	0.00000000	12.27239000	7.89247000
13.09999940	0.00000000	12.55536000	7.89247000
13.29999939	0.00000000	12.27239000	7.89247000
13.49999937	0.00000000	11.90330000	7.89247000
13.69999936	0.00000000	12.22933000	7.89247000
13.89999935	0.00000000	12.22933000	7.89247000
14.09999934	-0.15871060	11.90330000	7.89247000
14.29999933	-0.15871060	12.22933000	7.89247000
14.49999932	-0.15871060	12.18012000	7.89247000
14.69999930	0.00000000	11.48499000	7.89247000
14.89999929	0.00000000	11.15896000	7.93553100
15.09999928	0.00000000	11.44193000	8.26771600
15.29999927	0.00000000	11.81102000	8.63681000
15.49999926	0.00000000	11.44193000	8.26771600
15.69999924	0.00000000	11.10974000	7.93553100
15.89999923	0.00000000	11.06668000	7.89247000
16.09999922	0.00000000	11.06668000	7.89247000
16.29999921	0.00000000	11.10974000	7.89247000
16.49999920	-0.15871060	11.48499000	7.89247000
16.69999919	-0.15871060	12.22933000	7.89247000
16.89999917	0.00000000	12.60458000	7.89247000
17.09999916	0.00000000	12.69070000	7.89247000
17.29999915	0.00000000	13.06594000	7.89247000
17.49999914	0.00000000	13.76107000	7.89247000
17.69999913	0.00000000	13.76107000	7.89247000
17.89999911	0.00000000	13.02288000	7.89247000
18.09999910	0.00000000	12.22933000	7.89247000
18.29999909	0.00000000	11.02362000	7.89247000
18.49999908	0.00000000	9.48572700	7.89247000
18.69999907	0.00000000	7.94783400	7.89247000
18.89999905	0.00000000	6.83439900	7.89247000
19.09999904	-0.15871060	6.87746000	7.89247000
19.29999903	0.00000000	8.41535400	7.89247000
19.49999902	0.00000000	11.15896000	7.89247000
19.69999901	0.00000000	14.64690000	7.89247000
19.89999900	0.00000000	18.50394000	7.89247000
20.09999898	0.00000000	21.57972000	7.89247000
20.29999897	0.00000000	23.06841000	7.89247000
20.49999896	0.00000000	22.23179000	7.93553100
20.69999895	-0.15871060	18.32554000	8.26771600
20.89999894	0.00000000	12.13706000	8.63681000
21.09999892	0.00000000	4.74286400	8.26771600
21.29999891	0.00000000	-2.51599400	7.93553100
21.49999890	0.00000000	-7.53567900	7.89247000
21.69999889	0.00000000	-8.61835600	7.89247000
21.89999888	0.00000000	-5.44414400	7.89247000
22.09999886	0.00000000	2.78051200	7.89247000
22.29999885	0.00000000	14.69611000	7.89247000
22.49999884	0.00000000	27.44217000	7.89247000
22.69999883	0.00000000	37.86294000	7.89247000
22.89999882	0.00000000	43.59005000	7.93553100
23.09999881	0.00000000	42.70423000	8.31077700
23.29999879	0.00000000	34.10433000	9.05511800
23.49999878	0.00000000	19.06988000	9.47342500
23.69999877	0.00000000	0.92888770	9.84867000
23.89999876	0.00000000	-15.68036000	10.21161000
24.09999875	0.00000000	-27.22072000	9.84867000
24.29999873	0.00000000	-30.61639000	9.47342500
24.49999872	0.00000000	-23.97268000	8.96284400
24.69999871	0.00000000	-8.51993000	7.43110200
24.89999870	0.00000000	12.78297000	5.19808000
25.09999869	0.00000000	35.12549000	3.66633800
25.29999867	0.00000000	53.21727000	3.19881900
25.49999866	0.00000000	62.10630000	3.24803100
25.69999865	0.00000000	59.73794000	4.08464600
25.89999864	0.00000000	46.56127000	6.44685000
26.09999863	0.00000000	24.56324000	9.93479300
26.29999862	0.00000000	-0.47367120	14.16708000
26.49999860	0.00000000	-22.57013000	17.97490000
26.69999859	0.00000000	-37.22933000	19.88189000
26.89999858	0.00000000	-41.04330000	19.46358000
27.09999857	0.00000000	-32.57259000	16.25861000
27.29999856	0.00000000	-14.05635000	10.11934000
27.49999854	0.00000000	9.90403500	2.41141700
27.69999853	0.00000000	34.23966000	-4.55831700
27.89999852	0.00000000	53.13115000	-9.94094400
28.09999851	0.00000000	62.10630000	-12.17397000
28.29999850	0.00000000	59.82406000	-9.80561000
28.49999848	0.00000000	47.49015000	-3.16190900
28.69999847	0.00000000	27.76821000	7.28961600
28.89999846	0.00000000	5.38877900	19.59892000
29.09999845	0.00000000	-14.75148000	30.33341000
29.29999844	0.00000000	-28.29109000	36.88484000
29.49999843	0.00000000	-32.57259000	37.26009000
29.69999841	0.00000000	-26.84547000	31.45300000
29.89999840	0.00000000	-13.02903000	20.53395000
30.09999839	0.00000000	4.74286400	5.85014700
30.29999838	0.00000000	22.60704000	-9.57185000
30.49999837	0.00000000	37.30930000	-21.88730000
30.69999835	0.00000000	45.86614000	-28.43258000
30.89999834	0.00000000	46.70890000	-27.18381000
31.09999833	0.00000000	40.56348000	-17.93799000
31.29999832	0.00000000	28.93085000	-2.51599400
31.49999831	0.00000000	14.27165000	15.23130000
31.69999829	0.00000000	-0.00615157	31.49606000
31.89999828	0.00000000	-10.47613000	43.11023000
32.09999827	0.00000000	-15.21900000	47.71161000
32.29999826	0.00000000	-14.09941000	44.22367000
32.49999825	0.00000000	-7.91092400	33.02780000
32.69999824	0.00000000	2.13459600	16.81225000
32.89999822	0.00000000	13.71801000	-0.97810030
33.09999821	0.00000000	24.13878000	-16.81841000
33.29999820	0.00000000	31.12082000	-27.23302000
33.49999819	0.00000000	33.07701000	-30.01353000
33.69999818	0.00000000	30.04429000	-25.00000000
33.89999816	0.00000000	23.16068000	-13.74877000
34.09999815	0.00000000	14.64690000	2.13459600
34.29999814	0.00000000	6.50221400	19.46358000
34.49999813	0.00000000	-0.04921259	34.05511000
34.69999812	0.00000000	-3.08193900	42.23056000
34.89999810	0.00000000	-1.63016700	42.27977000
35.09999809	0.00000000	3.34030500	35.39616000
35.29999808	0.00000000	9.86097400	22.99459000
35.49999807	0.00000000	16.41855000	7.98474400
35.69999806	0.00000000	21.02608000	-6.32381900
35.89999805	0.00000000	22.60704000	-16.73228000
36.09999803	0.00000000	21.11220000	-20.95841000
36.29999802	0.00000000	17.25517000	-17.93799000
36.49999801	0.00000000	12.27239000	-8.74138700
36.69999800	0.00000000	7.25270600	3.53100400
36.89999799	0.00000000	3.80782500	15.88336000
37.09999797	0.00000000	2.60211600	25.13533000
37.29999796	0.00000000	3.80782500	29.40452000
37.49999795	0.00000000	7.25270600	27.87278000
37.69999794	0.00000000	12.22933000	20.99532000
37.89999793	0.00000000	16.83686000	11.04823000
38.09999791	0.00000000	19.99877000	1.06422200
38.29999790	0.00000000	21.53666000	-6.18848400
38.49999789	0.00000000	21.11220000	-8.50147600
38.69999788	0.00000000	18.41781000	-5.06889700
38.89999787	0.00000000	14.18553000	2.55290300
39.09999786	0.00000000	9.52879000	12.11860000
39.29999784	0.00000000	5.29650500	20.48474000
39.49999783	0.00000000	2.60211600	24.76009000
39.69999782	0.00000000	2.17765700	24.02190000
39.89999781	0.00000000	3.67249000	19.00221000
40.09999780	0.00000000	6.41609200	10.49459000
40.29999778	0.00000000	9.90403500	0.59670270
40.49999777	0.00000000	13.81028000	-7.43725300
40.69999776	0.00000000	17.29823000	-10.87598000
40.89999775	0.00000000	19.99877000	-8.96899500
41.09999774	0.00000000	21.16142000	-2.09153500
41.29999772	0.00000000	20.41708000	7.47416300
41.49999771	0.00000000	18.46087000	16.72613000
41.69999770	0.00000000	15.34203000	23.73892000
41.89999769	0.00000000	11.48499000	27.13459000
42.09999768	0.00000000	7.99704600	25.96580000
42.29999767	0.00000000	5.25344500	19.83883000
42.49999765	0.00000000	3.71555100	11.04823000
42.69999764	0.00000000	3.71555100	2.17765700
42.89999763	0.00000000	5.25344500	-4.74286400
43.09999762	0.00000000	7.94783400	-7.85556000
43.29999761	0.00000000	11.02362000	-6.74212600
43.49999759	0.00000000	13.71801000	-2.18380900
43.69999758	0.00000000	15.29897000	4.31840500
43.89999757	0.00000000	15.76649000	10.53765000
44.09999756	0.00000000	15.80955000	15.60654000
44.29999755	0.00000000	15.76649000	19.04527000
44.49999753	0.00000000	15.39124000	19.42052000
44.69999752	0.00000000	14.64690000	16.81225000
44.89999751	0.00000000	14.27165000	12.62918000
45.09999750	0.00000000	14.18553000	8.35998900
45.29999749	0.00000000	13.76107000	4.87204700
45.49999748	0.00000000	12.55536000	2.50369100
45.69999746	0.00000000	10.59916000	1.71013800
45.89999745	0.00000000	7.86171200	2.08538400
46.09999744	0.00000000	4.83513700	3.66633800
46.29999743	0.00000000	2.55290300	6.36072800
46.49999742	0.00000000	2.22687000	9.38115100
46.69999740	0.00000000	4.13385800	11.74951000
46.89999739	0.00000000	8.08316900	12.91215000
47.09999738	0.00000000	13.48425000	13.32431000
47.29999737	0.00000000	19.66658000	12.49385000
47.49999736	0.00000000	24.64936000	10.58686000
47.69999734	0.00000000	27.34990000	7.89247000
47.89999733	0.00000000	26.88238000	5.19808000
48.09999732	0.00000000	22.60704000	3.29109200
48.29999731	0.00000000	15.29897000	2.50369100
48.49999730	0.00000000	6.79133800	3.29109200
48.69999729	0.00000000	-0.89197830	5.19808000
48.89999727	0.00000000	-5.91166300	7.93553100
49.09999726	0.00000000	-6.66215500	11.00517000
49.29999725	0.00000000	-3.16806100	13.69956000
49.49999724	0.00000000	4.18307100	15.23130000
49.69999723	0.00000000	13.81028000	15.23130000
49.89999721	0.00000000	23.02534000	13.69956000
50.09999720	0.00000000	29.58292000	10.96211000
50.29999719	0.00000000	31.48991000	7.47416300
50.49999718	0.00000000	28.46333000	3.62327700
50.69999717	0.00000000	21.53666000	0.59670270
50.89999715	0.00000000	12.64764000	-0.55979330
51.09999714	0.00000000	3.80782500	0.59670270
51.29999713	0.00000000	-2.74975400	3.66633800
51.49999712	0.00000000	-5.03198800	7.89247000
51.69999711	0.00000000	-2.79281500	12.11860000
51.89999710	0.00000000	3.38951800	15.23130000
52.09999708	0.00000000	11.44193000	16.76919000
52.29999707	0.00000000	19.53125000	16.39395000
52.49999706	0.00000000	25.25836000	14.07480000
52.69999705	0.00000000	26.83932000	10.62992000
52.89999704	0.00000000	24.18799000	6.77903500
53.09999702	0.00000000	18.41781000	3.66633800
53.29999701	0.00000000	11.10974000	1.71013800
53.49999700	0.00000000	4.22613100	0.97194880
53.69999699	0.00000000	-0.00615157	2.12844500
53.89999698	0.00000000	-0.42445860	4.77977300
54.09999696	0.00000000	2.64517700	7.84940900
54.29999695	0.00000000	8.37229300	10.53765000
54.49999694	0.00000000	14.88066000	12.07554000
54.69999693	0.00000000	19.90650000	12.07554000
54.89999692	0.00000000	22.65010000	10.58686000
55.09999691	0.00000000	22.60704000	8.31077700
55.29999689	0.00000000	19.53125000	6.44685000
55.49999688	0.00000000	14.18553000	5.66560000
55.69999687	0.00000000	8.45841400	6.40378900
55.89999686	0.00000000	4.22613100	7.93553100
56.09999685	0.00000000	2.60211600	9.84867000
56.29999683	0.00000000	3.38951800	11.74951000
56.49999682	0.00000000	6.09005900	12.45079000
56.69999681	0.00000000	10.69144000	11.70029000
56.89999680	0.00000000	15.29897000	9.33809000
57.09999679	0.00000000	18.79306000	5.93626900
57.29999677	0.00000000	20.69390000	2.46063000
57.49999676	0.00000000	19.95571000	0.22145670
57.69999675	0.00000000	17.29823000	-0.14148620
57.89999674	0.00000000	13.85334000	2.22071800
58.09999673	0.00000000	10.32234000	6.77903500
58.29999672	0.00000000	7.66486200	12.16166000
58.49999670	0.00000000	6.09005900	16.81225000
58.69999669	0.00000000	6.45915300	19.83883000
58.89999668	0.00000000	7.94783400	20.20177000
59.09999667	0.00000000	9.90403500	17.09523000
59.29999666	0.00000000	12.22933000	11.74951000
59.49999664	0.00000000	14.13632000	5.15501900
59.69999663	0.00000000	15.29897000	-0.97810030
59.89999662	0.00000000	15.29897000	-5.20423200
60.09999661	0.00000000	14.18553000	-6.32381900
60.29999660	0.00000000	12.69070000	-3.58636800
60.49999658	0.00000000	11.53420000	2.54675200
60.69999657	0.00000000	11.10974000	10.58686000
60.89999656	0.00000000	11.10974000	17.88263000
61.09999655	0.00000000	11.48499000	22.57628000
61.29999654	0.00000000	12.27239000	24.10802000
61.49999653	0.00000000	12.97982000	22.10876000
61.69999651	0.00000000	13.39198000	16.35089000
61.89999650	0.00000000	12.97982000	8.31077700
62.09999649	0.00000000	12.22933000	0.59670270
62.29999648	0.00000000	11.06668000	-5.20423200
62.49999647	0.00000000	9.95324800	-7.89862200
62.69999645	0.00000000	9.52879000	-6.74212600
62.89999644	0.00000000	9.52879000	-2.14074800
63.09999643	0.00000000	9.95324800	4.82898600
63.29999642	0.00000000	11.10974000	12.49385000
63.49999641	0.00000000	12.64764000	19.08834000
63.69999639	0.00000000	14.18553000	22.90846000
63.89999638	0.00000000	15.29897000	23.36368000
64.09999637	0.00000000	15.29897000	20.25714000
64.29999636	0.00000000	14.18553000	14.90526000
64.49999635	0.00000000	12.64764000	8.31077700
64.69999634	0.00000000	11.06668000	2.12844500
64.89999632	0.00000000	9.57800100	-2.51599400
65.09999631	0.00000000	8.79060000	-4.82898600
65.29999630	0.00000000	9.15354300	-4.09079700
65.49999629	0.00000000	9.90403500	-1.07037400
65.69999628	0.00000000	11.10974000	3.20497000
65.89999626	0.00000000	12.64764000	7.84940900
66.09999625	0.00000000	14.09326000	12.11860000
66.29999624	0.00000000	14.50541000	15.27436000
66.49999623	0.00000000	13.39813000	17.23056000
66.69999622	0.00000000	12.27239000	17.97490000
66.89999620	0.00000000	11.02362000	16.81225000
67.09999619	0.00000000	9.57800100	14.16092000
67.29999618	0.00000000	8.83366100	11.04823000
67.49999617	0.00000000	9.62106200	7.89247000
67.69999616	0.00000000	11.53420000	4.77977300
67.89999615	0.00000000	14.22859000	2.04232300
68.09999613	0.00000000	16.87992000	0.09227362
68.29999612	0.00000000	18.37475000	-1.06422200
68.49999611	0.00000000	17.99951000	-0.97810030
68.69999610	0.00000000	15.67421000	0.97194880
68.89999609	0.00000000	12.22933000	4.82898600
69.09999607	0.00000000	8.32308000	9.43036400
69.29999606	0.00000000	4.87819900	13.74262000
69.49999605	0.00000000	2.55290300	17.23056000
69.69999604	0.00000000	2.26993100	19.55585000
69.89999603	0.00000000	4.55831700	19.83883000
70.09999601	0.00000000	9.20275500	17.55659000
70.29999600	0.00000000	14.56078000	12.91215000
70.49999599	0.00000000	19.62352000	7.56028500
70.69999598	0.00000000	23.06841000	2.46063000
70.89999597	0.00000000	24.23105000	-1.35334600
71.09999596	0.00000000	22.65010000	-3.29724400
71.29999594	0.00000000	18.41781000	-2.51599400
71.49999593	0.00000000	12.64764000	0.55364170
71.69999592	0.00000000	6.83439900	5.19808000
71.89999591	0.00000000	2.17765700	10.53765000
72.09999590	0.00000000	-0.51673230	14.76993000
72.29999588	0.00000000	-0.47367120	16.76919000
72.49999587	0.00000000	2.60211600	16.81225000
72.69999586	0.00000000	7.99704600	15.23130000
72.89999585	0.00000000	14.13632000	12.21087000
73.09999584	0.00000000	19.58046000	8.77214500
73.29999582	0.00000000	23.06841000	6.44685000
73.49999581	0.00000000	24.23105000	5.19808000
73.69999580	0.00000000	22.65010000	4.82898600
73.89999579	0.00000000	18.50394000	5.19808000
74.09999578	0.00000000	13.44119000	6.36072800
74.29999577	0.00000000	8.77829600	7.84940900
74.49999575	0.00000000	4.55831700	8.96284400
74.69999574	0.00000000	2.64517700	8.96284400
74.89999573	0.00000000	3.34030500	7.84940900
75.09999572	0.00000000	5.62869100	6.36072800
75.29999571	0.00000000	9.11048200	5.24729300
75.49999569	0.00000000	12.55536000	5.29035400
75.69999568	0.00000000	15.29897000	6.82209600
75.89999567	0.00000000	16.87992000	9.51648500
76.09999566	0.00000000	17.29823000	12.58612000
76.29999565	0.00000000	16.87992000	15.23130000
76.49999563	0.00000000	15.34203000	16.34473000
76.69999562	0.00000000	13.11516000	15.18824000
76.89999561	0.00000000	11.57726000	12.11860000
77.09999560	0.00000000	11.10974000	7.84940900
77.29999559	0.00000000	11.06668000	3.24803100
77.49999558	0.00000000	11.10974000	-0.60285430
77.69999556	0.00000000	11.44193000	-2.50984200
77.89999555	0.00000000	11.81102000	-2.14074800
78.09999554	0.00000000	11.39887000	0.59670270
78.29999553	0.00000000	10.69144000	5.19808000
78.49999552	0.00000000	9.90403500	10.62992000
78.69999550	0.00000000	9.57800100	15.60654000
78.89999549	0.00000000	9.95324800	19.08834000
79.09999548	0.00000000	11.10974000	19.83883000
79.29999547	0.00000000	12.64764000	17.97490000
79.49999546	0.00000000	14.22859000	14.11786000
79.69999544	0.00000000	15.76649000	9.47342500
79.89999543	0.00000000	16.83686000	4.77977300
80.09999542	0.00000000	16.46161000	0.59670270
80.29999541	0.00000000	14.56078000	-1.71628900
80.49999540	0.00000000	12.22933000	-1.39640700
80.69999539	0.00000000	9.52879000	0.46751960
80.89999537	0.00000000	7.25270600	3.24803100
81.09999536	0.00000000	6.45915300	6.72982200
81.29999535	0.00000000	6.83439900	10.58686000
81.49999534	0.00000000	8.41535400	13.65650000
81.69999533	0.00000000	11.10974000	15.27436000
81.89999531	0.00000000	14.13632000	15.69267000
82.09999530	0.00000000	16.46161000	15.27436000
82.29999529	0.00000000	17.25517000	13.74262000
82.49999528	0.00000000	16.87992000	11.42347000
82.69999527	0.00000000	15.34203000	9.05511800
82.89999525	0.00000000	13.06594000	6.31151500
83.09999524	0.00000000	11.10974000	3.61712600
83.29999523	0.00000000	9.52879000	1.66707700
83.49999522	0.00000000	8.41535400	0.51058070
83.69999521	0.00000000	8.41535400	0.55364170
83.89999520	0.00000000	9.52879000	2.12844500
84.09999518	0.00000000	11.02362000	5.19808000
84.29999517	0.00000000	12.18012000	9.05511800
84.49999516	0.00000000	12.60458000	12.53691000
84.69999515	0.00000000	12.64764000	15.27436000
84.89999514	0.00000000	12.64764000	16.81225000
85.09999512	0.00000000	12.64764000	16.76919000
85.29999511	0.00000000	12.64764000	14.81299000
85.49999510	0.00000000	12.64764000	10.95595000
85.69999509	0.00000000	12.69070000	6.35457700
85.89999508	0.00000000	13.02288000	2.12844500
86.09999506	0.00000000	13.39198000	-0.60285430
86.29999505	0.00000000	12.97982000	-1.39640700
86.49999504	0.00000000	12.27239000	-0.60285430
86.69999503	0.00000000	11.44193000	2.17765700
86.89999502	0.00000000	10.69144000	6.72982200
87.09999501	0.00000000	9.90403500	11.74336000
87.29999499	0.00000000	9.57800100	15.60654000
87.49999498	0.00000000	9.95324800	17.92569000
87.69999497	0.00000000	11.10974000	17.88263000
87.89999496	0.00000000	12.60458000	15.18824000
88.09999495	0.00000000	13.81028000	10.62992000
88.29999493	0.00000000	14.60384000	5.61638700
88.49999492	0.00000000	15.34203000	1.75935000
88.69999491	0.00000000	15.29897000	-0.55979330
88.89999490	0.00000000	14.18553000	-0.51673230
89.09999489	0.00000000	12.64764000	2.12844500
89.29999487	0.00000000	11.10974000	6.35457700
89.49999486	0.00000000	9.95324800	10.95595000
89.69999485	0.00000000	9.52879000	14.81299000
89.89999484	0.00000000	9.52879000	16.76919000
90.09999483	0.00000000	9.95324800	16.76919000
90.29999482	0.00000000	11.06668000	14.76993000
90.49999480	0.00000000	12.22933000	10.58686000
90.69999479	0.00000000	13.02288000	5.61638700
90.89999478	0.00000000	13.81028000	1.75935000
91.09999477	0.00000000	14.13632000	-0.55979330
91.29999476	0.00000000	13.81028000	-0.51673230
91.49999474	0.00000000	13.06594000	2.17765700
91.69999473	0.00000000	12.69070000	6.72982200
91.89999472	0.00000000	12.64764000	11.70029000
92.09999471	0.00000000	12.64764000	15.18824000
92.29999470	0.00000000	12.64764000	16.76919000
92.49999468	0.00000000	12.64764000	16.35089000
92.69999467	0.00000000	12.60458000	13.65650000
92.89999466	0.00000000	12.18012000	9.43036400
93.09999465	0.00000000	11.06668000	4.82898600
93.29999464	0.00000000	9.95324800	1.02116100
93.49999463	0.00000000	9.52879000	-0.51673230
93.69999461	0.00000000	9.52879000	0.59670270
93.89999460	0.00000000	9.99630800	3.66633800
94.09999459	0.00000000	11.53420000	7.89247000
94.29999458	0.00000000	13.81028000	12.11860000
94.49999457	0.00000000	15.71727000	15.18824000
94.69999455	0.00000000	16.92298000	16.30167000
94.89999454	0.00000000	17.29823000	14.81299000
95.09999453	0.00000000	16.87992000	11.38041000
95.29999452	0.00000000	15.29897000	7.56028500
95.49999451	0.00000000	12.60458000	4.08464600
95.69999449	0.00000000	9.52879000	2.12844500
95.89999448	0.00000000	6.83439900	1.75319900
96.09999447	0.00000000	5.29650500	2.92199800
96.29999446	0.00000000	5.29650500	5.98548200
96.49999445	0.00000000	6.87746000	9.38115100
96.69999444	0.00000000	9.95324800	12.11860000
96.89999442	0.00000000	13.81028000	13.65650000
97.09999441	0.00000000	17.29823000	13.65650000
97.29999440	0.00000000	20.04183000	12.16781000
97.49999439	0.00000000	21.48745000	9.89173200
97.69999438	0.00000000	20.73696000	7.93553100
97.89999436	0.00000000	17.67347000	6.36072800
98.09999435	0.00000000	13.85334000	5.24729300
98.29999434	0.00000000	9.90403500	5.19808000
98.49999433	0.00000000	6.45915300	5.93626900
98.69999432	0.00000000	4.13385800	6.72982200
98.89999430	0.00000000	3.75861200	7.89247000
99.09999429	0.00000000	5.25344500	9.00590400
99.29999428	0.00000000	7.99704600	9.43036400
99.49999427	0.00000000	11.48499000	9.47342500
99.69999426	0.00000000	15.34203000	9.47342500
99.89999425	0.00000000	18.41781000	9.51648500
100.09999423	0.00000000	19.99877000	9.89173200
100.29999422	0.00000000	19.99877000	10.62992000
100.49999421	0.00000000	18.46087000	11.00517000
100.69999420	0.00000000	15.76649000	11.00517000
100.89999419	0.00000000	12.69070000	10.53765000
101.09999417	0.00000000	9.95324800	9.00590400
101.29999416	0.00000000	7.99704600	6.72982200
101.49999415	0.00000000	6.83439900	4.82283400
101.69999414	0.00000000	6.79133800	3.66633800
101.89999413	0.00000000	7.57258800	3.66633800
102.09999411	0.00000000	8.79060000	4.82283400
102.29999410	0.00000000	11.10974000	6.77903500
102.49999409	0.00000000	13.76107000	9.47342500
102.69999408	0.00000000	15.71727000	12.16781000
102.89999407	0.00000000	16.87992000	14.07480000
103.09999406	0.00000000	16.87992000	14.81299000
103.29999404	0.00000000	15.76649000	13.65650000
103.49999403	0.00000000	14.22859000	11.00517000
103.69999402	0.00000000	12.64764000	7.93553100
103.89999401	0.00000000	11.06668000	5.19808000
104.09999400	0.00000000	9.52879000	3.24803100
104.29999398	0.00000000	8.41535400	2.08538400
104.49999397	0.00000000	8.37229300	2.12844500
104.69999396	0.00000000	9.15354300	3.70939900
104.89999395	0.00000000	10.32234000	6.72982200
105.09999394	0.00000000	12.22933000	10.16855000
105.29999392	0.00000000	13.76107000	12.49385000
105.49999391	0.00000000	14.56078000	13.69956000
105.69999390	0.00000000	14.97293000	13.65650000
105.89999389	0.00000000	14.51156000	12.11860000
106.09999388	0.00000000	13.43504000	9.47342500
106.29999387	0.00000000	11.90330000	6.77903500
106.49999385	0.00000000	11.10974000	4.87204700
106.69999384	0.00000000	10.69144000	4.08464600
106.89999383	0.00000000	10.37155000	4.82283400
107.09999382	0.00000000	11.10974000	6.31151500
107.29999381	0.00000000	12.22933000	7.89247000
107.49999379	0.00000000	13.02288000	9.42421200
107.69999378	0.00000000	13.81028000	10.58686000
107.89999377	0.00000000	14.13632000	10.95595000
108.09999376	0.00000000	13.76107000	10.58686000
108.29999375	0.00000000	12.64764000	9.42421200
108.49999374	0.00000000	11.48499000	7.89247000
108.69999372	0.00000000	10.69144000	6.36072800
108.89999371	0.00000000	9.95324800	5.24729300
109.09999370	0.00000000	9.99630800	5.24729300
109.29999369	0.00000000	11.06668000	6.36072800
109.49999368	0.00000000	12.22933000	7.89247000
109.69999366	0.00000000	13.02288000	9.47342500
109.89999365	0.00000000	13.81028000	11.00517000
110.09999364	0.00000000	14.18553000	12.11860000
110.29999363	0.00000000	14.18553000	12.11860000
110.49999362	0.00000000	13.76107000	11.00517000
110.69999360	0.00000000	12.64764000	9.47342500
110.89999359	0.00000000	11.48499000	7.89247000
111.09999358	0.00000000	10.73450000	6.36072800
111.29999357	0.00000000	10.32234000	5.19808000
111.49999356	0.00000000	10.69144000	4.82898600
111.69999355	0.00000000	11.06668000	5.19808000
111.89999353	0.00000000	11.48499000	6.36072800
112.09999352	0.00000000	12.22933000	7.84940900
112.29999351	0.00000000	12.64764000	9.00590400
112.49999350	0.00000000	13.02288000	9.43036400
112.69999349	0.00000000	13.39198000	9.47342500
112.89999347	0.00000000	13.02288000	9.47342500
113.09999346	0.00000000	12.64764000	9.47342500
113.29999345	0.00000000	12.27239000	9.43036400
113.49999344	0.00000000	11.86024000	9.05511800
113.69999343	0.00000000	11.85408000	8.31077700
113.89999341	0.00000000	11.39887000	7.93553100
114.09999340	0.00000000	10.73450000	7.84940900
114.29999339	0.00000000	10.37155000	7.51722400
114.49999338	0.00000000	11.10974000	7.10506800
114.69999337	0.00000000	12.18012000	7.09891700
114.89999336	0.00000000	12.60458000	6.68676100
115.09999334	0.00000000	12.64764000	6.35457700
115.29999333	0.00000000	12.64764000	6.35457700
115.49999332	0.00000000	12.64764000	6.72982200
115.69999331	0.00000000	12.64764000	7.51722400
115.89999330	0.00000000	12.60458000	8.26771600
116.09999328	0.00000000	12.22933000	9.09817800
116.29999327	0.00000000	11.48499000	9.84867000
116.49999326	0.00000000	11.10974000	10.58686000
116.69999325	0.00000000	11.06668000	10.58686000
116.89999324	0.00000000	11.10974000	9.84867000
117.09999322	0.00000000	11.48499000	9.09817800
117.29999321	0.00000000	12.22933000	8.26771600
117.49999320	0.00000000	12.64764000	7.51722400
117.69999319	0.00000000	13.06594000	6.72982200
117.89999318	0.00000000	13.81028000	6.35457700
118.09999317	0.00000000	14.18553000	6.35457700
118.29999315	0.00000000	14.18553000	6.72982200
118.49999314	0.00000000	13.76107000	7.51722400
118.69999313	0.00000000	12.60458000	8.26771600
118.89999312	0.00000000	11.10974000	9.09817800
119.09999311	0.00000000	9.95324800	9.84867000
119.29999309	0.00000000	9.52879000	10.62992000
119.49999308	0.00000000	9.52879000	10.95595000
119.69999307	0.00000000	9.95324800	10.62992000
119.89999306	0.00000000	11.10974000	9.84867000
120.09999305	0.00000000	12.60458000	9.09817800
120.29999303	0.00000000	13.81028000	8.31077700
120.49999302	0.00000000	14.60384000	7.89247000
120.69999301	0.00000000	15.34203000	7.51722400
120.89999300	0.00000000	15.34203000	7.10506800
121.09999299	0.00000000	14.60384000	7.14197800
121.29999298	0.00000000	13.81028000	7.10506800
121.49999296	0.00000000	12.60458000	7.51722400
121.69999295	0.00000000	11.10974000	7.84940900
121.89999294	0.00000000	9.95324800	7.93553100
122.09999293	0.00000000	9.52879000	8.31077700
122.29999292	0.00000000	9.52879000	9.05511800
122.49999290	0.00000000	9.95324800	9.43036400
122.69999289	0.00000000	11.10974000	9.47342500
122.89999288	0.00000000	12.60458000	9.47342500
123.09999287	0.00000000	13.76107000	9.47342500
123.29999286	0.00000000	14.18553000	9.43036400
123.49999284	0.00000000	14.22859000	9.05511800
123.69999283	0.00000000	14.22859000	8.31077700
123.89999282	0.00000000	14.18553000	7.93553100
124.09999281	0.00000000	13.81028000	7.84940900
124.29999280	0.00000000	13.02288000	7.51722400
124.49999279	0.00000000	12.27239000	7.14812900
124.69999277	0.00000000	11.44193000	7.51722400
124.89999276	0.00000000	10.69144000	7.84940900
125.09999275	0.00000000	9.95324800	7.93553100
125.29999274	0.00000000	9.95324800	8.31077700
125.49999273	0.00000000	10.69144000	9.05511800
125.69999271	0.00000000	11.44193000	9.43036400
125.89999270	0.00000000	12.27239000	9.47342500
126.09999269	0.00000000	13.02288000	9.47342500
126.29999268	0.00000000	13.81028000	9.43036400
126.49999267	0.00000000	14.18553000	9.05511800
126.69999265	0.00000000	14.18553000	8.31077700
126.89999264	0.00000000	13.81028000	7.93553100
127.09999263	0.00000000	13.02288000	7.89247000
127.29999262	0.00000000	12.22933000	7.89247000
127.49999261	0.00000000	11.06668000	7.89247000
127.69999260	0.00000000	9.99630800	7.89247000
127.89999258	0.00000000	9.95324800	7.89247000
128.09999257	0.00000000	10.69144000	7.93553100
128.29999256	0.00000000	11.44193000	8.31077700
128.49999255	0.00000000	12.27239000	9.05511800
128.69999254	0.00000000	13.02288000	9.43036400
128.89999252	0.00000000	13.81028000	9.47342500
129.09999251	0.00000000	14.18553000	9.43036400
129.29999250	0.00000000	14.18553000	9.05511800
129.49999249	0.00000000	13.76107000	8.31077700
129.69999248	0.00000000	12.64764000	7.93553100
129.89999246	0.00000000	11.48499000	7.89247000
130.09999245	0.00000000	10.73450000	7.89247000
130.29999244	0.00000000	10.32234000	7.89247000
130.49999243	0.00000000	10.73450000	7.89247000
130.69999242	0.00000000	11.44193000	7.93553100
130.89999241	0.00000000	12.27239000	8.26771600
131.09999239	0.00000000	13.02288000	8.67987200
131.29999238	0.00000000	13.81028000	8.64296200
131.49999237	0.00000000	14.13632000	8.67987200
131.69999236	0.00000000	13.81028000	8.26771600
131.89999235	0.00000000	13.02288000	7.89247000
132.09999233	0.00000000	12.27239000	7.47416300
132.29999232	0.00000000	11.48499000	6.77903500
132.49999231	0.00000000	11.10974000	6.77903500
132.69999230	0.00000000	11.06668000	7.47416300
132.89999229	0.00000000	11.10974000	7.89247000
133.09999227	0.00000000	11.48499000	8.31077700
133.29999226	0.00000000	12.22933000	9.05511800
133.49999225	0.00000000	12.60458000	9.43036400
133.69999224	0.00000000	12.64764000	9.47342500
133.89999223	0.00000000	12.64764000	9.47342500
134.09999222	0.00000000	12.64764000	9.43036400
134.29999220	0.00000000	12.64764000	9.05511800
134.49999219	0.00000000	12.64764000	8.26771600
134.69999218	0.00000000	12.64764000	7.51722400
134.89999217	0.00000000	12.64764000	6.72982200
135.09999216	0.00000000	12.64764000	6.40378900
135.29999214	0.00000000	12.64764000	6.72982200
135.49999213	0.00000000	12.64764000	7.47416300
135.69999212	0.00000000	12.64764000	7.89247000
135.89999211	0.00000000	12.60458000	8.31077700
136.09999210	0.00000000	12.22933000	9.05511800
136.29999208	0.00000000	11.44193000	9.43036400
136.49999207	0.00000000	10.73450000	9.47342500
136.69999206	0.00000000	10.32234000	9.43036400
136.89999205	0.00000000	10.73450000	9.05511800
137.09999204	0.00000000	11.44193000	8.31077700
137.29999203	0.00000000	12.27239000	7.93553100
137.49999201	0.00000000	13.02288000	7.84940900
137.69999200	0.00000000	13.81028000	7.47416300
137.89999199	0.00000000	14.18553000	6.72982200
138.09999198	0.00000000	14.18553000	6.35457700
138.29999197	0.00000000	13.76107000	6.35457700
138.49999195	0.00000000	12.64764000	6.72982200
138.69999194	0.00000000	11.53420000	7.51722400
138.89999193	0.00000000	11.10974000	8.26771600
139.09999192	0.00000000	11.06668000	9.05511800
139.29999191	0.00000000	11.10974000	9.47342500
139.49999189	0.00000000	11.48499000	9.84867000
139.69999188	0.00000000	12.22933000	10.21161000
139.89999187	0.00000000	12.60458000	9.84867000
140.09999186	0.00000000	12.64764000	9.47342500
140.29999185	0.00000000	12.64764000	9.05511800
140.49999184	0.00000000	12.64764000	8.26771600
140.69999182	0.00000000	12.64764000	7.51722400
140.89999181	0.00000000	12.60458000	6.72982200
141.09999180	0.00000000	12.22933000	6.40378900
141.29999179	0.00000000	11.48499000	6.72982200
141.49999178	0.00000000	11.15896000	7.51722400
141.69999176	0.00000000	11.48499000	8.26771600
141.89999175	0.00000000	12.22933000	9.09817800
142.09999174	0.00000000	12.64764000	9.79945900
142.29999173	0.00000000	13.02288000	10.21161000
142.49999172	0.00000000	13.39198000	9.84867000
142.69999170	0.00000000	13.02288000	9.47342500
142.89999169	0.00000000	12.69070000	9.05511800
143.09999168	0.00000000	12.64764000	8.26771600
143.29999167	0.00000000	12.64764000	7.51722400
143.49999166	0.00000000	12.60458000	6.72982200
143.69999165	0.00000000	12.27239000	6.35457700
143.89999163	0.00000000	11.90330000	6.35457700
144.09999162	0.00000000	12.27239000	6.72982200
144.29999161	0.00000000	12.60458000	7.51722400
144.49999160	0.00000000	12.64764000	8.26771600
144.69999159	0.00000000	12.64764000	9.05511800
144.89999157	0.00000000	12.64764000	9.43036400
145.09999156	0.00000000	12.64764000	9.47342500
145.29999155	0.00000000	12.64764000	9.43036400
145.49999154	0.00000000	12.60458000	9.05511800
145.69999153	0.00000000	12.22933000	8.31077700
145.89999151	0.00000000	11.48499000	7.93553100
146.09999150	0.00000000	11.15896000	7.89247000
146.29999149	0.00000000	11.48499000	7.84940900
146.49999148	0.00000000	12.22933000	7.51722400
146.69999147	0.00000000	12.60458000	7.14812900
146.89999146	0.00000000	12.69070000	7.51722400
147.09999144	0.00000000	13.06594000	7.84940900
147.29999143	0.00000000	13.76107000	7.93553100
147.49999142	0.00000000	13.76107000	8.31077700
147.69999141	0.00000000	13.06594000	9.05511800
147.89999140	0.00000000	12.69070000	9.43036400
148.09999138	0.00000000	12.60458000	9.43036400
148.29999137	0.00000000	12.22933000	9.05511800
148.49999136	0.00000000	11.53420000	8.31077700
148.69999135	0.00000000	11.53420000	7.93553100
148.89999134	0.00000000	12.22933000	7.89247000
149.09999132	0.00000000	12.60458000	7.89247000
149.29999131	0.00000000	12.64764000	7.89247000
149.49999130	0.00000000	12.64764000	7.89247000
149.69999129	0.00000000	12.69070000	7.89247000
149.89999128	0.00000000	13.02288000	7.93553100
150.09999127	0.00000000	13.39198000	8.31077700
150.29999125	0.00000000	13.02288000	9.05511800
150.49999124	0.00000000	12.69070000	9.43036400
150.69999123	0.00000000	12.64764000	9.47342500
150.89999122	0.00000000	12.60458000	9.47342500
151.09999121	0.00000000	12.22933000	9.43036400
151.29999119	0.00000000	11.53420000	9.05511800
151.49999118	0.00000000	11.53420000	8.31077700
151.69999117	0.00000000	12.22933000	7.93553100
151.89999116	0.00000000	12.60458000	7.89247000
152.09999115	0.00000000	12.64764000	7.89247000
152.29999113	0.00000000	12.69070000	7.89247000
152.49999112	0.00000000	13.02288000	7.89247000
152.69999111	0.00000000	13.39198000	7.89247000
152.89999110	0.00000000	13.02288000	7.89247000
153.09999109	0.00000000	12.69070000	7.93553100
153.29999108	0.00000000	12.64764000	8.31077700
153.49999106	0.00000000	12.60458000	9.05511800
153.69999105	0.00000000	12.22933000	9.43036400
153.89999104	0.00000000	11.48499000	9.47342500
154.09999103	0.00000000	11.10974000	9.47342500
154.29999102	0.00000000	11.06668000	9.43036400
154.49999100	0.00000000	11.10974000	9.05511800
154.69999099	0.00000000	11.48499000	8.31077700
154.89999098	0.00000000	12.22933000	7.93553100
155.09999097	0.00000000	12.60458000	7.89247000
155.29999096	0.00000000	12.64764000	7.89247000
155.49999094	0.00000000	12.69070000	7.89247000
155.69999093	0.00000000	13.02288000	7.89247000
155.89999092	0.00000000	13.39198000	7.89247000
156.09999091	0.00000000	13.02288000	7.89247000
156.29999090	0.00000000	12.69070000	7.93553100
156.49999089	0.00000000	12.60458000	8.31077700
156.69999087	0.00000000	12.27239000	9.09817800
156.89999086	0.00000000	11.86024000	9.79945900
157.09999085	0.00000000	11.89715000	10.21161000
157.29999084	0.00000000	11.86024000	9.84867000
157.49999083	0.00000000	12.27239000	9.51648500
157.69999081	0.00000000	12.60458000	9.43036400
157.89999080	0.00000000	12.64764000	9.05511800
158.09999079	0.00000000	12.64764000	8.31077700
158.29999078	0.00000000	12.69070000	7.89247000
158.49999077	0.00000000	13.02288000	7.51722400
158.69999075	0.00000000	13.39198000	7.14812900
158.89999074	0.00000000	13.02288000	7.51722400
159.09999073	0.00000000	12.69070000	7.89247000
159.29999072	0.00000000	12.64764000	8.31077700
159.49999071	0.00000000	12.64764000	9.05511800
159.69999070	0.00000000	12.64764000	9.43036400
159.89999068	0.00000000	12.64764000	9.47342500
160.09999067	0.00000000	12.64764000	9.47342500
160.29999066	0.00000000	12.64764000	9.43036400
160.49999065	0.00000000	12.64764000	9.05511800
160.69999064	0.00000000	12.64764000	8.31077700
160.89999062	0.00000000	12.64764000	7.93553100
161.09999061	0.00000000	12.64764000	7.89247000
161.29999060	0.00000000	12.60458000	7.89247000
161.49999059	0.00000000	12.27239000	7.89247000
161.69999058	0.00000000	11.90330000	7.89247000
161.89999056	0.00000000	12.27239000	7.89247000
162.09999055	0.00000000	12.60458000	7.93553100
162.29999054	0.00000000	12.64764000	8.31077700
162.49999053	0.00000000	12.64764000	9.05511800
162.69999052	0.00000000	12.64764000	9.43036400
162.89999051	0.00000000	12.64764000	9.47342500
163.09999049	0.00000000	12.60458000	9.43036400
163.29999048	0.00000000	12.27239000	9.05511800
163.49999047	0.00000000	11.86024000	8.35998900
163.69999046	0.00000000	11.85408000	8.31077700
163.89999045	0.00000000	11.44193000	8.63681000
164.09999043	0.00000000	11.15896000	8.26771600
164.29999042	0.00000000	11.48499000	7.93553100
164.49999041	0.00000000	12.22933000	7.89247000
164.69999040	0.00000000	12.60458000	7.89247000
164.89999039	0.00000000	12.64764000	7.89247000
165.09999037	0.00000000	12.64764000	7.89247000
165.29999036	0.00000000	12.64764000	7.89247000
165.49999035	0.00000000	12.64764000	7.93553100
165.69999034	0.00000000	12.64764000	8.26771600
165.89999033	0.00000000	12.60458000	8.63681000
166.09999032	0.00000000	12.22933000	8.26771600
166.29999030	0.00000000	11.48499000	7.93553100
166.49999029	0.00000000	11.10974000	7.89247000
166.69999028	0.00000000	11.10974000	7.89247000
166.89999027	0.00000000	11.48499000	7.89247000
167.09999026	0.00000000	12.22933000	7.89247000
167.29999024	0.00000000	12.60458000	7.89247000
167.49999023	0.00000000	12.64764000	7.89247000
167.69999022	0.00000000	12.64764000	7.89247000
167.89999021	0.00000000	12.64764000	7.89247000
168.09999020	0.00000000	12.64764000	7.89247000
168.29999018	0.00000000	12.64764000	7.89247000
168.49999017	0.00000000	12.64764000	7.89247000
168.69999016	0.00000000	12.64764000	7.89247000
168.89999015	0.00000000	12.64764000	7.89247000
169.09999014	0.00000000	12.64764000	7.89247000
169.29999013	0.00000000	12.64764000	7.93553100
169.49999011	0.00000000	12.64764000	8.31077700
169.69999010	0.00000000	12.64764000	9.00590400
169.89999009	0.00000000	12.64764000	9.00590400
170.09999008	0.00000000	12.64764000	8.31077700
170.29999007	0.00000000	12.64764000	7.93553100
170.49999005	0.00000000	12.64764000	7.89247000
170.69999004	0.00000000	12.64764000	7.89247000
170.89999003	0.00000000	12.64764000	7.89247000
171.09999002	0.00000000	12.64764000	7.89247000
171.29999001	0.00000000	12.64764000	7.89247000
171.49998999	0.00000000	12.64764000	7.89247000
171.69998998	0.00000000	12.64764000	7.89247000
171.89998997	0.00000000	12.64764000	7.89247000
172.09998996	0.00000000	12.64764000	7.89247000
172.29998995	0.00000000	12.64764000	7.89247000
172.49998994	0.00000000	12.64764000	7.89247000
172.69998992	0.00000000	12.64764000	7.89247000
172.89998991	0.00000000	12.64764000	7.89247000
173.09998990	0.00000000	12.64764000	7.89247000
173.29998989	0.00000000	12.64764000	7.89247000
173.49998988	0.00000000	12.64764000	7.93553100
173.69998986	0.00000000	12.64764000	8.26771600
173.89998985	0.00000000	12.64764000	8.63681000
174.09998984	0.00000000	12.64764000	8.26771600
174.29998983	0.00000000	12.64764000	7.93553100
174.49998982	0.00000000	12.64764000	7.89247000
174.69998980	0.00000000	12.64764000	7.89247000
174.89998979	0.00000000	12.64764000	7.89247000
175.09998978	0.00000000	12.64764000	7.89247000
175.29998977	0.00000000	12.64764000	7.89247000
175.49998976	0.00000000	12.64764000	7.89247000
175.69998975	0.00000000	12.64764000	7.89247000
175.89998973	0.00000000	12.64764000	7.93553100
176.09998972	0.00000000	12.64764000	8.26771600
176.29998971	0.00000000	12.64764000	8.67987200
176.49998970	0.00000000	12.64764000	8.64296200
176.69998969	0.00000000	12.60458000	8.67987200
176.89998967	0.00000000	12.27239000	8.26771600
177.09998966	0.00000000	11.90330000	7.93553100
177.29998965	0.00000000	12.27239000	7.89247000
177.49998964	0.00000000	12.60458000	7.89247000
177.69998963	0.00000000	12.64764000	7.89247000
177.89998961	0.00000000	12.64764000	7.89247000
178.09998960	0.00000000	12.64764000	7.89247000
178.29998959	0.00000000	12.64764000	7.89247000
178.49998958	0.00000000	12.64764000	7.89247000
178.69998957	0.00000000	12.64764000	7.93553100
178.89998956	0.00000000	12.64764000	8.31077700
179.09998954	0.00000000	12.64764000	9.00590400
179.29998953	0.00000000	12.64764000	9.00590400
179.49998952	0.00000000	12.64764000	8.31077700
179.69998951	0.00000000	12.64764000	7.93553100
179.89998950	0.00000000	12.64764000	7.89247000
180.09998948	0.00000000	12.64764000	7.89247000
180.29998947	0.00000000	12.64764000	7.89247000
180.49998946	0.00000000	12.64764000	7.89247000
180.69998945	0.00000000	12.64764000	7.89247000
180.89998944	0.00000000	12.64764000	7.89247000
181.09998942	0.00000000	12.64764000	7.93553100
181.29998941	0.00000000	12.64764000	8.26771600
181.49998940	0.00000000	12.64764000	8.67987200
181.69998939	0.00000000	12.64764000	8.68602300
181.89998938	0.00000000	12.64764000	9.09817800
182.09998937	0.00000000	12.64764000	9.43036400
182.29998935	0.00000000	12.64764000	9.43036400
182.49998934	0.00000000	12.69070000	9.05511800
182.69998933	0.00000000	13.02288000	8.31077700
182.89998932	0.00000000	13.39198000	7.93553100
183.09998931	0.00000000	13.02288000	7.89247000
183.29998929	0.00000000	12.69070000	7.89247000
183.49998928	0.00000000	12.64764000	7.89247000
183.69998927	0.00000000	12.64764000	7.89247000
183.89998926	0.00000000	12.64764000	7.93553100
184.09998925	0.00000000	12.64764000	8.26771600
184.29998923	0.00000000	12.64764000	8.67987200
184.49998922	0.00000000	12.64764000	8.68602300
184.69998921	0.00000000	12.64764000	9.09817800
184.89998920	0.00000000	12.64764000	9.43036400
185.09998919	0.00000000	12.64764000	9.47342500
185.29998918	0.00000000	12.64764000	9.43036400
185.49998916	0.00000000	12.64764000	9.05511800
185.69998915	0.00000000	12.64764000	8.31077700
185.89998914	0.00000000	12.64764000	7.93553100
186.09998913	0.00000000	12.64764000	7.89247000
186.29998912	0.00000000	12.64764000	7.89247000
186.49998910	0.00000000	12.64764000	7.89247000
186.69998909	0.00000000	12.64764000	7.89247000
186.89998908	0.00000000	12.64764000	7.93553100
187.09998907	0.00000000	12.64764000	8.31077700
187.29998906	0.00000000	12.64764000	9.05511800
187.49998904	0.00000000	12.64764000	9.43036400
187.69998903	0.00000000	12.64764000	9.47342500
187.89998902	0.00000000	12.64764000	9.47342500
188.09998901	0.00000000	12.64764000	9.47342500
188.29998900	0.00000000	12.64764000	9.43036400
188.49998899	0.00000000	12.64764000	9.05511800
188.69998897	0.00000000	12.64764000	8.31077700
188.89998896	0.00000000	12.64764000	7.93553100
189.09998895	0.00000000	12.64764000	7.89247000
189.29998894	0.00000000	12.64764000	7.89247000
189.49998893	0.00000000	12.64764000	7.89247000
189.69998891	0.00000000	12.64764000	7.89247000
189.89998890	0.00000000	12.64764000	7.93553100
190.09998889	0.00000000	12.64764000	8.31077700
190.29998888	0.00000000	12.64764000	9.05511800
190.49998887	0.00000000	12.64764000	9.43036400
190.69998885	0.00000000	12.64764000	9.47342500
190.89998884	0.00000000	12.64764000	9.47342500
191.09998883	0.00000000	12.64764000	9.43036400
191.29998882	0.00000000	12.64764000	9.05511800
191.49998881	0.00000000	12.64764000	8.31077700
191.69998880	0.00000000	12.64764000	7.93553100
191.89998878	0.00000000	12.64764000	7.89247000
192.09998877	0.00000000	12.64764000	7.89247000
192.29998876	0.00000000	12.64764000	7.89247000
192.49998875	0.00000000	12.64764000	7.89247000
192.69998874	0.00000000	12.64764000	7.89247000
192.89998872	0.00000000	12.64764000	7.89247000
193.09998871	0.00000000	12.64764000	7.89247000
193.29998870	0.00000000	12.64764000	7.93553100
193.49998869	0.00000000	12.64764000	8.31077700
193.69998868	0.00000000	12.64764000	9.00590400
193.89998866	0.00000000	12.64764000	9.05511800
194.09998865	0.00000000	12.64764000	8.72908400
194.29998864	0.00000000	12.64764000	9.09817800
194.49998863	0.00000000	12.64764000	9.38115100
194.69998862	0.00000000	12.64764000	9.05511800
194.89998861	0.00000000	12.64764000	8.31077700
195.09998859	0.00000000	12.64764000	7.93553100
195.29998858	0.00000000	12.64764000	7.89247000
195.49998857	0.00000000	12.64764000	7.89247000
195.69998856	0.00000000	12.64764000	7.89247000
195.89998855	0.00000000	12.64764000	7.89247000
196.09998853	0.00000000	12.64764000	7.89247000
