Time	Channel A	Channel B	Channel C
(us)	(V)	(mV)	(mV)

-4.49999956	0.00000000	86.96481000	39.47465000
-4.29999957	0.00000000	86.96481000	39.47465000
-4.09999958	0.00000000	86.96481000	39.47465000
-3.89999959	0.00000000	87.00787000	39.47465000
-3.69999960	0.00000000	87.34005000	39.47465000
-3.49999962	0.00000000	87.70914000	39.47465000
-3.29999963	0.00000000	87.34005000	39.47465000
-3.09999964	0.00000000	87.00787000	39.47465000
-2.89999965	0.00000000	86.96481000	39.47465000
-2.69999966	0.00000000	86.96481000	39.47465000
-2.49999968	0.00000000	86.96481000	39.47465000
-2.29999969	0.00000000	86.96481000	39.47465000
-2.09999970	0.00000000	86.96481000	39.47465000
-1.89999971	0.00000000	86.96481000	39.47465000
-1.69999972	0.00000000	86.96481000	39.47465000
-1.49999973	0.00000000	86.96481000	39.47465000
-1.29999975	0.00000000	86.96481000	39.47465000
-1.09999976	0.00000000	86.96481000	39.47465000
-0.89999977	0.00000000	87.00787000	39.47465000
-0.69999978	0.00000000	87.34005000	39.47465000
-0.49999979	0.00000000	87.70914000	39.47465000
-0.29999981	0.15871060	87.34005000	39.47465000
-0.09999982	0.63668800	87.00787000	39.47465000
0.10000017	0.95533960	86.96481000	39.47465000
0.30000016	0.95533960	86.96481000	39.47465000
0.50000015	0.95533960	87.00787000	39.47465000
0.70000013	0.47736220	87.38312000	39.47465000
0.90000012	-0.47736220	88.12745000	39.47465000
1.10000011	-1.43331700	88.45349000	39.47465000
1.30000010	-2.22994600	88.17052000	39.47465000
1.50000009	-2.70792300	87.80142000	39.51771000
1.70000008	-2.54859700	88.17052000	39.89296000
1.90000006	-1.43331700	88.45349000	40.63730000
2.10000005	0.31803640	88.12745000	41.01255000
2.30000004	2.38927200	87.38312000	41.01255000
2.50000003	4.30056600	87.00787000	40.63730000
2.70000002	5.25652100	86.96481000	39.89296000
2.90000000	4.93786900	86.96481000	39.51771000
3.09999999	3.18590100	87.00787000	39.47465000
3.29999998	0.31803640	87.34005000	39.47465000
3.49999997	-3.02657500	87.75221000	39.47465000
3.69999996	-6.05315000	87.75835000	39.51771000
3.89999994	-7.80511800	88.17052000	39.89296000
4.09999993	-7.64579200	88.50270000	40.63730000
4.29999992	-5.41584600	88.54576000	41.01255000
4.49999991	-1.59264300	88.50270000	41.05561000
4.69999990	2.70792300	88.17052000	41.01255000
4.89999989	6.84916400	87.80142000	40.63730000
5.09999987	9.07972400	88.12745000	39.89296000
5.29999986	9.23905000	88.07824000	39.47465000
5.49999985	7.00848900	87.38312000	39.09941000
5.69999984	3.02657500	87.00787000	38.73031000
5.89999983	-1.91129400	86.96481000	39.09941000
6.09999981	-6.21247500	87.00787000	39.43159000
6.29999980	-8.92039900	87.38312000	39.47465000
6.49999979	-9.39837600	88.07824000	39.47465000
6.69999978	-7.48646600	88.12745000	39.47465000
6.89999977	-3.82258900	87.80142000	39.47465000
7.09999975	0.47736220	88.17052000	39.47465000
7.29999974	4.45989200	88.45349000	39.47465000
7.49999973	7.00848900	88.12745000	39.47465000
7.69999972	7.80511800	87.38312000	39.43159000
7.89999971	6.53112700	87.00787000	39.05635000
8.09999970	3.82258900	86.96481000	38.31200000
8.29999968	0.47736220	86.96481000	37.98597000
8.49999967	-2.54859700	86.96481000	38.31200000
8.69999966	-4.61921700	86.96481000	39.05635000
8.89999965	-5.25652100	86.96481000	39.43159000
9.09999964	-4.45989200	87.00787000	39.47465000
9.29999962	-2.86724900	87.34005000	39.47465000
9.49999961	-0.95533960	87.70914000	39.47465000
9.69999960	0.79601380	87.38312000	39.47465000
9.89999959	2.07062000	87.43233000	39.47465000
10.09999958	2.54859700	88.07824000	39.47465000
10.29999956	2.22994600	88.07824000	39.47465000
10.49999955	1.59264300	87.43233000	39.47465000
10.69999954	0.63668800	87.38312000	39.47465000
10.89999953	-0.15871060	87.70914000	39.43159000
11.09999952	-0.63668800	87.34005000	39.05635000
11.29999951	-0.95533960	87.00787000	38.31200000
11.49999949	-0.95533960	86.96481000	37.98597000
11.69999948	-0.79601380	86.96481000	38.31200000
11.89999947	-0.47736220	86.96481000	39.00713000
12.09999946	-0.15871060	86.96481000	39.05635000
12.29999945	-0.15871060	86.96481000	38.73031000
12.49999943	-0.15871060	86.96481000	39.09941000
12.69999942	0.00000000	86.96481000	39.43159000
12.89999941	0.00000000	87.00787000	39.47465000
13.09999940	0.00000000	87.34005000	39.47465000
13.29999939	0.00000000	87.70914000	39.47465000
13.49999937	0.00000000	87.34005000	39.47465000
13.69999936	0.00000000	87.00787000	39.47465000
13.89999935	0.00000000	86.96481000	39.47465000
14.09999934	0.00000000	86.96481000	39.47465000
14.29999933	-0.15871060	87.00787000	39.47465000
14.49999932	-0.15871060	87.38312000	39.47465000
14.69999930	0.00000000	88.12745000	39.47465000
14.89999929	0.00000000	88.50270000	39.47465000
15.09999928	0.00000000	88.54576000	39.47465000
15.29999927	0.00000000	88.50270000	39.47465000
15.49999926	0.00000000	88.17052000	39.51771000
15.69999924	0.00000000	87.80142000	39.89296000
15.89999923	0.00000000	88.12745000	40.63730000
16.09999922	0.00000000	88.12745000	41.01255000
16.29999921	0.00000000	87.80142000	41.01255000
16.49999920	-0.15871060	88.17052000	40.68036000
16.69999919	-0.15871060	88.54576000	40.31127000
16.89999917	-0.15871060	88.96407000	40.68036000
17.09999916	0.00000000	89.70841000	41.01255000
17.29999915	0.00000000	90.08366000	41.05561000
17.49999914	0.00000000	90.12672000	41.05561000
17.69999913	0.00000000	90.12672000	41.05561000
17.89999911	0.00000000	90.08366000	41.05561000
18.09999910	0.00000000	89.61613000	41.05561000
18.29999909	0.00000000	88.07824000	41.05561000
18.49999908	0.00000000	85.85137000	41.01255000
18.69999907	0.00000000	84.27042000	40.63730000
18.89999905	0.00000000	83.47071000	39.89296000
19.09999904	0.00000000	83.15083000	39.51771000
19.29999903	0.00000000	84.35654000	39.47465000
19.49999902	0.00000000	87.05708000	39.51771000
19.69999901	0.00000000	90.54502000	39.84990000
19.89999900	0.00000000	94.45127000	40.21899000
20.09999898	0.00000000	97.85310000	39.84990000
20.29999897	0.00000000	99.76008000	39.51771000
20.49999896	0.00000000	98.96652000	39.47465000
20.69999895	0.00000000	95.85383000	39.47465000
20.89999894	0.00000000	90.68651000	39.47465000
21.09999892	0.00000000	83.33538000	39.47465000
21.29999891	0.00000000	75.28912000	39.43159000
21.49999890	-0.15871060	69.19291000	39.09941000
21.69999889	0.00000000	66.91068000	38.73031000
21.89999888	0.00000000	69.70349000	39.09941000
22.09999886	0.00000000	77.42986000	39.43159000
22.29999885	0.00000000	88.68110000	39.47465000
22.49999884	0.00000000	101.06420000	39.47465000
22.69999883	0.00000000	112.22930000	39.47465000
22.89999882	0.00000000	119.06990000	39.47465000
23.09999881	0.00000000	118.97760000	39.47465000
23.29999879	0.00000000	111.20820000	39.51771000
23.49999878	0.00000000	96.92421000	39.89296000
23.69999877	0.00000000	79.52141000	40.63730000
23.89999876	0.00000000	62.86294000	41.01255000
24.09999875	0.00000000	50.15994000	41.01255000
24.29999873	0.00000000	44.90034000	40.63730000
24.49999872	0.00000000	49.64320000	39.80684000
24.69999871	0.00000000	64.30241000	38.63804000
24.89999870	0.00000000	85.51919000	36.68799000
25.09999869	0.00000000	107.94780000	34.82406000
25.29999867	0.00000000	126.83930000	33.66756000
25.49999866	0.00000000	137.58610000	33.66756000
25.69999865	0.00000000	136.79870000	34.87328000
25.89999864	0.00000000	124.84000000	37.24163000
26.09999863	0.00000000	104.32450000	41.09867000
26.29999862	0.00000000	79.61367000	45.32480000
26.49999860	0.00000000	56.44070000	48.81274000
26.69999859	0.00000000	40.24975000	51.08883000
26.89999858	0.00000000	34.85482000	50.99655000
27.09999857	0.00000000	41.78764000	47.88385000
27.29999856	0.00000000	59.14124000	42.07677000
27.49999854	0.00000000	82.68947000	34.73794000
27.69999853	0.00000000	107.06200000	27.39296000
27.89999852	0.00000000	126.75320000	21.63509000
28.09999851	0.00000000	137.63530000	18.98376000
28.29999850	0.00000000	137.22320000	20.60777000
28.49999848	0.00000000	126.08880000	26.83317000
28.69999847	0.00000000	106.78520000	36.91560000
28.89999846	0.00000000	84.39960000	48.85580000
29.09999845	0.00000000	63.88410000	60.00861000
29.29999844	0.00000000	49.55708000	67.30437000
29.49999843	0.00000000	44.43897000	68.84227000
29.69999841	0.00000000	48.62820000	64.14861000
29.89999840	0.00000000	60.62992000	53.69094000
30.09999839	0.00000000	77.98966000	39.38238000
30.29999838	0.00000000	96.54896000	24.32948000
30.49999837	0.00000000	112.04480000	11.59572000
30.69999835	0.00000000	121.76430000	4.34301100
30.89999834	0.00000000	123.76970000	4.71825800
31.09999833	0.00000000	118.37470000	12.84449000
31.29999832	0.00000000	107.19730000	26.79011000
31.49999831	0.00000000	92.50123000	44.16830000
31.69999829	0.00000000	78.25418000	61.17126000
31.89999828	0.00000000	67.32899000	73.90501000
32.09999827	0.00000000	61.87869000	80.08120000
32.29999826	0.00000000	62.16781000	77.71284000
32.49999825	0.00000000	67.60580000	67.34743000
32.69999824	0.00000000	76.91314000	51.50713000
32.89999822	0.00000000	88.50270000	33.71063000
33.09999821	0.00000000	99.62475000	17.44587000
33.29999820	0.00000000	107.01890000	5.88090500
33.49999819	0.00000000	109.44270000	1.61171300
33.69999818	0.00000000	107.48650000	5.46259800
33.89999816	0.00000000	101.29800000	16.28937000
34.09999815	0.00000000	92.12598000	32.12967000
34.29999814	0.00000000	83.28617000	49.46481000
34.49999813	0.00000000	77.00541000	64.14861000
34.69999812	0.00000000	73.89271000	73.06840000
34.89999810	0.00000000	74.31102000	74.64935000
35.09999809	0.00000000	78.50024000	68.88533000
35.29999808	0.00000000	85.00861000	57.31422000
35.49999807	0.00000000	91.52927000	42.63041000
35.69999806	0.00000000	96.59202000	27.99582000
35.89999805	0.00000000	98.88040000	16.79995000
36.09999803	0.00000000	98.17298000	11.78026000
36.29999802	0.00000000	94.69118000	13.63804000
36.49999801	0.00000000	89.70841000	21.72121000
36.69999800	0.00000000	84.31348000	33.62450000
36.89999799	0.00000000	80.12425000	46.30290000
37.09999797	0.00000000	78.54330000	56.29306000
37.29999796	0.00000000	79.70595000	60.98671000
37.49999795	0.00000000	83.15083000	59.87328000
37.69999794	0.00000000	88.12745000	53.69094000
37.89999793	0.00000000	92.73499000	43.74385000
38.09999791	0.00000000	95.89690000	33.05856000
38.29999790	0.00000000	97.43479000	25.38755000
38.49999789	0.00000000	97.05954000	22.65010000
38.69999788	0.00000000	94.69118000	25.34449000
38.89999787	0.00000000	90.82184000	32.59719000
39.09999786	0.00000000	85.85137000	42.16289000
39.29999784	0.00000000	81.61294000	50.95349000
39.49999783	0.00000000	79.23843000	56.29306000
39.69999782	0.00000000	78.45103000	56.29306000
39.89999781	0.00000000	79.61367000	50.95349000
40.09999780	0.00000000	82.31422000	42.16289000
40.29999778	0.00000000	85.80216000	32.54798000
40.49999777	0.00000000	89.70841000	24.88312000
40.69999776	0.00000000	93.19635000	21.02608000
40.89999775	0.00000000	95.93995000	22.18873000
41.09999774	0.00000000	97.43479000	27.94660000
41.29999772	0.00000000	97.05954000	36.82332000
41.49999771	0.00000000	94.77731000	46.77042000
41.69999770	0.00000000	91.66460000	54.81053000
41.89999769	0.00000000	88.12745000	58.29847000
42.09999768	0.00000000	84.27042000	56.80363000
42.29999767	0.00000000	81.23769000	51.03962000
42.49999765	0.00000000	80.03198000	42.63041000
42.69999764	0.00000000	80.73326000	34.12894000
42.89999763	0.00000000	82.26501000	27.52830000
43.09999762	0.00000000	84.27042000	23.72047000
43.29999761	0.00000000	86.96481000	24.09572000
43.49999759	0.00000000	89.65919000	28.64173000
43.69999758	0.00000000	91.61539000	35.11319000
43.89999757	0.00000000	92.77805000	41.70152000
44.09999756	0.00000000	92.82111000	46.72736000
44.29999755	0.00000000	92.08292000	49.50787000
44.49999753	0.00000000	91.33242000	49.88312000
44.69999752	0.00000000	90.54502000	48.01919000
44.89999751	0.00000000	90.16978000	44.54355000
45.09999750	0.00000000	90.12672000	40.68036000
45.29999749	0.00000000	90.03444000	36.78026000
45.49999748	0.00000000	89.24089000	33.75369000
45.69999746	0.00000000	87.29700000	32.59719000
45.89999745	0.00000000	84.96555000	33.66756000
46.09999744	0.00000000	82.22194000	35.93750000
46.29999743	0.00000000	79.61367000	38.31200000
46.49999742	0.00000000	78.54330000	41.05561000
46.69999740	0.00000000	80.08120000	43.70079000
46.89999739	0.00000000	83.98129000	45.23868000
47.09999738	0.00000000	89.38238000	45.28174000
47.29999737	0.00000000	95.61392000	44.11909000
47.49999736	0.00000000	100.97190000	42.21210000
47.69999734	0.00000000	104.41070000	39.84990000
47.89999733	0.00000000	104.36760000	37.56767000
48.09999732	0.00000000	100.51060000	35.61762000
48.29999731	0.00000000	93.89764000	34.87328000
48.49999730	0.00000000	85.38385000	35.24852000
48.69999729	0.00000000	76.96235000	36.82332000
48.89999727	0.00000000	71.19217000	39.51771000
49.09999726	0.00000000	69.65427000	42.58735000
49.29999725	0.00000000	72.73006000	45.28174000
49.49999724	0.00000000	79.70595000	46.81348000
49.69999723	0.00000000	88.96407000	46.85654000
49.89999721	0.00000000	98.59743000	45.65698000
50.09999720	0.00000000	105.85630000	43.28247000
50.29999719	0.00000000	108.59990000	39.43159000
50.49999718	0.00000000	106.28080000	35.24852000
50.69999717	0.00000000	99.76008000	32.17888000
50.89999715	0.00000000	90.50197000	31.01624000
51.09999714	0.00000000	81.28690000	32.17888000
51.29999713	0.00000000	74.31102000	35.19931000
51.49999712	0.00000000	71.23524000	39.09941000
51.69999711	0.00000000	72.77312000	42.96260000
51.89999710	0.00000000	78.54330000	46.43824000
52.09999708	0.00000000	86.96481000	48.35138000
52.29999707	0.00000000	95.38631000	48.35138000
52.49999706	0.00000000	101.20570000	46.39517000
52.69999705	0.00000000	103.16190000	42.58735000
52.89999704	0.00000000	101.24880000	38.36122000
53.09999702	0.00000000	95.85383000	34.87328000
53.29999701	0.00000000	88.58882000	32.54798000
53.49999700	0.00000000	81.66215000	32.17273000
53.69999699	0.00000000	77.05462000	33.66756000
53.89999698	0.00000000	75.89198000	36.36196000
54.09999696	0.00000000	78.54330000	39.42544000
54.29999695	0.00000000	83.93823000	42.07677000
54.49999694	0.00000000	90.40969000	43.23941000
54.69999693	0.00000000	96.17371000	42.54429000
54.89999692	0.00000000	98.88040000	41.05561000
55.09999691	0.00000000	98.59129000	39.47465000
55.29999689	0.00000000	95.85383000	37.93676000
55.49999688	0.00000000	91.24016000	36.86639000
55.69999687	0.00000000	85.85137000	37.24163000
55.89999686	0.00000000	81.23769000	39.09941000
56.09999685	0.00000000	78.54330000	41.00639000
56.29999683	0.00000000	78.58636000	42.58735000
56.49999682	0.00000000	81.61294000	43.65773000
56.69999681	0.00000000	86.58956000	43.19635000
56.89999680	0.00000000	91.57234000	40.54502000
57.09999679	0.00000000	95.42937000	36.73105000
57.29999677	0.00000000	96.96727000	33.29232000
57.49999676	0.00000000	95.89690000	30.97318000
57.69999675	0.00000000	93.24557000	30.64099000
57.89999674	0.00000000	90.12672000	32.59719000
58.09999673	0.00000000	87.00787000	36.86639000
58.29999672	0.00000000	84.31348000	42.58735000
58.49999670	0.00000000	82.77559000	47.97613000
58.69999669	0.00000000	82.77559000	51.41486000
58.89999668	0.00000000	84.27042000	52.15920000
59.09999667	0.00000000	86.58956000	49.42175000
59.29999666	0.00000000	88.87794000	43.70079000
59.49999664	0.00000000	90.82184000	36.78026000
59.69999663	0.00000000	91.61539000	30.59793000
59.89999662	0.00000000	91.61539000	26.37180000
60.09999661	0.00000000	90.87106000	25.25836000
60.29999660	0.00000000	89.33932000	27.94660000
60.49999658	0.00000000	88.21358000	33.71063000
60.69999657	0.00000000	87.43233000	41.05561000
60.89999656	0.00000000	87.43233000	48.35138000
61.09999655	0.00000000	88.17052000	53.74015000
61.29999654	0.00000000	88.92101000	55.69020000
61.49999653	0.00000000	89.70841000	54.11540000
61.69999651	0.00000000	90.03444000	49.08956000
61.89999650	0.00000000	89.70841000	41.38164000
62.09999649	0.00000000	88.92101000	33.33538000
62.29999648	0.00000000	88.12745000	26.79011000
62.49999647	0.00000000	87.00787000	23.72047000
62.69999645	0.00000000	86.22047000	24.83391000
62.89999644	0.00000000	86.25738000	29.43528000
63.09999643	0.00000000	86.64493000	36.40502000
63.29999642	0.00000000	88.21358000	44.07603000
63.49999641	0.00000000	90.03444000	50.67052000
63.69999639	0.00000000	91.28937000	54.53371000
63.89999638	0.00000000	92.03986000	55.36417000
64.09999637	0.00000000	92.40280000	52.99581000
64.29999636	0.00000000	91.61539000	48.01919000
64.49999635	0.00000000	90.12672000	41.43085000
64.69999634	0.00000000	88.54576000	34.91634000
64.89999632	0.00000000	87.00787000	29.85974000
65.09999631	0.00000000	85.89443000	27.52830000
65.29999630	0.00000000	85.85137000	27.86048000
65.49999629	0.00000000	86.63262000	30.55487000
65.69999628	0.00000000	87.75835000	34.78100000
65.89999626	0.00000000	89.33316000	39.43159000
66.09999625	0.00000000	90.40969000	43.70079000
66.29999624	0.00000000	90.87106000	46.85654000
66.49999623	0.00000000	90.40969000	48.81274000
66.69999622	0.00000000	89.29010000	49.60014000
66.89999620	0.00000000	87.38312000	48.81274000
67.09999619	0.00000000	85.89443000	46.90575000
67.29999618	0.00000000	85.51919000	44.16830000
67.49999617	0.00000000	86.31274000	41.05561000
67.69999616	0.00000000	88.58882000	37.89370000
67.89999615	0.00000000	91.24016000	34.78100000
68.09999613	0.00000000	93.19635000	32.08661000
68.29999612	0.00000000	94.35899000	30.55487000
68.49999611	0.00000000	94.31594000	30.55487000
68.69999610	0.00000000	92.73499000	32.12967000
68.89999609	0.00000000	89.65919000	35.24852000
69.09999607	0.00000000	85.80216000	39.51771000
69.29999606	0.00000000	82.35728000	44.16830000
69.49999605	0.00000000	80.03198000	48.39444000
69.69999604	0.00000000	79.65674000	51.08883000
69.89999603	0.00000000	81.23769000	51.46407000
70.09999601	0.00000000	84.73178000	49.50787000
70.29999600	0.00000000	89.75147000	45.28174000
70.49999599	0.00000000	94.73425000	39.84990000
70.69999598	0.00000000	98.64050000	34.45497000
70.89999597	0.00000000	100.51060000	29.85974000
71.09999596	0.00000000	99.76008000	27.90354000
71.29999594	0.00000000	96.22908000	28.59867000
71.49999593	0.00000000	90.82184000	30.97318000
71.69999592	0.00000000	84.27042000	35.24852000
71.89999591	0.00000000	78.54330000	40.54502000
72.09999590	0.00000000	75.42445000	44.82037000
72.29999588	0.00000000	75.38139000	47.14566000
72.49999587	0.00000000	78.12499000	47.60088000
72.69999586	0.00000000	83.15083000	46.03223000
72.89999585	0.00000000	89.65919000	43.37475000
73.09999584	0.00000000	95.42937000	39.89296000
73.29999582	0.00000000	98.96652000	36.86639000
73.49999581	0.00000000	100.17840000	35.29158000
73.69999580	0.00000000	99.01575000	35.24852000
73.89999579	0.00000000	95.89690000	36.36196000
74.09999578	0.00000000	91.24016000	37.89370000
74.29999577	0.00000000	85.89443000	39.43159000
74.49999575	0.00000000	81.66215000	40.54502000
74.69999574	0.00000000	79.65674000	40.54502000
74.89999573	0.00000000	79.65674000	39.43159000
75.09999572	0.00000000	81.56988000	37.93676000
75.29999571	0.00000000	85.05167000	36.82332000
75.49999569	0.00000000	88.87794000	36.86639000
75.69999568	0.00000000	92.35974000	38.40428000
75.89999567	0.00000000	94.31594000	41.09867000
76.09999566	0.00000000	94.73425000	44.16830000
76.29999565	0.00000000	93.98376000	46.85654000
76.49999563	0.00000000	92.08292000	48.35138000
76.69999562	0.00000000	90.16978000	47.93307000
76.89999561	0.00000000	88.58882000	45.23868000
77.09999560	0.00000000	87.47539000	41.00639000
77.29999559	0.00000000	87.43233000	36.36196000
77.49999558	0.00000000	88.17052000	32.12967000
77.69999556	0.00000000	88.87794000	29.48450000
77.89999555	0.00000000	89.29010000	29.48450000
78.09999554	0.00000000	88.87794000	32.17273000
78.29999553	0.00000000	88.17052000	36.82332000
78.49999552	0.00000000	87.38312000	42.58735000
78.69999550	0.00000000	87.00787000	47.97613000
78.89999549	0.00000000	87.00787000	51.46407000
79.09999548	0.00000000	87.47539000	52.62057000
79.29999547	0.00000000	89.01328000	51.08883000
79.49999546	0.00000000	91.28937000	47.23179000
79.69999544	0.00000000	93.19635000	42.21210000
79.89999543	0.00000000	94.35899000	36.82332000
80.09999542	0.00000000	94.31594000	32.59719000
80.29999541	0.00000000	92.77805000	30.59793000
80.49999540	0.00000000	90.08366000	30.51181000
80.69999539	0.00000000	87.00787000	31.71137000
80.89999537	0.00000000	84.35654000	34.08588000
81.09999536	0.00000000	83.19389000	37.93676000
81.29999535	0.00000000	83.93823000	42.11983000
81.49999534	0.00000000	85.85137000	45.23868000
81.69999533	0.00000000	88.54576000	46.85654000
81.89999531	0.00000000	91.24016000	47.27485000
82.09999530	0.00000000	93.19635000	46.90575000
82.29999529	0.00000000	94.35899000	45.70005000
82.49999528	0.00000000	94.31594000	43.75000000
82.69999527	0.00000000	92.82111000	41.00639000
82.89999525	0.00000000	90.54502000	37.94291000
83.09999524	0.00000000	88.58882000	35.19931000
83.29999523	0.00000000	87.00787000	33.24926000
83.49999522	0.00000000	85.85137000	32.08661000
83.69999521	0.00000000	85.47613000	32.12967000
83.89999520	0.00000000	85.85137000	33.66756000
84.09999518	0.00000000	87.00787000	36.36196000
84.29999517	0.00000000	88.45349000	39.51771000
84.49999516	0.00000000	89.29010000	43.00566000
84.69999515	0.00000000	89.33932000	46.43824000
84.89999514	0.00000000	89.70841000	48.35138000
85.09999512	0.00000000	89.65919000	48.39444000
85.29999511	0.00000000	89.01328000	46.77042000
85.49999510	0.00000000	89.01328000	43.28247000
85.69999509	0.00000000	89.70841000	38.31200000
85.89999508	0.00000000	90.08366000	33.71063000
86.09999506	0.00000000	90.12672000	30.59793000
86.29999505	0.00000000	90.08366000	29.44143000
86.49999504	0.00000000	89.65919000	30.59793000
86.69999503	0.00000000	88.54576000	33.66756000
86.89999502	0.00000000	87.38312000	37.93676000
87.09999501	0.00000000	86.58956000	42.53814000
87.29999499	0.00000000	85.89443000	46.39517000
87.49999498	0.00000000	86.26968000	48.35138000
87.69999497	0.00000000	87.75221000	48.35138000
87.89999496	0.00000000	88.92101000	46.39517000
88.09999495	0.00000000	90.16978000	42.53814000
88.29999493	0.00000000	91.61539000	37.93676000
88.49999492	0.00000000	92.40280000	33.71063000
88.69999491	0.00000000	92.03986000	31.01624000
88.89999490	0.00000000	91.28937000	30.64099000
89.09999489	0.00000000	90.08366000	32.54798000
89.29999487	0.00000000	88.54576000	36.40502000
89.49999486	0.00000000	87.05708000	41.05561000
89.69999485	0.00000000	86.26968000	45.61392000
89.89999484	0.00000000	86.63262000	48.67126000
90.09999483	0.00000000	87.34005000	48.67741000
90.29999482	0.00000000	88.17052000	46.43824000
90.49999480	0.00000000	88.96407000	42.53814000
90.69999479	0.00000000	90.08366000	37.93676000
90.89999478	0.00000000	90.82184000	33.71063000
91.09999477	0.00000000	90.50197000	31.06545000
91.29999476	0.00000000	90.16978000	31.06545000
91.49999474	0.00000000	90.08366000	33.71063000
91.69999473	0.00000000	89.75147000	37.93676000
91.89999472	0.00000000	89.38238000	42.58735000
92.09999471	0.00000000	89.75147000	46.77042000
92.29999470	0.00000000	90.08366000	49.04650000
92.49999468	0.00000000	90.08366000	48.30832000
92.69999467	0.00000000	89.70841000	45.28174000
92.89999466	0.00000000	88.92101000	41.05561000
93.09999465	0.00000000	88.17052000	36.82332000
93.29999464	0.00000000	87.34005000	33.71063000
93.49999463	0.00000000	86.63262000	32.17273000
93.69999461	0.00000000	86.26968000	32.59719000
93.89999460	0.00000000	87.05708000	35.29158000
94.09999459	0.00000000	88.54576000	39.47465000
94.29999458	0.00000000	90.16978000	43.70079000
94.49999457	0.00000000	92.08292000	46.77042000
94.69999455	0.00000000	93.98376000	47.92691000
94.89999454	0.00000000	94.73425000	46.77042000
95.09999453	0.00000000	94.35899000	43.74385000
95.29999452	0.00000000	92.77805000	39.89296000
95.49999451	0.00000000	90.08366000	36.44808000
95.69999449	0.00000000	87.00787000	34.12894000
95.89999448	0.00000000	84.27042000	33.75369000
96.09999447	0.00000000	82.35728000	35.24852000
96.29999446	0.00000000	81.66215000	37.94291000
96.49999445	0.00000000	83.19389000	41.00639000
96.69999444	0.00000000	86.63262000	43.70079000
96.89999442	0.00000000	90.50197000	45.23868000
97.09999441	0.00000000	94.35899000	45.28174000
97.29999440	0.00000000	97.05954000	44.11909000
97.49999439	0.00000000	97.89616000	42.21210000
97.69999438	0.00000000	97.47784000	39.89296000
97.89999436	0.00000000	95.47859000	37.98597000
98.09999435	0.00000000	91.66460000	36.78026000
98.29999434	0.00000000	87.43233000	36.40502000
98.49999433	0.00000000	83.93823000	36.78026000
98.69999432	0.00000000	81.56988000	37.93676000
98.89999430	0.00000000	80.81939000	39.43159000
99.09999429	0.00000000	81.61294000	40.58809000
99.29999428	0.00000000	84.31348000	41.01255000
99.49999427	0.00000000	88.12745000	41.05561000
99.69999426	0.00000000	91.61539000	41.05561000
99.89999425	0.00000000	94.40206000	41.05561000
100.09999423	0.00000000	96.27214000	41.09867000
100.29999422	0.00000000	96.68430000	41.47392000
100.49999421	0.00000000	95.15255000	42.16904000
100.69999420	0.00000000	92.87032000	42.16904000
100.89999419	0.00000000	90.08366000	41.38164000
101.09999417	0.00000000	87.00787000	40.21899000
101.29999416	0.00000000	84.31348000	38.31200000
101.49999415	0.00000000	82.77559000	36.73105000
101.69999414	0.00000000	82.73252000	35.56225000
101.89999413	0.00000000	83.84596000	34.50418000
102.09999411	0.00000000	85.42691000	35.29158000
102.29999410	0.00000000	87.43233000	37.51845000
102.49999409	0.00000000	90.08366000	39.89296000
102.69999408	0.00000000	92.40280000	42.58735000
102.89999407	0.00000000	93.57159000	44.86343000
103.09999406	0.00000000	93.98376000	45.65698000
103.29999404	0.00000000	93.19635000	45.23868000
103.49999403	0.00000000	91.70767000	43.28247000
103.69999402	0.00000000	90.12672000	39.84990000
103.89999401	0.00000000	88.54576000	36.44808000
104.09999400	0.00000000	87.00787000	34.08588000
104.29999398	0.00000000	85.85137000	33.29232000
104.49999397	0.00000000	85.47613000	33.66756000
104.69999396	0.00000000	85.85137000	35.24852000
104.89999395	0.00000000	87.00787000	37.94291000
105.09999394	0.00000000	88.54576000	41.00639000
105.29999392	0.00000000	90.08366000	43.70079000
105.49999391	0.00000000	91.24016000	45.23868000
105.69999390	0.00000000	91.61539000	45.23868000
105.89999389	0.00000000	91.24016000	43.75000000
106.09999388	0.00000000	90.12672000	41.43085000
106.29999387	0.00000000	88.96407000	39.09941000
106.49999385	0.00000000	88.17052000	36.82332000
106.69999384	0.00000000	87.43233000	35.70989000
106.89999383	0.00000000	87.43233000	36.40502000
107.09999382	0.00000000	88.17052000	37.89370000
107.29999381	0.00000000	88.96407000	39.47465000
107.49999379	0.00000000	90.08366000	41.00639000
107.69999378	0.00000000	90.82184000	42.16904000
107.89999377	0.00000000	90.50197000	42.58735000
108.09999376	0.00000000	90.12672000	42.53814000
108.29999375	0.00000000	89.65919000	41.75073000
108.49999374	0.00000000	88.54576000	39.89296000
108.69999372	0.00000000	87.43233000	38.40428000
108.89999371	0.00000000	87.05708000	37.93676000
109.09999370	0.00000000	87.38312000	37.93676000
109.29999369	0.00000000	88.17052000	38.36122000
109.49999368	0.00000000	88.96407000	39.51771000
109.69999366	0.00000000	90.12672000	41.05561000
109.89999365	0.00000000	91.24016000	42.58735000
110.09999364	0.00000000	91.66460000	43.74385000
110.29999363	0.00000000	91.66460000	44.11909000
110.49999362	0.00000000	91.24016000	43.70079000
110.69999360	0.00000000	90.12672000	42.16904000
110.89999359	0.00000000	88.96407000	39.93602000
111.09999358	0.00000000	88.17052000	38.40428000
111.29999357	0.00000000	87.43233000	37.93676000
111.49999356	0.00000000	87.43233000	37.89370000
111.69999355	0.00000000	88.17052000	37.93676000
111.89999353	0.00000000	88.92101000	38.36122000
112.09999352	0.00000000	89.70841000	39.47465000
112.29999351	0.00000000	90.08366000	40.63730000
112.49999350	0.00000000	90.12672000	41.38164000
112.69999349	0.00000000	90.12672000	41.83686000
112.89999347	0.00000000	90.12672000	41.79995000
113.09999346	0.00000000	90.08366000	41.83686000
113.29999345	0.00000000	89.70841000	41.43085000
113.49999344	0.00000000	88.96407000	41.05561000
113.69999343	0.00000000	88.58882000	40.63730000
113.89999341	0.00000000	88.54576000	39.89296000
114.09999340	0.00000000	88.54576000	39.51771000
114.29999339	0.00000000	88.54576000	39.43159000
114.49999338	0.00000000	88.58882000	39.05635000
114.69999337	0.00000000	88.96407000	38.31200000
114.89999336	0.00000000	89.70841000	37.93676000
115.09999334	0.00000000	90.08366000	37.89370000
115.29999333	0.00000000	90.12672000	37.93676000
115.49999332	0.00000000	90.12672000	38.31200000
115.69999331	0.00000000	90.12672000	39.09941000
115.89999330	0.00000000	90.08366000	39.84990000
116.09999328	0.00000000	89.75147000	40.68036000
116.29999327	0.00000000	89.33932000	41.38164000
116.49999326	0.00000000	89.33316000	41.79380000
116.69999325	0.00000000	88.92101000	41.43085000
116.89999324	0.00000000	88.58882000	41.05561000
117.09999322	0.00000000	88.58882000	40.58809000
117.29999321	0.00000000	88.96407000	39.47465000
117.49999320	0.00000000	89.70841000	38.36122000
117.69999319	0.00000000	90.08366000	37.89370000
117.89999318	0.00000000	90.16978000	37.51845000
118.09999317	0.00000000	90.50197000	37.14936000
118.29999315	0.00000000	90.87106000	37.56152000
118.49999314	0.00000000	90.45890000	38.26894000
118.69999313	0.00000000	89.70841000	39.09941000
118.89999312	0.00000000	88.54576000	39.84990000
119.09999311	0.00000000	87.43233000	40.63730000
119.29999309	0.00000000	87.00787000	41.01255000
119.49999308	0.00000000	87.00787000	41.05561000
119.69999307	0.00000000	87.38312000	41.05561000
119.89999306	0.00000000	88.17052000	41.01255000
120.09999305	0.00000000	88.96407000	40.63730000
120.29999303	0.00000000	90.16978000	39.89296000
120.49999302	0.00000000	91.66460000	39.51771000
120.69999301	0.00000000	92.77805000	39.47465000
120.89999300	0.00000000	92.77805000	39.47465000
121.09999299	0.00000000	91.66460000	39.43159000
121.29999298	0.00000000	90.16978000	39.05635000
121.49999296	0.00000000	88.96407000	38.36122000
121.69999295	0.00000000	88.12745000	38.36122000
121.89999294	0.00000000	87.00787000	39.05635000
122.09999293	0.00000000	86.26968000	39.47465000
122.29999292	0.00000000	86.63262000	39.89296000
122.49999290	0.00000000	87.34005000	40.63730000
122.69999289	0.00000000	88.17052000	41.01255000
122.89999288	0.00000000	88.96407000	41.05561000
123.09999287	0.00000000	90.12672000	41.05561000
123.29999286	0.00000000	91.24016000	41.05561000
123.49999284	0.00000000	91.66460000	41.01255000
123.69999283	0.00000000	91.66460000	40.63730000
123.89999282	0.00000000	91.28937000	39.89296000
124.09999281	0.00000000	90.50197000	39.51771000
124.29999280	0.00000000	89.75147000	39.47465000
124.49999279	0.00000000	88.96407000	39.47465000
124.69999277	0.00000000	88.58882000	39.47465000
124.89999276	0.00000000	88.54576000	39.51771000
125.09999275	0.00000000	88.54576000	39.89296000
125.29999274	0.00000000	88.54576000	40.63730000
125.49999273	0.00000000	88.58882000	41.05561000
125.69999271	0.00000000	88.96407000	41.47392000
125.89999270	0.00000000	89.75147000	42.21210000
126.09999269	0.00000000	90.50197000	42.53814000
126.29999268	0.00000000	91.28937000	42.21210000
126.49999267	0.00000000	91.66460000	41.47392000
126.69999265	0.00000000	91.70767000	41.05561000
126.89999264	0.00000000	91.66460000	40.63730000
127.09999263	0.00000000	91.24016000	39.89296000
127.29999262	0.00000000	90.12672000	39.51771000
127.49999261	0.00000000	88.96407000	39.47465000
127.69999260	0.00000000	88.17052000	39.47465000
127.89999258	0.00000000	87.43233000	39.51771000
128.09999257	0.00000000	87.43233000	39.89296000
128.29999256	0.00000000	88.17052000	40.63730000
128.49999255	0.00000000	88.96407000	41.01255000
128.69999254	0.00000000	90.12672000	41.05561000
128.89999252	0.00000000	91.24016000	41.05561000
129.09999251	0.00000000	91.66460000	41.01255000
129.29999250	0.00000000	91.66460000	40.63730000
129.49999249	0.00000000	91.24016000	39.89296000
129.69999248	0.00000000	90.12672000	39.51771000
129.89999246	0.00000000	88.96407000	39.47465000
130.09999245	0.00000000	88.17052000	39.47465000
130.29999244	0.00000000	87.43233000	39.47465000
130.49999243	0.00000000	87.43233000	39.47465000
130.69999242	0.00000000	88.17052000	39.47465000
130.89999241	0.00000000	88.92101000	39.47465000
131.09999239	0.00000000	89.70841000	39.47465000
131.29999238	0.00000000	90.12672000	39.47465000
131.49999237	0.00000000	90.50197000	39.47465000
131.69999236	0.00000000	90.87106000	39.43159000
131.89999235	0.00000000	90.45890000	39.05635000
132.09999233	0.00000000	89.75147000	38.31200000
132.29999232	0.00000000	88.96407000	37.93676000
132.49999231	0.00000000	88.58882000	37.93676000
132.69999230	0.00000000	88.54576000	38.31200000
132.89999229	0.00000000	88.54576000	39.05635000
133.09999227	0.00000000	88.54576000	39.47465000
133.29999226	0.00000000	88.54576000	39.89296000
133.49999225	0.00000000	88.54576000	40.58809000
133.69999224	0.00000000	88.54576000	40.58809000
133.89999223	0.00000000	88.54576000	39.89296000
134.09999222	0.00000000	88.54576000	39.51771000
134.29999220	0.00000000	88.54576000	39.43159000
134.49999219	0.00000000	88.54576000	39.05635000
134.69999218	0.00000000	88.58882000	38.31200000
134.89999217	0.00000000	88.96407000	37.93676000
135.09999216	0.00000000	89.70841000	37.93676000
135.29999214	0.00000000	90.08366000	38.31200000
135.49999213	0.00000000	90.12672000	39.05635000
135.69999212	0.00000000	90.08366000	39.47465000
135.89999211	0.00000000	89.70841000	39.89296000
136.09999210	0.00000000	88.96407000	40.63730000
136.29999208	0.00000000	88.58882000	41.01255000
136.49999207	0.00000000	88.54576000	41.05561000
136.69999206	0.00000000	88.54576000	41.05561000
136.89999205	0.00000000	88.58882000	41.01255000
137.09999204	0.00000000	88.96407000	40.63730000
137.29999203	0.00000000	89.70841000	39.89296000
137.49999201	0.00000000	90.08366000	39.47465000
137.69999200	0.00000000	90.16978000	39.09941000
137.89999199	0.00000000	90.50197000	38.73031000
138.09999198	0.00000000	90.87106000	39.09941000
138.29999197	0.00000000	90.50197000	39.43159000
138.49999195	0.00000000	90.12672000	39.47465000
138.69999194	0.00000000	89.70841000	39.51771000
138.89999193	0.00000000	88.96407000	39.89296000
139.09999192	0.00000000	88.58882000	40.68036000
139.29999191	0.00000000	88.54576000	41.43085000
139.49999189	0.00000000	88.58882000	42.21210000
139.69999188	0.00000000	88.96407000	42.58735000
139.89999187	0.00000000	89.75147000	42.58735000
140.09999186	0.00000000	90.50197000	42.21210000
140.29999185	0.00000000	91.24016000	41.43085000
140.49999184	0.00000000	91.24016000	40.63730000
140.69999182	0.00000000	90.54502000	39.47465000
140.89999181	0.00000000	90.12672000	38.40428000
141.09999180	0.00000000	89.70841000	38.36122000
141.29999179	0.00000000	89.01328000	39.05635000
141.49999178	0.00000000	89.01328000	39.47465000
141.69999176	0.00000000	89.70841000	39.89296000
141.89999175	0.00000000	90.08366000	40.68036000
142.09999174	0.00000000	90.12672000	41.43085000
142.29999173	0.00000000	90.12672000	42.21210000
142.49999172	0.00000000	90.12672000	42.53814000
142.69999170	0.00000000	90.12672000	42.21210000
142.89999169	0.00000000	90.12672000	41.43085000
143.09999168	0.00000000	90.12672000	40.63730000
143.29999167	0.00000000	90.12672000	39.47465000
143.49999166	0.00000000	90.12672000	38.36122000
143.69999165	0.00000000	90.12672000	37.93676000
143.89999163	0.00000000	90.12672000	37.93676000
144.09999162	0.00000000	90.12672000	38.31200000
144.29999161	0.00000000	90.12672000	39.09941000
144.49999160	0.00000000	90.12672000	39.84990000
144.69999159	0.00000000	90.12672000	40.63730000
144.89999157	0.00000000	90.12672000	41.01255000
145.09999156	0.00000000	90.12672000	41.05561000
145.29999155	0.00000000	90.08366000	41.01255000
145.49999154	0.00000000	89.70841000	40.63730000
145.69999153	0.00000000	88.96407000	39.84990000
145.89999151	0.00000000	88.58882000	39.09941000
146.09999150	0.00000000	88.54576000	38.31200000
146.29999149	0.00000000	88.58882000	37.93676000
146.49999148	0.00000000	88.96407000	37.89370000
146.69999147	0.00000000	89.70841000	37.93676000
146.89999146	0.00000000	90.08366000	38.31200000
147.09999144	0.00000000	90.12672000	39.05635000
147.29999143	0.00000000	90.12672000	39.47465000
147.49999142	0.00000000	90.12672000	39.89296000
147.69999141	0.00000000	90.08366000	40.63730000
147.89999140	0.00000000	89.75147000	41.01255000
148.09999138	0.00000000	89.33932000	41.01255000
148.29999137	0.00000000	89.33316000	40.63730000
148.49999136	0.00000000	88.92101000	39.89296000
148.69999135	0.00000000	88.58882000	39.51771000
148.89999134	0.00000000	88.58882000	39.47465000
149.09999132	0.00000000	88.96407000	39.43159000
149.29999131	0.00000000	89.70841000	39.09941000
149.49999130	0.00000000	90.08366000	38.73031000
149.69999129	0.00000000	90.12672000	39.09941000
149.89999128	0.00000000	90.12672000	39.43159000
150.09999127	0.00000000	90.12672000	39.51771000
150.29999125	0.00000000	90.12672000	39.89296000
150.49999124	0.00000000	90.08366000	40.63730000
150.69999123	0.00000000	89.70841000	41.01255000
150.89999122	0.00000000	89.01328000	41.05561000
151.09999121	0.00000000	88.96407000	41.01255000
151.29999119	0.00000000	89.29010000	40.63730000
151.49999118	0.00000000	88.96407000	39.89296000
151.69999117	0.00000000	89.01328000	39.51771000
151.89999116	0.00000000	89.70841000	39.47465000
152.09999115	0.00000000	90.08366000	39.47465000
152.29999113	0.00000000	90.12672000	39.47465000
152.49999112	0.00000000	90.12672000	39.47465000
152.69999111	0.00000000	90.12672000	39.47465000
152.89999110	0.00000000	90.12672000	39.51771000
153.09999109	0.00000000	90.12672000	39.89296000
153.29999108	0.00000000	90.12672000	40.63730000
153.49999106	0.00000000	90.08366000	41.01255000
153.69999105	0.00000000	89.70841000	41.05561000
153.89999104	0.00000000	88.96407000	41.05561000
154.09999103	0.00000000	88.58882000	41.05561000
154.29999102	0.00000000	88.54576000	41.05561000
154.49999100	0.00000000	88.58882000	41.05561000
154.69999099	0.00000000	88.96407000	41.01255000
154.89999098	0.00000000	89.70841000	40.63730000
155.09999097	0.00000000	90.08366000	39.89296000
155.29999096	0.00000000	90.12672000	39.51771000
155.49999094	0.00000000	90.16978000	39.47465000
155.69999093	0.00000000	90.54502000	39.47465000
155.89999092	0.00000000	91.24016000	39.51771000
156.09999091	0.00000000	91.24016000	39.89296000
156.29999090	0.00000000	90.54502000	40.63730000
156.49999089	0.00000000	90.12672000	41.01255000
156.69999087	0.00000000	89.70841000	41.05561000
156.89999086	0.00000000	88.96407000	41.05561000
157.09999085	0.00000000	88.58882000	41.05561000
157.29999084	0.00000000	88.54576000	41.05561000
157.49999083	0.00000000	88.58882000	41.05561000
157.69999081	0.00000000	88.96407000	41.01255000
157.89999080	0.00000000	89.70841000	40.63730000
158.09999079	0.00000000	90.08366000	39.89296000
158.29999078	0.00000000	90.12672000	39.51771000
158.49999077	0.00000000	90.12672000	39.47465000
158.69999075	0.00000000	90.12672000	39.47465000
158.89999074	0.00000000	90.12672000	39.51771000
159.09999073	0.00000000	90.12672000	39.89296000
159.29999072	0.00000000	90.12672000	40.63730000
159.49999071	0.00000000	90.08366000	41.01255000
159.69999070	0.00000000	89.75147000	41.05561000
159.89999068	0.00000000	89.38238000	41.05561000
160.09999067	0.00000000	89.70841000	41.05561000
160.29999066	0.00000000	89.70841000	41.01255000
160.49999065	0.00000000	89.38238000	40.63730000
160.69999064	0.00000000	89.75147000	39.89296000
160.89999062	0.00000000	90.08366000	39.51771000
161.09999061	0.00000000	90.12672000	39.47465000
161.29999060	0.00000000	90.12672000	39.47465000
161.49999059	0.00000000	90.12672000	39.47465000
161.69999058	0.00000000	90.12672000	39.47465000
161.89999056	0.00000000	90.12672000	39.47465000
162.09999055	0.00000000	90.12672000	39.47465000
162.29999054	0.00000000	90.12672000	39.47465000
162.49999053	0.00000000	90.12672000	39.51771000
162.69999052	0.00000000	90.12672000	39.84990000
162.89999051	0.00000000	90.08366000	40.21899000
163.09999049	0.00000000	89.70841000	39.84990000
163.29999048	0.00000000	88.96407000	39.51771000
163.49999047	0.00000000	88.58882000	39.47465000
163.69999046	0.00000000	88.54576000	39.47465000
163.89999045	0.00000000	88.54576000	39.47465000
164.09999043	0.00000000	88.54576000	39.47465000
164.29999042	0.00000000	88.58882000	39.47465000
164.49999041	0.00000000	88.96407000	39.47465000
164.69999040	0.00000000	89.70841000	39.47465000
164.89999039	0.00000000	90.08366000	39.47465000
165.09999037	0.00000000	90.12672000	39.47465000
165.29999036	0.00000000	90.12672000	39.47465000
165.49999035	0.00000000	90.08366000	39.47465000
165.69999034	0.00000000	89.75147000	39.47465000
165.89999033	0.00000000	89.33932000	39.47465000
166.09999032	0.00000000	89.33316000	39.47465000
166.29999030	0.00000000	88.92101000	39.47465000
166.49999029	0.00000000	88.58882000	39.47465000
166.69999028	0.00000000	88.54576000	39.47465000
166.89999027	0.00000000	88.58882000	39.47465000
167.09999026	0.00000000	88.96407000	39.47465000
167.29999024	0.00000000	89.70841000	39.47465000
167.49999023	0.00000000	90.08366000	39.47465000
167.69999022	0.00000000	90.12672000	39.47465000
167.89999021	0.00000000	90.12672000	39.47465000
168.09999020	0.00000000	90.12672000	39.47465000
168.29999018	0.00000000	90.12672000	39.51771000
168.49999017	0.00000000	90.12672000	39.84990000
168.69999016	0.00000000	90.12672000	40.21899000
168.89999015	0.00000000	90.12672000	39.84990000
169.09999014	0.00000000	90.12672000	39.56693000
169.29999013	0.00000000	90.12672000	39.84990000
169.49999011	0.00000000	90.12672000	40.21899000
169.69999010	0.00000000	90.12672000	39.84990000
169.89999009	0.00000000	90.12672000	39.51771000
170.09999008	0.00000000	90.12672000	39.47465000
170.29999007	0.00000000	90.12672000	39.51771000
170.49999005	0.00000000	90.12672000	39.89296000
170.69999004	0.00000000	90.12672000	40.63730000
170.89999003	0.00000000	90.12672000	41.01255000
171.09999002	0.00000000	90.12672000	41.05561000
171.29999001	0.00000000	90.12672000	41.01255000
171.49998999	0.00000000	90.12672000	40.68036000
171.69998998	0.00000000	90.12672000	40.26821000
171.89998997	0.00000000	90.12672000	40.26205000
172.09998996	0.00000000	90.12672000	39.84990000
172.29998995	0.00000000	90.12672000	39.51771000
172.49998994	0.00000000	90.12672000	39.47465000
172.69998992	0.00000000	90.12672000	39.51771000
172.89998991	0.00000000	90.12672000	39.84990000
173.09998990	0.00000000	90.12672000	40.26205000
173.29998989	0.00000000	90.12672000	40.26821000
173.49998988	0.00000000	90.12672000	40.63730000
173.69998986	0.00000000	90.12672000	40.58809000
173.89998985	0.00000000	90.12672000	39.89296000
174.09998984	0.00000000	90.12672000	39.51771000
174.29998983	0.00000000	90.12672000	39.47465000
174.49998982	0.00000000	90.12672000	39.47465000
174.69998980	0.00000000	90.12672000	39.47465000
174.89998979	0.00000000	90.12672000	39.47465000
175.09998978	0.00000000	90.12672000	39.47465000
175.29998977	0.00000000	90.12672000	39.47465000
175.49998976	0.00000000	90.12672000	39.47465000
175.69998975	0.00000000	90.12672000	39.47465000
175.89998973	0.00000000	90.12672000	39.47465000
176.09998972	0.00000000	90.12672000	39.47465000
176.29998971	0.00000000	90.12672000	39.47465000
176.49998970	0.00000000	90.12672000	39.47465000
176.69998969	0.00000000	90.12672000	39.51771000
176.89998967	0.00000000	90.08366000	39.84990000
177.09998966	0.00000000	89.75147000	40.21899000
177.29998965	0.00000000	89.38238000	39.84990000
177.49998964	0.00000000	89.75147000	39.51771000
177.69998963	0.00000000	90.08366000	39.47465000
177.89998961	0.00000000	90.12672000	39.47465000
178.09998960	0.00000000	90.08366000	39.43159000
178.29998959	0.00000000	89.75147000	39.14247000
178.49998958	0.00000000	89.33932000	39.10556000
178.69998957	0.00000000	89.37623000	39.84375000
178.89998956	0.00000000	89.33932000	39.80684000
179.09998954	0.00000000	89.75147000	39.51771000
179.29998953	0.00000000	90.08366000	39.47465000
179.49998952	0.00000000	90.12672000	39.47465000
179.69998951	0.00000000	90.12672000	39.47465000
179.89998950	0.00000000	90.08366000	39.47465000
180.09998948	0.00000000	89.75147000	39.47465000
180.29998947	0.00000000	89.38238000	39.47465000
180.49998946	0.00000000	89.75147000	39.47465000
180.69998945	0.00000000	90.08366000	39.47465000
180.89998944	0.00000000	90.12672000	39.47465000
181.09998942	0.00000000	90.08366000	39.47465000
181.29998941	0.00000000	89.75147000	39.47465000
181.49998940	0.00000000	89.38238000	39.51771000
181.69998939	0.00000000	89.75147000	39.84990000
181.89998938	0.00000000	90.08366000	40.21899000
182.09998937	0.00000000	90.12672000	39.84990000
182.29998935	0.00000000	90.12672000	39.51771000
182.49998934	0.00000000	90.12672000	39.47465000
182.69998933	0.00000000	90.12672000	39.47465000
182.89998932	0.00000000	90.12672000	39.47465000
183.09998931	0.00000000	90.12672000	39.47465000
183.29998929	0.00000000	90.12672000	39.47465000
183.49998928	0.00000000	90.12672000	39.47465000
183.69998927	0.00000000	90.12672000	39.47465000
183.89998926	0.00000000	90.08366000	39.51771000
184.09998925	0.00000000	89.75147000	39.89296000
184.29998923	0.00000000	89.38238000	40.63730000
184.49998922	0.00000000	89.75147000	41.01255000
184.69998921	0.00000000	90.08366000	41.05561000
184.89998920	0.00000000	90.12672000	41.05561000
185.09998919	0.00000000	90.12672000	41.05561000
185.29998918	0.00000000	90.12672000	41.05561000
185.49998916	0.00000000	90.12672000	41.01255000
185.69998915	0.00000000	90.16978000	40.68036000
185.89998914	0.00000000	90.50197000	40.26821000
186.09998913	0.00000000	90.87106000	40.26205000
186.29998912	0.00000000	90.50197000	39.84990000
186.49998910	0.00000000	90.16978000	39.51771000
186.69998909	0.00000000	90.12672000	39.51771000
186.89998908	0.00000000	90.12672000	39.89296000
187.09998907	0.00000000	90.12672000	40.63730000
187.29998906	0.00000000	90.12672000	41.01255000
187.49998904	0.00000000	90.12672000	41.05561000
187.69998903	0.00000000	90.12672000	41.05561000
187.89998902	0.00000000	90.12672000	41.05561000
188.09998901	0.00000000	90.12672000	41.05561000
188.29998900	0.00000000	90.12672000	41.05561000
188.49998899	0.00000000	90.12672000	41.01255000
188.69998897	0.00000000	90.12672000	40.63730000
188.89998896	0.00000000	90.12672000	39.89296000
189.09998895	0.00000000	90.12672000	39.51771000
189.29998894	0.00000000	90.12672000	39.47465000
189.49998893	0.00000000	90.12672000	39.47465000
189.69998891	0.00000000	90.12672000	39.47465000
189.89998890	0.00000000	90.12672000	39.47465000
190.09998889	0.00000000	90.12672000	39.51771000
190.29998888	0.00000000	90.12672000	39.89296000
190.49998887	0.00000000	90.12672000	40.58809000
190.69998885	0.00000000	90.12672000	40.63730000
190.89998884	0.00000000	90.12672000	40.26821000
191.09998883	0.00000000	90.12672000	40.26205000
191.29998882	0.00000000	90.12672000	39.84990000
191.49998881	0.00000000	90.12672000	39.51771000
191.69998880	0.00000000	90.12672000	39.47465000
191.89998878	0.00000000	90.12672000	39.47465000
192.09998877	0.00000000	90.12672000	39.47465000
192.29998876	0.00000000	90.12672000	39.47465000
192.49998875	0.00000000	90.12672000	39.47465000
192.69998874	0.00000000	90.08366000	39.47465000
192.89998872	0.00000000	89.70841000	39.47465000
193.09998871	0.00000000	89.01328000	39.47465000
193.29998870	0.00000000	89.01328000	39.47465000
193.49998869	0.00000000	89.70841000	39.47465000
193.69998868	0.00000000	90.08366000	39.47465000
193.89998866	0.00000000	90.12672000	39.51771000
194.09998865	0.00000000	90.16978000	39.89296000
194.29998864	0.00000000	90.50197000	40.58809000
194.49998863	0.00000000	90.87106000	40.58809000
194.69998862	0.00000000	90.50197000	39.89296000
194.89998861	0.00000000	90.16978000	39.51771000
195.09998859	0.00000000	90.12672000	39.47465000
195.29998858	0.00000000	90.12672000	39.47465000
195.49998857	0.00000000	90.08366000	39.47465000
195.69998856	0.00000000	89.70841000	39.47465000
195.89998855	0.00000000	88.96407000	39.47465000
196.09998853	0.00000000	88.63803000	39.47465000
