Time	Channel A	Channel B	Channel C
(us)	(V)	(mV)	(mV)

-4.49999956	0.00000000	37.11245000	12.62918000
-4.29999957	0.00000000	36.78642000	12.67224000
-4.09999958	0.00000000	36.78642000	13.00443000
-3.89999959	0.00000000	37.11245000	13.41658000
-3.69999960	0.00000000	36.78642000	13.37967000
-3.49999962	0.00000000	36.78642000	13.41658000
-3.29999963	0.00000000	37.11245000	13.00443000
-3.09999964	0.00000000	36.78642000	12.72146000
-2.89999965	0.00000000	36.78642000	13.00443000
-2.69999966	0.00000000	37.15551000	13.41658000
-2.49999968	0.00000000	37.16166000	13.42274000
-2.29999969	0.00000000	37.53075000	13.83489000
-2.09999970	0.00000000	37.53075000	14.16708000
-1.89999971	0.00000000	37.16166000	14.21014000
-1.69999972	0.00000000	37.19857000	14.21014000
-1.49999973	0.00000000	37.16166000	14.21014000
-1.29999975	0.00000000	37.57381000	14.21014000
-1.09999976	0.00000000	37.85679000	14.21014000
-0.89999977	0.00000000	37.57381000	14.21014000
-0.69999978	0.00000000	37.20472000	14.21014000
-0.49999979	0.00000000	37.53075000	14.21014000
-0.29999981	0.31803640	37.48154000	14.16708000
-0.09999982	0.63668800	36.83563000	13.83489000
0.10000017	0.95533960	36.78642000	13.42274000
0.30000016	1.11466500	37.15551000	13.45964000
0.50000015	0.79601380	37.11860000	13.42274000
0.70000013	0.31803640	37.15551000	13.79183000
0.90000012	-0.63668800	36.74335000	13.74262000
1.10000011	-1.59264300	36.46038000	13.04749000
1.30000010	-2.38927200	36.74335000	12.72146000
1.50000009	-2.70792300	37.11245000	13.04749000
1.70000008	-2.38927200	36.78642000	13.79183000
1.90000006	-1.27399100	36.78642000	14.16708000
2.10000005	0.63668800	37.11245000	14.16708000
2.30000004	2.86724900	36.74335000	13.79183000
2.50000003	4.45989200	36.41117000	13.04749000
2.70000002	5.41584600	36.36811000	12.67224000
2.90000000	4.77854300	36.36811000	12.62918000
3.09999999	2.70792300	36.36811000	12.62918000
3.29999998	-0.31803640	36.36811000	12.62918000
3.49999997	-3.82258900	36.36811000	12.62918000
3.69999996	-6.53112700	36.36811000	12.62918000
3.89999994	-7.96444400	36.36811000	12.62918000
4.09999993	-7.32714100	36.36811000	12.67224000
4.29999992	-4.77854300	36.36811000	13.04749000
4.49999991	-0.79601380	36.36811000	13.74262000
4.69999990	3.66326300	36.36811000	13.74262000
4.89999989	7.32714100	36.36811000	13.04749000
5.09999987	9.39837600	36.36811000	12.62918000
5.29999986	8.92039900	36.36811000	12.21087000
5.49999985	6.37180100	36.36811000	11.46653000
5.69999984	2.07062000	36.36811000	11.14050000
5.89999983	-2.70792300	36.36811000	11.46653000
6.09999981	-6.84916400	36.36811000	12.21087000
6.29999980	-9.23905000	36.36811000	12.58612000
6.49999979	-9.23905000	36.36811000	12.67224000
6.69999978	-7.00848900	36.36811000	13.04749000
6.89999977	-3.18590100	36.36811000	13.79183000
7.09999975	1.27399100	36.36811000	14.11786000
7.29999974	5.09719500	36.36811000	13.79183000
7.49999973	7.32714100	36.36811000	13.04749000
7.69999972	7.64579200	36.36811000	12.67224000
7.89999971	6.21247500	36.36811000	12.62918000
8.09999970	3.18590100	36.36811000	12.62918000
8.29999968	-0.15871060	36.36811000	12.62918000
8.49999967	-3.02657500	36.36811000	12.62918000
8.69999966	-4.77854300	36.36811000	12.62918000
8.89999965	-5.25652100	36.36811000	12.67224000
9.09999964	-4.30056600	36.36811000	13.04749000
9.29999962	-2.54859700	36.36811000	13.74262000
9.49999961	-0.47736220	36.41117000	13.74262000
9.69999960	1.11466500	36.74335000	13.09670000
9.89999959	2.22994600	37.11245000	13.09670000
10.09999958	2.54859700	36.74335000	13.74262000
10.29999956	2.07062000	36.41117000	13.74262000
10.49999955	1.43331700	36.36811000	13.09670000
10.69999954	0.47736220	36.36811000	13.04749000
10.89999953	-0.31803640	36.41117000	13.37352000
11.09999952	-0.79601380	36.74335000	13.04749000
11.29999951	-0.95533960	37.11245000	13.04749000
11.49999949	-0.95533960	36.74335000	13.37352000
11.69999948	-0.79601380	36.41117000	13.00443000
11.89999947	-0.47736220	36.36811000	12.67224000
12.09999946	-0.15871060	36.36811000	12.62918000
12.29999945	-0.15871060	36.36811000	12.62918000
12.49999943	0.00000000	36.36811000	12.62918000
12.69999942	0.00000000	36.41117000	12.62918000
12.89999941	0.00000000	36.74335000	12.62918000
13.09999940	0.00000000	37.11245000	12.62918000
13.29999939	0.00000000	36.74335000	12.62918000
13.49999937	0.00000000	36.41117000	12.62918000
13.69999936	0.00000000	36.36811000	12.62918000
13.89999935	0.00000000	36.36811000	12.62918000
14.09999934	-0.15871060	36.36811000	12.62918000
14.29999933	-0.15871060	36.36811000	12.62918000
14.49999932	-0.15871060	36.36811000	12.62918000
14.69999930	0.00000000	36.36811000	12.62918000
14.89999929	0.00000000	36.36811000	12.62918000
15.09999928	0.00000000	36.36811000	12.62918000
15.29999927	0.00000000	36.36811000	12.62918000
15.49999926	0.00000000	36.36811000	12.62918000
15.69999924	0.00000000	36.36811000	12.62918000
15.89999923	0.00000000	36.36811000	12.67224000
16.09999922	0.00000000	36.36811000	13.00443000
16.29999921	-0.15871060	36.36811000	13.37352000
16.49999920	-0.15871060	36.36811000	13.00443000
16.69999919	0.00000000	36.41117000	12.67224000
16.89999917	-0.15871060	36.78642000	12.62918000
17.09999916	0.00000000	37.53075000	12.62918000
17.29999915	0.00000000	37.90600000	12.62918000
17.49999914	0.00000000	37.94907000	12.62918000
17.69999913	0.00000000	37.90600000	12.62918000
17.89999911	0.00000000	37.48154000	12.62918000
18.09999910	0.00000000	36.32505000	12.62918000
18.29999909	0.00000000	34.78716000	12.62918000
18.49999908	0.00000000	33.24926000	12.62918000
18.69999907	0.00000000	32.08661000	12.62918000
18.89999905	0.00000000	31.71137000	12.62918000
19.09999904	0.00000000	32.08661000	12.62918000
19.29999903	0.00000000	33.33538000	12.62918000
19.49999902	0.00000000	35.71604000	12.62918000
19.69999901	0.00000000	39.53002000	12.62918000
19.89999900	0.00000000	43.38705000	12.62918000
20.09999898	0.00000000	46.09375000	12.62918000
20.29999897	0.00000000	47.61934000	12.62918000
20.49999896	0.00000000	46.74582000	12.62918000
20.69999895	0.00000000	43.25172000	12.62918000
20.89999894	0.00000000	37.34621000	12.62918000
21.09999892	0.00000000	29.66289000	12.62918000
21.29999891	0.00000000	21.99188000	12.62918000
21.49999890	0.00000000	17.00910000	12.62918000
21.69999889	0.00000000	15.88952000	12.62918000
21.89999888	0.00000000	19.42667000	12.62918000
22.09999886	0.00000000	27.65748000	12.62918000
22.29999885	0.00000000	39.25320000	12.62918000
22.49999884	0.00000000	52.36220000	12.62918000
22.69999883	0.00000000	63.07209000	12.62918000
22.89999882	0.00000000	68.47317000	12.67224000
23.09999881	0.00000000	66.84301000	13.04749000
23.29999879	0.00000000	57.91092000	13.79183000
23.49999878	0.00000000	43.15945000	14.16708000
23.69999877	0.00000000	25.38755000	14.25320000
23.89999876	0.00000000	8.45226300	14.58538000
24.09999875	0.00000000	-3.08809000	14.94833000
24.29999873	0.00000000	-6.11466500	14.49311000
24.49999872	0.00000000	0.54133860	13.37352000
24.69999871	0.00000000	16.40625000	11.46653000
24.89999870	0.00000000	37.99213000	9.93479300
25.09999869	0.00000000	60.00246000	9.09817800
25.29999867	0.00000000	77.39911000	8.31077700
25.49999866	0.00000000	86.20201000	8.02780400
25.69999865	-0.15871060	83.82751000	8.86441900
25.89999864	0.00000000	69.91879000	11.60187000
26.09999863	0.00000000	47.95152000	15.78494000
26.29999862	0.00000000	23.19759000	20.01722000
26.49999860	0.00000000	1.19340500	23.12992000
26.69999859	0.00000000	-13.09055000	24.66781000
26.89999858	0.00000000	-16.20325000	24.20029000
27.09999857	0.00000000	-7.64640700	21.03838000
27.29999856	0.00000000	10.87598000	15.18824000
27.49999854	0.00000000	35.57455000	7.47416300
27.69999853	0.00000000	59.86712000	-0.55979330
27.89999852	0.00000000	78.47563000	-6.27460600
28.09999851	0.00000000	87.35851000	-7.81250000
28.29999850	0.00000000	84.70718000	-4.74286400
28.49999848	0.00000000	71.58588000	2.31299200
28.69999847	0.00000000	51.15649000	12.39542000
28.89999846	0.00000000	28.36491000	24.37869000
29.09999845	0.00000000	8.63065900	35.11934000
29.29999844	0.00000000	-4.20152500	41.99680000
29.49999843	0.00000000	-7.69562000	42.69193000
29.69999841	0.00000000	-1.64247000	36.14665000
29.89999840	0.00000000	11.93405000	24.20029000
30.09999839	0.00000000	29.67520000	9.43036400
30.29999838	0.00000000	48.22834000	-5.57947800
30.49999837	0.00000000	62.56151000	-17.51968000
30.69999835	0.00000000	70.42937000	-22.95768000
30.89999834	0.00000000	71.21062000	-21.37672000
31.09999833	0.00000000	64.65305000	-12.77682000
31.29999832	0.00000000	52.69439000	2.26993100
31.49999831	0.00000000	38.03519000	20.01722000
31.69999829	0.00000000	24.08341000	36.60802000
31.89999828	0.00000000	13.98253000	48.58514000
32.09999827	0.00000000	8.91978400	52.82357000
32.29999826	0.00000000	10.07628000	49.00959000
32.49999825	0.00000000	16.91683000	37.72145000
32.69999824	0.00000000	26.96850000	21.17372000
32.89999822	0.00000000	37.85679000	3.01427100
33.09999821	0.00000000	47.90846000	-12.46309000
33.29999820	0.00000000	54.83513000	-22.58243000
33.49999819	0.00000000	56.79134000	-25.60900000
33.69999818	0.00000000	53.76476000	-20.58317000
33.89999816	0.00000000	46.88115000	-8.23080600
34.09999815	0.00000000	38.36737000	8.31077700
34.29999814	0.00000000	30.26575000	25.31373000
34.49999813	0.00000000	24.08341000	38.84104000
34.69999812	0.00000000	21.75197000	46.22293000
34.89999810	0.00000000	23.19759000	46.27214000
35.09999809	0.00000000	27.47293000	39.34547000
35.29999808	0.00000000	33.61835000	27.35605000
35.49999807	0.00000000	40.13287000	12.67840000
35.69999806	0.00000000	44.78961000	-1.58710600
35.89999805	0.00000000	46.78888000	-11.95251000
36.09999803	0.00000000	46.32751000	-15.84646000
36.29999802	0.00000000	42.83341000	-12.45694000
36.49999801	0.00000000	36.78642000	-3.62942900
36.69999800	0.00000000	31.05930000	8.35998900
36.89999799	0.00000000	27.52214000	20.99532000
37.09999797	0.00000000	26.35950000	30.56717000
37.29999796	0.00000000	27.94045000	34.09818000
37.49999795	0.00000000	32.12967000	31.49606000
37.69999794	0.00000000	37.48154000	24.20029000
37.89999793	0.00000000	42.13828000	14.25320000
38.09999791	0.00000000	45.25713000	4.63828700
38.29999790	0.00000000	46.41363000	-1.87007900
38.49999789	0.00000000	45.25713000	-3.81397600
38.69999788	0.00000000	42.18134000	-0.33218500
38.89999787	0.00000000	37.89985000	7.28961600
39.09999786	0.00000000	33.29232000	16.85531000
39.29999784	0.00000000	29.38607000	25.22145000
39.49999783	0.00000000	27.05462000	29.45374000
39.69999782	0.00000000	26.26722000	28.34030000
39.89999781	0.00000000	27.47293000	22.57628000
40.09999780	0.00000000	30.50566000	13.74262000
40.29999778	0.00000000	34.41191000	4.17691900
40.49999777	0.00000000	38.28125000	-3.11884800
40.69999776	0.00000000	41.80610000	-6.18848400
40.89999775	0.00000000	44.13755000	-4.23228400
41.09999774	0.00000000	45.30019000	2.63902500
41.29999772	0.00000000	44.88189000	12.25394000
41.49999771	0.00000000	42.59965000	21.83194000
41.69999770	0.00000000	39.43774000	29.16461000
41.89999769	0.00000000	35.57455000	31.82209000
42.09999768	0.00000000	31.34227000	29.58907000
42.29999767	0.00000000	28.68479000	23.08686000
42.49999765	0.00000000	27.80512000	14.62844000
42.69999764	0.00000000	28.59252000	6.49606300
42.89999763	0.00000000	30.50566000	-0.04921259
43.09999762	0.00000000	33.20005000	-3.11884800
43.29999761	0.00000000	35.90059000	-2.00541300
43.49999759	0.00000000	37.90600000	2.55290300
43.69999758	0.00000000	39.43774000	9.05511800
43.89999757	0.00000000	40.22515000	15.23130000
44.09999756	0.00000000	39.90526000	19.92495000
44.29999755	0.00000000	39.57308000	22.66855000
44.49999753	0.00000000	39.53002000	23.03765000
44.69999752	0.00000000	39.48696000	21.13066000
44.89999751	0.00000000	39.11171000	17.27362000
45.09999750	0.00000000	38.32431000	12.72146000
45.29999749	0.00000000	37.53075000	8.82135800
45.49999748	0.00000000	36.27584000	6.48991100
45.69999746	0.00000000	34.31963000	5.70866100
45.89999745	0.00000000	31.61909000	6.82209600
46.09999744	0.00000000	28.92470000	9.14124000
46.29999743	0.00000000	27.01156000	11.84178000
46.49999742	0.00000000	26.31643000	14.90526000
46.69999740	0.00000000	27.94045000	16.85531000
46.89999739	0.00000000	32.17273000	17.69808000
47.09999738	0.00000000	37.99213000	18.06102000
47.29999737	0.00000000	44.13755000	17.23056000
47.49999736	0.00000000	49.15723000	15.32357000
47.69999734	0.00000000	51.44561000	12.62918000
47.89999733	0.00000000	50.64591000	9.93479300
48.09999732	0.00000000	46.32751000	8.02780400
48.29999731	0.00000000	39.01944000	7.24040300
48.49999730	0.00000000	30.50566000	7.98474400
48.69999729	0.00000000	22.82234000	9.55954600
48.89999727	0.00000000	17.80266000	11.93405000
49.09999726	0.00000000	17.10138000	15.36663000
49.29999725	0.00000000	20.92150000	18.39321000
49.49999724	0.00000000	28.68479000	19.97416000
49.69999723	0.00000000	38.27509000	19.97416000
49.89999721	0.00000000	47.53321000	18.39321000
50.09999720	0.00000000	53.67864000	15.32357000
50.29999719	0.00000000	55.30265000	11.46653000
50.49999718	0.00000000	52.55905000	7.98474400
50.69999717	0.00000000	45.99532000	5.29035400
50.89999715	0.00000000	36.74335000	4.17691900
51.09999714	0.00000000	27.56521000	5.33341500
51.29999713	0.00000000	20.96457000	8.40305000
51.49999712	0.00000000	18.68233000	12.62918000
51.69999711	0.00000000	20.92150000	16.85531000
51.89999710	0.00000000	27.10384000	19.92495000
52.09999708	0.00000000	35.16240000	21.13066000
52.29999707	0.00000000	43.25172000	20.34941000
52.49999706	0.00000000	48.97884000	18.01796000
52.69999705	0.00000000	50.55979000	14.16708000
52.89999704	0.00000000	47.90846000	9.98400600
53.09999702	0.00000000	42.13828000	6.86515700
53.29999701	0.00000000	34.83022000	5.29035400
53.49999700	0.00000000	27.94045000	5.29035400
53.69999699	0.00000000	23.70817000	6.82209600
53.89999698	0.00000000	23.28986000	9.51648500
54.09999696	0.00000000	26.35950000	12.58612000
54.29999695	0.00000000	32.12967000	15.27436000
54.49999694	0.00000000	38.97638000	16.81225000
54.69999693	0.00000000	44.37131000	16.81225000
54.89999692	0.00000000	46.70275000	15.32357000
55.09999691	0.00000000	45.99532000	13.04749000
55.29999689	0.00000000	42.51353000	11.18356000
55.49999688	0.00000000	37.53075000	10.40231000
55.69999687	0.00000000	32.12967000	11.18356000
55.89999686	0.00000000	27.89739000	13.04749000
56.09999685	0.00000000	25.98425000	15.32357000
56.29999683	0.00000000	26.73474000	16.85531000
56.49999682	0.00000000	30.17347000	17.23056000
56.69999681	0.00000000	34.78716000	16.39395000
56.89999680	0.00000000	39.39468000	13.69956000
57.09999679	0.00000000	42.87647000	9.93479300
57.29999677	0.00000000	44.04527000	6.86515700
57.49999676	0.00000000	43.34399000	5.33341500
57.69999675	0.00000000	40.97564000	5.70866100
57.89999674	0.00000000	37.53075000	8.07086500
58.09999673	0.00000000	33.71063000	11.93405000
58.29999672	0.00000000	31.01009000	16.94759000
58.49999670	0.00000000	30.17347000	21.54897000
58.69999669	0.00000000	30.54872000	24.61860000
58.89999668	0.00000000	32.12967000	25.31373000
59.09999667	0.00000000	34.73794000	22.57628000
59.29999666	0.00000000	37.06324000	16.81225000
59.49999664	0.00000000	38.28125000	9.55954600
59.69999663	0.00000000	39.06250000	3.01427100
59.89999662	0.00000000	39.01944000	-0.84276570
60.09999661	0.00000000	37.90600000	-1.63016700
60.29999660	0.00000000	36.41117000	1.15034400
60.49999658	0.00000000	35.25467000	7.28346400
60.69999657	0.00000000	34.83022000	15.32357000
60.89999656	0.00000000	34.83022000	22.61934000
61.09999655	0.00000000	35.20546000	27.26993000
61.29999654	0.00000000	35.94980000	28.42643000
61.49999653	0.00000000	36.32505000	25.68897000
61.69999651	0.00000000	36.36811000	19.54970000
61.89999650	0.00000000	36.32505000	11.46653000
62.09999649	0.00000000	35.90059000	3.75246000
62.29999648	0.00000000	34.78716000	-2.00541300
62.49999647	0.00000000	33.66756000	-4.32455700
62.69999645	0.00000000	33.24311000	-2.42372000
62.89999644	0.00000000	33.24311000	2.55290300
63.09999643	0.00000000	33.66756000	9.55954600
63.29999642	0.00000000	34.83022000	17.23056000
63.49999641	0.00000000	36.36811000	23.78199000
63.69999639	0.00000000	37.90600000	27.26993000
63.89999638	0.00000000	39.01944000	27.31299000
64.09999637	0.00000000	39.01944000	24.20029000
64.29999636	0.00000000	37.90600000	18.43627000
64.49999635	0.00000000	36.36811000	11.55881000
64.69999634	0.00000000	34.78716000	5.70866100
64.89999632	0.00000000	33.24926000	1.80241100
65.09999631	0.00000000	32.12967000	-0.14148620
65.29999630	0.00000000	32.12967000	0.64591530
65.49999629	0.00000000	33.24926000	3.66633800
65.69999628	0.00000000	34.78716000	7.93553100
65.89999626	0.00000000	36.32505000	12.58612000
66.09999625	0.00000000	37.48154000	16.85531000
66.29999624	0.00000000	37.85679000	19.97416000
66.49999623	0.00000000	37.48154000	21.54897000
66.69999622	0.00000000	36.27584000	21.59203000
66.89999620	0.00000000	34.41191000	20.43553000
67.09999619	0.00000000	32.59719000	18.47933000
67.29999618	0.00000000	32.54798000	15.74188000
67.49999617	0.00000000	34.03666000	12.62918000
67.69999616	0.00000000	35.62377000	9.51648500
67.89999615	0.00000000	37.99213000	6.77903500
68.09999613	0.00000000	40.60039000	4.82283400
68.29999612	0.00000000	42.09522000	3.66633800
68.49999611	0.00000000	41.71998000	3.75246000
68.69999610	0.00000000	39.39468000	5.70866100
68.89999609	0.00000000	35.94980000	9.56569900
69.09999607	0.00000000	32.03740000	14.16708000
69.29999606	0.00000000	28.59252000	18.47933000
69.49999605	0.00000000	26.31643000	21.96727000
69.69999604	0.00000000	26.31643000	24.24335000
69.89999603	0.00000000	28.63558000	24.20029000
70.09999601	0.00000000	32.54798000	21.50590000
70.29999600	0.00000000	37.94907000	16.89837000
70.49999599	0.00000000	43.30093000	11.46653000
70.69999598	0.00000000	46.78888000	6.44685000
70.89999597	0.00000000	47.95152000	2.59596400
71.09999596	0.00000000	46.37057000	1.05807100
71.29999594	0.00000000	42.13828000	2.17765700
71.49999593	0.00000000	36.31890000	5.29035400
71.69999592	0.00000000	30.17347000	9.89173200
71.89999591	0.00000000	25.15379000	14.90526000
72.09999590	0.00000000	22.82234000	18.76845000
72.29999588	0.00000000	23.15453000	21.08760000
72.49999587	0.00000000	25.89198000	21.08760000
72.69999586	0.00000000	30.59178000	18.85458000
72.89999585	0.00000000	36.74335000	15.83415000
73.09999584	0.00000000	42.87647000	13.04749000
73.29999582	0.00000000	46.70275000	10.72219000
73.49999581	0.00000000	47.57627000	8.82135800
73.69999580	0.00000000	45.62623000	8.44611200
73.89999579	0.00000000	41.80610000	9.51648500
74.09999578	0.00000000	36.74335000	11.04823000
74.29999577	0.00000000	31.75443000	12.53691000
74.49999575	0.00000000	27.84818000	13.28125000
74.69999574	0.00000000	25.94119000	12.53691000
74.89999573	0.00000000	26.31643000	11.09744000
75.09999572	0.00000000	28.96776000	9.89173200
75.29999571	0.00000000	32.78174000	9.19045200
75.49999569	0.00000000	36.27584000	9.23966500
75.69999568	0.00000000	39.01944000	11.18356000
75.89999567	0.00000000	40.60039000	14.21014000
76.09999566	0.00000000	40.97564000	17.27977000
76.29999565	0.00000000	40.22515000	19.55585000
76.49999563	0.00000000	38.32431000	19.97416000
76.69999562	0.00000000	36.46038000	18.81152000
76.89999561	0.00000000	35.25467000	16.43701000
77.09999560	0.00000000	34.83022000	12.49385000
77.29999559	0.00000000	34.78716000	7.56028500
77.49999558	0.00000000	34.78716000	2.97121000
77.69999556	0.00000000	34.78716000	0.73203740
77.89999555	0.00000000	34.78716000	1.43946800
78.09999554	0.00000000	34.74409000	4.91510800
78.29999553	0.00000000	34.36884000	9.89173200
78.49999552	0.00000000	33.61835000	15.36663000
78.69999550	0.00000000	33.29232000	20.34941000
78.89999549	0.00000000	33.66756000	23.82505000
79.09999548	0.00000000	34.83022000	24.57554000
79.29999547	0.00000000	36.41117000	22.71161000
79.49999546	0.00000000	38.32431000	18.81152000
79.69999544	0.00000000	40.18209000	13.79183000
79.89999543	0.00000000	40.55733000	8.40305000
80.09999542	0.00000000	39.43774000	4.17076700
80.29999541	0.00000000	37.53075000	2.22071800
80.49999540	0.00000000	35.16240000	2.54675200
80.69999539	0.00000000	32.82480000	4.82283400
80.89999537	0.00000000	30.54872000	7.93553100
81.09999536	0.00000000	29.42913000	11.46653000
81.29999535	0.00000000	30.17347000	15.32357000
81.49999534	0.00000000	32.08661000	18.39321000
81.69999533	0.00000000	34.78716000	20.01722000
81.89999531	0.00000000	37.53075000	20.43553000
82.09999530	0.00000000	39.81299000	20.01722000
82.29999529	0.00000000	41.34473000	18.47933000
82.49999528	0.00000000	40.93258000	16.11712000
82.69999527	0.00000000	39.11171000	13.41658000
82.89999525	0.00000000	36.74335000	10.26698000
83.09999524	0.00000000	34.45497000	7.60949800
83.29999523	0.00000000	32.50492000	5.61638700
83.49999522	0.00000000	31.75443000	4.87204700
83.69999521	0.00000000	32.08661000	5.24729300
83.89999520	0.00000000	33.20005000	6.82209600
84.09999518	0.00000000	34.36884000	9.55954600
84.29999517	0.00000000	35.16240000	13.04749000
84.49999516	0.00000000	35.94980000	16.90453000
84.69999515	0.00000000	36.32505000	19.97416000
84.89999514	0.00000000	36.36811000	21.50590000
85.09999512	0.00000000	36.36811000	21.13066000
85.29999511	0.00000000	36.36811000	18.81152000
85.49999510	0.00000000	36.36811000	15.32357000
85.69999509	0.00000000	36.36811000	11.04823000
85.89999508	0.00000000	36.36811000	6.82209600
86.09999506	0.00000000	36.36811000	3.75246000
86.29999505	0.00000000	36.32505000	2.59596400
86.49999504	0.00000000	35.90059000	3.75246000
86.69999503	0.00000000	34.78716000	6.82209600
86.89999502	0.00000000	33.61835000	11.04823000
87.09999501	0.00000000	32.86786000	15.32357000
87.29999499	0.00000000	32.45571000	18.81152000
87.49999498	0.00000000	32.86786000	21.08760000
87.69999497	0.00000000	33.61835000	21.03838000
87.89999496	0.00000000	34.83022000	18.39321000
88.09999495	0.00000000	36.36811000	14.16708000
88.29999493	0.00000000	37.85679000	9.56569900
88.49999492	0.00000000	38.64419000	5.70866100
88.69999491	0.00000000	38.28125000	3.80167300
88.89999490	0.00000000	37.53075000	4.17076700
89.09999489	0.00000000	36.32505000	6.86515700
89.29999487	0.00000000	34.78716000	11.04823000
89.49999486	0.00000000	33.24926000	15.32357000
89.69999485	0.00000000	32.12967000	18.81152000
89.89999484	0.00000000	32.12967000	21.13066000
90.09999483	0.00000000	33.24926000	21.41363000
90.29999482	0.00000000	34.73794000	19.13140000
90.49999480	0.00000000	35.90059000	14.54232000
90.69999479	0.00000000	36.32505000	9.56569900
90.89999478	0.00000000	36.41117000	5.33341500
91.09999477	0.00000000	36.74335000	3.05733300
91.29999476	0.00000000	37.06324000	3.79552100
91.49999474	0.00000000	36.32505000	6.82209600
91.69999473	0.00000000	35.25467000	11.09129000
91.89999472	0.00000000	34.87943000	15.69882000
92.09999471	0.00000000	35.20546000	19.54970000
92.29999470	0.00000000	35.90059000	21.46284000
92.49999468	0.00000000	35.90059000	21.03838000
92.69999467	0.00000000	35.20546000	17.97490000
92.89999466	0.00000000	34.78716000	13.04749000
93.09999465	0.00000000	34.31963000	8.44611200
93.29999464	0.00000000	33.20005000	5.33341500
93.49999463	0.00000000	32.12967000	4.17691900
93.69999461	0.00000000	32.12967000	5.33341500
93.89999460	0.00000000	33.24926000	8.40305000
94.09999459	0.00000000	34.78716000	12.62918000
94.29999458	0.00000000	36.36811000	16.81225000
94.49999457	0.00000000	37.94907000	19.50664000
94.69999455	0.00000000	39.48696000	19.93110000
94.89999454	0.00000000	40.60039000	18.39321000
95.09999453	0.00000000	40.51427000	15.32357000
95.29999452	0.00000000	38.60113000	11.46653000
95.49999451	0.00000000	35.16240000	8.02780400
95.69999449	0.00000000	31.71137000	5.70866100
95.89999448	0.00000000	28.96776000	5.33341500
96.09999447	0.00000000	27.47293000	6.86515700
96.29999446	0.00000000	27.84818000	9.89173200
96.49999445	0.00000000	30.17347000	13.37352000
96.69999444	0.00000000	33.57529000	16.02485000
96.89999442	0.00000000	37.15551000	17.59966000
97.09999441	0.00000000	40.23130000	17.23056000
97.29999440	0.00000000	42.96875000	15.74188000
97.49999439	0.00000000	44.04527000	13.79183000
97.69999438	0.00000000	43.34399000	11.51575000
97.89999436	0.00000000	40.93258000	9.93479300
98.09999435	0.00000000	37.10630000	9.14124000
98.29999434	0.00000000	32.50492000	8.77829600
98.49999433	0.00000000	29.01082000	9.55954600
98.69999432	0.00000000	27.01156000	11.00517000
98.89999430	0.00000000	26.26722000	12.16166000
99.09999429	0.00000000	27.47293000	12.58612000
99.29999428	0.00000000	30.50566000	12.67224000
99.49999427	0.00000000	34.36884000	13.04749000
99.69999426	0.00000000	37.85679000	13.79183000
99.89999425	0.00000000	40.60039000	14.16708000
100.09999423	0.00000000	42.13828000	14.21014000
100.29999422	0.00000000	42.18134000	14.25320000
100.49999421	0.00000000	41.01870000	14.62844000
100.69999420	0.00000000	39.06250000	15.27436000
100.89999419	0.00000000	36.31890000	14.85605000
101.09999417	0.00000000	33.24926000	12.95522000
101.29999416	0.00000000	30.54872000	10.72219000
101.49999415	0.00000000	29.01082000	8.77214500
101.69999414	0.00000000	28.96776000	7.98474400
101.89999413	0.00000000	30.13041000	7.93553100
102.09999411	0.00000000	32.03740000	8.40305000
102.29999410	0.00000000	34.36884000	9.98400600
102.49999409	0.00000000	36.32505000	12.62918000
102.69999408	0.00000000	37.90600000	15.32357000
102.89999407	0.00000000	39.06250000	17.27362000
103.09999406	0.00000000	39.43774000	18.39321000
103.29999404	0.00000000	39.06250000	17.97490000
103.49999403	0.00000000	37.85679000	15.64960000
103.69999402	0.00000000	35.94980000	12.25394000
103.89999401	0.00000000	33.66756000	8.77214500
104.09999400	0.00000000	32.12967000	6.48991100
104.29999398	0.00000000	31.66215000	5.66560000
104.49999397	0.00000000	31.66215000	6.44685000
104.69999396	0.00000000	32.08661000	8.35383800
104.89999395	0.00000000	33.24926000	11.04823000
105.09999394	0.00000000	34.78716000	13.79183000
105.29999392	0.00000000	36.32505000	16.07406000
105.49999391	0.00000000	37.48154000	17.64272000
105.69999390	0.00000000	37.81373000	17.60581000
105.89999389	0.00000000	37.11245000	16.48622000
106.09999388	0.00000000	35.58071000	14.16092000
106.29999387	0.00000000	34.45497000	11.51575000
106.49999385	0.00000000	33.61835000	9.55954600
106.69999384	0.00000000	33.24311000	8.40305000
106.89999383	0.00000000	33.24311000	8.44611200
107.09999382	0.00000000	33.66756000	9.93479300
107.29999381	0.00000000	34.78716000	12.21087000
107.49999379	0.00000000	35.90059000	14.11786000
107.69999378	0.00000000	36.32505000	15.32357000
107.89999377	0.00000000	36.36811000	15.69267000
108.09999376	0.00000000	36.32505000	15.32357000
108.29999375	0.00000000	35.94980000	14.16092000
108.49999374	0.00000000	35.11934000	12.62918000
108.69999372	0.00000000	34.03666000	11.09744000
108.89999371	0.00000000	32.88017000	9.98400600
109.09999370	0.00000000	32.91707000	9.98400600
109.29999369	0.00000000	33.61835000	11.09744000
109.49999368	0.00000000	34.83022000	12.62918000
109.69999366	0.00000000	36.32505000	14.16092000
109.89999365	0.00000000	37.48154000	15.32357000
110.09999364	0.00000000	37.85679000	15.69267000
110.29999363	0.00000000	37.53075000	15.32357000
110.49999362	0.00000000	36.74335000	14.21014000
110.69999360	0.00000000	35.94980000	13.00443000
110.89999359	0.00000000	34.78716000	11.83563000
111.09999358	0.00000000	33.61835000	10.31004000
111.29999357	0.00000000	32.86786000	9.56569900
111.49999356	0.00000000	32.45571000	9.47342500
111.69999355	0.00000000	32.86786000	9.51648500
111.89999353	0.00000000	33.57529000	9.93479300
112.09999352	0.00000000	34.41191000	11.04823000
112.29999351	0.00000000	35.16240000	12.21087000
112.49999350	0.00000000	35.90059000	13.00443000
112.69999349	0.00000000	35.90059000	13.79183000
112.89999347	0.00000000	35.20546000	14.11786000
113.09999346	0.00000000	34.83022000	13.79183000
113.29999345	0.00000000	34.78716000	13.04749000
113.49999344	0.00000000	34.78716000	12.62918000
113.69999343	0.00000000	34.78716000	12.21087000
113.89999341	0.00000000	34.78716000	11.46653000
114.09999340	0.00000000	34.78716000	11.09129000
114.29999339	0.00000000	34.78716000	11.04823000
114.49999338	0.00000000	34.78716000	11.04823000
114.69999337	0.00000000	34.78716000	11.04823000
114.89999336	0.00000000	34.78716000	11.04823000
115.09999334	0.00000000	34.78716000	11.04823000
115.29999333	0.00000000	34.78716000	11.04823000
115.49999332	0.00000000	34.78716000	11.09129000
115.69999331	0.00000000	34.78716000	11.46653000
115.89999330	0.00000000	34.78716000	12.25394000
116.09999328	0.00000000	34.78716000	13.00443000
116.29999327	0.00000000	34.74409000	13.79183000
116.49999326	0.00000000	34.36884000	14.16708000
116.69999325	0.00000000	33.66756000	14.16708000
116.89999324	0.00000000	33.66756000	13.79183000
117.09999322	0.00000000	34.36884000	13.00443000
117.29999321	0.00000000	34.78716000	12.25394000
117.49999320	0.00000000	35.20546000	11.42347000
117.69999319	0.00000000	35.94980000	10.67298000
117.89999318	0.00000000	36.32505000	9.93479300
118.09999317	0.00000000	36.36811000	9.93479300
118.29999315	0.00000000	36.32505000	10.67298000
118.49999314	0.00000000	35.90059000	11.42347000
118.69999313	0.00000000	34.78716000	12.25394000
118.89999312	0.00000000	33.61835000	13.00443000
119.09999311	0.00000000	32.82480000	13.79183000
119.29999309	0.00000000	32.03740000	14.16708000
119.49999308	0.00000000	31.75443000	14.21014000
119.69999307	0.00000000	32.46186000	14.21014000
119.89999306	0.00000000	33.99360000	14.16708000
120.09999305	0.00000000	35.16240000	13.74262000
120.29999303	0.00000000	36.36811000	12.62918000
120.49999302	0.00000000	37.48154000	11.51575000
120.69999301	0.00000000	37.90600000	11.09129000
120.89999300	0.00000000	37.90600000	11.04823000
121.09999299	0.00000000	37.48154000	11.04823000
121.29999298	0.00000000	36.32505000	11.04823000
121.49999296	0.00000000	34.78716000	11.04823000
121.69999295	0.00000000	33.24926000	11.09129000
121.89999294	0.00000000	32.08661000	11.46653000
122.09999293	0.00000000	31.71137000	12.21087000
122.29999292	0.00000000	32.03740000	12.62918000
122.49999290	0.00000000	32.82480000	13.00443000
122.69999289	0.00000000	33.57529000	13.37352000
122.89999288	0.00000000	34.41191000	13.00443000
123.09999287	0.00000000	35.16240000	12.67224000
123.29999286	0.00000000	35.94980000	12.62918000
123.49999284	0.00000000	36.32505000	12.58612000
123.69999283	0.00000000	36.36811000	12.21087000
123.89999282	0.00000000	36.32505000	11.46653000
124.09999281	0.00000000	35.94980000	11.09129000
124.29999280	0.00000000	35.16240000	11.04823000
124.49999279	0.00000000	34.41191000	11.04823000
124.69999277	0.00000000	33.61835000	11.04823000
124.89999276	0.00000000	33.24311000	11.09129000
125.09999275	0.00000000	33.20005000	11.46653000
125.29999274	0.00000000	33.20005000	12.21087000
125.49999273	0.00000000	33.24311000	12.58612000
125.69999271	0.00000000	33.61835000	12.62918000
125.89999270	0.00000000	34.41191000	12.62918000
126.09999269	0.00000000	35.16240000	12.62918000
126.29999268	0.00000000	35.94980000	12.62918000
126.49999267	0.00000000	36.32505000	12.58612000
126.69999265	0.00000000	36.32505000	12.21087000
126.89999264	0.00000000	35.94980000	11.46653000
127.09999263	0.00000000	35.16240000	11.09129000
127.29999262	0.00000000	34.36884000	11.04823000
127.49999261	0.00000000	33.20005000	11.04823000
127.69999260	0.00000000	32.08661000	11.04823000
127.89999258	0.00000000	31.71137000	11.09129000
128.09999257	0.00000000	32.08661000	11.46653000
128.29999256	0.00000000	33.24926000	12.21087000
128.49999255	0.00000000	34.78716000	12.58612000
128.69999254	0.00000000	36.27584000	12.62918000
128.89999252	0.00000000	37.06324000	12.62918000
129.09999251	0.00000000	36.74335000	12.62918000
129.29999250	0.00000000	36.36811000	12.58612000
129.49999249	0.00000000	35.90059000	12.21087000
129.69999248	0.00000000	34.78716000	11.46653000
129.89999246	0.00000000	33.61835000	11.09129000
130.09999245	0.00000000	32.82480000	11.09129000
130.29999244	0.00000000	32.08661000	11.46653000
130.49999243	0.00000000	32.12967000	12.21087000
130.69999242	0.00000000	33.20005000	12.58612000
130.89999241	0.00000000	34.36884000	12.62918000
131.09999239	0.00000000	35.16240000	12.62918000
131.29999238	0.00000000	35.94980000	12.62918000
131.49999237	0.00000000	36.27584000	12.58612000
131.69999236	0.00000000	35.94980000	12.21087000
131.89999235	0.00000000	35.20546000	11.46653000
132.09999233	0.00000000	34.78716000	11.09129000
132.29999232	0.00000000	34.36884000	11.04823000
132.49999231	0.00000000	33.61835000	11.04823000
132.69999230	0.00000000	33.24311000	11.09129000
132.89999229	0.00000000	33.24311000	11.46653000
133.09999227	0.00000000	33.61835000	12.21087000
133.29999226	0.00000000	34.36884000	12.62918000
133.49999225	0.00000000	34.74409000	13.00443000
133.69999224	0.00000000	34.78716000	13.37352000
133.89999223	0.00000000	34.78716000	13.00443000
134.09999222	0.00000000	34.74409000	12.67224000
134.29999220	0.00000000	34.41191000	12.58612000
134.49999219	0.00000000	34.04282000	12.21087000
134.69999218	0.00000000	34.41191000	11.42347000
134.89999217	0.00000000	34.74409000	10.72219000
135.09999216	0.00000000	34.78716000	10.31004000
135.29999214	0.00000000	34.78716000	10.72219000
135.49999213	0.00000000	34.78716000	11.42347000
135.69999212	0.00000000	34.78716000	12.21087000
135.89999211	0.00000000	34.74409000	12.58612000
136.09999210	0.00000000	34.36884000	12.67224000
136.29999208	0.00000000	33.61835000	13.00443000
136.49999207	0.00000000	33.24311000	13.37352000
136.69999206	0.00000000	33.20005000	13.00443000
136.89999205	0.00000000	33.24311000	12.62918000
137.09999204	0.00000000	33.66756000	12.21087000
137.29999203	0.00000000	34.73794000	11.46653000
137.49999201	0.00000000	35.48228000	11.09129000
137.69999200	0.00000000	35.16240000	11.04823000
137.89999199	0.00000000	34.87943000	11.04823000
138.09999198	0.00000000	35.16240000	11.04823000
138.29999197	0.00000000	35.48228000	11.04823000
138.49999195	0.00000000	34.73794000	11.04823000
138.69999194	0.00000000	33.66756000	11.09129000
138.89999193	0.00000000	33.24311000	11.46653000
139.09999192	0.00000000	33.20005000	12.25394000
139.29999191	0.00000000	33.20005000	13.00443000
139.49999189	0.00000000	33.24311000	13.79183000
139.69999188	0.00000000	33.61835000	14.11786000
139.89999187	0.00000000	34.36884000	13.79183000
140.09999186	0.00000000	34.74409000	13.00443000
140.29999185	0.00000000	34.78716000	12.25394000
140.49999184	0.00000000	34.78716000	11.46653000
140.69999182	0.00000000	34.78716000	11.04823000
140.89999181	0.00000000	34.74409000	10.62992000
141.09999180	0.00000000	34.36884000	9.93479300
141.29999179	0.00000000	33.61835000	9.98400600
141.49999178	0.00000000	33.24311000	11.04823000
141.69999176	0.00000000	33.20005000	12.16166000
141.89999175	0.00000000	33.24311000	12.62918000
142.09999174	0.00000000	33.61835000	13.04749000
142.29999173	0.00000000	34.36884000	13.79183000
142.49999172	0.00000000	34.74409000	14.11786000
142.69999170	0.00000000	34.78716000	13.74262000
142.89999169	0.00000000	34.78716000	12.62918000
143.09999168	0.00000000	34.78716000	11.51575000
143.29999167	0.00000000	34.74409000	11.09129000
143.49999166	0.00000000	34.41191000	11.04823000
143.69999165	0.00000000	33.99975000	11.04823000
143.89999163	0.00000000	33.98745000	11.04823000
144.09999162	0.00000000	33.61835000	11.04823000
144.29999161	0.00000000	33.66756000	11.09129000
144.49999160	0.00000000	34.36884000	11.51575000
144.69999159	0.00000000	34.74409000	12.62918000
144.89999157	0.00000000	34.78716000	13.69956000
145.09999156	0.00000000	34.78716000	13.74262000
145.29999155	0.00000000	34.74409000	13.04749000
145.49999154	0.00000000	34.36884000	12.62918000
145.69999153	0.00000000	33.61835000	12.21087000
145.89999151	0.00000000	33.24311000	11.46653000
146.09999150	0.00000000	33.20005000	11.09129000
146.29999149	0.00000000	33.24311000	11.04823000
146.49999148	0.00000000	33.61835000	11.04823000
146.69999147	0.00000000	34.36884000	11.04823000
146.89999146	0.00000000	34.74409000	11.09129000
147.09999144	0.00000000	34.78716000	11.46653000
147.29999143	0.00000000	34.78716000	12.21087000
147.49999142	0.00000000	34.78716000	12.58612000
147.69999141	0.00000000	34.74409000	12.62918000
147.89999140	0.00000000	34.36884000	12.62918000
148.09999138	0.00000000	33.61835000	12.62918000
148.29999137	0.00000000	33.24311000	12.62918000
148.49999136	0.00000000	33.24311000	12.62918000
148.69999135	0.00000000	33.61835000	12.58612000
148.89999134	0.00000000	34.36884000	12.21087000
149.09999132	0.00000000	34.74409000	11.46653000
149.29999131	0.00000000	34.78716000	11.09129000
149.49999130	0.00000000	34.78716000	11.09129000
149.69999129	0.00000000	34.78716000	11.46653000
149.89999128	0.00000000	34.78716000	12.21087000
150.09999127	0.00000000	34.78716000	12.58612000
150.29999125	0.00000000	34.78716000	12.62918000
150.49999124	0.00000000	34.74409000	12.62918000
150.69999123	0.00000000	34.36884000	12.62918000
150.89999122	0.00000000	33.61835000	12.62918000
151.09999121	0.00000000	33.24311000	12.62918000
151.29999119	0.00000000	33.20005000	12.62918000
151.49999118	0.00000000	33.20005000	12.58612000
151.69999117	0.00000000	33.24311000	12.21087000
151.89999116	0.00000000	33.61835000	11.51575000
152.09999115	0.00000000	34.36884000	11.46653000
152.29999113	0.00000000	34.74409000	11.83563000
152.49999112	0.00000000	34.78716000	11.84178000
152.69999111	0.00000000	34.78716000	12.25394000
152.89999110	0.00000000	34.78716000	12.58612000
153.09999109	0.00000000	34.78716000	12.62918000
153.29999108	0.00000000	34.74409000	12.62918000
153.49999106	0.00000000	34.36884000	12.62918000
153.69999105	0.00000000	33.61835000	12.62918000
153.89999104	0.00000000	33.24311000	12.62918000
154.09999103	0.00000000	33.20005000	12.62918000
154.29999102	0.00000000	33.20005000	12.62918000
154.49999100	0.00000000	33.24311000	12.62918000
154.69999099	0.00000000	33.61835000	12.58612000
154.89999098	0.00000000	34.36884000	12.21087000
155.09999097	0.00000000	34.74409000	11.46653000
155.29999096	0.00000000	34.78716000	11.09129000
155.49999094	0.00000000	34.78716000	11.04823000
155.69999093	0.00000000	34.78716000	11.04823000
155.89999092	0.00000000	34.78716000	11.09129000
156.09999091	0.00000000	34.74409000	11.46653000
156.29999090	0.00000000	34.36884000	12.21087000
156.49999089	0.00000000	33.61835000	12.58612000
156.69999087	0.00000000	33.24311000	12.62918000
156.89999086	0.00000000	33.20005000	12.62918000
157.09999085	0.00000000	33.20005000	12.62918000
157.29999084	0.00000000	33.20005000	12.62918000
157.49999083	0.00000000	33.24311000	12.58612000
157.69999081	0.00000000	33.61835000	12.25394000
157.89999080	0.00000000	34.31963000	11.84178000
158.09999079	0.00000000	34.36884000	11.83563000
158.29999078	0.00000000	34.04282000	11.42347000
158.49999077	0.00000000	34.41191000	11.14050000
158.69999075	0.00000000	34.74409000	11.42347000
158.89999074	0.00000000	34.74409000	11.83563000
159.09999073	0.00000000	34.41191000	11.84178000
159.29999072	0.00000000	33.99975000	12.25394000
159.49999071	0.00000000	33.98745000	12.58612000
159.69999070	0.00000000	33.57529000	12.62918000
159.89999068	0.00000000	33.24311000	12.62918000
160.09999067	0.00000000	33.20005000	12.62918000
160.29999066	0.00000000	33.20005000	12.62918000
160.49999065	0.00000000	33.20005000	12.58612000
160.69999064	0.00000000	33.20005000	12.21087000
160.89999062	0.00000000	33.20005000	11.46653000
161.09999061	0.00000000	33.24311000	11.09129000
161.29999060	0.00000000	33.61835000	11.04823000
161.49999059	0.00000000	34.36884000	11.04823000
161.69999058	0.00000000	34.74409000	11.09129000
161.89999056	0.00000000	34.78716000	11.46653000
162.09999055	0.00000000	34.78716000	12.21087000
162.29999054	0.00000000	34.78716000	12.58612000
162.49999053	0.00000000	34.74409000	12.62918000
162.69999052	0.00000000	34.36884000	12.62918000
162.89999051	0.00000000	33.61835000	12.62918000
163.09999049	0.00000000	33.24311000	12.62918000
163.29999048	0.00000000	33.20005000	12.62918000
163.49999047	0.00000000	33.20005000	12.58612000
163.69999046	0.00000000	33.20005000	12.21087000
163.89999045	0.00000000	33.20005000	11.46653000
164.09999043	0.00000000	33.20005000	11.09129000
164.29999042	0.00000000	33.24311000	11.04823000
164.49999041	0.00000000	33.61835000	11.04823000
164.69999040	0.00000000	34.36884000	11.04823000
164.89999039	0.00000000	34.74409000	11.04823000
165.09999037	0.00000000	34.78716000	11.04823000
165.29999036	0.00000000	34.78716000	11.09129000
165.49999035	0.00000000	34.74409000	11.46653000
165.69999034	0.00000000	34.36884000	12.21087000
165.89999033	0.00000000	33.61835000	12.58612000
166.09999032	0.00000000	33.24311000	12.62918000
166.29999030	0.00000000	33.20005000	12.62918000
166.49999029	0.00000000	33.20005000	12.62918000
166.69999028	0.00000000	33.20005000	12.58612000
166.89999027	0.00000000	33.20005000	12.21087000
167.09999026	0.00000000	33.24311000	11.51575000
167.29999024	0.00000000	33.61835000	11.46653000
167.49999023	0.00000000	34.36884000	11.79257000
167.69999022	0.00000000	34.74409000	11.42347000
167.89999021	0.00000000	34.78716000	11.09129000
168.09999020	0.00000000	34.74409000	11.04823000
168.29999018	0.00000000	34.41191000	11.04823000
168.49999017	0.00000000	34.04282000	11.09129000
168.69999016	0.00000000	34.36884000	11.42347000
168.89999015	0.00000000	34.31963000	11.79257000
169.09999014	0.00000000	33.61835000	11.42347000
169.29999013	0.00000000	33.24311000	11.14050000
169.49999011	0.00000000	33.20005000	11.42347000
169.69999010	0.00000000	33.24311000	11.83563000
169.89999009	0.00000000	33.61835000	11.79872000
170.09999008	0.00000000	34.31963000	11.87869000
170.29999007	0.00000000	34.31963000	11.84178000
170.49999005	0.00000000	33.61835000	12.25394000
170.69999004	0.00000000	33.29232000	12.53691000
170.89999003	0.00000000	33.61835000	12.21087000
171.09999002	0.00000000	34.36884000	11.46653000
171.29999001	0.00000000	34.74409000	11.09129000
171.49998999	0.00000000	34.78716000	11.04823000
171.69998998	0.00000000	34.74409000	11.04823000
171.89998997	0.00000000	34.36884000	11.04823000
172.09998996	0.00000000	33.61835000	11.09129000
172.29998995	0.00000000	33.24311000	11.42347000
172.49998994	0.00000000	33.20005000	11.79257000
172.69998992	0.00000000	33.20005000	11.42347000
172.89998991	0.00000000	33.20005000	11.09129000
173.09998990	0.00000000	33.20005000	11.04823000
173.29998989	0.00000000	33.20005000	11.09129000
173.49998988	0.00000000	33.24311000	11.46653000
173.69998986	0.00000000	33.57529000	12.16166000
173.89998985	0.00000000	33.98745000	12.16166000
174.09998984	0.00000000	33.95054000	11.46653000
174.29998983	0.00000000	33.98745000	11.09129000
174.49998982	0.00000000	33.57529000	11.04823000
174.69998980	0.00000000	33.29232000	11.09129000
174.89998979	0.00000000	33.57529000	11.42347000
175.09998978	0.00000000	33.94439000	11.79257000
175.29998977	0.00000000	33.57529000	11.42347000
175.49998976	0.00000000	33.24311000	11.09129000
175.69998975	0.00000000	33.20005000	11.04823000
175.89998973	0.00000000	33.20005000	11.09129000
176.09998972	0.00000000	33.20005000	11.46653000
176.29998971	0.00000000	33.20005000	12.16166000
176.49998970	0.00000000	33.20005000	12.16166000
176.69998969	0.00000000	33.20005000	11.46653000
176.89998967	0.00000000	33.20005000	11.09129000
177.09998966	0.00000000	33.20005000	11.04823000
177.29998965	0.00000000	33.20005000	11.04823000
177.49998964	0.00000000	33.20005000	11.04823000
177.69998963	0.00000000	33.20005000	11.09129000
177.89998961	0.00000000	33.20005000	11.42347000
178.09998960	0.00000000	33.20005000	11.79257000
178.29998959	0.00000000	33.24311000	11.46653000
178.49998958	0.00000000	33.57529000	11.51575000
178.69998957	0.00000000	33.94439000	12.21087000
178.89998956	0.00000000	33.61835000	12.58612000
179.09998954	0.00000000	33.66756000	12.58612000
179.29998953	0.00000000	34.31963000	12.25394000
179.49998952	0.00000000	34.31963000	11.84178000
179.69998951	0.00000000	33.61835000	11.83563000
179.89998950	0.00000000	33.24311000	11.42347000
180.09998948	0.00000000	33.20005000	11.09129000
180.29998947	0.00000000	33.20005000	11.04823000
180.49998946	0.00000000	33.20005000	11.04823000
180.69998945	0.00000000	33.20005000	11.04823000
180.89998944	0.00000000	33.20005000	11.09129000
181.09998942	0.00000000	33.20005000	11.46653000
181.29998941	0.00000000	33.20005000	12.21087000
181.49998940	0.00000000	33.20005000	12.58612000
181.69998939	0.00000000	33.20005000	12.62918000
181.89998938	0.00000000	33.24311000	12.62918000
182.09998937	0.00000000	33.61835000	12.58612000
182.29998935	0.00000000	34.31963000	12.21087000
182.49998934	0.00000000	34.31963000	11.46653000
182.69998933	0.00000000	33.61835000	11.09129000
182.89998932	0.00000000	33.24311000	11.04823000
183.09998931	0.00000000	33.20005000	11.04823000
183.29998929	0.00000000	33.20005000	11.04823000
183.49998928	0.00000000	33.20005000	11.04823000
183.69998927	0.00000000	33.20005000	11.04823000
183.89998926	0.00000000	33.20005000	11.04823000
184.09998925	0.00000000	33.20005000	11.09129000
184.29998923	0.00000000	33.20005000	11.46653000
184.49998922	0.00000000	33.20005000	12.21087000
184.69998921	0.00000000	33.20005000	12.58612000
184.89998920	0.00000000	33.20005000	12.62918000
185.09998919	0.00000000	33.20005000	12.62918000
185.29998918	0.00000000	33.20005000	12.58612000
185.49998916	0.00000000	33.20005000	12.21087000
185.69998915	0.00000000	33.20005000	11.46653000
185.89998914	0.00000000	33.24311000	11.09129000
186.09998913	0.00000000	33.57529000	11.04823000
186.29998912	0.00000000	33.94439000	11.04823000
186.49998910	0.00000000	33.57529000	11.04823000
186.69998909	0.00000000	33.24311000	11.09129000
186.89998908	0.00000000	33.20005000	11.42347000
187.09998907	0.00000000	33.20005000	11.83563000
187.29998906	0.00000000	33.20005000	11.84178000
187.49998904	0.00000000	33.20005000	12.25394000
187.69998903	0.00000000	33.20005000	12.58612000
187.89998902	0.00000000	33.20005000	12.62918000
188.09998901	0.00000000	33.20005000	12.58612000
188.29998900	0.00000000	33.20005000	12.21087000
188.49998899	0.00000000	33.24311000	11.46653000
188.69998897	0.00000000	33.57529000	11.09129000
188.89998896	0.00000000	33.94439000	11.04823000
189.09998895	0.00000000	33.57529000	11.04823000
189.29998894	0.00000000	33.24311000	11.04823000
189.49998893	0.00000000	33.20005000	11.04823000
189.69998891	0.00000000	33.20005000	11.04823000
189.89998890	0.00000000	33.20005000	11.04823000
190.09998889	0.00000000	33.20005000	11.09129000
190.29998888	0.00000000	33.20005000	11.46653000
190.49998887	0.00000000	33.20005000	12.21087000
190.69998885	0.00000000	33.20005000	12.53691000
190.89998884	0.00000000	33.20005000	12.25394000
191.09998883	0.00000000	33.20005000	11.84178000
191.29998882	0.00000000	33.20005000	11.83563000
191.49998881	0.00000000	33.20005000	11.42347000
191.69998880	0.00000000	33.20005000	11.09129000
191.89998878	0.00000000	33.20005000	11.04823000
192.09998877	0.00000000	33.20005000	11.04823000
192.29998876	0.00000000	33.20005000	11.04823000
192.49998875	0.00000000	33.20005000	11.04823000
192.69998874	0.00000000	33.20005000	11.04823000
192.89998872	0.00000000	33.15699000	11.04823000
193.09998871	0.00000000	32.82480000	11.04823000
193.29998870	0.00000000	32.45571000	11.09129000
193.49998869	0.00000000	32.82480000	11.42347000
193.69998868	0.00000000	33.15699000	11.83563000
193.89998866	0.00000000	33.20005000	11.84178000
194.09998865	0.00000000	33.20005000	12.25394000
194.29998864	0.00000000	33.20005000	12.58612000
194.49998863	0.00000000	33.20005000	12.58612000
194.69998862	0.00000000	33.24311000	12.21087000
194.89998861	0.00000000	33.57529000	11.46653000
195.09998859	0.00000000	33.94439000	11.09129000
195.29998858	0.00000000	33.57529000	11.09129000
195.49998857	0.00000000	33.24311000	11.42347000
195.69998856	0.00000000	33.20005000	11.79257000
195.89998855	0.00000000	33.20005000	11.46653000
196.09998853	0.00000000	33.20005000	11.51575000
