Time	Channel A	Channel B	Channel C
(us)	(V)	(mV)	(mV)

-4.49999956	0.00000000	-33.20005000	-11.42347000
-4.29999957	0.00000000	-33.20005000	-11.83563000
-4.09999958	0.00000000	-33.20005000	-11.84178000
-3.89999959	0.00000000	-33.20005000	-12.21087000
-3.69999960	0.00000000	-33.20005000	-12.21087000
-3.49999962	0.00000000	-33.20005000	-11.84178000
-3.29999963	0.00000000	-33.20005000	-11.83563000
-3.09999964	0.00000000	-33.20005000	-11.42347000
-2.89999965	0.00000000	-33.20005000	-11.09129000
-2.69999966	0.00000000	-33.20005000	-11.04823000
-2.49999968	0.00000000	-33.20005000	-11.04823000
-2.29999969	0.00000000	-33.20005000	-11.04823000
-2.09999970	0.00000000	-33.20005000	-11.04823000
-1.89999971	0.00000000	-33.15699000	-11.04823000
-1.69999972	0.00000000	-32.86786000	-11.09129000
-1.49999973	0.00000000	-32.83710000	-11.42347000
-1.29999975	0.00000000	-33.56914000	-11.79257000
-1.09999976	0.00000000	-33.53223000	-11.42347000
-0.89999977	0.00000000	-33.24311000	-11.09129000
-0.69999978	0.00000000	-33.20005000	-11.09129000
-0.49999979	0.00000000	-33.20005000	-11.42347000
-0.29999981	0.31803640	-33.20005000	-11.83563000
-0.09999982	0.63668800	-33.20005000	-11.84178000
0.10000017	0.95533960	-33.20005000	-12.21087000
0.30000016	1.11466500	-33.20005000	-12.21087000
0.50000015	0.95533960	-33.20005000	-11.84178000
0.70000013	0.47736220	-33.20005000	-11.83563000
0.90000012	-0.31803640	-33.20005000	-11.46653000
1.10000011	-1.27399100	-33.20005000	-11.46653000
1.30000010	-2.22994600	-33.20005000	-11.79257000
1.50000009	-2.70792300	-33.20005000	-11.42347000
1.70000008	-2.54859700	-33.20005000	-11.09129000
1.90000006	-1.59264300	-33.20005000	-11.04823000
2.10000005	0.15871060	-33.20005000	-11.04823000
2.30000004	2.22994600	-33.20005000	-11.04823000
2.50000003	4.14124000	-33.20005000	-11.09129000
2.70000002	5.25652100	-33.20005000	-11.46653000
2.90000000	5.09719500	-33.20005000	-12.21087000
3.09999999	3.34522600	-33.20005000	-12.58612000
3.29999998	0.47736220	-33.20005000	-12.62918000
3.49999997	-2.86724900	-33.20005000	-12.58612000
3.69999996	-6.05315000	-33.20005000	-12.21087000
3.89999994	-7.80511800	-33.20005000	-11.46653000
4.09999993	-7.64579200	-33.20005000	-11.09129000
4.29999992	-5.57517200	-33.20005000	-11.04823000
4.49999991	-1.91129400	-33.20005000	-11.04823000
4.69999990	2.70792300	-33.20005000	-11.04823000
4.89999989	6.69045300	-33.20005000	-11.09129000
5.09999987	9.07972400	-33.20005000	-11.46653000
5.29999986	9.23905000	-33.20005000	-12.21087000
5.49999985	7.16781500	-33.20005000	-12.58612000
5.69999984	3.18590100	-33.20005000	-12.62918000
5.89999983	-1.59264300	-33.20005000	-12.62918000
6.09999981	-6.05315000	-33.20005000	-12.58612000
6.29999980	-8.76107300	-33.20005000	-12.21087000
6.49999979	-9.39837600	-33.20005000	-11.46653000
6.69999978	-7.64579200	-33.20005000	-11.09129000
6.89999977	-3.98191400	-33.20005000	-11.04823000
7.09999975	0.31803640	-33.15699000	-11.04823000
7.29999974	4.30056600	-32.82480000	-11.04823000
7.49999973	7.00848900	-32.41265000	-11.04823000
7.69999972	7.64579200	-32.44956000	-11.09129000
7.89999971	6.53112700	-32.41265000	-11.46653000
8.09999970	3.98191400	-32.82480000	-12.21087000
8.29999968	0.63668800	-33.15699000	-12.58612000
8.49999967	-2.38927200	-33.20005000	-12.62918000
8.69999966	-4.45989200	-33.20005000	-12.58612000
8.89999965	-5.25652100	-33.20005000	-12.21087000
9.09999964	-4.61921700	-33.20005000	-11.46653000
9.29999962	-3.02657500	-33.20005000	-11.09129000
9.49999961	-0.95533960	-33.20005000	-11.04823000
9.69999960	0.79601380	-33.20005000	-11.04823000
9.89999959	2.07062000	-33.20005000	-11.04823000
10.09999958	2.54859700	-33.20005000	-11.04823000
10.29999956	2.38927200	-33.20005000	-11.04823000
10.49999955	1.59264300	-33.20005000	-11.04823000
10.69999954	0.63668800	-33.20005000	-11.04823000
10.89999953	-0.15871060	-33.20005000	-11.04823000
11.09999952	-0.63668800	-33.20005000	-11.04823000
11.29999951	-0.95533960	-33.20005000	-11.04823000
11.49999949	-0.95533960	-33.20005000	-11.04823000
11.69999948	-0.79601380	-33.20005000	-11.04823000
11.89999947	-0.47736220	-33.20005000	-11.04823000
12.09999946	-0.15871060	-33.20005000	-11.04823000
12.29999945	-0.15871060	-33.20005000	-11.04823000
12.49999943	-0.15871060	-33.20005000	-11.04823000
12.69999942	0.00000000	-33.20005000	-11.04823000
12.89999941	0.00000000	-33.20005000	-11.04823000
13.09999940	0.00000000	-33.20005000	-11.04823000
13.29999939	0.00000000	-33.20005000	-11.04823000
13.49999937	0.00000000	-33.20005000	-11.04823000
13.69999936	0.00000000	-33.20005000	-11.04823000
13.89999935	0.00000000	-33.20005000	-11.04823000
14.09999934	0.00000000	-33.20005000	-11.04823000
14.29999933	-0.15871060	-33.20005000	-11.04823000
14.49999932	-0.15871060	-33.20005000	-11.04823000
14.69999930	0.00000000	-33.20005000	-11.04823000
14.89999929	0.00000000	-33.20005000	-11.04823000
15.09999928	0.00000000	-33.20005000	-11.04823000
15.29999927	0.00000000	-33.20005000	-11.04823000
15.49999926	0.00000000	-33.20005000	-11.04823000
15.69999924	0.00000000	-33.20005000	-11.04823000
15.89999923	0.00000000	-33.20005000	-11.04823000
16.09999922	0.00000000	-33.20005000	-11.04823000
16.29999921	0.00000000	-33.20005000	-11.04823000
16.49999920	-0.15871060	-33.15699000	-11.04823000
16.69999919	-0.15871060	-32.78174000	-11.04823000
16.89999917	0.00000000	-32.03740000	-11.04823000
17.09999916	0.00000000	-31.61909000	-11.04823000
17.29999915	0.00000000	-31.24384000	-11.04823000
17.49999914	0.00000000	-30.87475000	-11.04823000
17.69999913	0.00000000	-31.24384000	-11.09129000
17.89999911	0.00000000	-31.61909000	-11.42347000
18.09999910	0.00000000	-32.08661000	-11.79257000
18.29999909	0.00000000	-33.29232000	-11.42347000
18.49999908	0.00000000	-35.16240000	-11.09129000
18.69999907	0.00000000	-37.06324000	-11.04823000
18.89999905	0.00000000	-37.85679000	-11.04823000
19.09999904	0.00000000	-37.85679000	-11.04823000
19.29999903	0.00000000	-37.02018000	-11.04823000
19.49999902	0.00000000	-34.65182000	-11.04823000
19.69999901	0.00000000	-31.15772000	-11.04823000
19.89999900	0.00000000	-26.91929000	-11.04823000
20.09999898	0.00000000	-23.10531000	-11.04823000
20.29999897	0.00000000	-21.19833000	-11.04823000
20.49999896	0.00000000	-21.61663000	-11.04823000
20.69999895	0.00000000	-24.77854000	-11.04823000
20.89999894	0.00000000	-30.64099000	-11.04823000
21.09999892	0.00000000	-38.36737000	-11.09129000
21.29999891	0.00000000	-46.41363000	-11.42347000
21.49999890	0.00000000	-52.14074000	-11.79257000
21.69999889	0.00000000	-53.67864000	-11.42347000
21.89999888	0.00000000	-50.55979000	-11.14050000
22.09999886	0.00000000	-43.11638000	-11.46653000
22.29999885	0.00000000	-32.22810000	-12.21087000
22.49999884	0.00000000	-19.48204000	-12.53691000
22.69999883	0.00000000	-7.98474400	-12.21087000
22.89999882	0.00000000	-1.14419300	-11.46653000
23.09999881	0.00000000	-1.56865100	-11.09129000
23.29999879	0.00000000	-9.70103300	-11.00517000
23.49999878	0.00000000	-23.66511000	-10.62992000
23.69999877	0.00000000	-41.11097000	-9.89173200
23.89999876	0.00000000	-58.42150000	-9.51648500
24.09999875	0.00000000	-71.07529000	-9.51648500
24.29999873	0.00000000	-75.27066000	-9.93479300
24.49999872	0.00000000	-69.45128000	-11.09744000
24.69999871	0.00000000	-54.74901000	-12.62918000
24.89999870	0.00000000	-34.18430000	-14.21014000
25.09999869	0.00000000	-11.84793000	-15.74188000
25.29999867	0.00000000	6.98818900	-16.85531000
25.49999866	0.00000000	16.62770000	-16.81225000
25.69999865	0.00000000	15.13287000	-15.27436000
25.89999864	0.00000000	3.08809000	-12.53691000
26.09999863	0.00000000	-17.42741000	-9.05511800
26.29999862	0.00000000	-42.13828000	-5.19808000
26.49999860	0.00000000	-65.26205000	-2.12844500
26.69999859	0.00000000	-81.08390000	-0.55364170
26.89999858	0.00000000	-85.73449000	-0.68897630
27.09999857	0.00000000	-78.38336000	-3.43257800
27.29999856	0.00000000	-60.65453000	-9.23351300
27.49999854	0.00000000	-36.74335000	-16.16018000
27.69999853	0.00000000	-12.77682000	-23.17298000
27.89999852	0.00000000	6.20078700	-28.89395000
28.09999851	0.00000000	16.25246000	-31.53912000
28.29999850	0.00000000	15.13287000	-29.91511000
28.49999848	0.00000000	3.59867100	-23.64665000
28.69999847	0.00000000	-15.34203000	-13.23819000
28.89999846	0.00000000	-37.34621000	-0.97194880
29.09999845	0.00000000	-57.44340000	9.47957600
29.29999844	0.00000000	-71.03223000	16.03715000
29.49999843	0.00000000	-75.73203000	17.51968000
29.69999841	0.00000000	-71.12450000	12.41388000
29.89999840	0.00000000	-58.42150000	1.63016700
30.09999839	0.00000000	-41.06176000	-12.67840000
30.29999838	0.00000000	-23.24680000	-27.35605000
30.49999837	0.00000000	-8.54453700	-39.34547000
30.69999835	0.00000000	0.06151574	-46.22293000
30.89999834	0.00000000	1.27337600	-45.80462000
31.09999833	0.00000000	-4.08464600	-37.67839000
31.29999832	0.00000000	-14.91757000	-23.78199000
31.49999831	0.00000000	-28.41412000	-6.73597400
31.69999829	0.00000000	-41.62770000	9.81176100
31.89999828	0.00000000	-52.09768000	22.16412000
32.09999827	0.00000000	-57.91092000	27.18381000
32.29999826	0.00000000	-57.95398000	24.16338000
32.49999825	0.00000000	-52.60211000	14.08095000
32.69999824	0.00000000	-43.71924000	-1.02116100
32.89999822	0.00000000	-33.24926000	-18.39321000
33.09999821	0.00000000	-23.19759000	-34.23351000
33.29999820	0.00000000	-15.84646000	-45.06028000
33.49999819	0.00000000	-12.72761000	-48.96038000
33.69999818	0.00000000	-14.26550000	-45.06028000
33.89999816	0.00000000	-19.99262000	-34.27657000
34.09999815	0.00000000	-28.03888000	-18.81152000
34.29999814	0.00000000	-35.81446000	-2.22071800
34.49999813	0.00000000	-42.04601000	12.08784000
34.69999812	0.00000000	-45.85999000	20.95841000
34.89999810	0.00000000	-45.85999000	22.53937000
35.09999809	0.00000000	-42.13828000	16.77534000
35.29999808	0.00000000	-36.74335000	5.20423200
35.49999807	0.00000000	-31.29306000	-9.43036400
35.69999806	0.00000000	-26.26722000	-23.73892000
35.89999805	0.00000000	-23.24065000	-34.56570000
36.09999803	0.00000000	-23.19759000	-39.95448000
36.29999802	0.00000000	-25.89198000	-38.41658000
36.49999801	0.00000000	-30.45644000	-30.38263000
36.69999800	0.00000000	-35.48228000	-18.48548000
36.89999799	0.00000000	-39.35162000	-5.80093500
37.09999797	0.00000000	-41.62770000	4.23228400
37.29999796	0.00000000	-41.20940000	9.25196800
37.49999795	0.00000000	-37.81373000	8.50147600
37.69999794	0.00000000	-33.24926000	2.00541300
37.89999793	0.00000000	-28.92470000	-7.89247000
38.09999791	0.00000000	-25.43061000	-17.88263000
38.29999790	0.00000000	-23.15453000	-25.17839000
38.49999789	0.00000000	-23.15453000	-27.87278000
38.69999788	0.00000000	-25.43061000	-25.22145000
38.89999787	0.00000000	-28.92470000	-18.30093000
39.09999786	0.00000000	-33.24926000	-9.14739100
39.29999784	0.00000000	-37.77067000	-0.32603340
39.49999783	0.00000000	-40.92027000	4.98277500
39.69999782	0.00000000	-41.72613000	5.38877900
39.89999781	0.00000000	-41.38779000	0.42445860
40.09999780	0.00000000	-39.30241000	-7.98474400
40.29999778	0.00000000	-35.52534000	-17.23056000
40.49999777	0.00000000	-30.88090000	-25.27067000
40.69999776	0.00000000	-27.01156000	-29.45374000
40.89999775	0.00000000	-24.22490000	-28.34030000
41.09999774	0.00000000	-22.73007000	-22.57628000
41.29999772	0.00000000	-23.10531000	-13.74262000
41.49999771	0.00000000	-25.43061000	-4.12770700
41.69999770	0.00000000	-28.92470000	3.53715500
41.89999769	0.00000000	-33.15699000	7.39419200
42.09999768	0.00000000	-37.02018000	6.27460600
42.29999767	0.00000000	-39.39468000	0.93503930
42.49999765	0.00000000	-40.60039000	-6.77903500
42.69999764	0.00000000	-40.55733000	-15.23130000
42.89999763	0.00000000	-39.01944000	-22.15797000
43.09999762	0.00000000	-36.31890000	-25.68897000
43.29999761	0.00000000	-33.24926000	-25.68897000
43.49999759	0.00000000	-30.50566000	-22.24409000
43.69999758	0.00000000	-28.59252000	-16.16018000
43.89999757	0.00000000	-27.76206000	-10.02707000
44.09999756	0.00000000	-28.12500000	-5.29035400
44.29999755	0.00000000	-28.83243000	-2.17765700
44.49999753	0.00000000	-29.61983000	-1.05807100
44.69999752	0.00000000	-29.99508000	-2.59596400
44.89999751	0.00000000	-30.03814000	-6.35457700
45.09999750	0.00000000	-30.03814000	-10.58686000
45.29999749	0.00000000	-30.13041000	-14.11786000
45.49999748	0.00000000	-30.96703000	-16.81225000
45.69999746	0.00000000	-33.29232000	-17.97490000
45.89999745	0.00000000	-36.31890000	-17.23056000
46.09999744	0.00000000	-39.06250000	-15.36663000
46.29999743	0.00000000	-40.97564000	-13.00443000
46.49999742	0.00000000	-41.71998000	-10.67298000
46.69999740	0.00000000	-40.46506000	-8.35383800
46.89999739	0.00000000	-36.97096000	-6.86515700
47.09999738	0.00000000	-31.53297000	-6.82209600
47.29999737	0.00000000	-25.38755000	-7.98474400
47.49999736	0.00000000	-19.99262000	-9.89173200
47.69999734	0.00000000	-16.96604000	-12.21087000
47.89999733	0.00000000	-17.38435000	-14.16092000
48.09999732	0.00000000	-21.65969000	-15.74188000
48.29999731	0.00000000	-28.96776000	-16.81225000
48.49999730	0.00000000	-37.48154000	-16.43701000
48.69999729	0.00000000	-45.20792000	-14.53617000
48.89999727	0.00000000	-50.55979000	-12.16781000
49.09999726	0.00000000	-51.67323000	-9.09817800
49.29999725	0.00000000	-47.81619000	-6.04084600
49.49999724	0.00000000	-40.13287000	-4.49680100
49.69999723	0.00000000	-30.45644000	-4.08464600
49.89999721	0.00000000	-21.24139000	-5.33341500
50.09999720	0.00000000	-14.68381000	-8.40305000
50.29999719	0.00000000	-12.77682000	-12.58612000
50.49999718	0.00000000	-15.80339000	-16.43701000
50.69999717	0.00000000	-22.77928000	-18.81152000
50.89999715	0.00000000	-31.99434000	-19.93110000
51.09999714	0.00000000	-41.25246000	-19.08834000
51.29999713	0.00000000	-47.77313000	-15.64960000
51.49999712	0.00000000	-50.09227000	-11.09129000
51.69999711	0.00000000	-47.39788000	-6.82209600
51.89999710	0.00000000	-40.50812000	-3.70939900
52.09999708	0.00000000	-31.71137000	-2.12844500
52.29999707	0.00000000	-23.61589000	-2.17150600
52.49999706	0.00000000	-18.59006000	-4.12770700
52.69999705	0.00000000	-17.38435000	-7.93553100
52.89999704	0.00000000	-20.07874000	-12.16166000
53.09999702	0.00000000	-25.84892000	-15.64960000
53.29999701	0.00000000	-33.15699000	-17.97490000
53.49999700	0.00000000	-40.04675000	-18.35015000
53.69999699	0.00000000	-44.27903000	-16.85531000
53.89999698	0.00000000	-44.69734000	-14.16092000
54.09999696	0.00000000	-41.62770000	-11.09744000
54.29999695	0.00000000	-35.85752000	-8.40305000
54.49999694	0.00000000	-28.96776000	-6.86515700
54.69999693	0.00000000	-23.24065000	-6.82209600
54.89999692	0.00000000	-20.50320000	-7.93553100
55.09999691	0.00000000	-21.24139000	-9.47342500
55.29999689	0.00000000	-24.68627000	-11.00517000
55.49999688	0.00000000	-30.08735000	-12.16166000
55.69999687	0.00000000	-35.85752000	-12.49385000
55.89999686	0.00000000	-40.46506000	-11.74951000
56.09999685	0.00000000	-42.79035000	-9.89173200
56.29999683	0.00000000	-42.00295000	-8.40305000
56.49999682	0.00000000	-38.60113000	-7.98474400
56.69999681	0.00000000	-33.57529000	-8.40305000
56.89999680	0.00000000	-28.59252000	-9.98400600
57.09999679	0.00000000	-24.73548000	-12.67224000
57.29999677	0.00000000	-23.15453000	-15.69882000
57.49999676	0.00000000	-23.89271000	-17.97490000
57.69999675	0.00000000	-26.18110000	-18.30093000
57.89999674	0.00000000	-29.70595000	-16.39395000
58.09999673	0.00000000	-33.53223000	-12.53691000
58.29999672	0.00000000	-36.97096000	-7.93553100
58.49999670	0.00000000	-38.50886000	-3.70939900
58.69999669	0.00000000	-37.81373000	-1.01501000
58.89999668	0.00000000	-35.94980000	-0.68897630
59.09999667	0.00000000	-33.61835000	-3.01427100
59.29999666	0.00000000	-31.66215000	-8.02780400
59.49999664	0.00000000	-30.08120000	-14.16708000
59.69999663	0.00000000	-28.96776000	-19.97416000
59.89999662	0.00000000	-28.96776000	-24.15723000
60.09999661	0.00000000	-30.03814000	-25.27067000
60.29999660	0.00000000	-31.20078000	-22.57628000
60.49999658	0.00000000	-31.99434000	-16.81225000
60.69999657	0.00000000	-32.78174000	-9.51648500
60.89999656	0.00000000	-33.15699000	-2.59596400
61.09999655	0.00000000	-33.15699000	2.04847400
61.29999654	0.00000000	-32.78174000	3.62942900
61.49999653	0.00000000	-32.03740000	2.00541300
61.69999651	0.00000000	-31.66215000	-3.01427100
61.89999650	0.00000000	-31.66215000	-10.67298000
62.09999649	0.00000000	-32.03740000	-18.35015000
62.29999648	0.00000000	-32.82480000	-24.15723000
62.49999647	0.00000000	-33.57529000	-26.84547000
62.69999645	0.00000000	-34.31963000	-25.73203000
62.89999644	0.00000000	-34.31963000	-21.45669000
63.09999643	0.00000000	-33.57529000	-14.90526000
63.29999642	0.00000000	-32.78174000	-7.19734200
63.49999641	0.00000000	-31.61909000	-0.63976370
63.69999639	0.00000000	-30.50566000	3.62942900
63.89999638	0.00000000	-30.08120000	4.74286400
64.09999637	0.00000000	-30.08120000	2.09153500
64.29999636	0.00000000	-30.45644000	-3.29109200
64.49999635	0.00000000	-31.24384000	-9.84867000
64.69999634	0.00000000	-32.03740000	-16.43701000
64.89999632	0.00000000	-33.15699000	-21.41363000
65.09999631	0.00000000	-33.90133000	-23.78199000
65.29999630	0.00000000	-33.53223000	-23.04380000
65.49999629	0.00000000	-32.82480000	-20.01722000
65.69999628	0.00000000	-31.99434000	-15.74188000
65.89999626	0.00000000	-31.24384000	-11.04823000
66.09999625	0.00000000	-30.50566000	-6.40378900
66.29999624	0.00000000	-30.50566000	-2.54675200
66.49999623	0.00000000	-31.24384000	-0.59670270
66.69999622	0.00000000	-32.03740000	-0.55364170
66.89999620	0.00000000	-33.20005000	-2.08538400
67.09999619	0.00000000	-34.31963000	-4.77977300
67.29999618	0.00000000	-34.65182000	-7.89247000
67.49999617	0.00000000	-33.85827000	-11.04823000
67.69999616	0.00000000	-31.57603000	-14.16092000
67.89999615	0.00000000	-28.92470000	-16.90453000
68.09999613	0.00000000	-26.96850000	-18.81152000
68.29999612	0.00000000	-25.80585000	-19.59892000
68.49999611	0.00000000	-25.89198000	-18.81152000
68.69999610	0.00000000	-27.84818000	-16.90453000
68.89999609	0.00000000	-31.66830000	-14.11786000
69.09999607	0.00000000	-35.85752000	-10.58686000
69.29999606	0.00000000	-38.97638000	-6.35457700
69.49999605	0.00000000	-40.55733000	-2.54675200
69.69999604	0.00000000	-40.51427000	-0.59670270
69.89999603	0.00000000	-38.55807000	-0.55364170
70.09999601	0.00000000	-34.65182000	-2.17765700
70.29999600	0.00000000	-29.66289000	-5.66560000
70.49999599	0.00000000	-24.64321000	-10.67298000
70.69999598	0.00000000	-21.19833000	-15.69882000
70.89999597	0.00000000	-20.03568000	-19.92495000
71.09999596	0.00000000	-21.57357000	-22.24409000
71.29999594	0.00000000	-25.47367000	-21.88115000
71.49999593	0.00000000	-30.83169000	-19.54970000
71.69999592	0.00000000	-36.68799000	-15.28051000
71.89999591	0.00000000	-41.30782000	-9.93479300
72.09999590	0.00000000	-44.37131000	-5.33341500
72.29999588	0.00000000	-44.32209000	-2.54675200
72.49999587	0.00000000	-40.93258000	-1.80241100
72.69999586	0.00000000	-35.94980000	-2.92199800
72.89999585	0.00000000	-30.45644000	-5.98548200
73.09999584	0.00000000	-25.43061000	-9.42421200
73.29999582	0.00000000	-21.57357000	-12.53691000
73.49999581	0.00000000	-20.07874000	-14.85605000
73.69999580	0.00000000	-21.57357000	-15.64960000
73.89999579	0.00000000	-25.38755000	-15.32357000
74.09999578	0.00000000	-30.03814000	-14.16092000
74.29999577	0.00000000	-34.69488000	-12.67224000
74.49999575	0.00000000	-38.55807000	-11.51575000
74.69999574	0.00000000	-40.51427000	-11.14050000
74.89999573	0.00000000	-40.55733000	-11.51575000
75.09999572	0.00000000	-38.97638000	-12.62918000
75.29999571	0.00000000	-35.90059000	-13.69956000
75.49999569	0.00000000	-32.03740000	-13.65650000
75.69999568	0.00000000	-28.63558000	-12.16781000
75.89999567	0.00000000	-26.64247000	-9.84867000
76.09999566	0.00000000	-26.59326000	-7.56643700
76.29999565	0.00000000	-27.29453000	-5.57332700
76.49999563	0.00000000	-28.50024000	-4.49680100
76.69999562	0.00000000	-30.03814000	-4.54601300
76.89999561	0.00000000	-31.57603000	-6.86515700
77.09999560	0.00000000	-32.68946000	-10.67298000
77.29999559	0.00000000	-32.73252000	-14.53617000
77.49999558	0.00000000	-32.03740000	-18.06102000
77.69999556	0.00000000	-31.66215000	-20.30020000
77.89999555	0.00000000	-31.66215000	-20.66929000
78.09999554	0.00000000	-32.08661000	-18.35015000
78.29999553	0.00000000	-33.20005000	-14.16708000
78.49999552	0.00000000	-34.31963000	-9.47342500
78.69999550	0.00000000	-34.69488000	-4.82898600
78.89999549	0.00000000	-34.31963000	-1.02116100
79.09999548	0.00000000	-33.11393000	0.51673230
79.29999547	0.00000000	-31.20078000	-0.64591530
79.49999546	0.00000000	-28.92470000	-4.08464600
79.69999544	0.00000000	-27.38681000	-9.05511800
79.89999543	0.00000000	-26.96850000	-13.69956000
80.09999542	0.00000000	-27.38681000	-17.23056000
80.29999541	0.00000000	-28.96776000	-19.55585000
80.49999540	0.00000000	-31.61909000	-19.93110000
80.69999539	0.00000000	-34.31963000	-18.43627000
80.89999537	0.00000000	-36.27584000	-15.69882000
81.09999536	0.00000000	-37.39542000	-12.21087000
81.29999535	0.00000000	-36.97712000	-8.35998900
81.49999534	0.00000000	-34.73794000	-5.29035400
81.69999533	0.00000000	-32.03740000	-3.66633800
81.89999531	0.00000000	-29.66289000	-3.24803100
82.09999530	0.00000000	-27.38681000	-3.62327700
82.29999529	0.00000000	-26.26722000	-4.82283400
82.49999528	0.00000000	-26.96850000	-6.77903500
82.69999527	0.00000000	-28.45718000	-9.51648500
82.89999525	0.00000000	-30.08120000	-12.58612000
83.09999524	0.00000000	-31.99434000	-15.32357000
83.29999523	0.00000000	-33.90133000	-17.23056000
83.49999522	0.00000000	-34.65182000	-18.01796000
83.69999521	0.00000000	-34.36884000	-17.27362000
83.89999520	0.00000000	-33.57529000	-15.69882000
84.09999518	0.00000000	-32.78174000	-13.32431000
84.29999517	0.00000000	-31.61909000	-9.84867000
84.49999516	0.00000000	-30.50566000	-6.40378900
84.69999515	0.00000000	-30.08120000	-3.66633800
84.89999514	0.00000000	-30.08120000	-2.12844500
85.09999512	0.00000000	-30.41338000	-2.12844500
85.29999511	0.00000000	-30.78248000	-3.70939900
85.49999510	0.00000000	-30.41338000	-6.82209600
85.69999509	0.00000000	-30.08120000	-11.04823000
85.89999508	0.00000000	-30.03814000	-15.27436000
86.09999506	0.00000000	-30.08120000	-18.39321000
86.29999505	0.00000000	-30.45644000	-19.93110000
86.49999504	0.00000000	-31.24384000	-19.50664000
86.69999503	0.00000000	-32.03740000	-16.76919000
86.89999502	0.00000000	-33.20005000	-12.21087000
87.09999501	0.00000000	-34.27657000	-7.19734200
87.29999499	0.00000000	-34.31963000	-3.33415300
87.49999498	0.00000000	-33.57529000	-1.01501000
87.69999497	0.00000000	-32.78174000	-1.06422200
87.89999496	0.00000000	-31.57603000	-3.75246000
88.09999495	0.00000000	-30.08120000	-8.35998900
88.29999493	0.00000000	-28.92470000	-13.69956000
88.49999492	0.00000000	-28.50024000	-17.93184000
88.69999491	0.00000000	-28.54946000	-19.93110000
88.89999490	0.00000000	-29.34301000	-19.93110000
89.09999489	0.00000000	-31.20078000	-17.97490000
89.29999487	0.00000000	-32.73252000	-14.07480000
89.49999486	0.00000000	-33.53223000	-9.09817800
89.69999485	0.00000000	-33.94439000	-4.12770700
89.89999484	0.00000000	-33.53223000	-1.10728300
90.09999483	0.00000000	-32.82480000	-1.06422200
90.29999482	0.00000000	-31.99434000	-3.70939900
90.49999480	0.00000000	-31.24384000	-7.98474400
90.69999479	0.00000000	-30.45644000	-13.00443000
90.89999478	0.00000000	-30.08120000	-17.97490000
91.09999477	0.00000000	-30.03814000	-20.99532000
91.29999476	0.00000000	-30.08120000	-20.99532000
91.49999474	0.00000000	-30.45644000	-17.97490000
91.69999473	0.00000000	-31.20078000	-13.00443000
91.89999472	0.00000000	-31.52682000	-7.98474400
92.09999471	0.00000000	-31.20078000	-3.70939900
92.29999470	0.00000000	-30.45644000	-1.06422200
92.49999468	0.00000000	-30.13041000	-1.10728300
92.69999467	0.00000000	-30.50566000	-4.12770700
92.89999466	0.00000000	-31.61909000	-9.09817800
93.09999465	0.00000000	-32.78174000	-14.07480000
93.29999464	0.00000000	-33.57529000	-17.97490000
93.49999463	0.00000000	-34.31963000	-19.88189000
93.69999461	0.00000000	-34.27657000	-19.46358000
93.89999460	0.00000000	-33.15699000	-16.39395000
94.09999459	0.00000000	-31.61909000	-11.46653000
94.29999458	0.00000000	-30.03814000	-6.90821800
94.49999457	0.00000000	-28.45718000	-4.12770700
94.69999455	0.00000000	-26.91929000	-3.33415300
94.89999454	0.00000000	-25.84892000	-4.08464600
95.09999453	0.00000000	-26.22416000	-6.44685000
95.29999452	0.00000000	-28.17421000	-9.89173200
95.49999451	0.00000000	-30.88090000	-13.69956000
95.69999449	0.00000000	-34.36884000	-16.39395000
95.89999448	0.00000000	-37.39542000	-17.18750000
96.09999447	0.00000000	-38.93332000	-16.39395000
96.29999446	0.00000000	-38.60113000	-13.69956000
96.49999445	0.00000000	-36.65108000	-9.93479300
96.69999444	0.00000000	-33.90133000	-6.86515700
96.89999442	0.00000000	-30.03814000	-5.29035400
97.09999441	0.00000000	-26.22416000	-5.24729300
97.29999440	0.00000000	-23.84965000	-6.40378900
97.49999439	0.00000000	-22.68701000	-8.31077700
97.69999438	0.00000000	-23.10531000	-10.62992000
97.89999436	0.00000000	-25.43061000	-12.53691000
98.09999435	0.00000000	-28.92470000	-13.74262000
98.29999434	0.00000000	-33.15699000	-14.11786000
98.49999433	0.00000000	-36.97096000	-13.74262000
98.69999432	0.00000000	-38.97638000	-12.58612000
98.89999430	0.00000000	-39.39468000	-11.09744000
99.09999429	0.00000000	-38.60113000	-9.93479300
99.29999428	0.00000000	-36.23277000	-9.47342500
99.49999427	0.00000000	-32.78174000	-9.09817800
99.69999426	0.00000000	-28.92470000	-8.68602300
99.89999425	0.00000000	-25.84892000	-8.67987200
100.09999423	0.00000000	-24.26796000	-8.26771600
100.29999422	0.00000000	-24.22490000	-7.93553100
100.49999421	0.00000000	-25.38755000	-7.89247000
100.69999420	0.00000000	-27.34375000	-7.98474400
100.89999419	0.00000000	-30.08120000	-8.72908400
101.09999417	0.00000000	-33.15699000	-10.29774000
101.29999416	0.00000000	-35.85752000	-11.79872000
101.49999415	0.00000000	-37.39542000	-13.41658000
101.69999414	0.00000000	-37.43848000	-14.49311000
101.89999413	0.00000000	-36.27584000	-14.90526000
102.09999411	0.00000000	-34.36884000	-14.07480000
102.29999410	0.00000000	-31.99434000	-12.16781000
102.49999409	0.00000000	-29.66289000	-9.42421200
102.69999408	0.00000000	-27.34375000	-6.40378900
102.89999407	0.00000000	-25.84892000	-4.12770700
103.09999406	0.00000000	-25.80585000	-3.70939900
103.29999404	0.00000000	-26.91929000	-4.82283400
103.49999403	0.00000000	-28.50024000	-6.82209600
103.69999402	0.00000000	-30.45644000	-9.89173200
103.89999401	0.00000000	-32.73868000	-13.32431000
104.09999400	0.00000000	-34.27657000	-15.64960000
104.29999398	0.00000000	-34.74409000	-16.81225000
104.49999397	0.00000000	-34.74409000	-16.39395000
104.69999396	0.00000000	-34.31963000	-14.11786000
104.89999395	0.00000000	-33.11393000	-11.09744000
105.09999394	0.00000000	-31.24384000	-8.35383800
105.29999392	0.00000000	-29.34301000	-6.40378900
105.49999391	0.00000000	-28.54946000	-5.24729300
105.69999390	0.00000000	-28.50024000	-5.29035400
105.89999389	0.00000000	-28.92470000	-6.82209600
106.09999388	0.00000000	-30.08120000	-9.47342500
106.29999387	0.00000000	-31.57603000	-12.16781000
106.49999385	0.00000000	-32.73252000	-14.11786000
106.69999384	0.00000000	-33.15699000	-15.27436000
106.89999383	0.00000000	-33.15699000	-15.23130000
107.09999382	0.00000000	-32.73252000	-13.74262000
107.29999381	0.00000000	-31.57603000	-11.46653000
107.49999379	0.00000000	-30.08120000	-9.51648500
107.69999378	0.00000000	-28.92470000	-7.93553100
107.89999377	0.00000000	-28.54946000	-6.86515700
108.09999376	0.00000000	-28.92470000	-7.24040300
108.29999375	0.00000000	-30.08120000	-9.09817800
108.49999374	0.00000000	-31.57603000	-11.00517000
108.69999372	0.00000000	-32.73252000	-12.58612000
108.89999371	0.00000000	-33.15699000	-13.69956000
109.09999370	0.00000000	-33.15699000	-13.69956000
109.29999369	0.00000000	-32.78174000	-12.58612000
109.49999368	0.00000000	-31.99434000	-11.04823000
109.69999366	0.00000000	-31.20078000	-9.47342500
109.89999365	0.00000000	-30.03814000	-7.93553100
110.09999364	0.00000000	-28.92470000	-6.82209600
110.29999363	0.00000000	-28.54946000	-6.82209600
110.49999362	0.00000000	-28.87549000	-7.93553100
110.69999360	0.00000000	-29.66289000	-9.47342500
110.89999359	0.00000000	-30.45644000	-11.04823000
111.09999358	0.00000000	-31.61909000	-12.58612000
111.29999357	0.00000000	-32.73252000	-13.69956000
111.49999356	0.00000000	-33.10777000	-13.74262000
111.69999355	0.00000000	-32.78174000	-13.00443000
111.89999353	0.00000000	-31.99434000	-12.21087000
112.09999352	0.00000000	-31.24384000	-11.04823000
112.29999351	0.00000000	-30.45644000	-9.89173200
112.49999350	0.00000000	-30.08120000	-9.09817800
112.69999349	0.00000000	-30.03814000	-8.31077700
112.89999347	0.00000000	-30.03814000	-7.98474400
113.09999346	0.00000000	-30.03814000	-8.31077700
113.29999345	0.00000000	-30.08120000	-9.05511800
113.49999344	0.00000000	-30.41338000	-9.43036400
113.69999343	0.00000000	-30.82554000	-9.51648500
113.89999341	0.00000000	-30.83169000	-9.89173200
114.09999340	0.00000000	-31.24384000	-10.62992000
114.29999339	0.00000000	-31.57603000	-11.00517000
114.49999338	0.00000000	-31.61909000	-11.09129000
114.69999337	0.00000000	-31.61909000	-11.46653000
114.89999336	0.00000000	-31.57603000	-12.21087000
115.09999334	0.00000000	-31.20078000	-12.53691000
115.29999333	0.00000000	-30.45644000	-12.21087000
115.49999332	0.00000000	-30.13041000	-11.46653000
115.69999331	0.00000000	-30.41338000	-11.04823000
115.89999330	0.00000000	-30.78248000	-10.58686000
116.09999328	0.00000000	-30.45644000	-9.47342500
116.29999327	0.00000000	-30.50566000	-8.35998900
116.49999326	0.00000000	-31.20078000	-7.93553100
116.69999325	0.00000000	-31.57603000	-7.93553100
116.89999324	0.00000000	-31.61909000	-8.35998900
117.09999322	0.00000000	-31.57603000	-9.47342500
117.29999321	0.00000000	-31.20078000	-10.62992000
117.49999320	0.00000000	-30.41338000	-11.42347000
117.69999319	0.00000000	-29.66289000	-12.21087000
117.89999318	0.00000000	-28.87549000	-12.58612000
118.09999317	0.00000000	-28.54946000	-12.58612000
118.29999315	0.00000000	-28.87549000	-12.21087000
118.49999314	0.00000000	-29.66289000	-11.42347000
118.69999313	0.00000000	-30.41338000	-10.62992000
118.89999312	0.00000000	-31.20078000	-9.47342500
119.09999311	0.00000000	-31.61909000	-8.35998900
119.29999309	0.00000000	-32.03740000	-7.93553100
119.49999308	0.00000000	-32.73252000	-7.93553100
119.69999307	0.00000000	-32.68946000	-8.31077700
119.89999306	0.00000000	-31.61909000	-9.09817800
120.09999305	0.00000000	-30.45644000	-9.84867000
120.29999303	0.00000000	-29.61983000	-10.62992000
120.49999302	0.00000000	-28.45718000	-11.00517000
120.69999301	0.00000000	-27.38681000	-11.04823000
120.89999300	0.00000000	-27.34375000	-11.04823000
121.09999299	0.00000000	-28.08194000	-11.04823000
121.29999298	0.00000000	-28.87549000	-11.04823000
121.49999296	0.00000000	-30.08120000	-11.00517000
121.69999295	0.00000000	-31.57603000	-10.62992000
121.89999294	0.00000000	-32.73252000	-9.89173200
122.09999293	0.00000000	-33.15699000	-9.51648500
122.29999292	0.00000000	-33.15699000	-9.47342500
122.49999290	0.00000000	-32.73252000	-9.47342500
122.69999289	0.00000000	-31.61909000	-9.47342500
122.89999288	0.00000000	-30.45644000	-9.47342500
123.09999287	0.00000000	-29.66289000	-9.47342500
123.29999286	0.00000000	-28.87549000	-9.47342500
123.49999284	0.00000000	-28.50024000	-9.51648500
123.69999283	0.00000000	-28.45718000	-9.89173200
123.89999282	0.00000000	-28.50024000	-10.62992000
124.09999281	0.00000000	-28.92470000	-11.00517000
124.29999280	0.00000000	-30.03814000	-11.04823000
124.49999279	0.00000000	-31.15157000	-11.04823000
124.69999277	0.00000000	-31.61909000	-11.00517000
124.89999276	0.00000000	-32.03740000	-10.62992000
125.09999275	0.00000000	-32.78174000	-9.89173200
125.29999274	0.00000000	-33.10777000	-9.51648500
125.49999273	0.00000000	-32.73252000	-9.47342500
125.69999271	0.00000000	-31.61909000	-9.43036400
125.89999270	0.00000000	-30.45644000	-9.09817800
126.09999269	0.00000000	-29.66289000	-8.72908400
126.29999268	0.00000000	-28.83243000	-9.09817800
126.49999267	0.00000000	-28.08194000	-9.43036400
126.69999265	0.00000000	-27.38681000	-9.51648500
126.89999264	0.00000000	-27.76206000	-9.89173200
127.09999263	0.00000000	-29.24459000	-10.62992000
127.29999262	0.00000000	-30.41338000	-11.00517000
127.49999261	0.00000000	-31.61909000	-11.04823000
127.69999260	0.00000000	-32.73252000	-11.04823000
127.89999258	0.00000000	-33.10777000	-11.04823000
128.09999257	0.00000000	-32.78174000	-11.00517000
128.29999256	0.00000000	-31.99434000	-10.62992000
128.49999255	0.00000000	-31.20078000	-9.89173200
128.69999254	0.00000000	-30.03814000	-9.51648500
128.89999252	0.00000000	-28.92470000	-9.47342500
129.09999251	0.00000000	-28.50024000	-9.47342500
129.29999250	0.00000000	-28.50024000	-9.51648500
129.49999249	0.00000000	-28.92470000	-9.89173200
129.69999248	0.00000000	-30.03814000	-10.62992000
129.89999246	0.00000000	-31.15157000	-11.00517000
130.09999245	0.00000000	-31.57603000	-11.04823000
130.29999244	0.00000000	-31.66215000	-11.00517000
130.49999243	0.00000000	-31.95128000	-10.62992000
130.69999242	0.00000000	-31.93898000	-9.89173200
130.89999241	0.00000000	-30.83169000	-9.51648500
131.09999239	0.00000000	-30.08120000	-9.47342500
131.29999238	0.00000000	-29.61983000	-9.47342500
131.49999237	0.00000000	-28.87549000	-9.51648500
131.69999236	0.00000000	-28.54946000	-9.89173200
131.89999235	0.00000000	-28.83243000	-10.62992000
132.09999233	0.00000000	-29.24459000	-11.04823000
132.29999232	0.00000000	-29.29380000	-11.42347000
132.49999231	0.00000000	-30.08120000	-11.79257000
132.69999230	0.00000000	-31.15157000	-11.38041000
132.89999229	0.00000000	-31.52682000	-10.67298000
133.09999227	0.00000000	-31.20078000	-9.84867000
133.29999226	0.00000000	-30.45644000	-9.09817800
133.49999225	0.00000000	-30.08120000	-8.35998900
133.69999224	0.00000000	-30.03814000	-8.35998900
133.89999223	0.00000000	-30.03814000	-9.05511800
134.09999222	0.00000000	-30.03814000	-9.47342500
134.29999220	0.00000000	-30.03814000	-9.89173200
134.49999219	0.00000000	-30.03814000	-10.62992000
134.69999218	0.00000000	-29.99508000	-11.04823000
134.89999217	0.00000000	-29.61983000	-11.46653000
135.09999216	0.00000000	-28.92470000	-12.16166000
135.29999214	0.00000000	-28.92470000	-12.16166000
135.49999213	0.00000000	-29.61983000	-11.42347000
135.69999212	0.00000000	-30.03814000	-10.67298000
135.89999211	0.00000000	-30.41338000	-9.84867000
136.09999210	0.00000000	-30.82554000	-9.09817800
136.29999208	0.00000000	-30.78863000	-8.31077700
136.49999207	0.00000000	-30.86860000	-7.98474400
136.69999206	0.00000000	-30.83169000	-8.31077700
136.89999205	0.00000000	-31.20078000	-9.05511800
137.09999204	0.00000000	-31.15157000	-9.47342500
137.29999203	0.00000000	-30.41338000	-9.89173200
137.49999201	0.00000000	-29.66289000	-10.62992000
137.69999200	0.00000000	-28.87549000	-11.00517000
137.89999199	0.00000000	-28.50024000	-11.04823000
138.09999198	0.00000000	-28.50024000	-11.04823000
138.29999197	0.00000000	-28.87549000	-11.04823000
138.49999195	0.00000000	-29.66289000	-11.00517000
138.69999194	0.00000000	-30.41338000	-10.62992000
138.89999193	0.00000000	-31.20078000	-9.89173200
139.09999192	0.00000000	-31.57603000	-9.47342500
139.29999191	0.00000000	-31.57603000	-9.05511800
139.49999189	0.00000000	-31.20078000	-8.35998900
139.69999188	0.00000000	-30.45644000	-8.35998900
139.89999187	0.00000000	-30.03814000	-9.05511800
140.09999186	0.00000000	-29.61983000	-9.47342500
140.29999185	0.00000000	-28.92470000	-9.89173200
140.49999184	0.00000000	-28.92470000	-10.62992000
140.69999182	0.00000000	-29.61983000	-11.00517000
140.89999181	0.00000000	-29.99508000	-11.04823000
141.09999180	0.00000000	-30.03814000	-11.04823000
141.29999179	0.00000000	-30.03814000	-11.00517000
141.49999178	0.00000000	-30.03814000	-10.62992000
141.69999176	0.00000000	-30.03814000	-9.84867000
141.89999175	0.00000000	-30.03814000	-9.09817800
142.09999174	0.00000000	-29.99508000	-8.31077700
142.29999173	0.00000000	-29.66289000	-7.93553100
142.49999172	0.00000000	-29.29380000	-7.93553100
142.69999170	0.00000000	-29.66289000	-8.31077700
142.89999169	0.00000000	-29.99508000	-9.09817800
143.09999168	0.00000000	-30.03814000	-9.84867000
143.29999167	0.00000000	-30.03814000	-10.67298000
143.49999166	0.00000000	-30.03814000	-11.38041000
143.69999165	0.00000000	-30.03814000	-11.79257000
143.89999163	0.00000000	-30.03814000	-11.42347000
144.09999162	0.00000000	-30.03814000	-11.04823000
144.29999161	0.00000000	-30.03814000	-10.62992000
144.49999160	0.00000000	-29.99508000	-9.84867000
144.69999159	0.00000000	-29.61983000	-9.09817800
144.89999157	0.00000000	-28.87549000	-8.31077700
145.09999156	0.00000000	-28.54946000	-7.93553100
145.29999155	0.00000000	-28.87549000	-7.93553100
145.49999154	0.00000000	-29.61983000	-8.31077700
145.69999153	0.00000000	-29.99508000	-9.05511800
145.89999151	0.00000000	-30.03814000	-9.47342500
146.09999150	0.00000000	-30.03814000	-9.89173200
146.29999149	0.00000000	-30.03814000	-10.62992000
146.49999148	0.00000000	-30.03814000	-11.00517000
146.69999147	0.00000000	-29.99508000	-11.04823000
146.89999146	0.00000000	-29.61983000	-11.00517000
147.09999144	0.00000000	-28.92470000	-10.62992000
147.29999143	0.00000000	-28.92470000	-9.89173200
147.49999142	0.00000000	-29.61983000	-9.51648500
147.69999141	0.00000000	-29.99508000	-9.47342500
147.89999140	0.00000000	-30.03814000	-9.47342500
148.09999138	0.00000000	-30.03814000	-9.43036400
148.29999137	0.00000000	-30.08120000	-9.09817800
148.49999136	0.00000000	-30.41338000	-8.77829600
148.69999135	0.00000000	-30.82554000	-9.51648500
148.89999134	0.00000000	-30.78863000	-10.58686000
149.09999132	0.00000000	-30.82554000	-11.00517000
149.29999131	0.00000000	-30.41338000	-11.04823000
149.49999130	0.00000000	-30.03814000	-11.00517000
149.69999129	0.00000000	-29.61983000	-10.62992000
149.89999128	0.00000000	-28.87549000	-9.89173200
150.09999127	0.00000000	-28.54946000	-9.51648500
150.29999125	0.00000000	-28.87549000	-9.43036400
150.49999124	0.00000000	-29.61983000	-9.09817800
150.69999123	0.00000000	-29.99508000	-8.72908400
150.89999122	0.00000000	-30.03814000	-9.09817800
151.09999121	0.00000000	-30.03814000	-9.43036400
151.29999119	0.00000000	-30.03814000	-9.51648500
151.49999118	0.00000000	-30.03814000	-9.84867000
151.69999117	0.00000000	-30.03814000	-10.21161000
151.89999116	0.00000000	-30.03814000	-9.89173200
152.09999115	0.00000000	-29.99508000	-9.89173200
152.29999113	0.00000000	-29.66289000	-10.21161000
152.49999112	0.00000000	-29.25074000	-9.84867000
152.69999111	0.00000000	-29.24459000	-9.51648500
152.89999110	0.00000000	-28.83243000	-9.47342500
153.09999109	0.00000000	-28.54946000	-9.47342500
153.29999108	0.00000000	-28.87549000	-9.47342500
153.49999106	0.00000000	-29.61983000	-9.47342500
153.69999105	0.00000000	-29.99508000	-9.47342500
153.89999104	0.00000000	-30.03814000	-9.47342500
154.09999103	0.00000000	-30.08120000	-9.47342500
154.29999102	0.00000000	-30.41338000	-9.47342500
154.49999100	0.00000000	-30.78248000	-9.47342500
154.69999099	0.00000000	-30.41338000	-9.47342500
154.89999098	0.00000000	-30.03814000	-9.51648500
155.09999097	0.00000000	-29.61983000	-9.89173200
155.29999096	0.00000000	-28.87549000	-10.62992000
155.49999094	0.00000000	-28.50024000	-10.95595000
155.69999093	0.00000000	-28.45718000	-10.62992000
155.89999092	0.00000000	-28.45718000	-9.89173200
156.09999091	0.00000000	-28.50024000	-9.51648500
156.29999090	0.00000000	-28.87549000	-9.47342500
156.49999089	0.00000000	-29.61983000	-9.47342500
156.69999087	0.00000000	-29.99508000	-9.43036400
156.89999086	0.00000000	-30.03814000	-9.05511800
157.09999085	0.00000000	-30.03814000	-8.35998900
157.29999084	0.00000000	-30.03814000	-8.35998900
157.49999083	0.00000000	-30.03814000	-9.05511800
157.69999081	0.00000000	-30.03814000	-9.43036400
157.89999080	0.00000000	-29.99508000	-9.51648500
158.09999079	0.00000000	-29.61983000	-9.89173200
158.29999078	0.00000000	-28.87549000	-10.62992000
158.49999077	0.00000000	-28.50024000	-10.95595000
158.69999075	0.00000000	-28.45718000	-10.62992000
158.89999074	0.00000000	-28.50024000	-9.89173200
159.09999073	0.00000000	-28.87549000	-9.51648500
159.29999072	0.00000000	-29.61983000	-9.43036400
159.49999071	0.00000000	-29.99508000	-9.09817800
159.69999070	0.00000000	-30.03814000	-8.68602300
159.89999068	0.00000000	-30.03814000	-8.72293300
160.09999067	0.00000000	-30.03814000	-8.68602300
160.29999066	0.00000000	-30.03814000	-9.09817800
160.49999065	0.00000000	-30.03814000	-9.43036400
160.69999064	0.00000000	-30.03814000	-9.51648500
160.89999062	0.00000000	-30.03814000	-9.89173200
161.09999061	0.00000000	-29.99508000	-10.62992000
161.29999060	0.00000000	-29.61983000	-10.95595000
161.49999059	0.00000000	-28.87549000	-10.62992000
161.69999058	0.00000000	-28.50024000	-9.89173200
161.89999056	0.00000000	-28.45718000	-9.51648500
162.09999055	0.00000000	-28.45718000	-9.47342500
162.29999054	0.00000000	-28.50024000	-9.47342500
162.49999053	0.00000000	-28.87549000	-9.47342500
162.69999052	0.00000000	-29.61983000	-9.47342500
162.89999051	0.00000000	-29.99508000	-9.47342500
163.09999049	0.00000000	-30.03814000	-9.47342500
163.29999048	0.00000000	-30.03814000	-9.47342500
163.49999047	0.00000000	-30.03814000	-9.47342500
163.69999046	0.00000000	-30.03814000	-9.47342500
163.89999045	0.00000000	-30.03814000	-9.47342500
164.09999043	0.00000000	-30.03814000	-9.47342500
164.29999042	0.00000000	-29.99508000	-9.47342500
164.49999041	0.00000000	-29.57062000	-9.51648500
164.69999040	0.00000000	-28.50024000	-9.84867000
164.89999039	0.00000000	-27.76206000	-10.25467000
165.09999037	0.00000000	-28.08194000	-10.21776000
165.29999036	0.00000000	-28.45718000	-10.25467000
165.49999035	0.00000000	-28.87549000	-9.84867000
165.69999034	0.00000000	-29.61983000	-9.51648500
165.89999033	0.00000000	-29.99508000	-9.47342500
166.09999032	0.00000000	-30.03814000	-9.47342500
166.29999030	0.00000000	-30.03814000	-9.47342500
166.49999029	0.00000000	-30.03814000	-9.47342500
166.69999028	0.00000000	-30.03814000	-9.47342500
166.89999027	0.00000000	-30.03814000	-9.47342500
167.09999026	0.00000000	-30.03814000	-9.47342500
167.29999024	0.00000000	-29.99508000	-9.47342500
167.49999023	0.00000000	-29.61983000	-9.47342500
167.69999022	0.00000000	-28.92470000	-9.47342500
167.89999021	0.00000000	-28.92470000	-9.47342500
168.09999020	0.00000000	-29.57062000	-9.47342500
168.29999018	0.00000000	-29.61983000	-9.47342500
168.49999017	0.00000000	-29.25074000	-9.47342500
168.69999016	0.00000000	-29.24459000	-9.47342500
168.89999015	0.00000000	-28.87549000	-9.47342500
169.09999014	0.00000000	-28.92470000	-9.47342500
169.29999013	0.00000000	-29.61983000	-9.47342500
169.49999011	0.00000000	-29.99508000	-9.47342500
169.69999010	0.00000000	-30.03814000	-9.47342500
169.89999009	0.00000000	-29.99508000	-9.47342500
170.09999008	0.00000000	-29.66289000	-9.47342500
170.29999007	0.00000000	-29.29380000	-9.47342500
170.49999005	0.00000000	-29.61983000	-9.47342500
170.69999004	0.00000000	-29.57062000	-9.47342500
170.89999003	0.00000000	-28.87549000	-9.47342500
171.09999002	0.00000000	-28.50024000	-9.47342500
171.29999001	0.00000000	-28.45718000	-9.47342500
171.49998999	0.00000000	-28.45718000	-9.47342500
171.69998998	0.00000000	-28.45718000	-9.47342500
171.89998997	0.00000000	-28.45718000	-9.47342500
172.09998996	0.00000000	-28.45718000	-9.47342500
172.29998995	0.00000000	-28.45718000	-9.47342500
172.49998994	0.00000000	-28.50024000	-9.47342500
172.69998992	0.00000000	-28.87549000	-9.47342500
172.89998991	0.00000000	-29.57062000	-9.47342500
173.09998990	0.00000000	-29.57062000	-9.47342500
173.29998989	0.00000000	-28.92470000	-9.47342500
173.49998988	0.00000000	-28.92470000	-9.47342500
173.69998986	0.00000000	-29.61983000	-9.47342500
173.89998985	0.00000000	-29.94586000	-9.47342500
174.09998984	0.00000000	-29.61983000	-9.47342500
174.29998983	0.00000000	-28.87549000	-9.47342500
174.49998982	0.00000000	-28.50024000	-9.47342500
174.69998980	0.00000000	-28.45718000	-9.47342500
174.89998979	0.00000000	-28.45718000	-9.47342500
175.09998978	0.00000000	-28.45718000	-9.47342500
175.29998977	0.00000000	-28.50024000	-9.47342500
175.49998976	0.00000000	-28.83243000	-9.47342500
175.69998975	0.00000000	-29.20152000	-9.47342500
175.89998973	0.00000000	-28.83243000	-9.47342500
176.09998972	0.00000000	-28.54946000	-9.47342500
176.29998971	0.00000000	-28.83243000	-9.47342500
176.49998970	0.00000000	-29.20152000	-9.47342500
176.69998969	0.00000000	-28.83243000	-9.47342500
176.89998967	0.00000000	-28.54946000	-9.47342500
177.09998966	0.00000000	-28.83243000	-9.47342500
177.29998965	0.00000000	-29.20152000	-9.47342500
177.49998964	0.00000000	-28.83243000	-9.47342500
177.69998963	0.00000000	-28.50024000	-9.47342500
177.89998961	0.00000000	-28.45718000	-9.47342500
178.09998960	0.00000000	-28.45718000	-9.47342500
178.29998959	0.00000000	-28.50024000	-9.47342500
178.49998958	0.00000000	-28.83243000	-9.47342500
178.69998957	0.00000000	-29.20152000	-9.47342500
178.89998956	0.00000000	-28.83243000	-9.47342500
179.09998954	0.00000000	-28.50024000	-9.47342500
179.29998953	0.00000000	-28.45718000	-9.47342500
179.49998952	0.00000000	-28.45718000	-9.47342500
179.69998951	0.00000000	-28.45718000	-9.47342500
179.89998950	0.00000000	-28.45718000	-9.47342500
180.09998948	0.00000000	-28.45718000	-9.47342500
180.29998947	0.00000000	-28.45718000	-9.47342500
180.49998946	0.00000000	-28.45718000	-9.47342500
180.69998945	0.00000000	-28.45718000	-9.47342500
180.89998944	0.00000000	-28.45718000	-9.43036400
181.09998942	0.00000000	-28.50024000	-9.09817800
181.29998941	0.00000000	-28.83243000	-8.72908400
181.49998940	0.00000000	-29.20152000	-9.09817800
181.69998939	0.00000000	-28.83243000	-9.43036400
181.89998938	0.00000000	-28.50024000	-9.47342500
182.09998937	0.00000000	-28.45718000	-9.47342500
182.29998935	0.00000000	-28.45718000	-9.47342500
182.49998934	0.00000000	-28.45718000	-9.47342500
182.69998933	0.00000000	-28.45718000	-9.47342500
182.89998932	0.00000000	-28.45718000	-9.47342500
183.09998931	0.00000000	-28.45718000	-9.47342500
183.29998929	0.00000000	-28.45718000	-9.47342500
183.49998928	0.00000000	-28.45718000	-9.47342500
183.69998927	0.00000000	-28.45718000	-9.47342500
183.89998926	0.00000000	-28.45718000	-9.43036400
184.09998925	0.00000000	-28.45718000	-9.09817800
184.29998923	0.00000000	-28.45718000	-8.68602300
184.49998922	0.00000000	-28.45718000	-8.67987200
184.69998921	0.00000000	-28.45718000	-8.31077700
184.89998920	0.00000000	-28.45718000	-8.35998900
185.09998919	0.00000000	-28.45718000	-9.05511800
185.29998918	0.00000000	-28.45718000	-9.43036400
185.49998916	0.00000000	-28.45718000	-9.47342500
185.69998915	0.00000000	-28.45718000	-9.47342500
185.89998914	0.00000000	-28.45718000	-9.47342500
186.09998913	0.00000000	-28.45718000	-9.47342500
186.29998912	0.00000000	-28.45718000	-9.47342500
186.49998910	0.00000000	-28.45718000	-9.47342500
186.69998909	0.00000000	-28.45718000	-9.47342500
186.89998908	0.00000000	-28.50024000	-9.47342500
187.09998907	0.00000000	-28.83243000	-9.43036400
187.29998906	0.00000000	-29.24459000	-9.05511800
187.49998904	0.00000000	-29.20767000	-8.31077700
187.69998903	0.00000000	-29.24459000	-7.93553100
187.89998902	0.00000000	-28.83243000	-7.93553100
188.09998901	0.00000000	-28.50024000	-8.31077700
188.29998900	0.00000000	-28.45718000	-9.05511800
188.49998899	0.00000000	-28.41412000	-9.43036400
188.69998897	0.00000000	-28.08194000	-9.47342500
188.89998896	0.00000000	-27.71284000	-9.47342500
189.09998895	0.00000000	-28.08194000	-9.47342500
189.29998894	0.00000000	-28.41412000	-9.47342500
189.49998893	0.00000000	-28.45718000	-9.47342500
189.69998891	0.00000000	-28.45718000	-9.47342500
189.89998890	0.00000000	-28.50024000	-9.47342500
190.09998889	0.00000000	-28.83243000	-9.47342500
190.29998888	0.00000000	-29.20152000	-9.47342500
190.49998887	0.00000000	-28.83243000	-9.43036400
190.69998885	0.00000000	-28.45718000	-9.05511800
190.89998884	0.00000000	-28.12500000	-8.35998900
191.09998883	0.00000000	-28.08809000	-8.35998900
191.29998882	0.00000000	-28.82628000	-9.05511800
191.49998881	0.00000000	-28.78937000	-9.43036400
191.69998880	0.00000000	-28.50024000	-9.47342500
191.89998878	0.00000000	-28.45718000	-9.47342500
192.09998877	0.00000000	-28.45718000	-9.47342500
192.29998876	0.00000000	-28.45718000	-9.47342500
192.49998875	0.00000000	-28.45718000	-9.47342500
192.69998874	0.00000000	-28.45718000	-9.47342500
192.89998872	0.00000000	-28.45718000	-9.47342500
193.09998871	0.00000000	-28.45718000	-9.47342500
193.29998870	0.00000000	-28.45718000	-9.43036400
193.49998869	0.00000000	-28.45718000	-9.05511800
193.69998868	0.00000000	-28.45718000	-8.35998900
193.89998866	0.00000000	-28.45718000	-8.35998900
194.09998865	0.00000000	-28.45718000	-9.05511800
194.29998864	0.00000000	-28.45718000	-9.43036400
194.49998863	0.00000000	-28.45718000	-9.47342500
194.69998862	0.00000000	-28.45718000	-9.47342500
194.89998861	0.00000000	-28.45718000	-9.47342500
195.09998859	0.00000000	-28.45718000	-9.47342500
195.29998858	0.00000000	-28.45718000	-9.47342500
195.49998857	0.00000000	-28.45718000	-9.47342500
195.69998856	0.00000000	-28.45718000	-9.47342500
195.89998855	0.00000000	-28.45718000	-9.47342500
196.09998853	0.00000000	-28.45718000	-9.47342500
