Time	Channel A	Channel B	Channel C
(us)	(V)	(mV)	(mV)

-4.49999956	0.00000000	16.18479000	4.69365100
-4.29999957	0.00000000	15.85261000	4.36146600
-4.09999958	0.00000000	15.80955000	3.99237200
-3.89999959	0.00000000	15.80955000	4.31840500
-3.69999960	0.00000000	15.80955000	4.26919300
-3.49999962	0.00000000	15.80955000	3.62327700
-3.29999963	0.00000000	15.80955000	3.57406500
-3.09999964	0.00000000	15.80955000	3.94315900
-2.89999965	0.00000000	15.80955000	3.90625000
-2.69999966	0.00000000	15.80955000	3.98622000
-2.49999968	0.00000000	15.80955000	3.94931100
-2.29999969	0.00000000	15.80955000	4.36146600
-2.09999970	0.00000000	15.80955000	4.64443900
-1.89999971	0.00000000	15.80955000	4.31840500
-1.69999972	0.00000000	15.80955000	3.62327700
-1.49999973	0.00000000	15.80955000	3.57406500
-1.29999975	0.00000000	15.80955000	3.94315900
-1.09999976	0.00000000	15.80955000	3.94931100
-0.89999977	0.00000000	15.80955000	4.31840500
-0.69999978	0.00000000	15.80955000	4.26919300
-0.49999979	0.00000000	15.80955000	3.62327700
-0.29999981	0.31803640	15.80955000	3.57406500
-0.09999982	0.63668800	15.80955000	3.90009800
0.10000017	0.95533960	15.80955000	3.57406500
0.30000016	0.95533960	15.80955000	3.57406500
0.50000015	0.95533960	15.80955000	3.90009800
0.70000013	0.47736220	15.80955000	3.57406500
0.90000012	-0.31803640	15.85261000	3.57406500
1.10000011	-1.27399100	16.18479000	3.94315900
1.30000010	-2.22994600	16.59695000	3.94931100
1.50000009	-2.70792300	16.56004000	4.36146600
1.70000008	-2.54859700	16.59695000	4.69365100
1.90000006	-1.59264300	16.18479000	4.73671200
2.10000005	0.15871060	15.85261000	4.73671200
2.30000004	2.38927200	15.80955000	4.73671200
2.50000003	4.30056600	15.80955000	4.73671200
2.70000002	5.25652100	15.80955000	4.69365100
2.90000000	5.09719500	15.80955000	4.31840500
3.09999999	3.34522600	15.80955000	3.57406500
3.29999998	0.47736220	15.80955000	3.19881900
3.49999997	-3.02657500	15.80955000	3.19881900
3.69999996	-6.05315000	15.80955000	3.53100400
3.89999994	-7.80511800	15.80955000	3.94315900
4.09999993	-7.64579200	15.80955000	3.94931100
4.29999992	-5.57517200	15.80955000	4.36146600
4.49999991	-1.75196900	15.80955000	4.69365100
4.69999990	2.70792300	15.80955000	4.73671200
4.89999989	6.69045300	15.76649000	4.69365100
5.09999987	9.07972400	15.47736000	4.26919300
5.29999986	9.23905000	15.44045000	3.19881900
5.49999985	7.00848900	16.17864000	2.46063000
5.69999984	3.02657500	16.14173000	2.78051200
5.89999983	-1.75196900	15.85261000	3.11269700
6.09999981	-6.05315000	15.80955000	3.19881900
6.29999980	-8.92039900	15.80955000	3.57406500
6.49999979	-9.39837600	15.85261000	4.31840500
6.69999978	-7.64579200	16.18479000	4.69365100
6.89999977	-3.98191400	16.55389000	4.73671200
7.09999975	0.31803640	16.18479000	4.73671200
7.29999974	4.30056600	15.85261000	4.73671200
7.49999973	7.00848900	15.80955000	4.69365100
7.69999972	7.80511800	15.80955000	4.31840500
7.89999971	6.53112700	15.80955000	3.57406500
8.09999970	3.98191400	15.80955000	3.19881900
8.29999968	0.63668800	15.80955000	3.15575800
8.49999967	-2.38927200	15.80955000	3.19881900
8.69999966	-4.45989200	15.80955000	3.57406500
8.89999965	-5.25652100	15.80955000	4.26919300
9.09999964	-4.61921700	15.80955000	4.31840500
9.29999962	-3.02657500	15.80955000	3.99237200
9.49999961	-0.95533960	15.80955000	4.36146600
9.69999960	0.79601380	15.80955000	4.64443900
9.89999959	2.07062000	15.80955000	4.31840500
10.09999958	2.54859700	15.80955000	3.57406500
10.29999956	2.22994600	15.80955000	3.19881900
10.49999955	1.59264300	15.80955000	3.15575800
10.69999954	0.63668800	15.80955000	3.15575800
10.89999953	-0.15871060	15.80955000	3.15575800
11.09999952	-0.63668800	15.80955000	3.15575800
11.29999951	-0.95533960	15.80955000	3.19881900
11.49999949	-0.95533960	15.80955000	3.53100400
11.69999948	-0.79601380	15.80955000	3.90009800
11.89999947	-0.47736220	15.80955000	3.57406500
12.09999946	-0.15871060	15.80955000	3.62327700
12.29999945	-0.15871060	15.80955000	4.26919300
12.49999943	0.00000000	15.80955000	4.26919300
12.69999942	0.00000000	15.80955000	3.57406500
12.89999941	0.00000000	15.80955000	3.19881900
13.09999940	0.00000000	15.80955000	3.15575800
13.29999939	0.00000000	15.80955000	3.15575800
13.49999937	0.00000000	15.80955000	3.15575800
13.69999936	0.00000000	15.80955000	3.19881900
13.89999935	0.00000000	15.80955000	3.57406500
14.09999934	0.00000000	15.80955000	4.26919300
14.29999933	-0.15871060	15.80955000	4.26919300
14.49999932	-0.15871060	15.80955000	3.57406500
14.69999930	-0.15871060	15.80955000	3.19881900
14.89999929	0.00000000	15.80955000	3.15575800
15.09999928	0.00000000	15.80955000	3.15575800
15.29999927	0.00000000	15.80955000	3.15575800
15.49999926	0.00000000	15.80955000	3.15575800
15.69999924	0.00000000	15.80955000	3.15575800
15.89999923	0.00000000	15.80955000	3.15575800
16.09999922	0.00000000	15.80955000	3.15575800
16.29999921	0.00000000	15.80955000	3.15575800
16.49999920	0.00000000	15.80955000	3.15575800
16.69999919	-0.15871060	15.85261000	3.19881900
16.89999917	0.00000000	16.22785000	3.53100400
17.09999916	0.00000000	16.97219000	3.90009800
17.29999915	0.00000000	17.34744000	3.53100400
17.49999914	0.00000000	17.39050000	3.19881900
17.69999913	0.00000000	17.39050000	3.19881900
17.89999911	0.00000000	17.34744000	3.57406500
18.09999910	0.00000000	16.87992000	4.26919300
18.29999909	0.00000000	15.34203000	4.26919300
18.49999908	0.00000000	13.06594000	3.57406500
18.69999907	0.00000000	11.20202000	3.19881900
18.89999905	-0.15871060	10.37155000	3.19881900
19.09999904	0.00000000	10.78371000	3.53100400
19.29999903	0.00000000	11.95251000	3.94315900
19.49999902	0.00000000	14.36393000	3.90625000
19.69999901	0.00000000	17.80881000	3.94315900
19.89999900	0.00000000	21.71506000	3.53100400
20.09999898	0.00000000	25.15994000	3.19881900
20.29999897	0.00000000	27.39296000	3.15575800
20.49999896	0.00000000	26.92544000	3.19881900
20.69999895	0.00000000	23.06841000	3.57406500
20.89999894	0.00000000	16.87992000	4.26919300
21.09999892	0.00000000	9.48572700	4.26919300
21.29999891	0.00000000	2.13459600	3.57406500
21.49999890	0.00000000	-3.54330700	3.19881900
21.69999889	0.00000000	-5.40108300	3.15575800
21.89999888	0.00000000	-1.91929100	3.15575800
22.09999886	0.00000000	5.85014700	3.15575800
22.29999885	0.00000000	16.78149000	3.15575800
22.49999884	0.00000000	29.52756000	3.15575800
22.69999883	0.00000000	40.98179000	3.19881900
22.89999882	0.00000000	47.49630000	3.57406500
23.09999881	0.00000000	46.65969000	4.31840500
23.29999879	0.00000000	38.51501000	4.69365100
23.49999878	0.00000000	24.14493000	4.73671200
23.69999877	0.00000000	6.36687900	4.77977300
23.89999876	0.00000000	-10.93750000	5.15501900
24.09999875	0.00000000	-23.26525000	5.85014700
24.29999873	0.00000000	-27.08538000	5.80093500
24.49999872	0.00000000	-21.59203000	4.68750000
24.69999871	0.00000000	-6.84670200	3.15575800
24.89999870	0.00000000	14.36393000	1.57480300
25.09999869	0.00000000	36.74950000	0.04306102
25.29999867	0.00000000	55.26574000	-1.06422200
25.49999866	0.00000000	65.22514000	-1.06422200
25.69999865	0.00000000	63.68724000	0.13533460
25.89999864	-0.15871060	50.94119000	2.46063000
26.09999863	0.00000000	30.04429000	5.98548200
26.29999862	0.00000000	5.33956700	9.79945900
26.49999860	0.00000000	-17.40895000	13.28125000
26.69999859	0.00000000	-32.48646000	15.14518000
26.89999858	0.00000000	-36.76181000	14.72072000
27.09999857	0.00000000	-29.41068000	11.56496000
27.29999856	0.00000000	-12.00787000	5.75787400
27.49999854	0.00000000	11.53420000	-1.58095500
27.69999853	0.00000000	35.82062000	-8.91978400
27.89999852	0.00000000	54.79822000	-14.63459000
28.09999851	0.00000000	64.48695000	-16.91068000
28.29999850	0.00000000	63.36122000	-14.54232000
28.49999848	0.00000000	51.40255000	-7.94783400
28.69999847	0.00000000	32.18504000	2.12844500
28.89999846	0.00000000	10.50689000	13.69956000
29.09999845	0.00000000	-8.84596300	24.10802000
29.29999844	0.00000000	-22.05955000	31.03469000
29.49999843	0.00000000	-26.71014000	32.52337000
29.69999841	0.00000000	-22.14567000	27.82972000
29.89999840	0.00000000	-9.82406400	17.32899000
30.09999839	0.00000000	6.79133800	2.69439000
30.29999838	0.00000000	24.23105000	-12.72761000
30.49999837	0.00000000	38.89025000	-25.09227000
30.69999835	0.00000000	47.49630000	-32.01279000
30.89999834	0.00000000	48.70817000	-31.55143000
31.09999833	0.00000000	43.35015000	-23.04995000
31.29999832	0.00000000	32.51107000	-8.40920300
31.49999831	0.00000000	19.01451000	8.96284400
31.69999829	0.00000000	5.80708600	25.22145000
31.89999828	0.00000000	-4.61368100	37.21087000
32.09999827	0.00000000	-10.10089000	42.59965000
32.29999826	0.00000000	-9.73179100	39.86220000
32.49999825	0.00000000	-4.37376900	29.49680000
32.69999824	0.00000000	4.92125900	13.98868000
32.89999822	0.00000000	15.67421000	-3.39566900
33.09999821	0.00000000	25.39370000	-19.64813000
33.29999820	0.00000000	32.00049000	-30.80709000
33.49999819	0.00000000	34.75024000	-34.70718000
33.69999818	0.00000000	33.21235000	-30.43184000
33.89999816	0.00000000	27.81742000	-18.90994000
34.09999815	0.00000000	20.13410000	-3.06963600
34.29999814	0.00000000	11.99557000	13.57037000
34.49999813	0.00000000	5.47490100	27.87278000
34.69999812	0.00000000	1.95004900	36.74950000
34.89999810	0.00000000	2.31299200	38.28740000
35.09999809	0.00000000	5.71481200	32.14813000
35.29999808	0.00000000	11.15896000	19.83883000
35.49999807	0.00000000	17.29823000	4.82898600
35.69999806	0.00000000	22.65010000	-9.47957600
35.89999805	0.00000000	25.34449000	-19.93110000
36.09999803	0.00000000	24.64936000	-24.58169000
36.29999802	0.00000000	21.62278000	-22.67470000
36.49999801	0.00000000	17.34744000	-14.59153000
36.69999800	0.00000000	12.73991000	-2.69439000
36.89999799	0.00000000	8.87672100	9.99015700
37.09999797	0.00000000	6.96973400	19.97416000
37.29999796	0.00000000	7.34498000	24.62475000
37.49999795	0.00000000	10.03937000	23.13607000
37.69999794	0.00000000	14.27165000	16.30167000
37.89999793	0.00000000	18.87918000	6.68676100
38.09999791	0.00000000	22.74237000	-2.93430100
38.29999790	0.00000000	24.64936000	-10.59301000
38.49999789	0.00000000	24.32333000	-13.57037000
38.69999788	0.00000000	21.99803000	-10.59301000
38.89999787	0.00000000	18.50394000	-2.97736200
39.09999786	0.00000000	14.22859000	6.22539300
39.29999784	0.00000000	9.99630800	14.67766000
39.49999783	0.00000000	6.92052100	20.02337000
39.69999782	0.00000000	5.71481200	20.34941000
39.89999781	0.00000000	6.50221400	15.42200000
40.09999780	0.00000000	8.83366100	6.60063900
40.29999778	0.00000000	12.69070000	-2.97736200
40.49999777	0.00000000	16.92298000	-11.06053000
40.69999776	0.00000000	20.46014000	-15.23745000
40.89999775	0.00000000	23.20374000	-14.08095000
41.09999774	0.00000000	24.74163000	-7.94783400
41.29999772	0.00000000	24.69857000	1.57480300
41.49999771	0.00000000	22.74237000	11.18971000
41.69999770	0.00000000	18.92839000	18.21481000
41.89999769	0.00000000	14.69611000	22.06570000
42.09999768	0.00000000	11.15896000	21.60433000
42.29999767	0.00000000	8.41535400	16.25861000
42.49999765	0.00000000	6.92052100	7.84940900
42.69999764	0.00000000	7.29576700	-0.97810030
42.89999763	0.00000000	9.57800100	-7.94783400
43.09999762	0.00000000	12.60458000	-11.42962000
43.29999761	0.00000000	15.34203000	-11.10359000
43.49999759	0.00000000	17.34744000	-7.29576700
43.69999758	0.00000000	18.87918000	-1.53174200
43.89999757	0.00000000	19.66658000	4.64443900
44.09999756	0.00000000	19.30364000	10.03322000
44.29999755	0.00000000	18.59621000	13.14591000
44.49999753	0.00000000	17.80881000	13.61343000
44.69999752	0.00000000	17.43356000	12.07554000
44.89999751	0.00000000	17.39050000	8.96284400
45.09999750	0.00000000	17.34744000	4.77977300
45.29999749	0.00000000	16.92298000	0.92888770
45.49999748	0.00000000	15.71727000	-1.39640700
45.69999746	0.00000000	13.76107000	-2.22687000
45.89999745	0.00000000	11.06668000	-1.48868100
46.09999744	0.00000000	8.37229300	0.04306102
46.29999743	0.00000000	6.45915300	2.04232300
46.49999742	0.00000000	5.71481200	4.68750000
46.69999740	0.00000000	6.96973400	7.01279500
46.89999739	0.00000000	10.45768000	8.17544300
47.09999738	0.00000000	15.90182000	8.58759800
47.29999737	0.00000000	22.04109000	7.75713500
47.49999736	0.00000000	27.43602000	5.85014700
47.69999734	0.00000000	30.46260000	3.15575800
47.89999733	0.00000000	30.04429000	0.51058070
48.09999732	0.00000000	25.76895000	-1.06422200
48.29999731	0.00000000	18.46087000	-1.48253000
48.49999730	0.00000000	9.95324800	-1.06422200
48.69999729	0.00000000	2.26993100	0.51058070
48.89999727	0.00000000	-2.74975400	3.19881900
49.09999726	0.00000000	-3.50024600	6.26845500
49.29999725	0.00000000	-0.00615157	8.96284400
49.49999724	0.00000000	7.34498000	10.49459000
49.69999723	0.00000000	16.97219000	10.49459000
49.89999721	0.00000000	26.18725000	8.96284400
50.09999720	0.00000000	32.74483000	6.22539300
50.29999719	0.00000000	34.65797000	2.73745100
50.49999718	0.00000000	31.62524000	-1.11343500
50.69999717	0.00000000	24.64936000	-4.13385800
50.89999715	0.00000000	15.43430000	-5.29650500
51.09999714	0.00000000	6.18233200	-4.13385800
51.29999713	0.00000000	-0.33833660	-1.07037400
51.49999712	0.00000000	-2.65748000	3.15575800
51.69999711	0.00000000	0.03690945	7.38188900
51.89999710	0.00000000	6.87746000	10.49459000
52.09999708	0.00000000	15.34203000	12.07554000
52.29999707	0.00000000	23.06841000	12.03248000
52.49999706	0.00000000	28.46333000	10.07628000
52.69999705	0.00000000	30.00123000	6.26845500
52.89999704	0.00000000	27.30069000	2.04232300
53.09999702	0.00000000	21.20448000	-1.44562000
53.29999701	0.00000000	13.48425000	-3.76476400
53.49999700	0.00000000	6.63754800	-4.14000900
53.69999699	0.00000000	2.36835600	-2.64517700
53.89999698	0.00000000	2.36220500	0.04306102
54.09999696	0.00000000	5.76402500	3.11269700
54.29999695	0.00000000	11.57726000	5.80093500
54.49999694	0.00000000	18.46087000	7.33882900
54.69999693	0.00000000	24.18799000	7.38188900
54.89999692	0.00000000	26.92544000	6.26845500
55.09999691	0.00000000	26.18725000	4.73671200
55.29999689	0.00000000	22.74237000	3.19881900
55.49999688	0.00000000	17.34744000	2.08538400
55.69999687	0.00000000	11.57726000	2.04232300
55.89999686	0.00000000	6.96973400	2.82357300
56.09999685	0.00000000	4.64443900	3.99237200
56.29999683	0.00000000	5.38877900	5.85014700
56.49999682	0.00000000	8.45841400	6.92052100
56.69999681	0.00000000	13.06594000	6.17618100
56.89999680	0.00000000	18.08563000	4.26919300
57.09999679	0.00000000	21.90576000	1.53174200
57.29999677	0.00000000	23.85581000	-1.48868100
57.49999676	0.00000000	23.11762000	-3.71555100
57.69999675	0.00000000	20.46014000	-3.71555100
57.89999674	0.00000000	16.97219000	-1.44562000
58.09999673	0.00000000	13.11516000	2.08538400
58.29999672	0.00000000	10.08243000	6.72982200
58.49999670	0.00000000	8.87672100	11.65723000
58.69999669	0.00000000	9.57800100	14.67766000
58.89999668	0.00000000	11.10974000	14.72072000
59.09999667	0.00000000	13.11516000	11.98327000
59.29999666	0.00000000	15.76649000	6.96358300
59.49999664	0.00000000	18.04257000	0.46751960
59.69999663	0.00000000	18.83612000	-5.29650500
59.89999662	0.00000000	18.50394000	-8.78444900
60.09999661	0.00000000	17.34744000	-9.56569900
60.29999660	0.00000000	15.85261000	-7.20349400
60.49999658	0.00000000	14.64690000	-2.18380900
60.69999657	0.00000000	13.89641000	4.77977300
60.89999656	0.00000000	13.48425000	12.03248000
61.09999655	0.00000000	13.89641000	17.37205000
61.29999654	0.00000000	14.60384000	18.95300000
61.49999653	0.00000000	15.39124000	16.63386000
61.69999651	0.00000000	15.76649000	11.23893000
61.89999650	0.00000000	15.76649000	3.53100400
62.09999649	0.00000000	15.39124000	-4.14000900
62.29999648	0.00000000	14.60384000	-9.94094400
62.49999647	0.00000000	13.85334000	-12.63533000
62.69999645	0.00000000	13.06594000	-11.47884000
62.89999644	0.00000000	12.73991000	-6.87746000
63.09999643	0.00000000	13.11516000	0.04306102
63.29999642	0.00000000	14.27165000	7.38188900
63.49999641	0.00000000	15.76649000	13.56422000
63.69999639	0.00000000	16.92298000	17.46432000
63.89999638	0.00000000	17.34744000	18.21481000
64.09999637	0.00000000	17.34744000	15.88336000
64.29999636	0.00000000	16.92298000	10.49459000
64.49999635	0.00000000	15.80955000	3.62327700
64.69999634	0.00000000	14.64690000	-2.55905500
64.89999632	0.00000000	13.85334000	-6.87746000
65.09999631	0.00000000	13.11516000	-8.82750900
65.29999630	0.00000000	13.11516000	-8.45226300
65.49999629	0.00000000	13.85334000	-5.75787400
65.69999628	0.00000000	14.60384000	-1.53174200
65.89999626	0.00000000	15.39124000	3.11269700
66.09999625	0.00000000	15.76649000	7.38188900
66.29999624	0.00000000	15.76649000	10.53765000
66.49999623	0.00000000	15.34203000	12.49385000
66.69999622	0.00000000	14.18553000	13.23819000
66.89999620	0.00000000	12.73991000	12.07554000
67.09999619	0.00000000	11.95251000	9.42421200
67.29999618	0.00000000	12.31545000	6.31151500
67.49999617	0.00000000	13.11516000	3.15575800
67.69999616	0.00000000	14.73917000	0.04306102
67.89999615	0.00000000	17.34744000	-2.69439000
68.09999613	0.00000000	19.62352000	-4.64443900
68.29999612	0.00000000	20.37401000	-5.75787400
68.49999611	0.00000000	19.66658000	-5.38262700
68.69999610	0.00000000	17.67347000	-3.43873000
68.89999609	0.00000000	14.92372000	-0.69512790
69.09999607	0.00000000	11.06668000	3.24803100
69.29999606	0.00000000	7.29576700	7.80019600
69.49999605	0.00000000	5.38877900	11.70029000
69.69999604	0.00000000	5.76402500	13.98253000
69.89999603	0.00000000	8.45841400	14.39468000
70.09999601	0.00000000	12.69070000	12.40773000
70.29999600	0.00000000	17.39050000	8.58759800
70.49999599	0.00000000	22.04109000	3.53100400
70.69999598	0.00000000	25.81201000	-1.48868100
70.89999597	0.00000000	26.97465000	-5.71481200
71.09999596	0.00000000	25.06767000	-7.99089500
71.29999594	0.00000000	21.20448000	-7.25270600
71.49999593	0.00000000	15.76649000	-4.22613100
71.69999592	0.00000000	9.99630800	0.04306102
71.89999591	0.00000000	5.33956700	4.69365100
72.09999590	0.00000000	2.64517700	8.91978400
72.29999588	0.00000000	2.64517700	11.61417000
72.49999587	0.00000000	5.33956700	12.03248000
72.69999586	0.00000000	9.99630800	10.53765000
72.89999585	0.00000000	15.76649000	7.84940900
73.09999584	0.00000000	21.20448000	4.77977300
73.29999582	0.00000000	25.02460000	2.04232300
73.49999581	0.00000000	26.59941000	0.09227362
73.69999580	0.00000000	25.06767000	-1.02116100
73.89999579	0.00000000	21.62278000	-0.64591530
74.09999578	0.00000000	16.97219000	1.15649600
74.29999577	0.00000000	11.99557000	2.69439000
74.49999575	0.00000000	8.50147600	3.48794300
74.69999574	0.00000000	6.87746000	3.90009800
74.89999573	0.00000000	6.87746000	3.48794300
75.09999572	0.00000000	8.45841400	2.78051200
75.29999571	0.00000000	11.53420000	2.04232300
75.49999569	0.00000000	15.29897000	2.08538400
75.69999568	0.00000000	18.04257000	3.24803100
75.89999567	0.00000000	19.25443000	5.15501900
76.09999566	0.00000000	19.66658000	7.47416300
76.29999565	0.00000000	18.87918000	9.33809000
76.49999563	0.00000000	17.39050000	10.11934000
76.69999562	0.00000000	15.85261000	9.29502900
76.89999561	0.00000000	14.69611000	6.96358300
77.09999560	0.00000000	14.27165000	3.11269700
77.29999559	0.00000000	14.22859000	-1.11343500
77.49999558	0.00000000	14.22859000	-4.55831700
77.69999556	0.00000000	14.22859000	-6.50221400
77.89999555	0.00000000	14.18553000	-6.09005900
78.09999554	0.00000000	13.81028000	-3.80782500
78.29999553	0.00000000	13.02288000	0.09227362
78.49999552	0.00000000	12.31545000	4.73671200
78.69999550	0.00000000	11.95251000	9.33809000
78.89999549	0.00000000	12.73991000	12.81988000
79.09999548	0.00000000	14.22859000	13.98253000
79.29999547	0.00000000	15.80955000	13.18898000
79.49999546	0.00000000	17.39050000	10.07628000
79.69999544	0.00000000	18.87918000	5.11195900
79.89999543	0.00000000	19.62352000	0.13533460
80.09999542	0.00000000	18.87918000	-3.76476400
80.29999541	0.00000000	17.34744000	-5.75787400
80.49999540	0.00000000	15.34203000	-6.13312000
80.69999539	0.00000000	12.64764000	-4.96432100
80.89999537	0.00000000	10.03937000	-1.90698800
81.09999536	0.00000000	8.87672100	1.58095500
81.29999535	0.00000000	9.62106200	5.11195900
81.49999534	0.00000000	11.53420000	8.54453700
81.69999533	0.00000000	14.22859000	10.49459000
81.89999531	0.00000000	16.92298000	10.95595000
82.09999530	0.00000000	18.87918000	10.53765000
82.29999529	0.00000000	20.04183000	9.00590400
82.49999528	0.00000000	19.99877000	6.68676100
82.69999527	0.00000000	18.50394000	4.31840500
82.89999525	0.00000000	16.22785000	1.58095500
83.09999524	0.00000000	14.27165000	-1.11343500
83.29999523	0.00000000	12.69070000	-3.02042300
83.49999522	0.00000000	11.57726000	-3.85088600
83.69999521	0.00000000	11.53420000	-3.43873000
83.89999520	0.00000000	12.27239000	-2.27608300
84.09999518	0.00000000	13.06594000	0.13533460
84.29999517	0.00000000	14.22859000	3.57406500
84.49999516	0.00000000	15.34203000	7.42495000
84.69999515	0.00000000	15.76649000	10.49459000
84.89999514	0.00000000	15.80955000	12.07554000
85.09999512	0.00000000	15.80955000	12.03248000
85.29999511	0.00000000	15.80955000	10.07628000
85.49999510	0.00000000	15.80955000	6.21924200
85.69999509	0.00000000	15.80955000	1.62401600
85.89999508	0.00000000	15.80955000	-2.64517700
86.09999506	0.00000000	15.76649000	-5.71481200
86.29999505	0.00000000	15.34203000	-6.87130900
86.49999504	0.00000000	14.22859000	-5.71481200
86.69999503	0.00000000	13.06594000	-2.60211600
86.89999502	0.00000000	12.27239000	1.99311000
87.09999501	0.00000000	11.53420000	7.00664300
87.29999499	0.00000000	11.57726000	10.86983000
87.49999498	0.00000000	12.64764000	13.18898000
87.69999497	0.00000000	13.85334000	13.14591000
87.89999496	0.00000000	15.02214000	10.45152000
88.09999495	0.00000000	16.55389000	5.85014700
88.29999493	0.00000000	17.29823000	0.51058070
88.49999492	0.00000000	17.34744000	-3.76476400
88.69999491	0.00000000	16.92298000	-6.09005900
88.89999490	0.00000000	15.76649000	-6.45300100
89.09999489	0.00000000	14.22859000	-4.09079700
89.29999487	0.00000000	12.69070000	0.46136810
89.49999486	0.00000000	11.57726000	5.85014700
89.69999485	0.00000000	11.53420000	10.45152000
89.89999484	0.00000000	12.27239000	13.14591000
90.09999483	0.00000000	13.02288000	13.14591000
90.29999482	0.00000000	13.85334000	10.45152000
90.49999480	0.00000000	14.60384000	5.85014700
90.69999479	0.00000000	15.39124000	0.46136810
90.89999478	0.00000000	15.76649000	-4.14000900
91.09999477	0.00000000	15.80955000	-6.82824800
91.29999476	0.00000000	15.76649000	-6.82824800
91.49999474	0.00000000	15.39124000	-4.14000900
91.69999473	0.00000000	14.69611000	0.46136810
91.89999472	0.00000000	14.69611000	5.85014700
92.09999471	0.00000000	15.39124000	10.45152000
92.29999470	0.00000000	15.71727000	13.14591000
92.49999468	0.00000000	15.39124000	13.10285000
92.69999467	0.00000000	14.60384000	10.07628000
92.89999466	0.00000000	13.85334000	5.11195900
93.09999465	0.00000000	13.02288000	0.13533460
93.29999464	0.00000000	12.27239000	-3.76476400
93.49999463	0.00000000	11.53420000	-5.67175200
93.69999461	0.00000000	11.57726000	-5.29650500
93.89999460	0.00000000	12.69070000	-2.55905500
94.09999459	0.00000000	14.22859000	1.99311000
94.29999458	0.00000000	15.80955000	6.96358300
94.49999457	0.00000000	17.39050000	10.40846000
94.69999455	0.00000000	18.92839000	11.60802000
94.89999454	0.00000000	19.99877000	10.45152000
95.09999453	0.00000000	19.58046000	7.38188900
95.29999452	0.00000000	17.29823000	3.20497000
95.49999451	0.00000000	14.22859000	-0.64591530
95.69999449	0.00000000	11.10974000	-2.97736200
95.89999448	0.00000000	8.41535400	-3.76476400
96.09999447	0.00000000	6.87746000	-2.60211600
96.29999446	0.00000000	6.87746000	0.04306102
96.49999445	0.00000000	8.45841400	3.15575800
96.69999444	0.00000000	11.57726000	6.22539300
96.89999442	0.00000000	15.76649000	8.50147600
97.09999441	0.00000000	19.62352000	8.91978400
97.29999440	0.00000000	21.99803000	7.80019600
97.49999439	0.00000000	23.16068000	5.89320800
97.69999438	0.00000000	22.69316000	3.57406500
97.89999436	0.00000000	19.99877000	1.66707700
98.09999435	0.00000000	15.80955000	0.46136810
98.29999434	0.00000000	11.57726000	0.09227362
98.49999433	0.00000000	8.45841400	0.46136810
98.69999432	0.00000000	6.83439900	1.57480300
98.89999430	0.00000000	6.45915300	2.73745100
99.09999429	0.00000000	7.25270600	3.53100400
99.29999428	0.00000000	9.62106200	4.31840500
99.49999427	0.00000000	13.06594000	4.69365100
99.69999426	0.00000000	16.92298000	4.73671200
99.89999425	0.00000000	19.99877000	4.73671200
100.09999423	0.00000000	21.57972000	4.77977300
100.29999422	0.00000000	21.62278000	5.11195900
100.49999421	0.00000000	20.41708000	5.47490100
100.69999420	0.00000000	18.08563000	5.06274600
100.89999419	0.00000000	14.64690000	4.31840500
101.09999417	0.00000000	11.57726000	3.11269700
101.29999416	0.00000000	9.57800100	1.57480300
101.49999415	0.00000000	8.41535400	0.04306102
101.69999414	0.00000000	8.41535400	-1.06422200
101.89999413	0.00000000	9.52879000	-1.06422200
102.09999411	0.00000000	11.15896000	0.09227362
102.29999410	0.00000000	13.44119000	2.04232300
102.49999409	0.00000000	16.12943000	4.73671200
102.69999408	0.00000000	17.67347000	7.43110200
102.89999407	0.00000000	18.55315000	9.33809000
103.09999406	0.00000000	18.87918000	10.07628000
103.29999404	0.00000000	18.46087000	8.91978400
103.49999403	0.00000000	16.92298000	6.26845500
103.69999402	0.00000000	14.64690000	3.15575800
103.89999401	0.00000000	12.69070000	0.09227362
104.09999400	0.00000000	11.10974000	-2.22687000
104.29999398	0.00000000	9.99630800	-2.97736200
104.49999397	0.00000000	9.99630800	-2.27608300
104.69999396	0.00000000	11.10974000	-0.28297240
104.89999395	0.00000000	12.69070000	2.36835600
105.09999394	0.00000000	14.60384000	5.47490100
105.29999392	0.00000000	16.50467000	7.71407400
105.49999391	0.00000000	17.29823000	8.54453700
105.69999390	0.00000000	17.34744000	7.80019600
105.89999389	0.00000000	16.92298000	6.26845500
106.09999388	0.00000000	15.76649000	4.31840500
106.29999387	0.00000000	14.27165000	1.99311000
106.49999385	0.00000000	13.06594000	0.09227362
106.69999384	0.00000000	12.31545000	-1.06422200
106.89999383	0.00000000	11.95251000	-1.06422200
107.09999382	0.00000000	12.69070000	0.09227362
107.29999381	0.00000000	13.81028000	1.99311000
107.49999379	0.00000000	14.60384000	4.26919300
107.69999378	0.00000000	15.39124000	5.80093500
107.89999377	0.00000000	15.76649000	6.21924200
108.09999376	0.00000000	15.76649000	5.85014700
108.29999375	0.00000000	15.34203000	4.64443900
108.49999374	0.00000000	14.18553000	2.78051200
108.69999372	0.00000000	12.69070000	0.87967510
108.89999371	0.00000000	11.57726000	0.09227362
109.09999370	0.00000000	11.53420000	0.04306102
109.29999369	0.00000000	12.27239000	0.51058070
109.49999368	0.00000000	13.06594000	2.04232300
109.69999366	0.00000000	14.22859000	4.26919300
109.89999365	0.00000000	15.39124000	5.85014700
110.09999364	0.00000000	16.14173000	6.64370100
110.29999363	0.00000000	16.55389000	7.00664300
110.49999362	0.00000000	16.14173000	6.22539300
110.69999360	0.00000000	15.39124000	4.68750000
110.89999359	0.00000000	14.22859000	2.78051200
111.09999358	0.00000000	13.06594000	0.87967510
111.29999357	0.00000000	12.31545000	0.09227362
111.49999356	0.00000000	11.90330000	0.04306102
111.69999355	0.00000000	12.31545000	0.41830710
111.89999353	0.00000000	13.02288000	1.19955700
112.09999352	0.00000000	13.81028000	1.99311000
112.29999351	0.00000000	14.18553000	3.15575800
112.49999350	0.00000000	14.27165000	4.26919300
112.69999349	0.00000000	14.60384000	4.69365100
112.89999347	0.00000000	14.97293000	4.73671200
113.09999346	0.00000000	14.60384000	4.69365100
113.29999345	0.00000000	14.27165000	4.31840500
113.49999344	0.00000000	14.22859000	3.53100400
113.69999343	0.00000000	14.18553000	2.78051200
113.89999341	0.00000000	13.85334000	1.99311000
114.09999340	0.00000000	13.44119000	1.61786400
114.29999339	0.00000000	13.47810000	1.57480300
114.49999338	0.00000000	13.44119000	1.57480300
114.69999337	0.00000000	13.85334000	1.57480300
114.89999336	0.00000000	14.18553000	1.57480300
115.09999334	0.00000000	14.27165000	1.57480300
115.29999333	0.00000000	14.60384000	1.57480300
115.49999332	0.00000000	14.97293000	1.61786400
115.69999331	0.00000000	14.60384000	2.04232300
115.89999330	0.00000000	14.27165000	3.15575800
116.09999328	0.00000000	14.22859000	4.26919300
116.29999327	0.00000000	14.22859000	4.69365100
116.49999326	0.00000000	14.18553000	4.73671200
116.69999325	0.00000000	13.81028000	4.73671200
116.89999324	0.00000000	13.11516000	4.69365100
117.09999322	0.00000000	13.11516000	4.26919300
117.29999321	0.00000000	13.81028000	3.15575800
117.49999320	0.00000000	14.22859000	1.99311000
117.69999319	0.00000000	14.64690000	1.19955700
117.89999318	0.00000000	15.39124000	0.46136810
118.09999317	0.00000000	15.76649000	0.46136810
118.29999315	0.00000000	15.76649000	1.19955700
118.49999314	0.00000000	15.39124000	1.99311000
118.69999313	0.00000000	14.60384000	3.15575800
118.89999312	0.00000000	13.81028000	4.26919300
119.09999311	0.00000000	12.64764000	4.69365100
119.29999309	0.00000000	11.53420000	4.73671200
119.49999308	0.00000000	11.15896000	4.73671200
119.69999307	0.00000000	11.53420000	4.69365100
119.89999306	0.00000000	12.64764000	4.31840500
120.09999305	0.00000000	13.85334000	3.57406500
120.29999303	0.00000000	15.02214000	3.15575800
120.49999302	0.00000000	16.55389000	2.73745100
120.69999301	0.00000000	17.29823000	1.99311000
120.89999300	0.00000000	17.34744000	1.61786400
121.09999299	0.00000000	16.92298000	1.57480300
121.29999298	0.00000000	15.76649000	1.61786400
121.49999296	0.00000000	14.22859000	1.99311000
121.69999295	0.00000000	12.69070000	2.73745100
121.89999294	0.00000000	11.53420000	3.11269700
122.09999293	0.00000000	11.10974000	3.15575800
122.29999292	0.00000000	11.10974000	3.19881900
122.49999290	0.00000000	11.53420000	3.57406500
122.69999289	0.00000000	12.64764000	4.31840500
122.89999288	0.00000000	13.81028000	4.69365100
123.09999287	0.00000000	14.60384000	4.69365100
123.29999286	0.00000000	15.39124000	4.31840500
123.49999284	0.00000000	15.76649000	3.57406500
123.69999283	0.00000000	15.80955000	3.15575800
123.89999282	0.00000000	15.76649000	2.73745100
124.09999281	0.00000000	15.34203000	1.99311000
124.29999280	0.00000000	14.22859000	1.61786400
124.49999279	0.00000000	13.11516000	1.57480300
124.69999277	0.00000000	12.64764000	1.61786400
124.89999276	0.00000000	12.22933000	1.99311000
125.09999275	0.00000000	11.53420000	2.78051200
125.29999274	0.00000000	11.57726000	3.53100400
125.49999273	0.00000000	12.64764000	4.31840500
125.69999271	0.00000000	13.76107000	4.69365100
125.89999270	0.00000000	14.22859000	4.73671200
126.09999269	0.00000000	14.64690000	4.69365100
126.29999268	0.00000000	15.39124000	4.31840500
126.49999267	0.00000000	15.76649000	3.53100400
126.69999265	0.00000000	15.76649000	2.78051200
126.89999264	0.00000000	15.39124000	1.99311000
127.09999263	0.00000000	14.60384000	1.61786400
127.29999262	0.00000000	13.81028000	1.57480300
127.49999261	0.00000000	12.64764000	1.57480300
127.69999260	0.00000000	11.53420000	1.61786400
127.89999258	0.00000000	11.15896000	1.99311000
128.09999257	0.00000000	11.48499000	2.73745100
128.29999256	0.00000000	12.27239000	3.11269700
128.49999255	0.00000000	13.06594000	3.15575800
128.69999254	0.00000000	14.22859000	3.15575800
128.89999252	0.00000000	15.29897000	3.15575800
129.09999251	0.00000000	15.39124000	3.15575800
129.29999250	0.00000000	15.02214000	3.11269700
129.49999249	0.00000000	14.97293000	2.73745100
129.69999248	0.00000000	14.18553000	1.99311000
129.89999246	0.00000000	13.06594000	1.61786400
130.09999245	0.00000000	12.27239000	1.61786400
130.29999244	0.00000000	11.53420000	1.95004900
130.49999243	0.00000000	11.53420000	2.36220500
130.69999242	0.00000000	12.27239000	2.36835600
130.89999241	0.00000000	13.02288000	2.78051200
131.09999239	0.00000000	13.81028000	3.11269700
131.29999238	0.00000000	14.22859000	3.15575800
131.49999237	0.00000000	14.64690000	3.15575800
131.69999236	0.00000000	15.34203000	3.11269700
131.89999235	0.00000000	15.34203000	2.73745100
132.09999233	0.00000000	14.60384000	1.99311000
132.29999232	0.00000000	13.85334000	1.61786400
132.49999231	0.00000000	13.06594000	1.57480300
132.69999230	0.00000000	12.69070000	1.61786400
132.89999229	0.00000000	12.64764000	1.99311000
133.09999227	0.00000000	12.69070000	2.78051200
133.29999226	0.00000000	13.06594000	3.53100400
133.49999225	0.00000000	13.81028000	4.31840500
133.69999224	0.00000000	14.18553000	4.64443900
133.89999223	0.00000000	14.22859000	4.31840500
134.09999222	0.00000000	14.22859000	3.57406500
134.29999220	0.00000000	14.22859000	3.15575800
134.49999219	0.00000000	14.22859000	2.73745100
134.69999218	0.00000000	14.22859000	1.99311000
134.89999217	0.00000000	14.22859000	1.61786400
135.09999216	0.00000000	14.22859000	1.57480300
135.29999214	0.00000000	14.22859000	1.57480300
135.49999213	0.00000000	14.22859000	1.61786400
135.69999212	0.00000000	14.18553000	1.99311000
135.89999211	0.00000000	13.81028000	2.78051200
136.09999210	0.00000000	13.06594000	3.53100400
136.29999208	0.00000000	12.69070000	4.31840500
136.49999207	0.00000000	12.64764000	4.64443900
136.69999206	0.00000000	12.64764000	4.31840500
136.89999205	0.00000000	12.69070000	3.57406500
137.09999204	0.00000000	13.06594000	3.19881900
137.29999203	0.00000000	13.85334000	3.11269700
137.49999201	0.00000000	14.60384000	2.73745100
137.69999200	0.00000000	15.34203000	1.99311000
137.89999199	0.00000000	15.34203000	1.61786400
138.09999198	0.00000000	14.64690000	1.57480300
138.29999197	0.00000000	14.22859000	1.57480300
138.49999195	0.00000000	13.81028000	1.61786400
138.69999194	0.00000000	13.06594000	1.99311000
138.89999193	0.00000000	12.69070000	2.78051200
139.09999192	0.00000000	12.64764000	3.53100400
139.29999191	0.00000000	12.64764000	4.31840500
139.49999189	0.00000000	12.69070000	4.69365100
139.69999188	0.00000000	13.06594000	4.69365100
139.89999187	0.00000000	13.81028000	4.31840500
140.09999186	0.00000000	14.18553000	3.53100400
140.29999185	0.00000000	14.22859000	2.78051200
140.49999184	0.00000000	14.22859000	1.99311000
140.69999182	0.00000000	14.22859000	1.57480300
140.89999181	0.00000000	14.18553000	1.19955700
141.09999180	0.00000000	13.81028000	0.83661410
141.29999179	0.00000000	13.06594000	1.24877000
141.49999178	0.00000000	12.69070000	1.95004900
141.69999176	0.00000000	12.69070000	2.78051200
141.89999175	0.00000000	13.06594000	3.53100400
142.09999174	0.00000000	13.81028000	4.31840500
142.29999173	0.00000000	14.18553000	4.69365100
142.49999172	0.00000000	14.22859000	4.69365100
142.69999170	0.00000000	14.22859000	4.31840500
142.89999169	0.00000000	14.18553000	3.53100400
143.09999168	0.00000000	13.81028000	2.78051200
143.29999167	0.00000000	13.06594000	1.99311000
143.49999166	0.00000000	12.69070000	1.61786400
143.69999165	0.00000000	12.64764000	1.57480300
143.89999163	0.00000000	12.69070000	1.61786400
144.09999162	0.00000000	13.06594000	1.99311000
144.29999161	0.00000000	13.81028000	2.73745100
144.49999160	0.00000000	14.18553000	3.15575800
144.69999159	0.00000000	14.22859000	3.57406500
144.89999157	0.00000000	14.22859000	4.26919300
145.09999156	0.00000000	14.18553000	4.26919300
145.29999155	0.00000000	13.81028000	3.57406500
145.49999154	0.00000000	13.06594000	3.15575800
145.69999153	0.00000000	12.69070000	2.73745100
145.89999151	0.00000000	12.64764000	1.99311000
146.09999150	0.00000000	12.64764000	1.61786400
146.29999149	0.00000000	12.64764000	1.57480300
146.49999148	0.00000000	12.69070000	1.57480300
146.69999147	0.00000000	13.06594000	1.61786400
146.89999146	0.00000000	13.81028000	1.99311000
147.09999144	0.00000000	14.18553000	2.73745100
147.29999143	0.00000000	14.22859000	3.11269700
147.49999142	0.00000000	14.22859000	3.19881900
147.69999141	0.00000000	14.18553000	3.53100400
147.89999140	0.00000000	13.81028000	3.90009800
148.09999138	0.00000000	13.06594000	3.53100400
148.29999137	0.00000000	12.69070000	3.15575800
148.49999136	0.00000000	12.64764000	2.73745100
148.69999135	0.00000000	12.64764000	1.99311000
148.89999134	0.00000000	12.64764000	1.61786400
149.09999132	0.00000000	12.69070000	1.57480300
149.29999131	0.00000000	13.06594000	1.57480300
149.49999130	0.00000000	13.81028000	1.61786400
149.69999129	0.00000000	14.18553000	1.99311000
149.89999128	0.00000000	14.22859000	2.73745100
150.09999127	0.00000000	14.22859000	3.11269700
150.29999125	0.00000000	14.22859000	3.15575800
150.49999124	0.00000000	14.18553000	3.15575800
150.69999123	0.00000000	13.81028000	3.15575800
150.89999122	0.00000000	13.06594000	3.15575800
151.09999121	0.00000000	12.69070000	3.15575800
151.29999119	0.00000000	12.64764000	3.15575800
151.49999118	0.00000000	12.64764000	3.11269700
151.69999117	0.00000000	12.64764000	2.78051200
151.89999116	0.00000000	12.64764000	2.41141700
152.09999115	0.00000000	12.64764000	2.73745100
152.29999113	0.00000000	12.73991000	2.73745100
152.49999112	0.00000000	13.44119000	2.41141700
152.69999111	0.00000000	14.54847000	2.78051200
152.89999110	0.00000000	14.56078000	3.11269700
153.09999109	0.00000000	14.27165000	3.15575800
153.29999108	0.00000000	14.18553000	3.15575800
153.49999106	0.00000000	13.81028000	3.15575800
153.69999105	0.00000000	13.06594000	3.15575800
153.89999104	0.00000000	12.64764000	3.15575800
154.09999103	0.00000000	12.22933000	3.15575800
154.29999102	0.00000000	11.53420000	3.15575800
154.49999100	0.00000000	11.53420000	3.15575800
154.69999099	0.00000000	12.22933000	3.15575800
154.89999098	0.00000000	12.64764000	3.15575800
155.09999097	0.00000000	13.06594000	3.11269700
155.29999096	0.00000000	13.81028000	2.73745100
155.49999094	0.00000000	14.18553000	1.99311000
155.69999093	0.00000000	14.22859000	1.66707700
155.89999092	0.00000000	14.22859000	1.99311000
156.09999091	0.00000000	14.18553000	2.73745100
156.29999090	0.00000000	13.81028000	3.11269700
156.49999089	0.00000000	13.06594000	3.15575800
156.69999087	0.00000000	12.69070000	3.19881900
156.89999086	0.00000000	12.60458000	3.53100400
157.09999085	0.00000000	12.27239000	3.90009800
157.29999084	0.00000000	11.90330000	3.53100400
157.49999083	0.00000000	12.27239000	3.19881900
157.69999081	0.00000000	12.60458000	3.11269700
157.89999080	0.00000000	12.69070000	2.73745100
158.09999079	0.00000000	13.06594000	1.99311000
158.29999078	0.00000000	13.81028000	1.61786400
158.49999077	0.00000000	14.18553000	1.57480300
158.69999075	0.00000000	14.22859000	1.61786400
158.89999074	0.00000000	14.22859000	1.99311000
159.09999073	0.00000000	14.18553000	2.73745100
159.29999072	0.00000000	13.81028000	3.11269700
159.49999071	0.00000000	13.06594000	3.15575800
159.69999070	0.00000000	12.69070000	3.15575800
159.89999068	0.00000000	12.64764000	3.15575800
160.09999067	0.00000000	12.64764000	3.15575800
160.29999066	0.00000000	12.64764000	3.15575800
160.49999065	0.00000000	12.64764000	3.15575800
160.69999064	0.00000000	12.64764000	3.11269700
160.89999062	0.00000000	12.69070000	2.78051200
161.09999061	0.00000000	13.02288000	2.36835600
161.29999060	0.00000000	13.43504000	2.40526600
161.49999059	0.00000000	13.44119000	2.36835600
161.69999058	0.00000000	13.85334000	2.78051200
161.89999056	0.00000000	14.18553000	3.11269700
162.09999055	0.00000000	14.22859000	3.15575800
162.29999054	0.00000000	14.22859000	3.15575800
162.49999053	0.00000000	14.18553000	3.15575800
162.69999052	0.00000000	13.81028000	3.15575800
162.89999051	0.00000000	13.06594000	3.15575800
163.09999049	0.00000000	12.69070000	3.15575800
163.29999048	0.00000000	12.64764000	3.15575800
163.49999047	0.00000000	12.64764000	3.15575800
163.69999046	0.00000000	12.64764000	3.15575800
163.89999045	0.00000000	12.64764000	3.11269700
164.09999043	0.00000000	12.64764000	2.73745100
164.29999042	0.00000000	12.69070000	1.99311000
164.49999041	0.00000000	13.06594000	1.61786400
164.69999040	0.00000000	13.81028000	1.57480300
164.89999039	0.00000000	14.18553000	1.61786400
165.09999037	0.00000000	14.22859000	1.99311000
165.29999036	0.00000000	14.18553000	2.73745100
165.49999035	0.00000000	13.81028000	3.11269700
165.69999034	0.00000000	13.06594000	3.15575800
165.89999033	0.00000000	12.69070000	3.15575800
166.09999032	0.00000000	12.64764000	3.15575800
166.29999030	0.00000000	12.64764000	3.15575800
166.49999029	0.00000000	12.64764000	3.15575800
166.69999028	0.00000000	12.64764000	3.15575800
166.89999027	0.00000000	12.64764000	3.11269700
167.09999026	0.00000000	12.64764000	2.73745100
167.29999024	0.00000000	12.64764000	2.04232300
167.49999023	0.00000000	12.69070000	2.04232300
167.69999022	0.00000000	13.02288000	2.68823800
167.89999021	0.00000000	13.43504000	2.73745100
168.09999020	0.00000000	13.44119000	2.41141700
168.29999018	0.00000000	13.81028000	2.78051200
168.49999017	0.00000000	13.76107000	3.11269700
168.69999016	0.00000000	13.11516000	3.15575800
168.89999015	0.00000000	13.06594000	3.15575800
169.09999014	0.00000000	13.39198000	3.15575800
169.29999013	0.00000000	13.02288000	3.15575800
169.49999011	0.00000000	12.69070000	3.15575800
169.69999010	0.00000000	12.64764000	3.15575800
169.89999009	0.00000000	12.64764000	3.15575800
170.09999008	0.00000000	12.64764000	3.15575800
170.29999007	0.00000000	12.64764000	3.15575800
170.49999005	0.00000000	12.64764000	3.15575800
170.69999004	0.00000000	12.64764000	3.15575800
170.89999003	0.00000000	12.69070000	3.15575800
171.09999002	0.00000000	13.02288000	3.15575800
171.29999001	0.00000000	13.39198000	3.11269700
171.49998999	0.00000000	13.02288000	2.78051200
171.69998998	0.00000000	12.69070000	2.41141700
171.89998997	0.00000000	12.64764000	2.78051200
172.09998996	0.00000000	12.64764000	3.11269700
172.29998995	0.00000000	12.64764000	3.15575800
172.49998994	0.00000000	12.64764000	3.15575800
172.69998992	0.00000000	12.64764000	3.15575800
172.89998991	0.00000000	12.64764000	3.15575800
173.09998990	0.00000000	12.64764000	3.11269700
173.29998989	0.00000000	12.64764000	2.78051200
173.49998988	0.00000000	12.64764000	2.41141700
173.69998986	0.00000000	12.64764000	2.78051200
173.89998985	0.00000000	12.64764000	3.11269700
174.09998984	0.00000000	12.64764000	3.15575800
174.29998983	0.00000000	12.64764000	3.15575800
174.49998982	0.00000000	12.64764000	3.15575800
174.69998980	0.00000000	12.64764000	3.15575800
174.89998979	0.00000000	12.64764000	3.15575800
175.09998978	0.00000000	12.64764000	3.15575800
175.29998977	0.00000000	12.64764000	3.15575800
175.49998976	0.00000000	12.64764000	3.15575800
175.69998975	0.00000000	12.64764000	3.11269700
175.89998973	0.00000000	12.64764000	2.78051200
176.09998972	0.00000000	12.64764000	2.41141700
176.29998971	0.00000000	12.64764000	2.78051200
176.49998970	0.00000000	12.64764000	3.11269700
176.69998969	0.00000000	12.64764000	3.11269700
176.89998967	0.00000000	12.64764000	2.78051200
177.09998966	0.00000000	12.64764000	2.41141700
177.29998965	0.00000000	12.64764000	2.78051200
177.49998964	0.00000000	12.64764000	3.11269700
177.69998963	0.00000000	12.64764000	3.15575800
177.89998961	0.00000000	12.64764000	3.15575800
178.09998960	0.00000000	12.64764000	3.15575800
178.29998959	0.00000000	12.64764000	3.15575800
178.49998958	0.00000000	12.64764000	3.15575800
178.69998957	0.00000000	12.64764000	3.15575800
178.89998956	0.00000000	12.64764000	3.15575800
179.09998954	0.00000000	12.64764000	3.15575800
179.29998953	0.00000000	12.64764000	3.15575800
179.49998952	0.00000000	12.64764000	3.15575800
179.69998951	0.00000000	12.64764000	3.11269700
179.89998950	0.00000000	12.64764000	2.73745100
180.09998948	0.00000000	12.69070000	2.04232300
180.29998947	0.00000000	13.02288000	1.99311000
180.49998946	0.00000000	13.39198000	2.36220500
180.69998945	0.00000000	13.02288000	2.36835600
180.89998944	0.00000000	12.69070000	2.78051200
181.09998942	0.00000000	12.64764000	3.11269700
181.29998941	0.00000000	12.64764000	3.15575800
181.49998940	0.00000000	12.64764000	3.15575800
181.69998939	0.00000000	12.64764000	3.15575800
181.89998938	0.00000000	12.64764000	3.15575800
182.09998937	0.00000000	12.64764000	3.15575800
182.29998935	0.00000000	12.64764000	3.15575800
182.49998934	0.00000000	12.64764000	3.11269700
182.69998933	0.00000000	12.64764000	2.73745100
182.89998932	0.00000000	12.64764000	1.99311000
183.09998931	0.00000000	12.64764000	1.61786400
183.29998929	0.00000000	12.64764000	1.57480300
183.49998928	0.00000000	12.64764000	1.57480300
183.69998927	0.00000000	12.64764000	1.61786400
183.89998926	0.00000000	12.64764000	1.99311000
184.09998925	0.00000000	12.60458000	2.73745100
184.29998923	0.00000000	12.31545000	3.11269700
184.49998922	0.00000000	12.23548000	3.15575800
184.69998921	0.00000000	12.64149000	3.15575800
184.89998920	0.00000000	12.23548000	3.15575800
185.09998919	0.00000000	12.31545000	3.15575800
185.29998918	0.00000000	12.60458000	3.15575800
185.49998916	0.00000000	12.64764000	3.11269700
185.69998915	0.00000000	12.64764000	2.73745100
185.89998914	0.00000000	12.69070000	2.04232300
186.09998913	0.00000000	13.02288000	1.99311000
186.29998912	0.00000000	13.39198000	2.31914400
186.49998910	0.00000000	13.02288000	1.95004900
186.69998909	0.00000000	12.69070000	1.66707700
186.89998908	0.00000000	12.64764000	1.99311000
187.09998907	0.00000000	12.64764000	2.73745100
187.29998906	0.00000000	12.64764000	3.11269700
187.49998904	0.00000000	12.64764000	3.15575800
187.69998903	0.00000000	12.64764000	3.15575800
187.89998902	0.00000000	12.64764000	3.15575800
188.09998901	0.00000000	12.64764000	3.11269700
188.29998900	0.00000000	12.64764000	2.73745100
188.49998899	0.00000000	12.64764000	1.99311000
188.69998897	0.00000000	12.69070000	1.61786400
188.89998896	0.00000000	13.02288000	1.57480300
189.09998895	0.00000000	13.39198000	1.57480300
189.29998894	0.00000000	13.02288000	1.57480300
189.49998893	0.00000000	12.69070000	1.57480300
189.69998891	0.00000000	12.64764000	1.61786400
189.89998890	0.00000000	12.64764000	1.99311000
190.09998889	0.00000000	12.64764000	2.73745100
190.29998888	0.00000000	12.64764000	3.11269700
190.49998887	0.00000000	12.64764000	3.15575800
190.69998885	0.00000000	12.64764000	3.15575800
190.89998884	0.00000000	12.64764000	3.15575800
191.09998883	0.00000000	12.64764000	3.15575800
191.29998882	0.00000000	12.64764000	3.11269700
191.49998881	0.00000000	12.64764000	2.78051200
191.69998880	0.00000000	12.64764000	2.41141700
191.89998878	0.00000000	12.69070000	2.78051200
192.09998877	0.00000000	13.02288000	3.06348400
192.29998876	0.00000000	13.39198000	2.73745100
192.49998875	0.00000000	13.02288000	2.04232300
192.69998874	0.00000000	12.69070000	1.99311000
192.89998872	0.00000000	12.64764000	2.36220500
193.09998871	0.00000000	12.64764000	2.36835600
193.29998870	0.00000000	12.64764000	2.78051200
193.49998869	0.00000000	12.64764000	3.11269700
193.69998868	0.00000000	12.64764000	3.15575800
193.89998866	0.00000000	12.64764000	3.15575800
194.09998865	0.00000000	12.64764000	3.15575800
194.29998864	0.00000000	12.64764000	3.15575800
194.49998863	0.00000000	12.64764000	3.15575800
194.69998862	0.00000000	12.64764000	3.11269700
194.89998861	0.00000000	12.64764000	2.73745100
195.09998859	0.00000000	12.64764000	1.99311000
195.29998858	0.00000000	12.64764000	1.61786400
195.49998857	0.00000000	12.64764000	1.57480300
195.69998856	0.00000000	12.64764000	1.57480300
195.89998855	0.00000000	12.64764000	1.57480300
196.09998853	0.00000000	12.64764000	1.57480300
