Time	Channel A	Channel B	Channel C
(us)	(V)	(mV)	(mV)

-4.59999956	0.00000000	85.38385000	36.31274000
-4.39999957	0.00000000	85.38385000	36.31274000
-4.19999958	0.00000000	85.38385000	36.31274000
-3.99999959	0.00000000	85.38385000	36.31274000
-3.79999960	0.00000000	85.38385000	36.31274000
-3.59999962	0.00000000	85.38385000	36.31274000
-3.39999963	0.00000000	85.38385000	36.31274000
-3.19999964	0.00000000	85.38385000	36.31274000
-2.99999965	0.00000000	85.38385000	36.31274000
-2.79999966	0.00000000	85.38385000	36.31274000
-2.59999968	0.00000000	85.38385000	36.31274000
-2.39999969	0.00000000	85.38385000	36.31274000
-2.19999970	0.00000000	85.38385000	36.31274000
-1.99999971	0.00000000	85.38385000	36.31274000
-1.79999972	0.00000000	85.42691000	36.31274000
-1.59999973	0.00000000	85.75910000	36.31274000
-1.39999975	0.00000000	86.12819000	36.31274000
-1.19999976	0.00000000	85.75910000	36.31274000
-0.99999977	0.00000000	85.42691000	36.31274000
-0.79999978	0.00000000	85.38385000	36.31274000
-0.59999979	0.00000000	85.38385000	36.31274000
-0.39999981	0.15871060	85.38385000	36.31274000
-0.19999982	0.47736220	85.38385000	36.31274000
0.00000017	0.79601380	85.38385000	36.31274000
0.20000016	0.95533960	85.38385000	36.31274000
0.40000015	0.95533960	85.38385000	36.31274000
0.60000013	0.63668800	85.38385000	36.31274000
0.80000012	-0.15871060	85.38385000	36.31274000
1.00000011	-0.95533960	85.38385000	36.31274000
1.20000010	-2.07062000	85.38385000	36.35580000
1.40000009	-2.70792300	85.38385000	36.73105000
1.60000008	-2.70792300	85.38385000	37.47539000
1.80000006	-1.91129400	85.38385000	37.85064000
2.00000005	-0.47736220	85.38385000	37.89370000
2.20000004	1.59264300	85.38385000	37.89370000
2.40000003	3.66326300	85.38385000	37.85064000
2.60000002	5.09719500	85.38385000	37.47539000
2.80000000	5.25652100	85.38385000	36.73105000
2.99999999	3.98191400	85.38385000	36.35580000
3.19999998	1.43331700	85.38385000	36.31274000
3.39999997	-1.91129400	85.38385000	36.31274000
3.59999996	-5.09719500	85.42691000	36.35580000
3.79999994	-7.48646600	85.80216000	36.73105000
3.99999993	-7.96444400	86.54650000	37.47539000
4.19999992	-6.53112700	86.92175000	37.85064000
4.39999991	-3.02657500	86.96481000	37.89370000
4.59999990	1.27399100	86.96481000	37.89370000
4.79999989	5.41584600	86.92175000	37.85064000
4.99999987	8.44242100	86.58956000	37.47539000
5.19999986	9.55770200	86.17741000	36.73105000
5.39999985	8.12377000	86.17126000	36.35580000
5.59999984	4.61921700	85.75910000	36.31274000
5.79999983	-0.15871060	85.42691000	36.35580000
5.99999981	-4.61921700	85.38385000	36.73105000
6.19999980	-8.12377000	85.42691000	37.47539000
6.39999979	-9.39837600	85.80216000	37.85064000
6.59999978	-8.44242100	86.54650000	37.89370000
6.79999977	-5.41584600	86.92175000	37.89370000
6.99999975	-1.27399100	86.96481000	37.89370000
7.19999974	3.02657500	86.96481000	37.89370000
7.39999973	6.37180100	86.92175000	37.89370000
7.59999972	7.80511800	86.54650000	37.85064000
7.79999971	7.16781500	85.80216000	37.47539000
7.99999970	4.93786900	85.42691000	36.73105000
8.19999968	1.75196900	85.38385000	36.35580000
8.39999967	-1.43331700	85.38385000	36.35580000
8.59999966	-3.98191400	85.38385000	36.73105000
8.79999965	-5.09719500	85.42691000	37.47539000
8.99999964	-4.93786900	85.80216000	37.85064000
9.19999962	-3.66326300	86.49728000	37.89370000
9.39999961	-1.59264300	86.54650000	37.89370000
9.59999960	0.31803640	86.17741000	37.89370000
9.79999959	1.75196900	86.17126000	37.85064000
9.99999958	2.38927200	85.80216000	37.47539000
10.19999956	2.38927200	85.80216000	36.73105000
10.39999955	1.75196900	86.12819000	36.35580000
10.59999954	0.95533960	85.75910000	36.31274000
10.79999953	0.15871060	85.42691000	36.31274000
10.99999952	-0.47736220	85.38385000	36.31274000
11.19999951	-0.95533960	85.38385000	36.31274000
11.39999949	-0.95533960	85.38385000	36.31274000
11.59999948	-0.79601380	85.38385000	36.31274000
11.79999947	-0.63668800	85.38385000	36.31274000
11.99999946	-0.31803640	85.38385000	36.31274000
12.19999945	-0.15871060	85.38385000	36.31274000
12.39999943	-0.15871060	85.38385000	36.31274000
12.59999942	0.00000000	85.38385000	36.31274000
12.79999941	0.00000000	85.38385000	36.31274000
12.99999940	0.00000000	85.38385000	36.31274000
13.19999939	0.00000000	85.38385000	36.31274000
13.39999937	0.00000000	85.38385000	36.31274000
13.59999936	0.00000000	85.42691000	36.31274000
13.79999935	0.00000000	85.75910000	36.31274000
13.99999934	-0.15871060	86.12819000	36.31274000
14.19999933	-0.15871060	85.75910000	36.31274000
14.39999932	-0.15871060	85.42691000	36.31274000
14.59999930	-0.15871060	85.38385000	36.31274000
14.79999929	0.00000000	85.38385000	36.31274000
14.99999928	0.00000000	85.38385000	36.31274000
15.19999927	0.00000000	85.38385000	36.31274000
15.39999926	0.00000000	85.38385000	36.31274000
15.59999924	0.00000000	85.38385000	36.31274000
15.79999923	0.00000000	85.38385000	36.31274000
15.99999922	0.00000000	85.38385000	36.31274000
16.19999921	0.00000000	85.38385000	36.31274000
16.39999920	-0.15871060	85.38385000	36.31274000
16.59999919	-0.15871060	85.42691000	36.31274000
16.79999917	-0.15871060	85.80216000	36.31274000
16.99999916	0.00000000	86.54650000	36.31274000
17.19999915	0.00000000	86.96481000	36.31274000
17.39999914	0.00000000	87.38312000	36.31274000
17.59999913	0.00000000	88.07824000	36.35580000
17.79999911	0.00000000	88.03519000	36.68799000
17.99999910	0.00000000	86.92175000	37.10014000
18.19999909	0.00000000	85.38385000	37.10630000
18.39999908	0.00000000	83.80289000	37.51845000
18.59999907	0.00000000	82.26501000	37.85064000
18.79999905	0.00000000	81.10851000	37.89370000
18.99999904	0.00000000	80.77632000	37.85064000
19.19999903	0.00000000	81.56988000	37.51845000
19.39999902	0.00000000	83.93823000	37.10630000
19.59999901	0.00000000	87.38312000	37.14321000
19.79999900	0.00000000	91.28937000	37.10630000
19.99999898	0.00000000	94.73425000	37.51845000
20.19999897	0.00000000	97.05954000	37.85064000
20.39999896	0.00000000	97.34251000	37.89370000
20.59999895	0.00000000	94.96801000	37.89370000
20.79999894	0.00000000	89.53001000	37.89370000
20.99999892	0.00000000	82.22194000	37.85064000
21.19999891	0.00000000	74.82775000	37.47539000
21.39999890	0.00000000	68.68233000	36.73105000
21.59999889	0.00000000	65.28666000	36.40502000
21.79999888	0.00000000	66.53543000	36.68799000
21.99999886	0.00000000	72.77312000	37.05708000
22.19999885	0.00000000	83.24310000	36.68799000
22.39999884	0.00000000	95.93995000	36.35580000
22.59999883	0.00000000	107.52950000	36.31274000
22.79999882	0.00000000	115.25590000	36.35580000
22.99999881	0.00000000	117.44590000	36.73105000
23.19999879	0.00000000	112.32780000	37.47539000
23.39999878	0.00000000	99.90772000	37.89370000
23.59999877	0.00000000	82.91708000	38.31200000
23.79999876	0.00000000	64.77608000	39.00713000
23.99999875	0.00000000	50.20915000	39.00713000
24.19999873	0.00000000	43.27633000	38.26894000
24.39999872	0.00000000	46.01993000	37.47539000
24.59999871	0.00000000	58.07086000	36.26968000
24.79999870	0.00000000	77.42986000	34.73794000
24.99999869	0.00000000	100.17840000	33.15699000
25.19999867	0.00000000	120.60780000	31.66830000
25.39999866	0.00000000	133.68600000	30.97318000
25.59999865	0.00000000	136.00520000	32.12967000
25.79999864	0.00000000	126.70400000	34.78100000
25.99999863	0.00000000	108.18160000	37.94291000
26.19999862	0.00000000	84.17815000	41.47392000
26.39999860	0.00000000	60.25467000	45.28174000
26.59999859	0.00000000	41.69537000	47.88385000
26.79999858	0.00000000	32.89247000	47.88385000
26.99999857	0.00000000	36.34350000	45.19562000
27.19999856	0.00000000	51.37180000	40.45890000
27.39999854	0.00000000	73.75123000	33.85827000
27.59999853	0.00000000	98.50517000	26.19340000
27.79999852	0.00000000	120.09720000	20.05413000
27.99999851	0.00000000	133.26160000	16.94144000
28.19999850	0.00000000	135.26700000	17.40280000
28.39999848	0.00000000	126.42100000	22.14567000
28.59999847	0.00000000	109.06740000	31.06545000
28.79999846	0.00000000	87.43233000	42.63041000
28.99999845	0.00000000	66.53543000	54.15846000
29.19999844	0.00000000	50.67052000	62.61073000
29.39999843	0.00000000	43.27633000	65.68036000
29.59999841	0.00000000	45.50935000	62.56766000
29.79999840	0.00000000	55.88705000	53.60482000
29.99999839	0.00000000	71.70891000	40.08366000
30.19999838	0.00000000	89.15477000	24.65551000
30.39999837	0.00000000	104.65060000	11.17741000
30.59999835	0.00000000	115.53270000	2.68208600
30.79999834	0.00000000	119.39590000	1.14419300
30.99999833	0.00000000	116.04330000	6.99434000
31.19999832	0.00000000	106.74210000	19.35900000
31.39999831	0.00000000	93.98376000	35.98671000
31.59999829	0.00000000	80.07504000	52.95275000
31.79999828	0.00000000	68.44857000	66.88607000
31.99999827	0.00000000	61.41732000	74.60629000
32.19999826	0.00000000	59.46727000	74.60629000
32.39999825	0.00000000	63.33046000	66.84301000
32.59999824	0.00000000	71.75196000	52.57751000
32.79999822	0.00000000	82.17889000	35.19931000
32.99999821	0.00000000	92.27362000	18.56545000
33.19999820	0.00000000	100.04310000	5.78863100
33.39999819	0.00000000	104.32450000	-0.38754920
33.59999818	0.00000000	104.32450000	1.14419300
33.79999816	0.00000000	100.13530000	10.02092000
33.99999815	0.00000000	93.15329000	24.32948000
34.19999814	0.00000000	85.05167000	40.92027000
34.39999813	0.00000000	77.38065000	56.38533000
34.59999812	0.00000000	72.73006000	67.21825000
34.79999810	0.00000000	71.88730000	71.48744000
34.99999809	0.00000000	74.21874000	68.37475000
35.19999808	0.00000000	79.57062000	58.34153000
35.39999807	0.00000000	86.07898000	43.74385000
35.59999806	0.00000000	91.48006000	28.32185000
35.79999805	0.00000000	95.01106000	15.95718000
35.99999803	0.00000000	95.76156000	8.99360200
36.19999802	0.00000000	93.84842000	8.94438800
36.39999801	0.00000000	89.61613000	15.45275000
36.59999800	0.00000000	84.27042000	26.23647000
36.79999799	0.00000000	79.65674000	38.96407000
36.99999797	0.00000000	76.96235000	50.44291000
37.19999796	0.00000000	76.96235000	57.41264000
37.39999795	0.00000000	79.61367000	58.20620000
37.59999794	0.00000000	83.80289000	53.27264000
37.79999793	0.00000000	88.07824000	44.07603000
37.99999791	0.00000000	91.61539000	33.75369000
38.19999790	0.00000000	94.27287000	25.25836000
38.39999789	0.00000000	95.01106000	20.70005000
38.59999788	0.00000000	93.11023000	21.44439000
38.79999787	0.00000000	89.65919000	27.52830000
38.99999786	0.00000000	85.38385000	36.31274000
39.19999784	0.00000000	81.15157000	45.14640000
39.39999783	0.00000000	78.03272000	51.64862000
39.59999782	0.00000000	76.45177000	53.55561000
39.79999781	0.00000000	76.45177000	50.48597000
39.99999780	0.00000000	78.03272000	43.19020000
40.19999778	0.00000000	81.15157000	33.62450000
40.39999777	0.00000000	85.38385000	24.79084000
40.59999776	0.00000000	89.65919000	19.02682000
40.79999775	0.00000000	93.15329000	17.91339000
40.99999774	0.00000000	95.47859000	22.14567000
41.19999772	0.00000000	95.85383000	30.55487000
41.39999771	0.00000000	94.27287000	40.50196000
41.59999770	0.00000000	90.82184000	49.00344000
41.79999769	0.00000000	86.22047000	54.02312000
41.99999768	0.00000000	82.31422000	54.81053000
42.19999767	0.00000000	79.19537000	50.95349000
42.39999765	0.00000000	77.24532000	43.65773000
42.59999764	0.00000000	77.23917000	34.83022000
42.79999763	0.00000000	78.36491000	26.79011000
42.99999762	0.00000000	80.73326000	22.09646000
43.19999761	0.00000000	83.75984000	21.25984000
43.39999759	0.00000000	86.49728000	23.54207000
43.59999758	0.00000000	88.45349000	28.59867000
43.79999757	0.00000000	89.61613000	35.06397000
43.99999756	0.00000000	89.65919000	41.24015000
44.19999755	0.00000000	88.92101000	45.10334000
44.39999753	0.00000000	88.17052000	46.35211000
44.59999752	0.00000000	87.38312000	45.18947000
44.79999751	0.00000000	87.00787000	42.16904000
44.99999750	0.00000000	86.96481000	38.31200000
45.19999749	0.00000000	86.92175000	34.82406000
45.39999748	0.00000000	86.45423000	32.08661000
45.59999746	0.00000000	84.87327000	30.55487000
45.79999745	0.00000000	82.17889000	30.55487000
45.99999744	0.00000000	79.10310000	32.04355000
46.19999743	0.00000000	76.45177000	34.36269000
46.39999742	0.00000000	75.33833000	36.68799000
46.59999740	0.00000000	76.54404000	39.00713000
46.79999739	0.00000000	79.98892000	40.54502000
46.99999738	0.00000000	85.05167000	40.96333000
47.19999737	0.00000000	90.50197000	40.54502000
47.39999736	0.00000000	95.93995000	39.00713000
47.59999734	0.00000000	100.04310000	36.68799000
47.79999733	0.00000000	100.78740000	34.40575000
47.99999732	0.00000000	97.34251000	32.46186000
48.19999731	0.00000000	91.15402000	31.71137000
48.39999730	0.00000000	83.33538000	32.04355000
48.59999729	0.00000000	74.91387000	33.24926000
48.79999727	0.00000000	68.44857000	35.24852000
48.99999726	0.00000000	66.49237000	38.31200000
49.19999725	0.00000000	69.14369000	41.70152000
49.39999724	0.00000000	75.38139000	43.65773000
49.59999723	0.00000000	84.27042000	44.07603000
49.79999721	0.00000000	93.89764000	43.28247000
49.99999720	0.00000000	101.58090000	40.92027000
50.19999719	0.00000000	105.39490000	37.43233000
50.39999718	0.00000000	103.90010000	33.24926000
50.59999717	0.00000000	97.76082000	29.81053000
50.79999715	0.00000000	89.29010000	28.59867000
50.99999714	0.00000000	79.98892000	28.97392000
51.19999713	0.00000000	72.35482000	30.97318000
51.39999712	0.00000000	68.49162000	34.83022000
51.59999711	0.00000000	69.65427000	39.38238000
51.79999710	0.00000000	75.33833000	43.28247000
51.99999708	0.00000000	83.42766000	45.61392000
52.19999707	0.00000000	91.52927000	46.35211000
52.39999706	0.00000000	98.03764000	44.82037000
52.59999705	0.00000000	100.73820000	41.38164000
52.79999704	0.00000000	98.83735000	37.51845000
52.99999702	0.00000000	93.52238000	33.62450000
53.19999701	0.00000000	86.17741000	30.59793000
53.39999700	0.00000000	79.28764000	29.39222000
53.59999699	0.00000000	74.21874000	30.17962000
53.79999698	0.00000000	72.35482000	32.46186000
53.99999696	0.00000000	74.26796000	35.89444000
54.19999695	0.00000000	79.61367000	38.92101000
54.39999694	0.00000000	86.49728000	40.54502000
54.59999693	0.00000000	92.64271000	40.96333000
54.79999692	0.00000000	96.49975000	40.54502000
54.99999691	0.00000000	96.92421000	39.00713000
55.19999689	0.00000000	94.27287000	36.78026000
55.39999688	0.00000000	89.61613000	35.24852000
55.59999687	0.00000000	83.84596000	34.83022000
55.79999686	0.00000000	78.50024000	35.24852000
55.99999685	0.00000000	75.42445000	36.73105000
56.19999683	0.00000000	75.38139000	38.58883000
56.39999682	0.00000000	78.03272000	39.33932000
56.59999681	0.00000000	82.26501000	39.00713000
56.79999680	0.00000000	86.92175000	37.75836000
56.99999679	0.00000000	91.15402000	35.47613000
57.19999677	0.00000000	93.80536000	32.41265000
57.39999676	0.00000000	93.84842000	30.17962000
57.59999675	0.00000000	91.57234000	29.39222000
57.79999674	0.00000000	88.12745000	30.59793000
57.99999673	0.00000000	84.27042000	33.66756000
58.19999672	0.00000000	81.19463000	37.93676000
58.39999670	0.00000000	79.61367000	42.49508000
58.59999669	0.00000000	79.57062000	45.97687000
58.79999668	0.00000000	80.73326000	47.09645000
58.99999667	0.00000000	82.64025000	45.92765000
59.19999666	0.00000000	84.96555000	41.98450000
59.39999664	0.00000000	86.87254000	35.89444000
59.59999663	0.00000000	88.07824000	29.39222000
59.79999662	0.00000000	88.45349000	24.79084000
59.99999661	0.00000000	88.07824000	23.20989000
60.19999660	0.00000000	86.92175000	24.74778000
60.39999658	0.00000000	85.42691000	29.01698000
60.59999657	0.00000000	84.27042000	35.24852000
60.79999656	0.00000000	83.89517000	42.49508000
60.99999655	0.00000000	84.22120000	48.62820000
61.19999654	0.00000000	84.96555000	51.32874000
61.39999653	0.00000000	85.38385000	50.57824000
61.59999651	0.00000000	85.75910000	46.30290000
61.79999650	0.00000000	86.12819000	39.38238000
61.99999649	0.00000000	85.71604000	31.71137000
62.19999648	0.00000000	84.96555000	25.12303000
62.39999647	0.00000000	83.84596000	21.30290000
62.59999645	0.00000000	83.10777000	20.89075000
62.79999644	0.00000000	83.42766000	24.41560000
62.99999643	0.00000000	83.80289000	30.88090000
63.19999642	0.00000000	84.27042000	38.59498000
63.39999641	0.00000000	85.42691000	45.19562000
63.59999639	0.00000000	86.92175000	49.88312000
63.79999638	0.00000000	88.03519000	52.11614000
63.99999637	0.00000000	88.07824000	50.57824000
64.19999636	0.00000000	87.34005000	45.61392000
64.39999635	0.00000000	86.54650000	39.09941000
64.59999634	0.00000000	85.38385000	32.46186000
64.79999632	0.00000000	84.27042000	27.06693000
64.99999631	0.00000000	83.84596000	23.58514000
65.19999630	0.00000000	83.84596000	23.20989000
65.39999629	0.00000000	84.22120000	25.81816000
65.59999628	0.00000000	85.00861000	30.04429000
65.79999626	0.00000000	85.75910000	34.73794000
65.99999625	0.00000000	86.54650000	39.43159000
66.19999624	0.00000000	86.87254000	43.65773000
66.39999623	0.00000000	86.49728000	46.35211000
66.59999622	0.00000000	85.34079000	46.81348000
66.79999620	0.00000000	83.84596000	45.70005000
66.99999619	0.00000000	82.73252000	43.75000000
67.19999618	0.00000000	82.73252000	41.00639000
67.39999617	0.00000000	83.84596000	37.89370000
67.59999616	0.00000000	85.42691000	34.78100000
67.79999615	0.00000000	87.38312000	32.04355000
67.99999613	0.00000000	89.65919000	30.08735000
68.19999612	0.00000000	91.15402000	28.93085000
68.39999611	0.00000000	91.15402000	28.93085000
68.59999610	0.00000000	89.61613000	30.13656000
68.79999609	0.00000000	86.87254000	32.50492000
68.99999607	0.00000000	83.38459000	36.40502000
69.19999606	0.00000000	79.52755000	40.96333000
69.39999605	0.00000000	76.54404000	44.86343000
69.59999604	0.00000000	75.75665000	47.18872000
69.79999603	0.00000000	77.65748000	47.97613000
69.99999601	0.00000000	81.15157000	46.77042000
70.19999600	0.00000000	85.85137000	43.65773000
70.39999599	0.00000000	91.19709000	39.00713000
70.59999598	0.00000000	95.42937000	33.62450000
70.79999597	0.00000000	97.34251000	29.01698000
70.99999596	0.00000000	96.59202000	26.27953000
71.19999594	0.00000000	93.11023000	25.86122000
71.39999593	0.00000000	88.07824000	27.44217000
71.59999592	0.00000000	82.26501000	30.93012000
71.79999591	0.00000000	76.87007000	35.89444000
71.99999590	0.00000000	73.42519000	40.50196000
72.19999588	0.00000000	72.63779000	43.65773000
72.39999587	0.00000000	74.96309000	45.19562000
72.59999586	0.00000000	79.52755000	44.82037000
72.79999585	0.00000000	84.96555000	42.49508000
72.99999584	0.00000000	89.99139000	39.09941000
73.19999582	0.00000000	93.89764000	35.61762000
73.39999581	0.00000000	95.85383000	33.29232000
73.59999580	0.00000000	95.80462000	32.08661000
73.79999579	0.00000000	93.47318000	32.08661000
73.99999578	0.00000000	88.87794000	33.20005000
74.19999577	0.00000000	83.89517000	34.68873000
74.39999575	0.00000000	79.61367000	35.85138000
74.59999574	0.00000000	76.91928000	36.22047000
74.79999573	0.00000000	76.49483000	35.89444000
74.99999572	0.00000000	77.98966000	35.11319000
75.19999571	0.00000000	80.68405000	34.40575000
75.39999569	0.00000000	83.80289000	34.04282000
75.59999568	0.00000000	86.87254000	34.82406000
75.79999567	0.00000000	89.19783000	36.36196000
75.99999566	0.00000000	89.99139000	38.31200000
76.19999565	0.00000000	89.65919000	40.58809000
76.39999563	0.00000000	88.50270000	42.07677000
76.59999562	0.00000000	86.96481000	42.07677000
76.79999561	0.00000000	85.42691000	40.50196000
76.99999560	0.00000000	84.27042000	37.43233000
77.19999559	0.00000000	83.84596000	33.57529000
77.39999558	0.00000000	83.84596000	30.08735000
77.59999556	0.00000000	84.22120000	27.44217000
77.79999555	0.00000000	84.91634000	26.65477000
77.99999554	0.00000000	84.87327000	28.22342000
78.19999553	0.00000000	83.80289000	31.29921000
78.39999552	0.00000000	82.68947000	35.98671000
78.59999550	0.00000000	82.31422000	40.96333000
78.79999549	0.00000000	82.68947000	45.19562000
78.99999548	0.00000000	83.84596000	47.46555000
79.19999547	0.00000000	85.42691000	46.77042000
79.39999546	0.00000000	87.34005000	44.07603000
79.59999544	0.00000000	89.24089000	40.16978000
79.79999543	0.00000000	90.03444000	35.15625000
79.99999542	0.00000000	90.03444000	30.59793000
80.19999541	0.00000000	89.19783000	27.81127000
80.39999540	0.00000000	86.87254000	27.01772000
80.59999539	0.00000000	83.84596000	27.76821000
80.79999537	0.00000000	81.19463000	30.13656000
80.99999536	0.00000000	79.98892000	33.57529000
81.19999535	0.00000000	80.35802000	37.47539000
81.39999534	0.00000000	81.52682000	40.92027000
81.59999533	0.00000000	83.84596000	43.28247000
81.79999531	0.00000000	86.49728000	44.11909000
81.99999530	0.00000000	88.50270000	44.11909000
82.19999529	0.00000000	90.03444000	43.33169000
82.39999528	0.00000000	90.77879000	41.38164000
82.59999527	0.00000000	89.99139000	39.05635000
82.79999525	0.00000000	88.12745000	36.26968000
82.99999524	0.00000000	85.80216000	33.20005000
83.19999523	0.00000000	83.89517000	30.51181000
83.39999522	0.00000000	82.68947000	28.97392000
83.59999521	0.00000000	82.31422000	28.97392000
83.79999520	0.00000000	82.68947000	30.51181000
83.99999518	0.00000000	83.80289000	33.20005000
84.19999517	0.00000000	84.91634000	36.36196000
84.39999516	0.00000000	85.38385000	39.84990000
84.59999515	0.00000000	85.80216000	43.28247000
84.79999514	0.00000000	86.49728000	45.19562000
84.99999512	0.00000000	86.49728000	45.23868000
85.19999511	0.00000000	85.85137000	43.65773000
85.39999510	0.00000000	85.85137000	40.54502000
85.59999509	0.00000000	86.54650000	36.31274000
85.79999508	0.00000000	86.87254000	32.08661000
85.99999506	0.00000000	86.54650000	28.97392000
86.19999505	0.00000000	85.80216000	27.39296000
86.39999504	0.00000000	85.38385000	27.43602000
86.59999503	0.00000000	84.91634000	29.39222000
86.79999502	0.00000000	83.80289000	33.24926000
86.99999501	0.00000000	82.68947000	37.85064000
87.19999499	0.00000000	82.31422000	42.11983000
87.39999498	0.00000000	82.64025000	45.14640000
87.59999497	0.00000000	83.42766000	45.88459000
87.79999496	0.00000000	84.22120000	43.61467000
87.99999495	0.00000000	85.42691000	39.43159000
88.19999493	0.00000000	86.92175000	34.78100000
88.39999492	0.00000000	88.03519000	30.51181000
88.59999491	0.00000000	88.03519000	27.44217000
88.79999490	0.00000000	86.96481000	26.32259000
88.99999489	0.00000000	85.75910000	27.86048000
89.19999487	0.00000000	84.59030000	31.71137000
89.39999486	0.00000000	83.05856000	36.68799000
89.59999485	0.00000000	82.31422000	41.70152000
89.79999484	0.00000000	82.26501000	45.14640000
89.99999483	0.00000000	82.68947000	46.30905000
90.19999482	0.00000000	83.80289000	44.72810000
90.39999480	0.00000000	84.96555000	40.54502000
90.59999479	0.00000000	85.75910000	35.15625000
90.79999478	0.00000000	86.49728000	30.17962000
90.99999477	0.00000000	86.49728000	26.70398000
91.19999476	0.00000000	85.80216000	25.95349000
91.39999474	0.00000000	85.42691000	27.86048000
91.59999473	0.00000000	85.38385000	32.08661000
91.79999472	0.00000000	85.38385000	37.42618000
91.99999471	0.00000000	85.38385000	42.07677000
92.19999470	0.00000000	85.38385000	45.14640000
92.39999468	0.00000000	85.38385000	45.88459000
92.59999467	0.00000000	85.38385000	43.61467000
92.79999466	0.00000000	85.29158000	39.43159000
92.99999465	0.00000000	84.49802000	34.78100000
93.19999464	0.00000000	82.68947000	30.55487000
93.39999463	0.00000000	81.56988000	27.86048000
93.59999461	0.00000000	81.84669000	27.48524000
93.79999460	0.00000000	82.26501000	29.39222000
93.99999459	0.00000000	83.10777000	33.24926000
94.19999458	0.00000000	85.05167000	37.85064000
94.39999457	0.00000000	87.34005000	42.03371000
94.59999455	0.00000000	89.65919000	44.35285000
94.79999454	0.00000000	91.11097000	43.98376000
94.99999453	0.00000000	90.77879000	41.70152000
95.19999452	0.00000000	88.87794000	37.85064000
95.39999451	0.00000000	86.49728000	33.66756000
95.59999449	0.00000000	83.38459000	30.59793000
95.79999448	0.00000000	79.98892000	29.39222000
95.99999447	0.00000000	78.03272000	30.13656000
96.19999446	0.00000000	77.61442000	32.08661000
96.39999445	0.00000000	78.45103000	35.15625000
96.59999444	0.00000000	81.15157000	38.58883000
96.79999442	0.00000000	84.96555000	40.92027000
96.99999441	0.00000000	88.50270000	42.07677000
97.19999440	0.00000000	91.61539000	41.70152000
97.39999439	0.00000000	93.84842000	39.80069000
97.59999438	0.00000000	93.84842000	37.51845000
97.79999436	0.00000000	91.57234000	35.19931000
97.99999435	0.00000000	88.12745000	33.66756000
98.19999434	0.00000000	84.22120000	33.24926000
98.39999433	0.00000000	80.73326000	33.62450000
98.59999432	0.00000000	78.03272000	34.73794000
98.79999430	0.00000000	76.87007000	35.89444000
98.99999429	0.00000000	77.65748000	36.68799000
99.19999428	0.00000000	79.94585000	37.47539000
99.39999427	0.00000000	83.42766000	37.85064000
99.59999426	0.00000000	86.92175000	37.89370000
99.79999425	0.00000000	90.03444000	37.93676000
99.99999423	0.00000000	92.31667000	38.31200000
100.19999422	0.00000000	92.73499000	39.05635000
100.39999421	0.00000000	91.61539000	39.38238000
100.59999420	0.00000000	89.65919000	39.00713000
100.79999419	0.00000000	86.92175000	37.89370000
100.99999417	0.00000000	83.84596000	36.68799000
101.19999416	0.00000000	81.10851000	35.47613000
101.39999415	0.00000000	79.19537000	33.57529000
101.59999414	0.00000000	78.40797000	32.08661000
101.79999413	0.00000000	79.19537000	31.66830000
101.99999411	0.00000000	81.05930000	32.08661000
102.19999410	0.00000000	83.42766000	33.66756000
102.39999409	0.00000000	85.75910000	36.36196000
102.59999408	0.00000000	88.07824000	39.38238000
102.79999407	0.00000000	89.61613000	41.70152000
102.99999406	0.00000000	90.03444000	42.49508000
103.19999404	0.00000000	89.65919000	42.11983000
103.39999403	0.00000000	88.45349000	40.50196000
103.59999402	0.00000000	86.54650000	37.43233000
103.79999401	0.00000000	84.22120000	33.62450000
103.99999400	0.00000000	82.31422000	30.55487000
104.19999398	0.00000000	81.10851000	29.01698000
104.39999397	0.00000000	80.73326000	29.39222000
104.59999396	0.00000000	81.10851000	31.66830000
104.79999395	0.00000000	82.31422000	34.68873000
104.99999394	0.00000000	84.17815000	37.47539000
105.19999392	0.00000000	86.12819000	39.75763000
105.39999391	0.00000000	87.24778000	41.28322000
105.59999390	0.00000000	87.70914000	40.92027000
105.79999389	0.00000000	87.29700000	39.43159000
105.99999388	0.00000000	86.54650000	37.47539000
106.19999387	0.00000000	85.34079000	35.15625000
106.39999385	0.00000000	83.84596000	33.24926000
106.59999384	0.00000000	82.73252000	32.08661000
106.79999383	0.00000000	82.68947000	32.08661000
106.99999382	0.00000000	83.42766000	33.20005000
107.19999381	0.00000000	84.22120000	34.78100000
107.39999379	0.00000000	85.38385000	36.68799000
107.59999378	0.00000000	86.49728000	38.58883000
107.79999377	0.00000000	86.87254000	39.33932000
107.99999376	0.00000000	86.54650000	39.00713000
108.19999375	0.00000000	85.75910000	37.85064000
108.39999374	0.00000000	85.00861000	36.31274000
108.59999372	0.00000000	84.17815000	34.73794000
108.79999371	0.00000000	83.42766000	33.24926000
108.99999370	0.00000000	82.68947000	32.50492000
109.19999369	0.00000000	82.68947000	33.24926000
109.39999368	0.00000000	83.42766000	34.73794000
109.59999366	0.00000000	84.22120000	36.31274000
109.79999365	0.00000000	85.38385000	37.85064000
109.99999364	0.00000000	86.49728000	39.00713000
110.19999363	0.00000000	86.92175000	39.38238000
110.39999362	0.00000000	86.92175000	39.05635000
110.59999360	0.00000000	86.49728000	38.26894000
110.79999359	0.00000000	85.38385000	37.47539000
110.99999358	0.00000000	84.22120000	36.26968000
111.19999357	0.00000000	83.47071000	34.78100000
111.39999356	0.00000000	83.05856000	33.66756000
111.59999355	0.00000000	83.42766000	33.62450000
111.79999353	0.00000000	83.80289000	34.36269000
111.99999352	0.00000000	84.22120000	35.11319000
112.19999351	0.00000000	84.96555000	35.93750000
112.39999350	0.00000000	85.34079000	36.68799000
112.59999349	0.00000000	85.38385000	37.47539000
112.79999347	0.00000000	85.38385000	37.85064000
112.99999346	0.00000000	85.38385000	37.89370000
113.19999345	0.00000000	85.38385000	37.85064000
113.39999344	0.00000000	85.38385000	37.47539000
113.59999343	0.00000000	85.38385000	36.73105000
113.79999341	0.00000000	85.34079000	36.31274000
113.99999340	0.00000000	84.96555000	35.89444000
114.19999339	0.00000000	84.22120000	35.15625000
114.39999338	0.00000000	83.89517000	34.78100000
114.59999337	0.00000000	84.17815000	34.73794000
114.79999336	0.00000000	84.59030000	34.73794000
114.99999334	0.00000000	84.59645000	34.73794000
115.19999333	0.00000000	85.00861000	34.78100000
115.39999332	0.00000000	85.34079000	35.15625000
115.59999331	0.00000000	85.38385000	35.93750000
115.79999330	0.00000000	85.38385000	36.68799000
115.99999328	0.00000000	85.38385000	37.47539000
116.19999327	0.00000000	85.34079000	37.85064000
116.39999326	0.00000000	84.96555000	37.89370000
116.59999325	0.00000000	84.22120000	37.89370000
116.79999324	0.00000000	83.84596000	37.85064000
116.99999322	0.00000000	83.84596000	37.47539000
117.19999321	0.00000000	84.22120000	36.68799000
117.39999320	0.00000000	84.96555000	35.93750000
117.59999319	0.00000000	85.38385000	35.11319000
117.79999318	0.00000000	85.75910000	34.40575000
117.99999317	0.00000000	86.17126000	33.99360000
118.19999315	0.00000000	86.13435000	34.40575000
118.39999314	0.00000000	86.12819000	35.11319000
118.59999313	0.00000000	85.34079000	35.93750000
118.79999312	0.00000000	84.22120000	36.68799000
118.99999311	0.00000000	83.42766000	37.47539000
119.19999309	0.00000000	82.64025000	37.85064000
119.39999308	0.00000000	82.26501000	37.89370000
119.59999307	0.00000000	82.26501000	37.85064000
119.79999306	0.00000000	82.68947000	37.47539000
119.99999305	0.00000000	83.84596000	36.73105000
120.19999303	0.00000000	85.34079000	36.31274000
120.39999302	0.00000000	86.54650000	35.89444000
120.59999301	0.00000000	87.29700000	35.15625000
120.79999300	0.00000000	87.70914000	34.78100000
120.99999299	0.00000000	87.29700000	34.73794000
121.19999298	0.00000000	86.54650000	34.73794000
121.39999296	0.00000000	85.34079000	34.73794000
121.59999295	0.00000000	83.80289000	34.73794000
121.79999294	0.00000000	82.31422000	34.78100000
121.99999293	0.00000000	81.52682000	35.15625000
122.19999292	0.00000000	81.84669000	35.89444000
122.39999290	0.00000000	82.22194000	36.26968000
122.59999289	0.00000000	82.68947000	36.31274000
122.79999288	0.00000000	83.84596000	36.31274000
122.99999287	0.00000000	85.34079000	36.31274000
123.19999286	0.00000000	86.49728000	36.31274000
123.39999284	0.00000000	86.92175000	36.31274000
123.59999283	0.00000000	86.96481000	36.26968000
123.79999282	0.00000000	86.92175000	35.89444000
123.99999281	0.00000000	86.54650000	35.15625000
124.19999280	0.00000000	85.75910000	34.78100000
124.39999279	0.00000000	85.00861000	34.73794000
124.59999277	0.00000000	84.17815000	34.73794000
124.79999276	0.00000000	83.42766000	34.78100000
124.99999275	0.00000000	82.64025000	35.15625000
125.19999274	0.00000000	82.31422000	35.89444000
125.39999273	0.00000000	82.64025000	36.31274000
125.59999271	0.00000000	83.42766000	36.73105000
125.79999270	0.00000000	84.17815000	37.47539000
125.99999269	0.00000000	85.00861000	37.85064000
126.19999268	0.00000000	85.75910000	37.85064000
126.39999267	0.00000000	86.54650000	37.47539000
126.59999265	0.00000000	86.92175000	36.73105000
126.79999264	0.00000000	86.92175000	36.35580000
126.99999263	0.00000000	86.49728000	36.31274000
127.19999262	0.00000000	85.38385000	36.31274000
127.39999261	0.00000000	84.22120000	36.31274000
127.59999260	0.00000000	83.42766000	36.31274000
127.79999258	0.00000000	82.64025000	36.31274000
127.99999257	0.00000000	82.31422000	36.35580000
128.19999256	0.00000000	82.68947000	36.73105000
128.39999255	0.00000000	83.84596000	37.47539000
128.59999254	0.00000000	85.34079000	37.85064000
128.79999252	0.00000000	86.49728000	37.89370000
128.99999251	0.00000000	86.92175000	37.85064000
129.19999250	0.00000000	86.92175000	37.47539000
129.39999249	0.00000000	86.54650000	36.73105000
129.59999248	0.00000000	85.75910000	36.35580000
129.79999246	0.00000000	84.96555000	36.31274000
129.99999245	0.00000000	83.80289000	36.31274000
130.19999244	0.00000000	82.68947000	36.31274000
130.39999243	0.00000000	82.31422000	36.31274000
130.59999242	0.00000000	82.64025000	36.35580000
130.79999241	0.00000000	83.42766000	36.68799000
130.99999239	0.00000000	84.17815000	37.10014000
131.19999238	0.00000000	85.00861000	37.06324000
131.39999237	0.00000000	85.71604000	37.10014000
131.59999236	0.00000000	86.12819000	36.64493000
131.79999235	0.00000000	85.75910000	35.93750000
131.99999233	0.00000000	85.42691000	35.15625000
132.19999232	0.00000000	85.34079000	34.78100000
132.39999231	0.00000000	84.96555000	34.73794000
132.59999230	0.00000000	84.22120000	34.73794000
132.79999229	0.00000000	83.84596000	34.78100000
132.99999227	0.00000000	83.80289000	35.15625000
133.19999226	0.00000000	83.80289000	35.93750000
133.39999225	0.00000000	83.80289000	36.68799000
133.59999224	0.00000000	83.80289000	37.42618000
133.79999223	0.00000000	83.80289000	37.42618000
133.99999222	0.00000000	83.80289000	36.68799000
134.19999220	0.00000000	83.80289000	35.93750000
134.39999219	0.00000000	83.84596000	35.15625000
134.59999218	0.00000000	84.22120000	34.73794000
134.79999217	0.00000000	84.96555000	34.31963000
134.99999216	0.00000000	85.34079000	33.62450000
135.19999214	0.00000000	85.38385000	33.62450000
135.39999213	0.00000000	85.38385000	34.31963000
135.59999212	0.00000000	85.34079000	34.73794000
135.79999211	0.00000000	84.96555000	35.15625000
135.99999210	0.00000000	84.22120000	35.93750000
136.19999208	0.00000000	83.80289000	36.68799000
136.39999207	0.00000000	83.38459000	37.42618000
136.59999206	0.00000000	82.68947000	37.42618000
136.79999205	0.00000000	82.68947000	36.68799000
136.99999204	0.00000000	83.42766000	35.98671000
137.19999203	0.00000000	84.17815000	35.53149000
137.39999201	0.00000000	84.96555000	35.47613000
137.59999200	0.00000000	85.38385000	34.73794000
137.79999199	0.00000000	85.75910000	34.04282000
137.99999198	0.00000000	86.07898000	34.36269000
138.19999197	0.00000000	85.34079000	34.69488000
138.39999195	0.00000000	84.27042000	34.78100000
138.59999194	0.00000000	83.84596000	35.15625000
138.79999193	0.00000000	83.80289000	35.89444000
138.99999192	0.00000000	83.80289000	36.31274000
139.19999191	0.00000000	83.80289000	36.73105000
139.39999189	0.00000000	83.84596000	37.47539000
139.59999188	0.00000000	84.22120000	37.80142000
139.79999187	0.00000000	84.96555000	37.47539000
139.99999186	0.00000000	85.34079000	36.68799000
140.19999185	0.00000000	85.38385000	35.93750000
140.39999184	0.00000000	85.38385000	35.15625000
140.59999182	0.00000000	85.34079000	34.78100000
140.79999181	0.00000000	84.96555000	34.73794000
140.99999180	0.00000000	84.27042000	34.78100000
141.19999179	0.00000000	84.22120000	35.15625000
141.39999178	0.00000000	84.54724000	35.89444000
141.59999176	0.00000000	84.17815000	36.31274000
141.79999175	0.00000000	83.89517000	36.73105000
141.99999174	0.00000000	84.22120000	37.47539000
142.19999173	0.00000000	84.96555000	37.85064000
142.39999172	0.00000000	85.34079000	37.89370000
142.59999170	0.00000000	85.38385000	37.85064000
142.79999169	0.00000000	85.38385000	37.47539000
142.99999168	0.00000000	85.34079000	36.68799000
143.19999167	0.00000000	84.96555000	35.93750000
143.39999166	0.00000000	84.22120000	35.15625000
143.59999165	0.00000000	83.84596000	34.78100000
143.79999163	0.00000000	83.80289000	34.73794000
143.99999162	0.00000000	83.84596000	34.78100000
144.19999161	0.00000000	84.22120000	35.15625000
144.39999160	0.00000000	84.96555000	35.93750000
144.59999159	0.00000000	85.34079000	36.68799000
144.79999157	0.00000000	85.38385000	37.47539000
144.99999156	0.00000000	85.34079000	37.85064000
145.19999155	0.00000000	84.96555000	37.85064000
145.39999154	0.00000000	84.22120000	37.47539000
145.59999153	0.00000000	83.84596000	36.68799000
145.79999151	0.00000000	83.80289000	35.93750000
145.99999150	0.00000000	83.80289000	35.15625000
146.19999149	0.00000000	83.84596000	34.78100000
146.39999148	0.00000000	84.22120000	34.73794000
146.59999147	0.00000000	84.96555000	34.78100000
146.79999146	0.00000000	85.34079000	35.15625000
146.99999144	0.00000000	85.38385000	35.89444000
147.19999143	0.00000000	85.38385000	36.26968000
147.39999142	0.00000000	85.38385000	36.31274000
147.59999141	0.00000000	85.34079000	36.35580000
147.79999140	0.00000000	84.96555000	36.73105000
147.99999138	0.00000000	84.22120000	37.42618000
148.19999137	0.00000000	83.84596000	37.42618000
148.39999136	0.00000000	83.80289000	36.68799000
148.59999135	0.00000000	83.80289000	35.93750000
148.79999134	0.00000000	83.80289000	35.15625000
148.99999132	0.00000000	83.80289000	34.78100000
149.19999131	0.00000000	83.84596000	34.73794000
149.39999130	0.00000000	84.22120000	34.73794000
149.59999129	0.00000000	84.96555000	34.78100000
149.79999128	0.00000000	85.34079000	35.15625000
149.99999127	0.00000000	85.38385000	35.89444000
150.19999125	0.00000000	85.38385000	36.26968000
150.39999124	0.00000000	85.34079000	36.31274000
150.59999123	0.00000000	84.96555000	36.31274000
150.79999122	0.00000000	84.22120000	36.31274000
150.99999121	0.00000000	83.84596000	36.31274000
151.19999119	0.00000000	83.80289000	36.26968000
151.39999118	0.00000000	83.80289000	35.93750000
151.59999117	0.00000000	83.80289000	35.53149000
151.79999116	0.00000000	83.80289000	35.51919000
151.99999115	0.00000000	83.84596000	35.11319000
152.19999113	0.00000000	84.22120000	34.78100000
152.39999112	0.00000000	84.96555000	34.73794000
152.59999111	0.00000000	85.34079000	34.78100000
152.79999110	0.00000000	85.38385000	35.11319000
152.99999109	0.00000000	85.38385000	35.51919000
153.19999108	0.00000000	85.34079000	35.53149000
153.39999106	0.00000000	84.96555000	35.93750000
153.59999105	0.00000000	84.22120000	36.26968000
153.79999104	0.00000000	83.84596000	36.31274000
153.99999103	0.00000000	83.80289000	36.31274000
154.19999102	0.00000000	83.80289000	36.31274000
154.39999100	0.00000000	83.80289000	36.31274000
154.59999099	0.00000000	83.80289000	36.31274000
154.79999098	0.00000000	83.80289000	36.31274000
154.99999097	0.00000000	83.84596000	36.26968000
155.19999096	0.00000000	84.22120000	35.89444000
155.39999094	0.00000000	84.96555000	35.19931000
155.59999093	0.00000000	85.34079000	35.19931000
155.79999092	0.00000000	85.38385000	35.89444000
155.99999091	0.00000000	85.38385000	36.26968000
156.19999090	0.00000000	85.34079000	36.31274000
156.39999089	0.00000000	84.96555000	36.35580000
156.59999087	0.00000000	84.22120000	36.73105000
156.79999086	0.00000000	83.84596000	37.47539000
156.99999085	0.00000000	83.80289000	37.80142000
157.19999084	0.00000000	83.80289000	37.47539000
157.39999083	0.00000000	83.80289000	36.73105000
157.59999081	0.00000000	83.80289000	36.35580000
157.79999080	0.00000000	83.84596000	36.31274000
157.99999079	0.00000000	84.22120000	36.26968000
158.19999078	0.00000000	84.96555000	35.89444000
158.39999077	0.00000000	85.34079000	35.19931000
158.59999075	0.00000000	85.38385000	35.19931000
158.79999074	0.00000000	85.38385000	35.89444000
158.99999073	0.00000000	85.38385000	36.26968000
159.19999072	0.00000000	85.34079000	36.35580000
159.39999071	0.00000000	84.96555000	36.73105000
159.59999070	0.00000000	84.22120000	37.47539000
159.79999068	0.00000000	83.84596000	37.85064000
159.99999067	0.00000000	83.80289000	37.85064000
160.19999066	0.00000000	83.80289000	37.47539000
160.39999065	0.00000000	83.80289000	36.73105000
160.59999064	0.00000000	83.80289000	36.35580000
160.79999062	0.00000000	83.80289000	36.31274000
160.99999061	0.00000000	83.80289000	36.31274000
161.19999060	0.00000000	83.80289000	36.31274000
161.39999059	0.00000000	83.84596000	36.26968000
161.59999058	0.00000000	84.22120000	35.93750000
161.79999056	0.00000000	84.96555000	35.57455000
161.99999055	0.00000000	85.34079000	35.93750000
162.19999054	0.00000000	85.38385000	36.26968000
162.39999053	0.00000000	85.38385000	36.31274000
162.59999052	0.00000000	85.34079000	36.31274000
162.79999051	0.00000000	84.96555000	36.31274000
162.99999049	0.00000000	84.22120000	36.31274000
163.19999048	0.00000000	83.84596000	36.31274000
163.39999047	0.00000000	83.80289000	36.31274000
163.59999046	0.00000000	83.80289000	36.26968000
163.79999045	0.00000000	83.80289000	35.93750000
163.99999043	0.00000000	83.80289000	35.57455000
164.19999042	0.00000000	83.80289000	35.89444000
164.39999041	0.00000000	83.84596000	35.85138000
164.59999040	0.00000000	84.22120000	35.15625000
164.79999039	0.00000000	84.96555000	34.78100000
164.99999037	0.00000000	85.34079000	34.78100000
165.19999036	0.00000000	85.34079000	35.15625000
165.39999035	0.00000000	84.96555000	35.89444000
165.59999034	0.00000000	84.22120000	36.26968000
165.79999033	0.00000000	83.84596000	36.31274000
165.99999032	0.00000000	83.80289000	36.26968000
166.19999030	0.00000000	83.80289000	35.93750000
166.39999029	0.00000000	83.80289000	35.57455000
166.59999028	0.00000000	83.80289000	35.89444000
166.79999027	0.00000000	83.80289000	35.85138000
166.99999026	0.00000000	83.80289000	35.15625000
167.19999024	0.00000000	83.80289000	34.78100000
167.39999023	0.00000000	83.80289000	34.73794000
167.59999022	0.00000000	83.80289000	34.73794000
167.79999021	0.00000000	83.80289000	34.73794000
167.99999020	0.00000000	83.80289000	34.73794000
168.19999018	0.00000000	83.80289000	34.73794000
168.39999017	0.00000000	83.80289000	34.73794000
168.59999016	0.00000000	83.80289000	34.78100000
168.79999015	0.00000000	83.80289000	35.11319000
168.99999014	0.00000000	83.80289000	35.47613000
169.19999013	0.00000000	83.80289000	35.15625000
169.39999011	0.00000000	83.80289000	35.19931000
169.59999010	0.00000000	83.84596000	35.85138000
169.79999009	0.00000000	84.17815000	35.89444000
169.99999008	0.00000000	84.54724000	35.57455000
170.19999007	0.00000000	84.17815000	35.93750000
170.39999005	0.00000000	83.84596000	36.26968000
170.59999004	0.00000000	83.80289000	36.31274000
170.79999003	0.00000000	83.80289000	36.26968000
170.99999002	0.00000000	83.80289000	35.93750000
171.19999001	0.00000000	83.80289000	35.57455000
171.39998999	0.00000000	83.80289000	35.93750000
171.59998998	0.00000000	83.80289000	36.26968000
171.79998997	0.00000000	83.80289000	36.31274000
171.99998996	0.00000000	83.80289000	36.31274000
172.19998995	0.00000000	83.80289000	36.31274000
172.39998994	0.00000000	83.80289000	36.31274000
172.59998992	0.00000000	83.80289000	36.31274000
172.79998991	0.00000000	83.80289000	36.31274000
172.99998990	0.00000000	83.80289000	36.31274000
173.19998989	0.00000000	83.80289000	36.31274000
173.39998988	0.00000000	83.80289000	36.31274000
173.59998986	0.00000000	83.80289000	36.31274000
173.79998985	0.00000000	83.80289000	36.31274000
173.99998984	0.00000000	83.80289000	36.31274000
174.19998983	0.00000000	83.80289000	36.31274000
174.39998982	0.00000000	83.80289000	36.31274000
174.59998980	0.00000000	83.84596000	36.31274000
174.79998979	0.00000000	84.17815000	36.31274000
174.99998978	0.00000000	84.54724000	36.31274000
175.19998977	0.00000000	84.17815000	36.31274000
175.39998976	0.00000000	83.84596000	36.31274000
175.59998975	0.00000000	83.80289000	36.31274000
175.79998973	0.00000000	83.80289000	36.31274000
175.99998972	0.00000000	83.80289000	36.31274000
176.19998971	0.00000000	83.80289000	36.31274000
176.39998970	0.00000000	83.80289000	36.31274000
176.59998969	0.00000000	83.80289000	36.31274000
176.79998967	0.00000000	83.80289000	36.31274000
176.99998966	0.00000000	83.80289000	36.31274000
177.19998965	0.00000000	83.80289000	36.31274000
177.39998964	0.00000000	83.80289000	36.31274000
177.59998963	0.00000000	83.80289000	36.31274000
177.79998961	0.00000000	83.80289000	36.31274000
177.99998960	0.00000000	83.80289000	36.31274000
178.19998959	0.00000000	83.80289000	36.31274000
178.39998958	0.00000000	83.80289000	36.31274000
178.59998957	0.00000000	83.80289000	36.31274000
178.79998956	0.00000000	83.80289000	36.31274000
178.99998954	0.00000000	83.80289000	36.31274000
179.19998953	0.00000000	83.80289000	36.31274000
179.39998952	0.00000000	83.80289000	36.26968000
179.59998951	0.00000000	83.80289000	35.89444000
179.79998950	0.00000000	83.80289000	35.15625000
179.99998948	0.00000000	83.80289000	34.78100000
180.19998947	0.00000000	83.80289000	34.78100000
180.39998946	0.00000000	83.80289000	35.11319000
180.59998945	0.00000000	83.80289000	35.47613000
180.79998944	0.00000000	83.80289000	35.15625000
180.99998942	0.00000000	83.80289000	35.19931000
181.19998941	0.00000000	83.80289000	35.89444000
181.39998940	0.00000000	83.80289000	36.26968000
181.59998939	0.00000000	83.80289000	36.31274000
181.79998938	0.00000000	83.80289000	36.31274000
181.99998937	0.00000000	83.80289000	36.31274000
182.19998935	0.00000000	83.80289000	36.26968000
182.39998934	0.00000000	83.80289000	35.89444000
182.59998933	0.00000000	83.80289000	35.15625000
182.79998932	0.00000000	83.80289000	34.78100000
182.99998931	0.00000000	83.80289000	34.73794000
183.19998929	0.00000000	83.80289000	34.73794000
183.39998928	0.00000000	83.80289000	34.73794000
183.59998927	0.00000000	83.80289000	34.73794000
183.79998926	0.00000000	83.80289000	34.73794000
183.99998925	0.00000000	83.80289000	34.78100000
184.19998923	0.00000000	83.80289000	35.15625000
184.39998922	0.00000000	83.80289000	35.89444000
184.59998921	0.00000000	83.80289000	36.26968000
184.79998920	0.00000000	83.80289000	36.31274000
184.99998919	0.00000000	83.80289000	36.31274000
185.19998918	0.00000000	83.80289000	36.31274000
185.39998916	0.00000000	83.80289000	36.31274000
185.59998915	0.00000000	83.80289000	36.31274000
185.79998914	0.00000000	83.84596000	36.26968000
185.99998913	0.00000000	84.17815000	35.93750000
186.19998912	0.00000000	84.54724000	35.53149000
186.39998910	0.00000000	84.17815000	35.56840000
186.59998909	0.00000000	83.84596000	35.53149000
186.79998908	0.00000000	83.80289000	35.93750000
186.99998907	0.00000000	83.80289000	36.26968000
187.19998906	0.00000000	83.80289000	36.31274000
187.39998904	0.00000000	83.80289000	36.31274000
187.59998903	0.00000000	83.80289000	36.31274000
187.79998902	0.00000000	83.80289000	36.31274000
187.99998901	0.00000000	83.80289000	36.31274000
188.19998900	0.00000000	83.80289000	36.31274000
188.39998899	0.00000000	83.80289000	36.31274000
188.59998897	0.00000000	83.80289000	36.31274000
188.79998896	0.00000000	83.80289000	36.31274000
188.99998895	0.00000000	83.80289000	36.26968000
189.19998894	0.00000000	83.80289000	35.93750000
189.39998893	0.00000000	83.80289000	35.57455000
189.59998891	0.00000000	83.80289000	35.93750000
189.79998890	0.00000000	83.80289000	36.26968000
189.99998889	0.00000000	83.80289000	36.31274000
190.19998888	0.00000000	83.80289000	36.31274000
190.39998887	0.00000000	83.80289000	36.31274000
190.59998885	0.00000000	83.80289000	36.26968000
190.79998884	0.00000000	83.80289000	35.93750000
190.99998883	0.00000000	83.80289000	35.57455000
191.19998882	0.00000000	83.80289000	35.89444000
191.39998881	0.00000000	83.80289000	35.85138000
191.59998880	0.00000000	83.80289000	35.19931000
191.79998878	0.00000000	83.80289000	35.15625000
191.99998877	0.00000000	83.80289000	35.47613000
192.19998876	0.00000000	83.80289000	35.11319000
192.39998875	0.00000000	83.80289000	34.78100000
192.59998874	0.00000000	83.80289000	34.78100000
192.79998872	0.00000000	83.80289000	35.11319000
192.99998871	0.00000000	83.80289000	35.51919000
193.19998870	0.00000000	83.80289000	35.53149000
193.39998869	0.00000000	83.80289000	35.93750000
193.59998868	0.00000000	83.80289000	36.26968000
193.79998866	0.00000000	83.80289000	36.31274000
193.99998865	0.00000000	83.80289000	36.31274000
194.19998864	0.00000000	83.80289000	36.31274000
194.39998863	0.00000000	83.84596000	36.31274000
194.59998862	0.00000000	84.17815000	36.31274000
194.79998861	0.00000000	84.54724000	36.31274000
194.99998859	0.00000000	84.17815000	36.26968000
195.19998858	0.00000000	83.84596000	35.93750000
195.39998857	0.00000000	83.80289000	35.57455000
195.59998856	0.00000000	83.80289000	35.89444000
195.79998855	0.00000000	83.80289000	35.89444000
195.99998853	0.00000000	83.80289000	35.53149000
