Time	Channel A	Channel B	Channel C
(us)	(V)	(mV)	(mV)

-4.59999956	0.00000000	20.55241000	6.31151500
-4.39999957	0.00000000	20.55241000	6.26845500
-4.19999958	0.00000000	20.55241000	5.89320800
-3.99999959	0.00000000	20.55241000	5.19808000
-3.79999960	0.00000000	20.55241000	5.15501900
-3.59999962	0.00000000	20.55241000	5.51796200
-3.39999963	0.00000000	20.55241000	5.53026500
-3.19999964	0.00000000	20.55241000	5.93626900
-2.99999965	0.00000000	20.55241000	6.26845500
-2.79999966	0.00000000	20.55241000	6.31151500
-2.59999968	0.00000000	20.55241000	6.26845500
-2.39999969	0.00000000	20.55241000	5.89320800
-2.19999970	0.00000000	20.55241000	5.19808000
-1.99999971	0.00000000	20.55241000	5.19808000
-1.79999972	0.00000000	20.55241000	5.89320800
-1.59999973	0.00000000	20.55241000	6.26845500
-1.39999975	0.00000000	20.55241000	6.31151500
-1.19999976	0.00000000	20.55241000	6.31151500
-0.99999977	0.00000000	20.55241000	6.31151500
-0.79999978	0.00000000	20.55241000	6.31151500
-0.59999979	0.00000000	20.55241000	6.31151500
-0.39999981	0.00000000	20.55241000	6.31151500
-0.19999982	0.31803640	20.55241000	6.31151500
0.00000017	0.79601380	20.55241000	6.26845500
0.20000016	0.95533960	20.55241000	5.89320800
0.40000015	0.95533960	20.55241000	5.15501900
0.60000013	0.79601380	20.55241000	4.77977300
0.80000012	0.15871060	20.55241000	4.73671200
1.00000011	-0.63668800	20.55241000	4.73671200
1.20000010	-1.59264300	20.55241000	4.77977300
1.40000009	-2.54859700	20.55241000	5.15501900
1.60000008	-2.86724900	20.55241000	5.89320800
1.80000006	-2.22994600	20.55241000	6.26845500
2.00000005	-0.95533960	20.55241000	6.31151500
2.20000004	0.95533960	20.55241000	6.31151500
2.40000003	3.02657500	20.55241000	6.31151500
2.60000002	4.61921700	20.55241000	6.26845500
2.80000000	5.41584600	20.55241000	5.89320800
2.99999999	4.61921700	20.55241000	5.15501900
3.19999998	2.54859700	20.55241000	4.77977300
3.39999997	-0.63668800	20.55241000	4.73671200
3.59999996	-3.98191400	20.55241000	4.77977300
3.79999994	-6.84916400	20.55241000	5.15501900
3.99999993	-7.96444400	20.55241000	5.89320800
4.19999992	-7.16781500	20.55241000	6.26845500
4.39999991	-4.45989200	20.55241000	6.31151500
4.59999990	-0.31803640	20.55241000	6.31151500
4.79999989	4.14124000	20.55241000	6.31151500
4.99999987	7.64579200	20.55241000	6.26845500
5.19999986	9.39837600	20.55241000	5.89320800
5.39999985	8.76107300	20.50935000	5.15501900
5.59999984	6.05315000	20.13410000	4.77977300
5.79999983	1.59264300	19.43897000	4.73671200
5.99999981	-3.18590100	19.43897000	4.73671200
6.19999980	-7.16781500	20.13410000	4.77977300
6.39999979	-9.23905000	20.50935000	5.15501900
6.59999978	-9.07972400	20.55241000	5.89320800
6.79999977	-6.69045300	20.55241000	6.26845500
6.99999975	-2.70792300	20.55241000	6.31151500
7.19999974	1.59264300	20.55241000	6.31151500
7.39999973	5.25652100	20.55241000	6.31151500
7.59999972	7.48646600	20.55241000	6.26845500
7.79999971	7.64579200	20.55241000	5.89320800
7.99999970	5.89382400	20.55241000	5.15501900
8.19999968	2.86724900	20.50935000	4.77977300
8.39999967	-0.31803640	20.17716000	4.77977300
8.59999966	-3.18590100	19.80807000	5.15501900
8.79999965	-4.93786900	20.17716000	5.89320800
8.99999964	-5.09719500	20.50935000	6.26845500
9.19999962	-4.14124000	20.55241000	6.31151500
9.39999961	-2.38927200	20.55241000	6.31151500
9.59999960	-0.31803640	20.55241000	6.31151500
9.79999959	1.27399100	20.55241000	6.26845500
9.99999958	2.38927200	20.55241000	5.93626900
10.19999956	2.54859700	20.55241000	5.53026500
10.39999955	2.07062000	20.55241000	5.51796200
10.59999954	1.27399100	20.55241000	5.11195900
10.79999953	0.47736220	20.55241000	4.82898600
10.99999952	-0.31803640	20.55241000	5.15501900
11.19999951	-0.79601380	20.55241000	5.89320800
11.39999949	-0.95533960	20.50935000	6.26845500
11.59999948	-0.95533960	20.17716000	6.31151500
11.79999947	-0.63668800	19.80807000	6.31151500
11.99999946	-0.31803640	20.17716000	6.26845500
12.19999945	-0.15871060	20.50935000	5.93626900
12.39999943	-0.15871060	20.55241000	5.57332700
12.59999942	-0.15871060	20.55241000	5.93626900
12.79999941	0.00000000	20.55241000	6.21924200
12.99999940	0.00000000	20.55241000	5.93626900
13.19999939	0.00000000	20.50935000	5.57332700
13.39999937	0.00000000	20.17716000	5.93626900
13.59999936	0.00000000	19.80807000	6.26845500
13.79999935	0.00000000	20.17716000	6.31151500
13.99999934	0.00000000	20.50935000	6.31151500
14.19999933	-0.15871060	20.55241000	6.31151500
14.39999932	-0.15871060	20.55241000	6.31151500
14.59999930	-0.15871060	20.55241000	6.26845500
14.79999929	0.00000000	20.55241000	5.89320800
14.99999928	0.00000000	20.55241000	5.19808000
15.19999927	0.00000000	20.50935000	5.19808000
15.39999926	0.00000000	20.13410000	5.89320800
15.59999924	0.15871060	19.43897000	6.26845500
15.79999923	0.00000000	19.38976000	6.31151500
15.99999922	0.00000000	19.75886000	6.26845500
16.19999921	0.00000000	19.72195000	5.93626900
16.39999920	0.00000000	19.80192000	5.53026500
16.59999919	0.00000000	19.76501000	5.51796200
16.79999917	0.00000000	20.17716000	5.15501900
16.99999916	0.00000000	20.55241000	5.15501900
17.19999915	0.00000000	20.97072000	5.47490100
17.39999914	0.00000000	21.66585000	5.11195900
17.59999913	0.00000000	21.66585000	4.82898600
17.79999911	0.00000000	20.97072000	5.15501900
17.99999910	0.00000000	20.55241000	5.89320800
18.19999909	0.00000000	20.04183000	6.21924200
18.39999908	0.00000000	18.50394000	5.93626900
18.59999907	0.00000000	16.27707000	5.57332700
18.79999905	0.00000000	14.73917000	5.89320800
18.99999904	0.00000000	14.32087000	5.89320800
19.19999903	0.00000000	14.73917000	5.57332700
19.39999902	0.00000000	16.36319000	5.93626900
19.59999901	0.00000000	19.43897000	6.26845500
19.79999900	0.00000000	23.29601000	6.31151500
19.99999898	0.00000000	26.83317000	6.26845500
20.19999897	0.00000000	29.85974000	5.93626900
20.39999896	0.00000000	31.34227000	5.53026500
20.59999895	0.00000000	29.72441000	5.51796200
20.79999894	0.00000000	25.47982000	5.11195900
20.99999892	0.00000000	18.83612000	4.77977300
21.19999891	0.00000000	11.15896000	4.73671200
21.39999890	0.00000000	4.18307100	4.73671200
21.59999889	0.00000000	-0.38139760	4.73671200
21.79999888	0.00000000	-1.03346500	4.73671200
21.99999886	0.00000000	3.66633800	4.73671200
22.19999885	0.00000000	13.29355000	4.73671200
22.39999884	0.00000000	25.29527000	4.73671200
22.59999883	0.00000000	37.30315000	4.77977300
22.79999882	0.00000000	46.93036000	5.15501900
22.99999881	0.00000000	51.45177000	5.89320800
23.19999879	0.00000000	49.02805000	6.26845500
23.39999878	0.00000000	38.93332000	6.31151500
23.59999877	0.00000000	23.11762000	6.35457700
23.79999876	0.00000000	5.29650500	6.72982200
23.99999875	0.00000000	-10.89444000	7.42495000
24.19999873	0.00000000	-21.54897000	7.42495000
24.39999872	0.00000000	-22.66240000	6.68676100
24.59999871	0.00000000	-13.41043000	5.85014700
24.79999870	0.00000000	3.61712600	4.26919300
24.99999869	0.00000000	25.34449000	2.04232300
25.19999867	0.00000000	47.26255000	0.51058070
25.39999866	0.00000000	63.82259000	0.09227362
25.59999865	0.00000000	70.34325000	0.51058070
25.79999864	0.00000000	65.31742000	2.12844500
25.99999863	0.00000000	49.45251000	5.19808000
26.19999862	0.00000000	26.32259000	9.09817800
26.39999860	0.00000000	1.57480300	12.91215000
26.59999859	0.00000000	-19.27288000	16.01870000
26.79999858	0.00000000	-31.60064000	17.09523000
26.99999857	0.00000000	-31.97588000	15.92642000
27.19999856	0.00000000	-20.47859000	11.98327000
27.39999854	0.00000000	-0.38139760	5.80708600
27.59999853	0.00000000	23.62820000	-1.58095500
27.79999852	0.00000000	46.79502000	-8.82750900
27.99999851	0.00000000	63.73647000	-13.79798000
28.19999850	0.00000000	69.96801000	-14.54232000
28.39999848	0.00000000	64.66535000	-11.01132000
28.59999847	0.00000000	50.00615000	-3.21112200
28.79999846	0.00000000	29.48450000	7.94168200
28.99999845	0.00000000	7.48031400	19.50664000
29.19999844	0.00000000	-11.07899000	28.80167000
29.39999843	0.00000000	-21.92421000	34.14124000
29.59999841	0.00000000	-23.17298000	33.67987000
29.79999840	0.00000000	-15.12672000	26.66708000
29.99999839	0.00000000	-0.51673230	14.30856000
30.19999838	0.00000000	16.92913000	-1.11343500
30.39999837	0.00000000	33.58760000	-15.74803000
30.59999835	0.00000000	46.37672000	-26.20571000
30.79999834	0.00000000	52.61442000	-30.43184000
30.99999833	0.00000000	51.53789000	-27.27608000
31.19999832	0.00000000	44.23597000	-16.81841000
31.39999831	0.00000000	32.60334000	-1.02116100
31.59999829	0.00000000	19.06373000	16.35089000
31.79999828	0.00000000	6.31766700	31.45300000
31.99999827	0.00000000	-2.65748000	41.48622000
32.19999826	0.00000000	-6.52682100	44.18061000
32.39999825	0.00000000	-5.02583600	38.79183000
32.59999824	0.00000000	1.93774600	26.75935000
32.79999822	0.00000000	11.90330000	10.16855000
32.99999821	0.00000000	22.78543000	-7.61564900
33.19999820	0.00000000	32.04970000	-22.26255000
33.39999819	0.00000000	37.91216000	-31.21924000
33.59999818	0.00000000	39.45005000	-32.34498000
33.79999816	0.00000000	36.41732000	-25.83046000
33.99999815	0.00000000	29.85974000	-13.05979000
34.19999814	0.00000000	21.80118000	3.15575800
34.39999813	0.00000000	14.04404000	19.42052000
34.59999812	0.00000000	8.63681000	32.52337000
34.79999810	0.00000000	6.27460600	39.48696000
34.99999809	0.00000000	7.43110200	38.70571000
35.19999808	0.00000000	11.62032000	30.65945000
35.39999807	0.00000000	17.39050000	17.18750000
35.59999806	0.00000000	23.16068000	2.17765700
35.79999805	0.00000000	27.39296000	-11.01132000
35.99999803	0.00000000	28.97392000	-19.88804000
36.19999802	0.00000000	27.86048000	-22.58243000
36.39999801	0.00000000	24.74163000	-18.39936000
36.59999800	0.00000000	20.13410000	-8.78444900
36.79999799	0.00000000	15.15748000	3.53100400
36.99999797	0.00000000	11.71260000	15.79724000
37.19999796	0.00000000	10.50689000	24.24951000
37.39999795	0.00000000	11.71260000	26.66708000
37.59999794	0.00000000	15.11442000	23.60359000
37.79999793	0.00000000	19.75886000	15.88336000
37.99999791	0.00000000	23.99729000	5.20423200
38.19999790	0.00000000	27.48524000	-4.69365100
38.39999789	0.00000000	28.97392000	-10.50074000
38.59999788	0.00000000	27.86048000	-10.92520000
38.79999787	0.00000000	24.78469000	-6.36687900
38.99999786	0.00000000	20.55241000	1.71013800
39.19999784	0.00000000	16.27707000	10.86983000
39.39999783	0.00000000	12.78297000	18.53469000
39.59999782	0.00000000	10.45768000	21.97957000
39.79999781	0.00000000	10.03937000	20.44168000
39.99999780	0.00000000	11.20202000	14.30241000
40.19999778	0.00000000	13.57652000	5.11195900
40.39999777	0.00000000	17.48277000	-4.09079700
40.59999776	0.00000000	22.09030000	-10.96826000
40.79999775	0.00000000	26.32259000	-13.28740000
40.99999774	0.00000000	29.01698000	-10.22392000
41.19999772	0.00000000	29.44143000	-3.34645700
41.39999771	0.00000000	27.94660000	5.93626900
41.59999770	0.00000000	25.20300000	15.09596000
41.79999769	0.00000000	21.71506000	21.69045000
41.99999768	0.00000000	17.80881000	23.97884000
42.19999767	0.00000000	14.36393000	21.69045000
42.39999765	0.00000000	11.99557000	15.18824000
42.59999764	0.00000000	11.24508000	6.72982200
42.79999763	0.00000000	11.99557000	-1.35334600
42.99999762	0.00000000	14.32087000	-7.52337600
43.19999761	0.00000000	17.34744000	-9.85482200
43.39999759	0.00000000	20.08489000	-8.36614100
43.59999758	0.00000000	22.04109000	-3.76476400
43.79999757	0.00000000	23.24680000	2.73745100
43.99999756	0.00000000	23.62205000	8.91978400
44.19999755	0.00000000	23.29601000	13.56422000
44.39999753	0.00000000	22.50861000	15.88336000
44.59999752	0.00000000	21.75812000	15.18824000
44.79999751	0.00000000	20.97072000	12.53691000
44.99999750	0.00000000	20.59547000	9.05511800
45.19999749	0.00000000	20.55241000	5.15501900
45.39999748	0.00000000	20.46014000	1.71013800
45.59999746	0.00000000	19.62352000	-0.60285430
45.79999745	0.00000000	17.29823000	-1.02116100
45.99999744	0.00000000	14.27165000	0.09227362
46.19999743	0.00000000	11.57726000	2.04232300
46.39999742	0.00000000	10.03937000	4.73671200
46.59999740	0.00000000	10.08243000	7.43110200
46.79999739	0.00000000	12.08784000	9.33809000
46.99999738	0.00000000	16.36319000	10.16855000
47.19999737	0.00000000	22.13336000	9.75639700
47.39999736	0.00000000	27.94660000	8.63681000
47.59999734	0.00000000	32.56028000	6.64370100
47.79999733	0.00000000	34.79330000	4.36146600
47.99999732	0.00000000	33.21235000	2.04232300
48.19999731	0.00000000	27.81742000	0.51058070
48.39999730	0.00000000	20.08489000	0.13533460
48.59999729	0.00000000	11.57726000	0.92888770
48.79999727	0.00000000	4.31840500	3.24803100
48.99999726	0.00000000	0.45521650	6.31151500
49.19999725	0.00000000	1.24261800	9.42421200
49.39999724	0.00000000	6.22539300	12.07554000
49.59999723	0.00000000	14.40699000	13.23819000
49.79999721	0.00000000	24.00344000	12.45079000
49.99999720	0.00000000	32.83710000	10.11934000
50.19999719	0.00000000	37.81988000	6.26845500
50.39999718	0.00000000	37.91216000	2.08538400
50.59999717	0.00000000	33.63066000	-1.07037400
50.79999715	0.00000000	25.90428000	-2.97736200
50.99999714	0.00000000	16.27707000	-3.34030500
51.19999713	0.00000000	7.48031400	-1.39640700
51.39999712	0.00000000	2.08538400	1.99311000
51.59999711	0.00000000	1.66092500	5.93626900
51.79999710	0.00000000	5.85014700	9.75639700
51.99999708	0.00000000	13.15822000	12.86294000
52.19999707	0.00000000	21.62278000	13.98253000
52.39999706	0.00000000	28.93085000	13.23819000
52.59999705	0.00000000	33.16929000	10.49459000
52.79999704	0.00000000	33.21235000	6.35457700
52.99999702	0.00000000	29.34916000	2.46063000
53.19999701	0.00000000	22.82849000	-0.23991140
53.39999700	0.00000000	15.15748000	-1.85162400
53.59999699	0.00000000	9.01205700	-1.77165300
53.79999698	0.00000000	5.94242000	-0.27682080
53.99999696	0.00000000	6.69291300	2.82972400
54.19999695	0.00000000	11.29429000	6.17618100
54.39999694	0.00000000	17.76575000	8.54453700
54.59999693	0.00000000	24.32333000	9.33809000
54.79999692	0.00000000	28.93085000	9.00590400
54.99999691	0.00000000	30.51181000	7.80019600
55.19999689	0.00000000	28.97392000	5.93626900
55.39999688	0.00000000	24.74163000	4.03543200
55.59999687	0.00000000	18.97145000	3.29109200
55.79999686	0.00000000	13.24434000	3.62327700
55.99999685	0.00000000	9.38730200	4.77977300
56.19999683	0.00000000	8.59375000	6.31151500
56.39999682	0.00000000	10.45768000	7.80019600
56.59999681	0.00000000	14.32087000	8.54453700
56.79999680	0.00000000	18.92839000	7.71407400
56.99999679	0.00000000	23.20374000	5.43184000
57.19999677	0.00000000	26.27953000	1.99311000
57.39999676	0.00000000	27.43602000	-0.97810030
57.59999675	0.00000000	26.27953000	-2.18380900
57.79999674	0.00000000	23.24680000	-1.39640700
57.99999673	0.00000000	19.38976000	0.92888770
58.19999672	0.00000000	15.94488000	4.87204700
58.39999670	0.00000000	13.57652000	9.79945900
58.59999669	0.00000000	12.82603000	14.39468000
58.79999668	0.00000000	13.57652000	16.63386000
58.99999667	0.00000000	15.85261000	15.92642000
59.19999666	0.00000000	18.50394000	12.40773000
59.39999664	0.00000000	20.46014000	7.01279500
59.59999663	0.00000000	21.66585000	0.46751960
59.79999662	0.00000000	22.04109000	-5.25344500
59.99999661	0.00000000	21.66585000	-8.31692900
60.19999660	0.00000000	20.55241000	-7.94783400
60.39999658	0.00000000	19.38976000	-4.09694900
60.59999657	0.00000000	18.59621000	2.04232300
60.79999656	0.00000000	17.80881000	9.00590400
60.99999655	0.00000000	17.48277000	15.18824000
61.19999654	0.00000000	17.80881000	19.42052000
61.39999653	0.00000000	18.59621000	20.48474000
61.59999651	0.00000000	19.30364000	17.42126000
61.79999650	0.00000000	19.71580000	10.91289000
61.99999649	0.00000000	19.34670000	3.19881900
62.19999648	0.00000000	18.97145000	-4.14000900
62.39999647	0.00000000	18.55315000	-9.47957600
62.59999645	0.00000000	17.80881000	-11.06053000
62.79999644	0.00000000	17.43356000	-8.78444900
62.99999643	0.00000000	17.43356000	-3.72170300
63.19999642	0.00000000	17.85802000	3.57406500
63.39999641	0.00000000	19.01451000	11.28199000
63.59999639	0.00000000	20.46014000	17.09523000
63.79999638	0.00000000	21.29675000	20.57702000
63.99999637	0.00000000	21.30290000	20.52780000
64.19999636	0.00000000	21.29675000	16.71998000
64.39999635	0.00000000	20.46014000	10.58686000
64.59999634	0.00000000	19.01451000	3.62327700
64.79999632	0.00000000	17.80881000	-2.55905500
64.99999631	0.00000000	17.05832000	-6.78518600
65.19999630	0.00000000	16.64616000	-7.99089500
65.39999629	0.00000000	17.05832000	-6.13312000
65.59999628	0.00000000	17.80881000	-2.69439000
65.79999626	0.00000000	18.97145000	1.62401600
65.99999625	0.00000000	20.08489000	6.26845500
66.19999624	0.00000000	20.46014000	10.53765000
66.39999623	0.00000000	20.08489000	13.60728000
66.59999622	0.00000000	18.92839000	14.81299000
66.79999620	0.00000000	17.43356000	14.11786000
66.99999619	0.00000000	16.27707000	12.58612000
67.19999618	0.00000000	15.90182000	10.53765000
67.39999617	0.00000000	16.32013000	7.42495000
67.59999616	0.00000000	17.85802000	3.62327700
67.79999615	0.00000000	20.13410000	0.51058070
67.99999613	0.00000000	22.09030000	-1.48868100
68.19999612	0.00000000	23.62205000	-2.68823800
68.39999611	0.00000000	24.36639000	-3.06348400
68.59999610	0.00000000	23.53592000	-2.60211600
68.79999609	0.00000000	21.20448000	-0.64591530
68.99999607	0.00000000	17.34744000	2.82972400
69.19999606	0.00000000	13.15822000	6.72982200
69.39999605	0.00000000	10.08243000	11.00517000
69.59999604	0.00000000	8.92593500	14.81299000
69.79999603	0.00000000	10.08243000	16.71998000
69.99999601	0.00000000	13.15822000	16.35089000
70.19999600	0.00000000	17.48277000	13.61343000
70.39999599	0.00000000	22.50861000	9.00590400
70.59999598	0.00000000	27.48524000	3.57406500
70.79999597	0.00000000	30.51181000	-1.43946800
70.99999596	0.00000000	30.55487000	-5.29650500
71.19999594	0.00000000	27.86048000	-6.78518600
71.39999593	0.00000000	23.20374000	-5.29650500
71.59999592	0.00000000	17.39050000	-1.48868100
71.79999591	0.00000000	11.62032000	3.15575800
71.99999590	0.00000000	7.38804100	7.80019600
72.19999588	0.00000000	5.80708600	11.70029000
72.39999587	0.00000000	6.96973400	13.98253000
72.59999586	0.00000000	10.45768000	14.39468000
72.79999585	0.00000000	15.85261000	12.45079000
72.99999584	0.00000000	21.62278000	9.05511800
73.19999582	0.00000000	26.32259000	5.19808000
73.39999581	0.00000000	29.39222000	2.12844500
73.59999580	0.00000000	30.13656000	0.55364170
73.79999579	0.00000000	27.86048000	0.51058070
73.99999578	0.00000000	23.67126000	1.62401600
74.19999577	0.00000000	19.01451000	3.15575800
74.39999575	0.00000000	14.73917000	4.68750000
74.59999574	0.00000000	11.62032000	5.80093500
74.79999573	0.00000000	10.08243000	5.80093500
74.99999572	0.00000000	10.45768000	4.73671200
75.19999571	0.00000000	12.78297000	3.62327700
75.39999569	0.00000000	16.18479000	3.24803100
75.59999568	0.00000000	19.66658000	3.62327700
75.79999567	0.00000000	21.99803000	4.82283400
75.99999566	0.00000000	23.20374000	6.72982200
76.19999565	0.00000000	23.20374000	9.05511800
76.39999563	0.00000000	22.09030000	10.91289000
76.59999562	0.00000000	20.55241000	11.65723000
76.79999561	0.00000000	19.01451000	10.45152000
76.99999560	0.00000000	17.85802000	7.42495000
77.19999559	0.00000000	17.48277000	3.57406500
77.39999558	0.00000000	17.80881000	0.04306102
77.59999556	0.00000000	18.55315000	-3.02042300
77.79999555	0.00000000	18.87918000	-4.87819900
77.99999554	0.00000000	18.55315000	-4.09079700
78.19999553	0.00000000	17.76575000	-1.07037400
78.39999552	0.00000000	17.01525000	3.24803100
78.59999550	0.00000000	16.22785000	8.22465500
78.79999549	0.00000000	15.94488000	12.86294000
78.99999548	0.00000000	16.69537000	15.51427000
79.19999547	0.00000000	18.59621000	15.92642000
79.39999546	0.00000000	20.50935000	13.61343000
79.59999544	0.00000000	22.09030000	9.43036400
79.79999543	0.00000000	23.20374000	4.77977300
79.99999542	0.00000000	23.20374000	0.51058070
80.19999541	0.00000000	22.04109000	-2.60211600
80.39999540	0.00000000	20.13410000	-4.18307100
80.59999539	0.00000000	17.76575000	-4.18307100
80.79999537	0.00000000	15.47736000	-2.60211600
80.99999536	0.00000000	13.53346000	0.46751960
81.19999535	0.00000000	12.82603000	4.31840500
81.39999534	0.00000000	13.57652000	7.80019600
81.59999533	0.00000000	15.90182000	10.53765000
81.79999531	0.00000000	18.92839000	12.11860000
81.99999530	0.00000000	21.62278000	12.53691000
82.19999529	0.00000000	23.20374000	12.11860000
82.39999528	0.00000000	23.62205000	10.53765000
82.59999527	0.00000000	23.20374000	7.84940900
82.79999525	0.00000000	21.66585000	4.77977300
82.99999524	0.00000000	19.38976000	1.99311000
83.19999523	0.00000000	17.48277000	-0.33218500
83.39999522	0.00000000	16.27707000	-2.22687000
83.59999521	0.00000000	15.85261000	-2.60211600
83.79999520	0.00000000	15.90182000	-1.48868100
83.99999518	0.00000000	16.64616000	0.46751960
84.19999517	0.00000000	18.13484000	3.24803100
84.39999516	0.00000000	18.87918000	6.68676100
84.59999515	0.00000000	18.97145000	10.16855000
84.79999514	0.00000000	18.97145000	12.49385000
84.99999512	0.00000000	18.97145000	13.65650000
85.19999511	0.00000000	18.97145000	13.23819000
85.39999510	0.00000000	18.97145000	10.86983000
85.59999509	0.00000000	19.01451000	7.05585600
85.79999508	0.00000000	19.38976000	2.41756900
85.99999506	0.00000000	20.08489000	-1.39640700
86.19999505	0.00000000	20.04183000	-3.76476400
86.39999504	0.00000000	18.97145000	-4.14000900
86.59999503	0.00000000	17.80881000	-2.60211600
86.79999502	0.00000000	17.01525000	0.51058070
86.99999501	0.00000000	16.18479000	4.77977300
87.19999499	0.00000000	15.47736000	9.38115100
87.39999498	0.00000000	15.11442000	13.18898000
87.59999497	0.00000000	15.90182000	14.72687000
87.79999496	0.00000000	17.39050000	13.60728000
87.99999495	0.00000000	18.97145000	10.49459000
88.19999493	0.00000000	20.50935000	5.89320800
88.39999492	0.00000000	21.62278000	0.87967510
88.59999491	0.00000000	21.62278000	-2.93430100
88.79999490	0.00000000	20.55241000	-4.87819900
88.99999489	0.00000000	19.38976000	-4.09079700
89.19999487	0.00000000	18.55315000	-1.02116100
89.39999486	0.00000000	17.39050000	3.62327700
89.59999485	0.00000000	16.27707000	8.96284400
89.79999484	0.00000000	15.90182000	13.18898000
89.99999483	0.00000000	16.27707000	15.09596000
90.19999482	0.00000000	17.39050000	14.34547000
90.39999480	0.00000000	18.50394000	10.86983000
90.59999479	0.00000000	18.97145000	5.89320800
90.79999478	0.00000000	19.34670000	0.51058070
90.99999477	0.00000000	19.71580000	-3.67249000
91.19999476	0.00000000	19.34670000	-5.25344500
91.39999474	0.00000000	19.01451000	-4.09079700
91.59999473	0.00000000	18.97145000	-0.64591530
91.79999472	0.00000000	18.97145000	4.36146600
91.99999471	0.00000000	18.97145000	9.33809000
92.19999470	0.00000000	18.97145000	13.18898000
92.39999468	0.00000000	18.97145000	14.72687000
92.59999467	0.00000000	18.97145000	13.60728000
92.79999466	0.00000000	18.87918000	10.49459000
92.99999465	0.00000000	18.13484000	5.89320800
93.19999464	0.00000000	16.60310000	0.92888770
93.39999463	0.00000000	15.47736000	-2.51599400
93.59999461	0.00000000	14.69611000	-3.71555100
93.79999460	0.00000000	14.73917000	-2.55905500
93.99999459	0.00000000	15.90182000	0.55364170
94.19999458	0.00000000	17.80881000	5.11195900
94.39999457	0.00000000	20.13410000	9.70103300
94.59999455	0.00000000	22.04109000	12.40773000
94.79999454	0.00000000	23.24680000	13.18898000
94.99999453	0.00000000	23.57899000	11.61417000
95.19999452	0.00000000	22.78543000	7.84940900
95.39999451	0.00000000	20.46014000	3.62327700
95.59999449	0.00000000	17.39050000	0.13533460
95.79999448	0.00000000	14.27165000	-2.14074800
95.99999447	0.00000000	11.62032000	-2.14074800
96.19999446	0.00000000	10.45768000	0.09227362
96.39999445	0.00000000	11.20202000	3.15575800
96.59999444	0.00000000	13.15822000	6.26845500
96.79999442	0.00000000	16.32013000	8.96284400
96.99999441	0.00000000	20.50935000	10.49459000
97.19999440	0.00000000	24.36639000	10.49459000
97.39999439	0.00000000	26.69783000	8.96284400
97.59999438	0.00000000	27.48524000	6.31151500
97.79999436	0.00000000	26.27953000	3.66633800
97.99999435	0.00000000	23.20374000	2.08538400
98.19999434	0.00000000	18.97145000	1.61786400
98.39999433	0.00000000	14.73917000	1.61786400
98.59999432	0.00000000	11.62032000	2.04232300
98.79999430	0.00000000	10.03937000	3.15575800
98.99999429	0.00000000	10.03937000	4.31840500
99.19999428	0.00000000	11.62032000	5.11195900
99.39999427	0.00000000	14.69611000	5.89320800
99.59999426	0.00000000	18.55315000	6.26845500
99.79999425	0.00000000	22.04109000	6.31151500
99.99999423	0.00000000	24.74163000	6.35457700
100.19999422	0.00000000	25.90428000	6.72982200
100.39999421	0.00000000	25.15994000	7.47416300
100.59999420	0.00000000	23.24680000	7.80019600
100.79999419	0.00000000	20.50935000	7.42495000
100.99999417	0.00000000	17.43356000	6.26845500
101.19999416	0.00000000	14.69611000	4.73671200
101.39999415	0.00000000	12.73991000	3.15575800
101.59999414	0.00000000	11.62032000	1.62401600
101.79999413	0.00000000	11.95251000	0.51058070
101.99999411	0.00000000	13.47810000	0.55364170
102.19999410	0.00000000	15.06521000	2.08538400
102.39999409	0.00000000	17.43356000	4.73671200
102.59999408	0.00000000	20.08489000	7.47416300
102.79999407	0.00000000	22.04109000	9.75639700
102.99999406	0.00000000	23.20374000	11.28199000
103.19999404	0.00000000	23.20374000	10.91289000
103.39999403	0.00000000	22.04109000	9.38115100
103.59999402	0.00000000	20.13410000	7.01279500
103.79999401	0.00000000	17.80881000	3.57406500
103.99999400	0.00000000	15.90182000	0.55364170
104.19999398	0.00000000	14.69611000	-1.06422200
104.39999397	0.00000000	14.32087000	-1.43946800
104.59999396	0.00000000	14.69611000	-0.64591530
104.79999395	0.00000000	15.85261000	1.66707700
104.99999394	0.00000000	17.39050000	4.73671200
105.19999392	0.00000000	18.92839000	7.80019600
105.39999391	0.00000000	20.08489000	10.07628000
105.59999390	0.00000000	20.50935000	10.49459000
105.79999389	0.00000000	20.50935000	9.38115100
105.99999388	0.00000000	20.08489000	7.47416300
106.19999387	0.00000000	18.92839000	5.11195900
106.39999385	0.00000000	17.43356000	2.82972400
106.59999384	0.00000000	16.27707000	0.92888770
106.79999383	0.00000000	15.90182000	0.55364170
106.99999382	0.00000000	16.27707000	1.66707700
107.19999381	0.00000000	17.39050000	3.57406500
107.39999379	0.00000000	18.55315000	5.85014700
107.59999378	0.00000000	19.34670000	7.42495000
107.79999377	0.00000000	20.08489000	8.22465500
107.99999376	0.00000000	20.08489000	8.54453700
108.19999375	0.00000000	19.34670000	7.38188900
108.39999374	0.00000000	18.55315000	5.15501900
108.59999372	0.00000000	17.39050000	3.19881900
108.79999371	0.00000000	16.27707000	1.66707700
108.99999370	0.00000000	15.85261000	0.92888770
109.19999369	0.00000000	15.85261000	1.66707700
109.39999368	0.00000000	16.27707000	3.15575800
109.59999366	0.00000000	17.43356000	4.73671200
109.79999365	0.00000000	18.92839000	6.26845500
109.99999364	0.00000000	20.08489000	7.42495000
110.19999363	0.00000000	20.50935000	7.84940900
110.39999362	0.00000000	20.50935000	7.80019600
110.59999360	0.00000000	20.08489000	7.05585600
110.79999359	0.00000000	18.92839000	5.53026500
110.99999358	0.00000000	17.43356000	4.36146600
111.19999357	0.00000000	16.27707000	3.15575800
111.39999356	0.00000000	15.85261000	2.04232300
111.59999355	0.00000000	15.85261000	1.66707700
111.79999353	0.00000000	16.22785000	2.04232300
111.99999352	0.00000000	17.01525000	3.15575800
112.19999351	0.00000000	17.76575000	4.31840500
112.39999350	0.00000000	18.55315000	5.11195900
112.59999349	0.00000000	18.87918000	5.89320800
112.79999347	0.00000000	18.59621000	6.26845500
112.99999346	0.00000000	18.22711000	6.31151500
113.19999345	0.00000000	18.59621000	6.26845500
113.39999344	0.00000000	18.87918000	5.89320800
113.59999343	0.00000000	18.55315000	5.15501900
113.79999341	0.00000000	17.80881000	4.77977300
113.99999340	0.00000000	17.43356000	4.69365100
114.19999339	0.00000000	17.39050000	4.31840500
114.39999338	0.00000000	17.39050000	3.57406500
114.59999337	0.00000000	17.39050000	3.19881900
114.79999336	0.00000000	17.39050000	3.15575800
114.99999334	0.00000000	17.39050000	3.15575800
115.19999333	0.00000000	17.43356000	3.15575800
115.39999332	0.00000000	17.80881000	3.19881900
115.59999331	0.00000000	18.55315000	3.57406500
115.79999330	0.00000000	18.87918000	4.36146600
115.99999328	0.00000000	18.55315000	5.11195900
116.19999327	0.00000000	17.80881000	5.89320800
116.39999326	0.00000000	17.43356000	6.26845500
116.59999325	0.00000000	17.39050000	6.31151500
116.79999324	0.00000000	17.39050000	6.26845500
116.99999322	0.00000000	17.39050000	5.89320800
117.19999321	0.00000000	17.39050000	5.11195900
117.39999320	0.00000000	17.43356000	4.36146600
117.59999319	0.00000000	17.80881000	3.53100400
117.79999318	0.00000000	18.55315000	2.78051200
117.99999317	0.00000000	18.92839000	2.04232300
118.19999315	0.00000000	18.97145000	2.08538400
118.39999314	0.00000000	18.92839000	3.15575800
118.59999313	0.00000000	18.55315000	4.31840500
118.79999312	0.00000000	17.76575000	5.11195900
118.99999311	0.00000000	17.01525000	5.93626900
119.19999309	0.00000000	16.18479000	6.64370100
119.39999308	0.00000000	15.47736000	7.05585600
119.59999307	0.00000000	15.11442000	6.68676100
119.79999306	0.00000000	15.85261000	6.31151500
119.99999305	0.00000000	16.97219000	5.89320800
120.19999303	0.00000000	17.80881000	5.15501900
120.39999302	0.00000000	18.97145000	4.73671200
120.59999301	0.00000000	20.08489000	4.31840500
120.79999300	0.00000000	20.50935000	3.57406500
120.99999299	0.00000000	20.50935000	3.19881900
121.19999298	0.00000000	20.08489000	3.19881900
121.39999296	0.00000000	18.92839000	3.57406500
121.59999295	0.00000000	17.39050000	4.31840500
121.79999294	0.00000000	15.85261000	4.69365100
121.99999293	0.00000000	14.69611000	4.73671200
122.19999292	0.00000000	14.32087000	4.73671200
122.39999290	0.00000000	14.69611000	4.77977300
122.59999289	0.00000000	15.80955000	5.15501900
122.79999288	0.00000000	16.97219000	5.89320800
122.99999287	0.00000000	17.76575000	6.26845500
123.19999286	0.00000000	18.59621000	6.26845500
123.39999284	0.00000000	19.34670000	5.89320800
123.59999283	0.00000000	20.08489000	5.11195900
123.79999282	0.00000000	20.08489000	4.36146600
123.99999281	0.00000000	19.38976000	3.57406500
124.19999280	0.00000000	18.97145000	3.19881900
124.39999279	0.00000000	18.50394000	3.15575800
124.59999277	0.00000000	17.34744000	3.15575800
124.79999276	0.00000000	15.90182000	3.19881900
124.99999275	0.00000000	15.11442000	3.57406500
125.19999274	0.00000000	15.43430000	4.31840500
125.39999273	0.00000000	15.80955000	4.73671200
125.59999271	0.00000000	16.22785000	5.15501900
125.79999270	0.00000000	17.01525000	5.89320800
125.99999269	0.00000000	17.76575000	6.26845500
126.19999268	0.00000000	18.59621000	6.26845500
126.39999267	0.00000000	19.34670000	5.89320800
126.59999265	0.00000000	20.13410000	5.15501900
126.79999264	0.00000000	20.46014000	4.77977300
126.99999263	0.00000000	20.08489000	4.69365100
127.19999262	0.00000000	18.92839000	4.31840500
127.39999261	0.00000000	17.39050000	3.57406500
127.59999260	0.00000000	15.90182000	3.24803100
127.79999258	0.00000000	15.11442000	3.57406500
127.99999257	0.00000000	15.43430000	4.31840500
128.19999256	0.00000000	15.80955000	4.69365100
128.39999255	0.00000000	16.27707000	4.77977300
128.59999254	0.00000000	17.39050000	5.11195900
128.79999252	0.00000000	18.50394000	5.47490100
128.99999251	0.00000000	18.92839000	5.11195900
129.19999250	0.00000000	18.97145000	4.77977300
129.39999249	0.00000000	18.92839000	4.73671200
129.59999248	0.00000000	18.55315000	4.69365100
129.79999246	0.00000000	17.76575000	4.31840500
129.99999245	0.00000000	17.01525000	3.57406500
130.19999244	0.00000000	16.22785000	3.24803100
130.39999243	0.00000000	15.90182000	3.57406500
130.59999242	0.00000000	16.22785000	4.31840500
130.79999241	0.00000000	16.97219000	4.73671200
130.99999239	0.00000000	17.39050000	5.11195900
131.19999238	0.00000000	17.80881000	5.47490100
131.39999237	0.00000000	18.55315000	5.11195900
131.59999236	0.00000000	18.92839000	4.77977300
131.79999235	0.00000000	18.92839000	4.69365100
131.99999233	0.00000000	18.55315000	4.31840500
132.19999232	0.00000000	17.80881000	3.57406500
132.39999231	0.00000000	17.43356000	3.19881900
132.59999230	0.00000000	17.39050000	3.19881900
132.79999229	0.00000000	17.39050000	3.57406500
132.99999227	0.00000000	17.39050000	4.31840500
133.19999226	0.00000000	17.39050000	4.73671200
133.39999225	0.00000000	17.39050000	5.15501900
133.59999224	0.00000000	17.39050000	5.89320800
133.79999223	0.00000000	17.43356000	6.26845500
133.99999222	0.00000000	17.76575000	6.26845500
134.19999220	0.00000000	18.13484000	5.89320800
134.39999219	0.00000000	17.80881000	5.11195900
134.59999218	0.00000000	17.80881000	4.36146600
134.79999217	0.00000000	18.17790000	3.57406500
134.99999216	0.00000000	18.18405000	3.19881900
135.19999214	0.00000000	18.59621000	3.15575800
135.39999213	0.00000000	18.87918000	3.19881900
135.59999212	0.00000000	18.55315000	3.57406500
135.79999211	0.00000000	17.80881000	4.36146600
135.99999210	0.00000000	17.39050000	5.11195900
136.19999208	0.00000000	16.97219000	5.89320800
136.39999207	0.00000000	16.22785000	6.26845500
136.59999206	0.00000000	15.85261000	6.31151500
136.79999205	0.00000000	15.85261000	6.26845500
136.99999204	0.00000000	16.22785000	5.89320800
137.19999203	0.00000000	17.01525000	5.11195900
137.39999201	0.00000000	17.76575000	4.36146600
137.59999200	0.00000000	18.55315000	3.57406500
137.79999199	0.00000000	18.92839000	3.19881900
137.99999198	0.00000000	18.97145000	3.15575800
138.19999197	0.00000000	18.92839000	3.15575800
138.39999195	0.00000000	18.55315000	3.19881900
138.59999194	0.00000000	17.76575000	3.57406500
138.79999193	0.00000000	17.01525000	4.31840500
138.99999192	0.00000000	16.22785000	4.69365100
139.19999191	0.00000000	15.90182000	4.77977300
139.39999189	0.00000000	16.22785000	5.15501900
139.59999188	0.00000000	16.97219000	5.89320800
139.79999187	0.00000000	17.39050000	6.21924200
139.99999186	0.00000000	17.80881000	5.89320800
140.19999185	0.00000000	18.55315000	5.15501900
140.39999184	0.00000000	18.87918000	4.73671200
140.59999182	0.00000000	18.55315000	4.31840500
140.79999181	0.00000000	17.80881000	3.57406500
140.99999180	0.00000000	17.43356000	3.19881900
141.19999179	0.00000000	17.39050000	3.15575800
141.39999178	0.00000000	17.39050000	3.19881900
141.59999176	0.00000000	17.39050000	3.57406500
141.79999175	0.00000000	17.39050000	4.36146600
141.99999174	0.00000000	17.39050000	5.11195900
142.19999173	0.00000000	17.43356000	5.89320800
142.39999172	0.00000000	17.76575000	6.26845500
142.59999170	0.00000000	18.13484000	6.26845500
142.79999169	0.00000000	17.76575000	5.89320800
142.99999168	0.00000000	17.43356000	5.11195900
143.19999167	0.00000000	17.39050000	4.36146600
143.39999166	0.00000000	17.34744000	3.57406500
143.59999165	0.00000000	17.01525000	3.19881900
143.79999163	0.00000000	16.64616000	3.15575800
143.99999162	0.00000000	17.01525000	3.19881900
144.19999161	0.00000000	17.34744000	3.57406500
144.39999160	0.00000000	17.39050000	4.31840500
144.59999159	0.00000000	17.43356000	4.73671200
144.79999157	0.00000000	17.76575000	5.11195900
144.99999156	0.00000000	18.13484000	5.51796200
145.19999155	0.00000000	17.76575000	5.48105300
145.39999154	0.00000000	17.43356000	5.51796200
145.59999153	0.00000000	17.39050000	5.11195900
145.79999151	0.00000000	17.34744000	4.73671200
145.99999150	0.00000000	17.01525000	4.31840500
146.19999149	0.00000000	16.64616000	3.57406500
146.39999148	0.00000000	17.01525000	3.19881900
146.59999147	0.00000000	17.34744000	3.19881900
146.79999146	0.00000000	17.39050000	3.57406500
146.99999144	0.00000000	17.39050000	4.31840500
147.19999143	0.00000000	17.39050000	4.69365100
147.39999142	0.00000000	17.39050000	4.77977300
147.59999141	0.00000000	17.39050000	5.15501900
147.79999140	0.00000000	17.39050000	5.89320800
147.99999138	0.00000000	17.39050000	6.21924200
148.19999137	0.00000000	17.39050000	5.89320800
148.39999136	0.00000000	17.34744000	5.15501900
148.59999135	0.00000000	17.01525000	4.73671200
148.79999134	0.00000000	16.64616000	4.31840500
148.99999132	0.00000000	17.01525000	3.57406500
149.19999131	0.00000000	17.34744000	3.19881900
149.39999130	0.00000000	17.39050000	3.19881900
149.59999129	0.00000000	17.39050000	3.57406500
149.79999128	0.00000000	17.43356000	4.31840500
149.99999127	0.00000000	17.76575000	4.69365100
150.19999125	0.00000000	18.13484000	4.73671200
150.39999124	0.00000000	17.76575000	4.73671200
150.59999123	0.00000000	17.43356000	4.73671200
150.79999122	0.00000000	17.34744000	4.73671200
150.99999121	0.00000000	16.97219000	4.73671200
151.19999119	0.00000000	16.27707000	4.73671200
151.39999118	0.00000000	16.22785000	4.73671200
151.59999117	0.00000000	16.59695000	4.73671200
151.79999116	0.00000000	16.60310000	4.73671200
151.99999115	0.00000000	17.01525000	4.69365100
152.19999113	0.00000000	17.34744000	4.36146600
152.39999112	0.00000000	17.43356000	3.99237200
152.59999111	0.00000000	17.76575000	4.36146600
152.79999110	0.00000000	18.17790000	4.69365100
152.99999109	0.00000000	18.14099000	4.73671200
153.19999108	0.00000000	18.17790000	4.73671200
153.39999106	0.00000000	17.76575000	4.73671200
153.59999105	0.00000000	17.43356000	4.73671200
153.79999104	0.00000000	17.34744000	4.73671200
153.99999103	0.00000000	16.97219000	4.73671200
154.19999102	0.00000000	16.22785000	4.73671200
154.39999100	0.00000000	15.85261000	4.73671200
154.59999099	0.00000000	15.85261000	4.73671200
154.79999098	0.00000000	16.22785000	4.73671200
154.99999097	0.00000000	16.97219000	4.69365100
155.19999096	0.00000000	17.39050000	4.36146600
155.39999094	0.00000000	17.80881000	3.94931100
155.59999093	0.00000000	18.55315000	3.98622000
155.79999092	0.00000000	18.87918000	3.94931100
155.99999091	0.00000000	18.55315000	4.36146600
156.19999090	0.00000000	17.80881000	4.69365100
156.39999089	0.00000000	17.43356000	4.73671200
156.59999087	0.00000000	17.34744000	4.73671200
156.79999086	0.00000000	17.01525000	4.73671200
156.99999085	0.00000000	16.60310000	4.73671200
157.19999084	0.00000000	16.59695000	4.73671200
157.39999083	0.00000000	16.18479000	4.73671200
157.59999081	0.00000000	15.90182000	4.69365100
157.79999080	0.00000000	16.22785000	4.31840500
157.99999079	0.00000000	16.97219000	3.57406500
158.19999078	0.00000000	17.34744000	3.19881900
158.39999077	0.00000000	17.39050000	3.15575800
158.59999075	0.00000000	17.39050000	3.19881900
158.79999074	0.00000000	17.39050000	3.57406500
158.99999073	0.00000000	17.39050000	4.31840500
159.19999072	0.00000000	17.39050000	4.69365100
159.39999071	0.00000000	17.39050000	4.73671200
159.59999070	0.00000000	17.39050000	4.73671200
159.79999068	0.00000000	17.34744000	4.73671200
159.99999067	0.00000000	16.97219000	4.73671200
160.19999066	0.00000000	16.22785000	4.73671200
160.39999065	0.00000000	15.85261000	4.73671200
160.59999064	0.00000000	15.80955000	4.69365100
160.79999062	0.00000000	15.85261000	4.31840500
160.99999061	0.00000000	16.22785000	3.57406500
161.19999060	0.00000000	16.97219000	3.19881900
161.39999059	0.00000000	17.34744000	3.15575800
161.59999058	0.00000000	17.39050000	3.19881900
161.79999056	0.00000000	17.39050000	3.57406500
161.99999055	0.00000000	17.39050000	4.31840500
162.19999054	0.00000000	17.39050000	4.69365100
162.39999053	0.00000000	17.39050000	4.73671200
162.59999052	0.00000000	17.39050000	4.73671200
162.79999051	0.00000000	17.34744000	4.73671200
162.99999049	0.00000000	16.97219000	4.73671200
163.19999048	0.00000000	16.22785000	4.73671200
163.39999047	0.00000000	15.85261000	4.73671200
163.59999046	0.00000000	15.85261000	4.73671200
163.79999045	0.00000000	16.18479000	4.73671200
163.99999043	0.00000000	16.59695000	4.73671200
164.19999042	0.00000000	16.60310000	4.69365100
164.39999041	0.00000000	17.01525000	4.31840500
164.59999040	0.00000000	17.34744000	3.62327700
164.79999039	0.00000000	17.39050000	3.62327700
164.99999037	0.00000000	17.43356000	4.31840500
165.19999036	0.00000000	17.76575000	4.64443900
165.39999035	0.00000000	18.13484000	4.36146600
165.59999034	0.00000000	17.72268000	3.94931100
165.79999033	0.00000000	17.05832000	3.98622000
165.99999032	0.00000000	16.60310000	3.94931100
166.19999030	0.00000000	16.59695000	4.36146600
166.39999029	0.00000000	16.18479000	4.69365100
166.59999028	0.00000000	15.85261000	4.73671200
166.79999027	0.00000000	15.80955000	4.73671200
166.99999026	0.00000000	15.85261000	4.73671200
167.19999024	0.00000000	16.22785000	4.69365100
167.39999023	0.00000000	16.97219000	4.36146600
167.59999022	0.00000000	17.34744000	3.99237200
167.79999021	0.00000000	17.39050000	4.36146600
167.99999020	0.00000000	17.39050000	4.69365100
168.19999018	0.00000000	17.39050000	4.73671200
168.39999017	0.00000000	17.39050000	4.73671200
168.59999016	0.00000000	17.39050000	4.73671200
168.79999015	0.00000000	17.39050000	4.73671200
168.99999014	0.00000000	17.39050000	4.73671200
169.19999013	0.00000000	17.39050000	4.73671200
169.39999011	0.00000000	17.34744000	4.73671200
169.59999010	0.00000000	17.01525000	4.73671200
169.79999009	0.00000000	16.60310000	4.73671200
169.99999008	0.00000000	16.64001000	4.73671200
170.19999007	0.00000000	16.60310000	4.73671200
170.39999005	0.00000000	17.01525000	4.73671200
170.59999004	0.00000000	17.34744000	4.73671200
170.79999003	0.00000000	17.34744000	4.73671200
170.99999002	0.00000000	17.01525000	4.73671200
171.19999001	0.00000000	16.64616000	4.73671200
171.39998999	0.00000000	17.01525000	4.73671200
171.59998998	0.00000000	17.34744000	4.73671200
171.79998997	0.00000000	17.39050000	4.73671200
171.99998996	0.00000000	17.39050000	4.73671200
172.19998995	0.00000000	17.39050000	4.73671200
172.39998994	0.00000000	17.34744000	4.73671200
172.59998992	0.00000000	17.01525000	4.73671200
172.79998991	0.00000000	16.64616000	4.73671200
172.99998990	0.00000000	16.97219000	4.73671200
173.19998989	0.00000000	16.97219000	4.73671200
173.39998988	0.00000000	16.60310000	4.73671200
173.59998986	0.00000000	16.59695000	4.73671200
173.79998985	0.00000000	16.22785000	4.73671200
173.99998984	0.00000000	16.27707000	4.73671200
174.19998983	0.00000000	16.97219000	4.69365100
174.39998982	0.00000000	17.34744000	4.31840500
174.59998980	0.00000000	17.39050000	3.62327700
174.79998979	0.00000000	17.39050000	3.62327700
174.99998978	0.00000000	17.34744000	4.31840500
175.19998977	0.00000000	17.01525000	4.69365100
175.39998976	0.00000000	16.64616000	4.73671200
175.59998975	0.00000000	17.01525000	4.73671200
175.79998973	0.00000000	17.34744000	4.73671200
175.99998972	0.00000000	17.39050000	4.73671200
176.19998971	0.00000000	17.39050000	4.73671200
176.39998970	0.00000000	17.34744000	4.69365100
176.59998969	0.00000000	17.01525000	4.31840500
176.79998967	0.00000000	16.60310000	3.57406500
176.99998966	0.00000000	16.59695000	3.24803100
177.19998965	0.00000000	16.22785000	3.53100400
177.39998964	0.00000000	16.22785000	3.90009800
177.59998963	0.00000000	16.55389000	3.53100400
177.79998961	0.00000000	16.22785000	3.19881900
177.99998960	0.00000000	16.27707000	3.15575800
178.19998959	0.00000000	16.92298000	3.19881900
178.39998958	0.00000000	16.92298000	3.53100400
178.59998957	0.00000000	16.27707000	3.94315900
178.79998956	0.00000000	16.27707000	3.94931100
178.99998954	0.00000000	16.97219000	4.36146600
179.19998953	0.00000000	17.34744000	4.69365100
179.39998952	0.00000000	17.39050000	4.73671200
179.59998951	0.00000000	17.39050000	4.73671200
179.79998950	0.00000000	17.39050000	4.73671200
179.99998948	0.00000000	17.39050000	4.69365100
180.19998947	0.00000000	17.34744000	4.36146600
180.39998946	0.00000000	16.97219000	3.94931100
180.59998945	0.00000000	16.27707000	3.94315900
180.79998944	0.00000000	16.22785000	3.57406500
180.99998942	0.00000000	16.59695000	3.62327700
181.19998941	0.00000000	16.56004000	4.31840500
181.39998940	0.00000000	16.59695000	4.69365100
181.59998939	0.00000000	16.22785000	4.73671200
181.79998938	0.00000000	16.27707000	4.73671200
181.99998937	0.00000000	16.97219000	4.73671200
182.19998935	0.00000000	17.34744000	4.73671200
182.39998934	0.00000000	17.39050000	4.73671200
182.59998933	0.00000000	17.39050000	4.73671200
182.79998932	0.00000000	17.34744000	4.69365100
182.99998931	0.00000000	16.97219000	4.31840500
183.19998929	0.00000000	16.27707000	3.57406500
183.39998928	0.00000000	16.22785000	3.19881900
183.59998927	0.00000000	16.59695000	3.19881900
183.79998926	0.00000000	16.60310000	3.57406500
183.99998925	0.00000000	16.97219000	4.31840500
184.19998923	0.00000000	16.92298000	4.69365100
184.39998922	0.00000000	16.22785000	4.73671200
184.59998921	0.00000000	15.85261000	4.73671200
184.79998920	0.00000000	15.85261000	4.73671200
184.99998919	0.00000000	16.18479000	4.73671200
185.19998918	0.00000000	16.59695000	4.73671200
185.39998916	0.00000000	16.60310000	4.69365100
185.59998915	0.00000000	17.01525000	4.31840500
185.79998914	0.00000000	17.34744000	3.57406500
185.99998913	0.00000000	17.39050000	3.19881900
186.19998912	0.00000000	17.39050000	3.15575800
186.39998910	0.00000000	17.34744000	3.15575800
186.59998909	0.00000000	16.97219000	3.15575800
186.79998908	0.00000000	16.27707000	3.19881900
186.99998907	0.00000000	16.22785000	3.57406500
187.19998906	0.00000000	16.55389000	4.31840500
187.39998904	0.00000000	16.18479000	4.69365100
187.59998903	0.00000000	15.85261000	4.73671200
187.79998902	0.00000000	15.85261000	4.73671200
187.99998901	0.00000000	16.22785000	4.73671200
188.19998900	0.00000000	16.97219000	4.69365100
188.39998899	0.00000000	17.34744000	4.31840500
188.59998897	0.00000000	17.39050000	3.57406500
188.79998896	0.00000000	17.39050000	3.19881900
188.99998895	0.00000000	17.39050000	3.15575800
189.19998894	0.00000000	17.34744000	3.15575800
189.39998893	0.00000000	17.01525000	3.19881900
189.59998891	0.00000000	16.64616000	3.57406500
189.79998890	0.00000000	16.97219000	4.31840500
189.99998889	0.00000000	16.92298000	4.64443900
190.19998888	0.00000000	16.22785000	4.36146600
190.39998887	0.00000000	15.85261000	3.99237200
190.59998885	0.00000000	15.80955000	4.36146600
190.79998884	0.00000000	15.80955000	4.69365100
190.99998883	0.00000000	15.80955000	4.73671200
191.19998882	0.00000000	15.85261000	4.73671200
191.39998881	0.00000000	16.18479000	4.73671200
191.59998880	0.00000000	16.59695000	4.69365100
191.79998878	0.00000000	16.60310000	4.31840500
191.99998877	0.00000000	17.01525000	3.57406500
192.19998876	0.00000000	17.29823000	3.19881900
192.39998875	0.00000000	16.97219000	3.15575800
192.59998874	0.00000000	16.22785000	3.15575800
192.79998872	0.00000000	15.85261000	3.15575800
192.99998871	0.00000000	15.80955000	3.15575800
193.19998870	0.00000000	15.80955000	3.15575800
193.39998869	0.00000000	15.80955000	3.19881900
193.59998868	0.00000000	15.80955000	3.57406500
193.79998866	0.00000000	15.80955000	4.31840500
193.99998865	0.00000000	15.80955000	4.69365100
194.19998864	0.00000000	15.85261000	4.73671200
194.39998863	0.00000000	16.22785000	4.73671200
194.59998862	0.00000000	16.97219000	4.73671200
194.79998861	0.00000000	17.34744000	4.73671200
194.99998859	0.00000000	17.34744000	4.69365100
195.19998858	0.00000000	16.97219000	4.31840500
195.39998857	0.00000000	16.22785000	3.57406500
195.59998856	0.00000000	15.85261000	3.19881900
195.79998855	0.00000000	15.80955000	3.15575800
195.99998853	0.00000000	15.80955000	3.19881900
