Time	Channel A	Channel B	Channel C
(us)	(V)	(mV)	(mV)

-4.49999956	0.00000000	8.28001900	8.26771600
-4.29999957	0.00000000	8.64911400	8.63681000
-4.09999958	0.00000000	8.28001900	8.26771600
-3.89999959	0.00000000	7.94783400	7.93553100
-3.69999960	0.00000000	7.90477300	7.89247000
-3.49999962	0.00000000	7.90477300	7.89247000
-3.29999963	0.00000000	7.94783400	7.89247000
-3.09999964	0.00000000	8.28001900	7.89247000
-2.89999965	0.00000000	8.64911400	7.89247000
-2.69999966	0.00000000	8.28001900	7.89247000
-2.49999968	0.00000000	7.94783400	7.89247000
-2.29999969	0.00000000	7.94783400	7.84940900
-2.09999970	0.00000000	8.32308000	7.47416300
-1.89999971	0.00000000	9.01820900	6.77903500
-1.69999972	0.00000000	9.01820900	6.77903500
-1.49999973	0.00000000	8.32308000	7.47416300
-1.29999975	0.00000000	7.94783400	7.84940900
-1.09999976	0.00000000	7.90477300	7.89247000
-0.89999977	0.00000000	7.90477300	7.89247000
-0.69999978	0.00000000	7.90477300	7.89247000
-0.49999979	0.00000000	7.90477300	7.89247000
-0.29999981	0.31803640	7.90477300	7.89247000
-0.09999982	0.63668800	7.90477300	7.89247000
0.10000017	0.95533960	7.90477300	7.89247000
0.30000016	0.95533960	7.90477300	7.89247000
0.50000015	0.79601380	7.90477300	7.89247000
0.70000013	0.15871060	7.90477300	7.89247000
0.90000012	-0.63668800	7.90477300	7.89247000
1.10000011	-1.75196900	7.90477300	7.89247000
1.30000010	-2.54859700	7.90477300	7.89247000
1.50000009	-2.70792300	7.90477300	7.89247000
1.70000008	-2.22994600	7.90477300	7.89247000
1.90000006	-0.95533960	7.90477300	7.89247000
2.10000005	0.95533960	7.90477300	7.89247000
2.30000004	3.02657500	7.90477300	7.89247000
2.50000003	4.61921700	7.90477300	7.84940900
2.70000002	5.25652100	7.90477300	7.47416300
2.90000000	4.61921700	7.90477300	6.72982200
3.09999999	2.54859700	7.90477300	6.40378900
3.29999998	-0.63668800	7.90477300	6.72982200
3.49999997	-4.14124000	7.90477300	7.47416300
3.69999996	-6.84916400	7.90477300	7.84940900
3.89999994	-7.96444400	7.94783400	7.93553100
4.09999993	-7.16781500	8.28001900	8.31077700
4.29999992	-4.45989200	8.64911400	9.00590400
4.49999991	-0.31803640	8.28001900	9.00590400
4.69999990	4.14124000	7.94783400	8.31077700
4.89999989	7.64579200	7.90477300	7.93553100
5.09999987	9.39837600	7.90477300	7.84940900
5.29999986	8.76107300	7.90477300	7.47416300
5.49999985	5.89382400	7.90477300	6.77903500
5.69999984	1.59264300	7.90477300	6.77903500
5.89999983	-3.18590100	7.90477300	7.47416300
6.09999981	-7.16781500	7.90477300	7.84940900
6.29999980	-9.39837600	7.90477300	7.89247000
6.49999979	-9.07972400	7.90477300	7.89247000
6.69999978	-6.53112700	7.94783400	7.89247000
6.89999977	-2.70792300	8.28001900	7.89247000
7.09999975	1.75196900	8.64911400	7.89247000
7.29999974	5.41584600	8.28001900	7.89247000
7.49999973	7.48646600	7.94783400	7.89247000
7.69999972	7.48646600	7.90477300	7.84940900
7.89999971	5.73449800	7.90477300	7.47416300
8.09999970	2.86724900	7.90477300	6.77903500
8.29999968	-0.47736220	7.90477300	6.77903500
8.49999967	-3.34522600	7.90477300	7.47416300
8.69999966	-4.93786900	7.90477300	7.84940900
8.89999965	-5.09719500	7.90477300	7.89247000
9.09999964	-4.14124000	7.90477300	7.89247000
9.29999962	-2.38927200	7.90477300	7.89247000
9.49999961	-0.31803640	7.90477300	7.89247000
9.69999960	1.43331700	7.90477300	7.89247000
9.89999959	2.22994600	7.90477300	7.89247000
10.09999958	2.54859700	7.90477300	7.89247000
10.29999956	2.07062000	7.90477300	7.89247000
10.49999955	1.27399100	7.90477300	7.89247000
10.69999954	0.31803640	7.90477300	7.89247000
10.89999953	-0.31803640	7.90477300	7.89247000
11.09999952	-0.79601380	7.90477300	7.89247000
11.29999951	-0.95533960	7.90477300	7.89247000
11.49999949	-0.95533960	7.90477300	7.89247000
11.69999948	-0.63668800	7.90477300	7.89247000
11.89999947	-0.31803640	7.90477300	7.89247000
12.09999946	-0.15871060	7.90477300	7.89247000
12.29999945	-0.15871060	7.90477300	7.89247000
12.49999943	-0.15871060	7.90477300	7.89247000
12.69999942	0.00000000	7.90477300	7.89247000
12.89999941	0.00000000	7.90477300	7.84940900
13.09999940	0.00000000	7.94783400	7.56028500
13.29999939	0.00000000	8.28001900	7.52337600
13.49999937	0.00000000	8.64911400	8.26156400
13.69999936	0.00000000	8.28001900	8.22465500
13.89999935	-0.15871060	7.94783400	7.93553100
14.09999934	-0.15871060	7.90477300	7.89247000
14.29999933	-0.15871060	7.90477300	7.89247000
14.49999932	-0.15871060	7.90477300	7.89247000
14.69999930	0.00000000	7.90477300	7.89247000
14.89999929	0.00000000	7.90477300	7.89247000
15.09999928	0.00000000	7.90477300	7.89247000
15.29999927	0.00000000	7.90477300	7.89247000
15.49999926	0.00000000	7.90477300	7.89247000
15.69999924	0.00000000	7.90477300	7.89247000
15.89999923	0.00000000	7.90477300	7.89247000
16.09999922	0.00000000	7.90477300	7.89247000
16.29999921	-0.15871060	7.90477300	7.89247000
16.49999920	-0.15871060	7.94783400	7.89247000
16.69999919	-0.15871060	8.32308000	7.89247000
16.89999917	0.00000000	9.06742000	7.89247000
17.09999916	0.00000000	9.48572700	7.89247000
17.29999915	0.00000000	9.90403500	7.89247000
17.49999914	0.00000000	10.59916000	7.89247000
17.69999913	0.00000000	10.59916000	7.89247000
17.89999911	0.00000000	9.86097400	7.89247000
18.09999910	0.00000000	9.06742000	7.89247000
18.29999909	0.00000000	7.81250000	7.89247000
18.49999908	0.00000000	5.94857300	7.89247000
18.69999907	0.00000000	4.04773600	7.89247000
18.89999905	0.00000000	3.29724400	7.89247000
19.09999904	0.00000000	3.67249000	7.89247000
19.29999903	0.00000000	5.25344500	7.89247000
19.49999902	0.00000000	7.99704600	7.89247000
19.69999901	0.00000000	11.48499000	7.89247000
19.89999900	0.00000000	15.34203000	7.89247000
20.09999898	0.00000000	18.41781000	7.89247000
20.29999897	0.00000000	19.90650000	7.89247000
20.49999896	0.00000000	19.06988000	7.89247000
20.69999895	0.00000000	15.16363000	7.89247000
20.89999894	0.00000000	8.93208600	7.89247000
21.09999892	0.00000000	1.20570900	7.89247000
21.29999891	0.00000000	-6.46530500	7.89247000
21.49999890	0.00000000	-11.44808000	7.89247000
21.69999889	0.00000000	-12.56767000	7.89247000
21.89999888	0.00000000	-8.98129900	7.89247000
22.09999886	0.00000000	-0.42445860	7.84940900
22.29999885	0.00000000	11.53420000	7.51722400
22.49999884	0.00000000	24.28026000	7.14812900
22.69999883	0.00000000	34.65797000	7.51722400
22.89999882	0.00000000	40.00984000	7.84940900
23.09999881	0.00000000	38.37967000	7.93553100
23.29999879	0.00000000	29.44759000	8.31077700
23.49999878	-0.15871060	14.70226000	9.05511800
23.69999877	0.00000000	-3.06963600	9.43036400
23.89999876	0.00000000	-20.00492000	9.47342500
24.09999875	0.00000000	-31.50221000	9.43036400
24.29999873	0.00000000	-34.15354000	9.00590400
24.49999872	0.00000000	-26.75935000	7.84940900
24.69999871	0.00000000	-10.51919000	6.31151500
24.89999870	0.00000000	11.11590000	4.73671200
25.09999869	0.00000000	33.12008000	3.19881900
25.29999867	0.00000000	50.47367000	2.08538400
25.49999866	0.00000000	58.94439000	2.12844500
25.69999865	0.00000000	56.15772000	3.66633800
25.89999864	0.00000000	42.24286000	6.40378900
26.09999863	0.00000000	19.82037000	9.93479300
26.29999862	0.00000000	-5.63484200	14.16708000
26.49999860	0.00000000	-28.42643000	17.97490000
26.69999859	0.00000000	-43.04257000	19.83883000
26.89999858	0.00000000	-45.78617000	19.04527000
27.09999857	0.00000000	-36.15895000	15.14518000
27.29999856	0.00000000	-16.84301000	8.96284400
27.49999854	0.00000000	7.90477300	1.58095500
27.69999853	0.00000000	32.60949000	-5.75787400
27.89999852	0.00000000	51.50098000	-11.47884000
28.09999851	0.00000000	60.05782000	-13.66265000
28.29999850	0.00000000	56.61909000	-10.54995000
28.49999848	0.00000000	42.79650000	-2.46678100
28.69999847	0.00000000	21.91191000	8.35998900
28.89999846	0.00000000	-0.89197830	20.01722000
29.09999845	0.00000000	-20.98917000	30.38263000
29.29999844	0.00000000	-33.77830000	36.88484000
29.49999843	0.00000000	-36.57726000	37.21087000
29.69999841	0.00000000	-30.05659000	31.03469000
29.89999840	0.00000000	-15.72958000	19.37131000
30.09999839	0.00000000	3.16190900	4.27534400
30.29999838	0.00000000	22.09646000	-11.52190000
30.49999837	0.00000000	36.84793000	-24.16338000
30.69999835	0.00000000	44.66043000	-29.97047000
30.89999834	0.00000000	44.70964000	-27.65133000
31.09999833	0.00000000	37.35236000	-17.93799000
31.29999832	0.00000000	24.23105000	-2.09768700
31.49999831	0.00000000	8.41535400	16.39395000
31.69999829	0.00000000	-6.24384800	33.02780000
31.89999828	0.00000000	-16.37549000	44.64198000
32.09999827	0.00000000	-20.28789000	48.82505000
32.29999826	-0.15871060	-18.04872000	44.22367000
32.49999825	0.00000000	-10.28543000	31.87131000
32.69999824	0.00000000	0.88582670	14.85605000
32.89999822	0.00000000	13.25664000	-3.72170300
33.09999821	0.00000000	23.63435000	-19.88804000
33.29999820	0.00000000	29.49065000	-29.97047000
33.49999819	0.00000000	29.95817000	-31.92052000
33.69999818	0.00000000	25.76895000	-25.78740000
33.89999816	0.00000000	18.41781000	-13.01058000
34.09999815	0.00000000	9.52879000	3.62327700
34.29999814	0.00000000	1.06422200	20.99532000
34.49999813	0.00000000	-4.70595500	35.21776000
34.69999812	0.00000000	-6.28690900	42.59965000
34.89999810	0.00000000	-3.67864200	41.90453000
35.09999809	0.00000000	1.67322800	34.19045000
35.29999808	0.00000000	7.86171200	21.08760000
35.49999807	0.00000000	13.67495000	5.66560000
35.69999806	0.00000000	17.86417000	-8.23080600
35.89999805	0.00000000	19.02067000	-17.89493000
36.09999803	0.00000000	16.74459000	-21.00763000
36.29999802	0.00000000	12.18012000	-17.19365000
36.49999801	0.00000000	6.79133800	-7.99089500
36.69999800	0.00000000	2.17765700	4.36146600
36.89999799	0.00000000	-0.51673230	16.63386000
37.09999797	0.00000000	-0.51673230	25.87352000
37.29999796	0.00000000	2.13459600	29.31840000
37.49999795	0.00000000	6.36687900	26.34104000
37.69999794	0.00000000	11.02362000	18.35015000
37.89999793	0.00000000	15.25591000	8.35998900
38.09999791	0.00000000	17.95029000	-0.88582670
38.29999790	0.00000000	18.32554000	-7.38804100
38.49999789	0.00000000	16.41855000	-8.87672100
38.69999788	0.00000000	12.60458000	-4.74286400
38.89999787	0.00000000	8.37229300	3.29109200
39.09999786	0.00000000	4.83513700	12.49385000
39.29999784	0.00000000	2.09153500	20.53395000
39.49999783	0.00000000	0.55364170	24.66781000
39.69999782	0.00000000	0.55364170	23.17913000
39.89999781	0.00000000	2.09153500	16.67692000
40.09999780	0.00000000	4.78592500	7.47416300
40.29999778	0.00000000	7.90477300	-2.14074800
40.49999777	0.00000000	11.02362000	-9.38730200
40.69999776	0.00000000	13.76107000	-12.03863000
40.89999775	0.00000000	15.67421000	-8.96899500
41.09999774	0.00000000	16.46161000	-0.93503930
41.29999772	0.00000000	15.71727000	9.38730200
41.49999771	0.00000000	14.13632000	19.04527000
41.69999770	0.00000000	11.76181000	25.55364000
41.89999769	0.00000000	8.32308000	27.54675000
42.09999768	0.00000000	5.25344500	24.44020000
42.29999767	0.00000000	3.25418300	17.55659000
42.49999765	0.00000000	2.04847400	8.31077700
42.69999764	0.00000000	1.71628900	-0.51673230
42.89999763	0.00000000	2.46678100	-6.69291300
43.09999762	0.00000000	4.41067900	-9.06126900
43.29999761	0.00000000	6.69906400	-7.16043300
43.49999759	0.00000000	9.01820900	-2.18380900
43.69999758	0.00000000	10.59916000	4.73671200
43.89999757	0.00000000	11.44193000	11.65723000
44.09999756	0.00000000	12.22933000	16.67692000
44.29999755	0.00000000	12.60458000	19.04527000
44.49999753	0.00000000	12.64764000	18.30093000
44.69999752	0.00000000	12.60458000	15.27436000
44.89999751	0.00000000	12.22933000	11.04823000
45.09999750	0.00000000	11.44193000	6.77903500
45.29999749	0.00000000	10.59916000	3.29109200
45.49999748	0.00000000	8.97514600	0.97194880
45.69999746	0.00000000	6.28075700	0.59670270
45.89999745	0.00000000	3.16190900	2.04232300
46.09999744	0.00000000	0.13533460	4.36146600
46.29999743	0.00000000	-1.76550200	6.72982200
46.49999742	0.00000000	-1.35334600	9.47342500
46.69999740	0.00000000	0.97194880	12.11860000
46.89999739	0.00000000	5.29650500	13.65650000
47.09999738	0.00000000	11.10974000	13.65650000
47.29999737	0.00000000	17.29823000	12.11860000
47.49999736	0.00000000	22.65010000	9.47342500
47.69999734	0.00000000	25.30143000	6.77903500
47.89999733	0.00000000	24.09572000	4.77977300
48.09999732	0.00000000	19.06988000	3.19881900
48.29999731	0.00000000	10.93135000	2.12844500
48.49999730	0.00000000	1.71628900	2.50369100
48.69999729	0.00000000	-6.37303100	4.40452700
48.89999727	0.00000000	-10.98671000	6.72982200
49.09999726	0.00000000	-11.02977000	9.51648500
49.29999725	0.00000000	-6.74827700	12.53691000
49.49999724	0.00000000	1.02116100	14.81299000
49.69999723	0.00000000	11.02362000	15.18824000
49.89999721	0.00000000	20.65084000	13.65650000
50.09999720	0.00000000	27.16535000	10.58686000
50.29999719	0.00000000	29.11540000	6.72982200
50.49999718	0.00000000	25.63361000	3.24803100
50.69999717	0.00000000	17.99951000	0.55364170
50.89999715	0.00000000	8.32308000	-0.55979330
51.09999714	0.00000000	-0.89197830	0.59670270
51.29999713	0.00000000	-7.49261800	3.62327700
51.49999712	0.00000000	-9.77485200	7.51722400
51.69999711	0.00000000	-7.49261800	11.38041000
51.89999710	0.00000000	-0.93503930	14.81299000
52.09999708	0.00000000	7.86171200	16.34473000
52.29999707	0.00000000	16.32628000	15.60654000
52.49999706	0.00000000	22.09646000	13.32431000
52.69999705	0.00000000	23.63435000	9.79945900
52.89999704	0.00000000	20.65084000	5.98548200
53.09999702	0.00000000	14.51156000	2.50369100
53.29999701	0.00000000	7.57258800	0.63976370
53.49999700	0.00000000	1.02116100	0.97194880
53.69999699	0.00000000	-3.16806100	3.24803100
53.89999698	0.00000000	-3.54330700	6.26845500
54.09999696	0.00000000	-0.14148620	9.00590400
54.29999695	0.00000000	5.99163300	10.91289000
54.49999694	0.00000000	12.46924000	11.70029000
54.69999693	0.00000000	17.53199000	10.91289000
54.89999692	0.00000000	19.82037000	9.05511800
55.09999691	0.00000000	19.06988000	6.77903500
55.29999689	0.00000000	15.21284000	5.29035400
55.49999688	0.00000000	9.48572700	5.24729300
55.69999687	0.00000000	3.71555100	6.40378900
55.89999686	0.00000000	-0.51673230	8.31077700
56.09999685	0.00000000	-2.05462600	10.58686000
56.29999683	0.00000000	-0.51673230	12.11860000
56.49999682	0.00000000	3.67249000	12.49385000
56.69999681	0.00000000	9.01820900	11.65723000
56.89999680	0.00000000	13.67495000	8.91978400
57.09999679	0.00000000	16.79380000	4.77977300
57.29999677	0.00000000	17.90723000	0.97194880
57.49999676	0.00000000	16.36934000	-0.93503930
57.69999675	0.00000000	12.55536000	-0.55979330
57.89999674	0.00000000	7.99704600	2.17765700
58.09999673	0.00000000	4.09079700	6.77903500
58.29999672	0.00000000	1.75935000	12.16166000
58.49999670	0.00000000	0.97194880	16.81225000
58.69999669	0.00000000	2.13459600	19.83883000
58.89999668	0.00000000	4.83513700	20.15871000
59.09999667	0.00000000	8.28001900	16.67692000
59.29999666	0.00000000	11.71875000	10.58686000
59.49999664	0.00000000	13.63189000	3.62327700
59.69999663	0.00000000	13.71801000	-2.51599400
59.89999662	0.00000000	12.55536000	-6.32381900
60.09999661	0.00000000	10.64838000	-6.32381900
60.29999660	0.00000000	8.32308000	-2.51599400
60.49999658	0.00000000	6.41609200	3.66633800
60.69999657	0.00000000	5.25344500	11.00517000
60.89999656	0.00000000	5.25344500	17.92569000
61.09999655	0.00000000	6.36687900	22.53322000
61.29999654	0.00000000	7.90477300	23.68971000
61.49999653	0.00000000	9.48572700	20.95226000
61.69999651	0.00000000	10.97441000	14.81299000
61.89999650	0.00000000	11.71875000	6.72982200
62.09999649	0.00000000	10.97441000	-0.93503930
62.29999648	0.00000000	9.44266700	-6.36687900
62.49999647	0.00000000	7.52952700	-8.27386800
62.69999645	0.00000000	5.62869100	-6.36687900
62.89999644	0.00000000	4.87819900	-0.97810030
63.09999643	0.00000000	5.21038300	6.31766700
63.29999642	0.00000000	6.41609200	13.65650000
63.49999641	0.00000000	8.32308000	19.46358000
63.69999639	0.00000000	10.64838000	22.53322000
63.89999638	0.00000000	12.51230000	22.20103000
64.09999637	0.00000000	13.29970000	18.71924000
64.29999636	0.00000000	12.55536000	13.37352000
64.49999635	0.00000000	11.02362000	7.14812900
64.69999634	0.00000000	9.06742000	1.75319900
64.89999632	0.00000000	6.79133800	-2.14074800
65.09999631	0.00000000	5.25344500	-3.67249000
65.29999630	0.00000000	4.83513700	-2.60211600
65.49999629	0.00000000	5.21038300	0.09227362
65.69999628	0.00000000	6.41609200	3.57406500
65.89999626	0.00000000	8.28001900	7.47416300
66.09999625	0.00000000	10.18086000	10.96211000
66.29999624	0.00000000	10.93135000	13.69956000
66.49999623	0.00000000	10.59916000	15.27436000
66.69999622	0.00000000	9.44266700	15.69267000
66.89999620	0.00000000	7.90477300	15.27436000
67.09999619	0.00000000	6.36687900	13.74262000
67.29999618	0.00000000	5.29650500	11.38041000
67.49999617	0.00000000	5.67175200	8.63681000
67.69999616	0.00000000	7.57258800	5.11195900
67.89999615	0.00000000	9.86097400	1.66707700
68.09999613	0.00000000	12.18012000	-1.07037400
68.29999612	0.00000000	13.71801000	-2.55905500
68.49999611	0.00000000	14.05020000	-2.18380900
68.69999610	0.00000000	12.83218000	0.13533460
68.89999609	0.00000000	9.39345400	3.66633800
69.09999607	0.00000000	5.21038300	8.35998900
69.29999606	0.00000000	1.71628900	13.69956000
69.49999605	0.00000000	-0.60900590	17.93184000
69.69999604	0.00000000	-0.93503930	19.93110000
69.89999603	0.00000000	1.02116100	19.88189000
70.09999601	0.00000000	5.29650500	17.50738000
70.29999600	0.00000000	11.02362000	12.49385000
70.49999599	0.00000000	16.41855000	6.36072800
70.69999598	0.00000000	19.90650000	0.55364170
70.89999597	0.00000000	21.06914000	-3.67249000
71.09999596	0.00000000	19.48819000	-5.20423200
71.29999594	0.00000000	15.25591000	-3.67249000
71.49999593	0.00000000	9.44266700	0.51058070
71.69999592	0.00000000	3.25418300	5.89320800
71.89999591	0.00000000	-2.14074800	10.91289000
72.09999590	0.00000000	-5.16732200	14.81299000
72.29999588	0.00000000	-4.79207600	16.76919000
72.49999587	0.00000000	-0.98425190	16.76919000
72.69999586	0.00000000	4.78592500	14.81299000
72.89999585	0.00000000	10.97441000	11.00517000
73.09999584	0.00000000	16.41855000	6.86515700
73.29999582	0.00000000	19.90650000	4.12770700
73.49999581	0.00000000	21.06914000	3.29109200
73.69999580	0.00000000	19.48819000	3.57406500
73.89999579	0.00000000	15.29897000	4.49680100
74.09999578	0.00000000	9.86097400	6.32381900
74.29999577	0.00000000	4.45989200	8.90747900
74.49999575	0.00000000	-0.14148620	9.24581600
74.69999574	0.00000000	-2.05462600	7.89247000
74.89999573	0.00000000	-1.02731300	6.31151500
75.09999572	0.00000000	1.67322800	4.77977300
75.29999571	0.00000000	5.21038300	3.70939900
75.49999569	0.00000000	9.44266700	4.12770700
75.69999568	0.00000000	13.25664000	6.40378900
75.89999567	0.00000000	15.21284000	9.47342500
76.09999566	0.00000000	15.25591000	12.58612000
76.29999565	0.00000000	13.76107000	15.23130000
76.49999563	0.00000000	11.48499000	16.34473000
76.69999562	0.00000000	9.52879000	15.18824000
76.89999561	0.00000000	7.94783400	12.07554000
77.09999560	0.00000000	6.83439900	7.42495000
77.29999559	0.00000000	6.79133800	2.08538400
77.49999558	0.00000000	7.48646600	-2.09768700
77.69999556	0.00000000	7.86171200	-3.67249000
77.89999555	0.00000000	7.90477300	-2.55905500
78.09999554	0.00000000	7.86171200	0.55364170
78.29999553	0.00000000	7.48646600	5.24729300
78.49999552	0.00000000	6.74212600	11.00517000
78.69999550	0.00000000	6.36687900	16.35089000
78.89999549	0.00000000	6.41609200	19.46358000
79.09999548	0.00000000	7.20964500	19.88189000
79.29999547	0.00000000	9.11048200	17.93184000
79.49999546	0.00000000	11.02362000	13.69956000
79.69999544	0.00000000	12.60458000	8.31077700
79.89999543	0.00000000	13.67495000	3.29109200
80.09999542	0.00000000	13.25664000	-0.60285430
80.29999541	0.00000000	11.02362000	-2.50984200
80.49999540	0.00000000	8.32308000	-2.18380900
80.69999539	0.00000000	5.94857300	0.13533460
80.89999537	0.00000000	3.67249000	3.57406500
81.09999536	0.00000000	2.55290300	7.47416300
81.29999535	0.00000000	3.29724400	10.91289000
81.49999534	0.00000000	5.21038300	13.32431000
81.69999533	0.00000000	7.94783400	14.49311000
81.89999531	0.00000000	10.97441000	14.90526000
82.09999530	0.00000000	13.29970000	14.11786000
82.29999529	0.00000000	14.09326000	12.62918000
82.49999528	0.00000000	13.76107000	11.00517000
82.69999527	0.00000000	12.55536000	9.00590400
82.89999525	0.00000000	10.64838000	6.31151500
83.09999524	0.00000000	8.32308000	3.61712600
83.29999523	0.00000000	6.41609200	1.66707700
83.49999522	0.00000000	5.25344500	0.51058070
83.69999521	0.00000000	5.25344500	0.55364170
83.89999520	0.00000000	6.32381900	2.08538400
84.09999518	0.00000000	7.48646600	4.77977300
84.29999517	0.00000000	8.28001900	7.93553100
84.49999516	0.00000000	9.06742000	11.42347000
84.69999515	0.00000000	9.44266700	14.85605000
84.89999514	0.00000000	9.48572700	16.76919000
85.09999512	-0.15871060	9.48572700	16.76919000
85.29999511	0.00000000	9.48572700	14.81299000
85.49999510	0.00000000	9.48572700	10.95595000
85.69999509	0.00000000	9.48572700	6.35457700
85.89999508	0.00000000	9.48572700	2.08538400
86.09999506	0.00000000	9.48572700	-0.97810030
86.29999505	0.00000000	9.44266700	-2.13459600
86.49999504	0.00000000	9.01820900	-0.97810030
86.69999503	0.00000000	7.90477300	2.08538400
86.89999502	0.00000000	6.74212600	6.35457700
87.09999501	0.00000000	5.99163300	10.95595000
87.29999499	0.00000000	5.57947800	14.81299000
87.49999498	0.00000000	5.99163300	16.76919000
87.69999497	0.00000000	6.79133800	16.71998000
87.89999496	0.00000000	8.32308000	14.39468000
88.09999495	0.00000000	10.23007000	9.84867000
88.29999493	0.00000000	11.39887000	5.24729300
88.49999492	0.00000000	12.18012000	1.75935000
88.69999491	0.00000000	12.13706000	-0.18454720
88.89999490	0.00000000	11.06668000	0.22145670
89.09999489	0.00000000	9.86097400	2.50369100
89.29999487	0.00000000	8.69217500	6.40378900
89.49999486	0.00000000	7.16043300	10.95595000
89.69999485	0.00000000	6.41609200	14.76993000
89.89999484	0.00000000	6.36687900	16.30167000
90.09999483	0.00000000	6.79133800	15.18824000
90.29999482	0.00000000	7.90477300	12.11860000
90.49999480	0.00000000	9.06742000	7.89247000
90.69999479	0.00000000	9.86097400	3.66633800
90.89999478	0.00000000	10.64838000	0.59670270
91.09999477	0.00000000	10.97441000	-0.55979330
91.29999476	0.00000000	10.64838000	0.59670270
91.49999474	0.00000000	9.90403500	3.70939900
91.69999473	0.00000000	9.48572700	8.31077700
91.89999472	0.00000000	9.11048200	13.23819000
92.09999471	0.00000000	8.74138700	16.30167000
92.29999470	0.00000000	9.11048200	16.71998000
92.49999468	0.00000000	9.39345400	14.81299000
92.69999467	0.00000000	9.06742000	10.95595000
92.89999466	0.00000000	8.28001900	6.35457700
93.09999465	0.00000000	7.52952700	2.12844500
93.29999464	0.00000000	6.74212600	-0.55979330
93.49999463	0.00000000	6.36687900	-0.93503930
93.69999461	0.00000000	6.36687900	0.97194880
93.89999460	0.00000000	6.83439900	4.82898600
94.09999459	0.00000000	8.37229300	9.43036400
94.29999458	0.00000000	10.64838000	13.65650000
94.49999457	0.00000000	12.55536000	16.30167000
94.69999455	0.00000000	13.76107000	16.30167000
94.89999454	0.00000000	14.09326000	13.65650000
95.09999453	0.00000000	13.29970000	9.47342500
95.29999452	0.00000000	10.97441000	5.24729300
95.49999451	0.00000000	7.90477300	2.12844500
95.69999449	0.00000000	4.78592500	0.55364170
95.89999448	0.00000000	2.13459600	0.59670270
96.09999447	0.00000000	0.97194880	2.50369100
96.29999446	0.00000000	1.71628900	5.93626900
96.49999445	0.00000000	3.67249000	9.38115100
96.69999444	0.00000000	6.79133800	12.11860000
96.89999442	0.00000000	10.64838000	13.65650000
97.09999441	0.00000000	14.13632000	13.65650000
97.29999440	0.00000000	16.83686000	12.11860000
97.49999439	0.00000000	17.95029000	9.47342500
97.69999438	0.00000000	16.83686000	6.77903500
97.89999436	0.00000000	14.13632000	4.87204700
98.09999435	0.00000000	10.59916000	4.04158400
98.29999434	0.00000000	6.36687900	4.45374000
98.49999433	0.00000000	2.55290300	5.53026500
98.69999432	0.00000000	0.59670270	7.09891700
98.89999430	0.00000000	0.55364170	8.22465500
99.09999429	0.00000000	2.09153500	9.05511800
99.29999428	0.00000000	4.83513700	9.43036400
99.49999427	0.00000000	8.32308000	9.47342500
99.69999426	0.00000000	12.18012000	9.47342500
99.89999425	0.00000000	15.25591000	9.47342500
100.09999423	0.00000000	16.83686000	9.47342500
100.29999422	0.00000000	16.83686000	9.47342500
100.49999421	0.00000000	15.29897000	9.47342500
100.69999420	0.00000000	12.60458000	9.43036400
100.89999419	0.00000000	9.48572700	9.00590400
101.09999417	0.00000000	6.36687900	7.84940900
101.29999416	0.00000000	3.71555100	6.31151500
101.49999415	0.00000000	2.50984200	4.77977300
101.69999414	0.00000000	2.82972400	3.62327700
101.89999413	0.00000000	3.62942900	3.29109200
102.09999411	0.00000000	5.25344500	4.08464600
102.29999410	0.00000000	7.90477300	6.40378900
102.49999409	0.00000000	10.59916000	9.42421200
102.69999408	0.00000000	12.55536000	12.11860000
102.89999407	0.00000000	13.71801000	13.69956000
103.09999406	0.00000000	13.71801000	14.07480000
103.29999404	0.00000000	12.60458000	13.28125000
103.49999403	0.00000000	11.06668000	10.96211000
103.69999402	0.00000000	9.48572700	7.89247000
103.89999401	0.00000000	7.90477300	4.82283400
104.09999400	0.00000000	6.41609200	2.50369100
104.29999398	0.00000000	5.57947800	1.75319900
104.49999397	0.00000000	5.61638700	2.50369100
104.69999396	0.00000000	6.00393600	4.82283400
104.89999395	0.00000000	7.52952700	7.84940900
105.09999394	0.00000000	9.01820900	10.58686000
105.29999392	0.00000000	9.86097400	12.49385000
105.49999391	0.00000000	10.64838000	13.28125000
105.69999390	0.00000000	10.97441000	12.49385000
105.89999389	0.00000000	10.59916000	10.62992000
106.09999388	0.00000000	9.48572700	8.31077700
106.29999387	-0.15871060	8.37229300	6.36072800
106.49999385	0.00000000	7.94783400	4.82283400
106.69999384	0.00000000	7.90477300	4.08464600
106.89999383	0.00000000	7.94783400	4.82283400
107.09999382	0.00000000	8.32308000	6.31151500
107.29999381	0.00000000	9.11048200	7.89247000
107.49999379	0.00000000	9.86097400	9.42421200
107.69999378	0.00000000	10.59916000	10.53765000
107.89999377	0.00000000	10.59916000	10.53765000
108.09999376	0.00000000	9.86097400	9.42421200
108.29999375	0.00000000	9.06742000	7.89247000
108.49999374	0.00000000	7.90477300	6.36072800
108.69999372	0.00000000	6.79133800	5.19808000
108.89999371	0.00000000	6.41609200	4.82898600
109.09999370	0.00000000	6.79133800	5.19808000
109.29999369	0.00000000	7.90477300	6.36072800
109.49999368	0.00000000	9.06742000	7.89247000
109.69999366	0.00000000	9.86097400	9.42421200
109.89999365	0.00000000	10.64838000	10.58686000
110.09999364	0.00000000	10.97441000	10.95595000
110.29999363	0.00000000	10.64838000	10.58686000
110.49999362	0.00000000	9.86097400	9.42421200
110.69999360	0.00000000	9.06742000	7.89247000
110.89999359	0.00000000	7.90477300	6.36072800
111.09999358	0.00000000	6.79133800	5.19808000
111.29999357	0.00000000	6.41609200	4.82898600
111.49999356	0.00000000	6.79133800	5.19808000
111.69999355	0.00000000	7.90477300	6.31151500
111.89999353	0.00000000	9.01820900	7.47416300
112.09999352	0.00000000	9.48572700	8.26771600
112.29999351	0.00000000	9.90403500	9.05511800
112.49999350	0.00000000	10.59916000	9.43036400
112.69999349	0.00000000	10.59916000	9.47342500
112.89999347	0.00000000	9.86097400	9.43036400
113.09999346	0.00000000	9.11048200	9.05511800
113.29999345	0.00000000	8.32308000	8.31077700
113.49999344	0.00000000	7.94783400	7.93553100
113.69999343	0.00000000	7.90477300	7.84940900
113.89999341	0.00000000	7.90477300	7.47416300
114.09999340	0.00000000	7.94783400	6.72982200
114.29999339	0.00000000	8.32308000	6.35457700
114.49999338	0.00000000	9.06742000	6.31151500
114.69999337	0.00000000	9.44266700	6.31151500
114.89999336	0.00000000	9.48572700	6.31151500
115.09999334	0.00000000	9.48572700	6.31151500
115.29999333	0.00000000	9.48572700	6.35457700
115.49999332	0.00000000	9.48572700	6.72982200
115.69999331	0.00000000	9.44266700	7.51722400
115.89999330	0.00000000	9.06742000	8.26771600
116.09999328	0.00000000	8.32308000	9.05511800
116.29999327	0.00000000	7.94783400	9.43036400
116.49999326	0.00000000	7.90477300	9.47342500
116.69999325	0.00000000	7.90477300	9.47342500
116.89999324	0.00000000	7.94783400	9.43036400
117.09999322	0.00000000	8.32308000	9.00590400
117.29999321	0.00000000	9.11048200	7.89247000
117.49999320	0.00000000	9.86097400	6.77903500
117.69999319	0.00000000	10.64838000	6.31151500
117.89999318	0.00000000	11.02362000	5.93626900
118.09999317	0.00000000	11.02362000	5.57332700
118.29999315	0.00000000	10.59916000	5.98548200
118.49999314	0.00000000	9.48572700	6.72982200
118.69999313	0.00000000	8.32308000	7.89247000
118.89999312	0.00000000	7.52952700	9.00590400
119.09999311	0.00000000	6.74212600	9.43036400
119.29999309	0.00000000	6.36687900	9.43036400
119.49999308	0.00000000	6.36687900	9.09817800
119.69999307	0.00000000	6.79133800	8.68602300
119.89999306	0.00000000	7.94783400	8.67987200
120.09999305	0.00000000	9.44266700	8.26771600
120.29999303	0.00000000	10.64838000	7.89247000
120.49999302	0.00000000	11.39887000	7.47416300
120.69999301	0.00000000	11.76181000	6.72982200
120.89999300	0.00000000	11.02362000	6.35457700
121.09999299	0.00000000	9.90403500	6.31151500
121.29999298	0.00000000	9.11048200	6.35457700
121.49999296	0.00000000	8.28001900	6.72982200
121.69999295	0.00000000	7.52952700	7.47416300
121.89999294	0.00000000	6.74212600	7.84940900
122.09999293	0.00000000	6.36687900	7.93553100
122.29999292	0.00000000	6.36687900	8.31077700
122.49999290	0.00000000	6.79133800	9.05511800
122.69999289	0.00000000	7.90477300	9.43036400
122.89999288	0.00000000	9.06742000	9.43036400
123.09999287	0.00000000	9.86097400	9.05511800
123.29999286	0.00000000	10.64838000	8.31077700
123.49999284	0.00000000	11.02362000	7.93553100
123.69999283	0.00000000	11.06668000	7.89247000
123.89999282	0.00000000	11.02362000	7.84940900
124.09999281	0.00000000	10.64838000	7.47416300
124.29999280	0.00000000	9.86097400	6.77903500
124.49999279	0.00000000	9.11048200	6.77903500
124.69999277	0.00000000	8.28001900	7.47416300
124.89999276	0.00000000	7.52952700	7.84940900
125.09999275	0.00000000	6.74212600	7.89247000
125.29999274	0.00000000	6.41609200	7.93553100
125.49999273	0.00000000	6.74212600	8.31077700
125.69999271	0.00000000	7.52952700	9.05511800
125.89999270	0.00000000	8.32308000	9.43036400
126.09999269	0.00000000	9.48572700	9.47342500
126.29999268	0.00000000	10.59916000	9.47342500
126.49999267	0.00000000	11.02362000	9.43036400
126.69999265	0.00000000	11.02362000	9.05511800
126.89999264	0.00000000	10.64838000	8.31077700
127.09999263	0.00000000	9.86097400	7.89247000
127.29999262	0.00000000	9.06742000	7.47416300
127.49999261	0.00000000	7.90477300	6.77903500
127.69999260	0.00000000	6.79133800	6.77903500
127.89999258	0.00000000	6.41609200	7.47416300
128.09999257	0.00000000	6.79133800	7.84940900
128.29999256	0.00000000	7.90477300	7.93553100
128.49999255	0.00000000	9.06742000	8.26771600
128.69999254	0.00000000	9.86097400	8.67987200
128.89999252	0.00000000	10.64838000	8.64296200
129.09999251	0.00000000	10.97441000	8.67987200
129.29999250	0.00000000	10.64838000	8.26771600
129.49999249	0.00000000	9.86097400	7.93553100
129.69999248	0.00000000	9.06742000	7.89247000
129.89999246	0.00000000	7.90477300	7.89247000
130.09999245	0.00000000	6.79133800	7.89247000
130.29999244	0.00000000	6.41609200	7.89247000
130.49999243	0.00000000	6.74212600	7.89247000
130.69999242	0.00000000	7.52952700	7.89247000
130.89999241	0.00000000	8.32308000	7.89247000
131.09999239	0.00000000	9.48572700	7.89247000
131.29999238	0.00000000	10.59916000	7.89247000
131.49999237	0.00000000	10.97441000	7.84940900
131.69999236	0.00000000	10.64838000	7.47416300
131.89999235	0.00000000	9.86097400	6.72982200
132.09999233	0.00000000	9.11048200	6.35457700
132.29999232	0.00000000	8.32308000	6.31151500
132.49999231	0.00000000	7.94783400	6.35457700
132.69999230	0.00000000	7.90477300	6.72982200
132.89999229	0.00000000	7.94783400	7.51722400
133.09999227	0.00000000	8.32308000	8.26771600
133.29999226	0.00000000	9.06742000	9.05511800
133.49999225	0.00000000	9.44266700	9.43036400
133.69999224	0.00000000	9.48572700	9.43036400
133.89999223	0.00000000	9.48572700	9.05511800
134.09999222	0.00000000	9.48572700	8.26771600
134.29999220	0.00000000	9.44266700	7.47416300
134.49999219	0.00000000	9.11048200	6.40378900
134.69999218	0.00000000	8.74138700	5.99163300
134.89999217	0.00000000	9.11048200	6.68061000
135.09999216	0.00000000	9.44266700	6.68676100
135.29999214	0.00000000	9.48572700	6.77903500
135.49999213	0.00000000	9.48572700	7.47416300
135.69999212	0.00000000	9.48572700	7.89247000
135.89999211	0.00000000	9.44266700	8.31077700
136.09999210	0.00000000	9.06742000	9.05511800
136.29999208	0.00000000	8.32308000	9.43036400
136.49999207	0.00000000	7.94783400	9.43036400
136.69999206	0.00000000	7.90477300	9.05511800
136.89999205	0.00000000	7.94783400	8.31077700
137.09999204	0.00000000	8.32308000	7.93553100
137.29999203	0.00000000	9.11048200	7.84940900
137.49999201	0.00000000	9.86097400	7.47416300
137.69999200	0.00000000	10.64838000	6.72982200
137.89999199	0.00000000	10.97441000	6.35457700
138.09999198	0.00000000	10.64838000	6.35457700
138.29999197	0.00000000	9.90403500	6.72982200
138.49999195	0.00000000	9.48572700	7.47416300
138.69999194	0.00000000	9.06742000	7.84940900
138.89999193	0.00000000	8.32308000	7.89247000
139.09999192	0.00000000	7.94783400	7.93553100
139.29999191	0.00000000	7.90477300	8.31077700
139.49999189	0.00000000	7.94783400	9.05511800
139.69999188	0.00000000	8.32308000	9.43036400
139.89999187	0.00000000	9.06742000	9.43036400
140.09999186	0.00000000	9.44266700	9.05511800
140.29999185	0.00000000	9.48572700	8.26771600
140.49999184	0.00000000	9.48572700	7.51722400
140.69999182	0.00000000	9.44266700	6.72982200
140.89999181	0.00000000	9.06742000	6.35457700
141.09999180	0.00000000	8.32308000	6.31151500
141.29999179	0.00000000	7.94783400	6.35457700
141.49999178	0.00000000	7.94783400	6.72982200
141.69999176	0.00000000	8.32308000	7.51722400
141.89999175	0.00000000	9.06742000	8.26771600
142.09999174	0.00000000	9.44266700	9.05511800
142.29999173	0.00000000	9.48572700	9.43036400
142.49999172	0.00000000	9.48572700	9.47342500
142.69999170	0.00000000	9.48572700	9.38115100
142.89999169	0.00000000	9.48572700	8.63681000
143.09999168	0.00000000	9.48572700	7.14812900
143.29999167	0.00000000	9.44266700	6.40378900
143.49999166	0.00000000	9.06742000	6.31151500
143.69999165	0.00000000	8.37229300	6.31151500
143.89999163	0.00000000	8.37229300	6.35457700
144.09999162	0.00000000	9.06742000	6.72982200
144.29999161	0.00000000	9.44266700	7.51722400
144.49999160	0.00000000	9.48572700	8.26771600
144.69999159	0.00000000	9.48572700	9.05511800
144.89999157	0.00000000	9.48572700	9.43036400
145.09999156	0.00000000	9.48572700	9.43036400
145.29999155	0.00000000	9.44266700	9.05511800
145.49999154	0.00000000	9.06742000	8.31077700
145.69999153	0.00000000	8.32308000	7.89247000
145.89999151	0.00000000	7.94783400	7.47416300
146.09999150	0.00000000	7.90477300	6.72982200
146.29999149	0.00000000	7.94783400	6.35457700
146.49999148	0.00000000	8.32308000	6.35457700
146.69999147	0.00000000	9.06742000	6.72982200
146.89999146	0.00000000	9.44266700	7.47416300
147.09999144	0.00000000	9.48572700	7.89247000
147.29999143	0.00000000	9.48572700	8.31077700
147.49999142	0.00000000	9.48572700	9.00590400
147.69999141	0.00000000	9.44266700	9.00590400
147.89999140	0.00000000	9.06742000	8.35998900
148.09999138	0.00000000	8.32308000	8.31077700
148.29999137	0.00000000	7.94783400	8.63681000
148.49999136	0.00000000	7.94783400	8.26771600
148.69999135	0.00000000	8.32308000	7.93553100
148.89999134	0.00000000	9.06742000	7.89247000
149.09999132	0.00000000	9.44266700	7.84940900
149.29999131	0.00000000	9.48572700	7.51722400
149.49999130	0.00000000	9.48572700	7.14812900
149.69999129	0.00000000	9.48572700	7.51722400
149.89999128	0.00000000	9.48572700	7.84940900
150.09999127	0.00000000	9.48572700	7.93553100
150.29999125	0.00000000	9.48572700	8.31077700
150.49999124	0.00000000	9.44266700	9.05511800
150.69999123	0.00000000	9.06742000	9.43036400
150.89999122	0.00000000	8.32308000	9.43036400
151.09999121	0.00000000	7.94783400	9.05511800
151.29999119	0.00000000	7.94783400	8.31077700
151.49999118	0.00000000	8.28001900	7.93553100
151.69999117	0.00000000	8.69217500	7.89247000
151.89999116	0.00000000	8.69832600	7.89247000
152.09999115	0.00000000	9.11048200	7.89247000
152.29999113	0.00000000	9.44266700	7.89247000
152.49999112	0.00000000	9.48572700	7.89247000
152.69999111	0.00000000	9.48572700	7.89247000
152.89999110	0.00000000	9.48572700	7.89247000
153.09999109	0.00000000	9.48572700	7.89247000
153.29999108	0.00000000	9.48572700	7.89247000
153.49999106	0.00000000	9.44266700	7.93553100
153.69999105	0.00000000	9.06742000	8.26771600
153.89999104	0.00000000	8.32308000	8.67987200
154.09999103	0.00000000	7.94783400	8.64296200
154.29999102	0.00000000	7.90477300	8.67987200
154.49999100	0.00000000	7.94783400	8.26771600
154.69999099	0.00000000	8.32308000	7.93553100
154.89999098	0.00000000	9.06742000	7.89247000
155.09999097	0.00000000	9.44266700	7.89247000
155.29999096	0.00000000	9.48572700	7.89247000
155.49999094	0.00000000	9.48572700	7.89247000
155.69999093	0.00000000	9.48572700	7.89247000
155.89999092	0.00000000	9.48572700	7.89247000
156.09999091	0.00000000	9.48572700	7.89247000
156.29999090	0.00000000	9.44266700	7.93553100
156.49999089	0.00000000	9.06742000	8.31077700
156.69999087	0.00000000	8.32308000	9.05511800
156.89999086	0.00000000	7.94783400	9.43036400
157.09999085	0.00000000	7.90477300	9.43036400
157.29999084	0.00000000	7.94783400	9.05511800
157.49999083	0.00000000	8.32308000	8.31077700
157.69999081	0.00000000	9.06742000	7.93553100
157.89999080	0.00000000	9.44266700	7.89247000
158.09999079	0.00000000	9.48572700	7.89247000
158.29999078	0.00000000	9.48572700	7.84940900
158.49999077	0.00000000	9.48572700	7.51722400
158.69999075	0.00000000	9.48572700	7.14812900
158.89999074	0.00000000	9.48572700	7.51722400
159.09999073	0.00000000	9.48572700	7.84940900
159.29999072	0.00000000	9.44266700	7.93553100
159.49999071	0.00000000	9.06742000	8.31077700
159.69999070	0.00000000	8.32308000	9.05511800
159.89999068	0.00000000	7.94783400	9.43036400
160.09999067	0.00000000	7.94783400	9.47342500
160.29999066	0.00000000	8.32308000	9.43036400
160.49999065	0.00000000	9.06742000	9.05511800
160.69999064	0.00000000	9.44266700	8.31077700
160.89999062	0.00000000	9.48572700	7.93553100
161.09999061	0.00000000	9.48572700	7.89247000
161.29999060	0.00000000	9.48572700	7.89247000
161.49999059	0.00000000	9.48572700	7.89247000
161.69999058	0.00000000	9.48572700	7.89247000
161.89999056	0.00000000	9.48572700	7.89247000
162.09999055	0.00000000	9.48572700	7.89247000
162.29999054	0.00000000	9.48572700	7.89247000
162.49999053	0.00000000	9.48572700	7.89247000
162.69999052	0.00000000	9.48572700	7.89247000
162.89999051	0.00000000	9.44266700	7.89247000
163.09999049	0.00000000	9.06742000	7.89247000
163.29999048	0.00000000	8.32308000	7.89247000
163.49999047	0.00000000	7.94783400	7.89247000
163.69999046	0.00000000	7.90477300	7.89247000
163.89999045	0.00000000	7.90477300	7.89247000
164.09999043	0.00000000	7.94783400	7.89247000
164.29999042	0.00000000	8.32308000	7.89247000
164.49999041	0.00000000	9.11048200	7.89247000
164.69999040	0.00000000	9.81791200	7.89247000
164.89999039	0.00000000	10.23007000	7.89247000
165.09999037	0.00000000	9.86097400	7.89247000
165.29999036	0.00000000	9.52879000	7.89247000
165.49999035	0.00000000	9.48572700	7.89247000
165.69999034	0.00000000	9.48572700	7.89247000
165.89999033	0.00000000	9.44266700	7.89247000
166.09999032	0.00000000	9.11048200	7.89247000
166.29999030	0.00000000	8.69832600	7.89247000
166.49999029	0.00000000	8.69217500	7.89247000
166.69999028	0.00000000	8.32308000	7.89247000
166.89999027	0.00000000	8.37229300	7.89247000
167.09999026	0.00000000	9.06742000	7.89247000
167.29999024	0.00000000	9.44266700	7.89247000
167.49999023	0.00000000	9.48572700	7.89247000
167.69999022	0.00000000	9.48572700	7.89247000
167.89999021	0.00000000	9.48572700	7.89247000
168.09999020	0.00000000	9.48572700	7.89247000
168.29999018	0.00000000	9.48572700	7.89247000
168.49999017	0.00000000	9.48572700	7.89247000
168.69999016	0.00000000	9.48572700	7.89247000
168.89999015	0.00000000	9.48572700	7.89247000
169.09999014	0.00000000	9.48572700	7.89247000
169.29999013	0.00000000	9.48572700	7.89247000
169.49999011	0.00000000	9.48572700	7.89247000
169.69999010	0.00000000	9.48572700	7.89247000
169.89999009	0.00000000	9.48572700	7.89247000
170.09999008	0.00000000	9.48572700	7.89247000
170.29999007	0.00000000	9.48572700	7.89247000
170.49999005	0.00000000	9.48572700	7.89247000
170.69999004	0.00000000	9.48572700	7.89247000
170.89999003	0.00000000	9.48572700	7.89247000
171.09999002	0.00000000	9.48572700	7.89247000
171.29999001	0.00000000	9.48572700	7.89247000
171.49998999	0.00000000	9.48572700	7.89247000
171.69998998	0.00000000	9.48572700	7.89247000
171.89998997	0.00000000	9.48572700	7.89247000
172.09998996	0.00000000	9.48572700	7.89247000
172.29998995	0.00000000	9.48572700	7.89247000
172.49998994	0.00000000	9.44266700	7.89247000
172.69998992	0.00000000	9.11048200	7.89247000
172.89998991	0.00000000	8.69832600	7.89247000
173.09998990	0.00000000	8.73523500	7.89247000
173.29998989	0.00000000	8.69832600	7.89247000
173.49998988	0.00000000	9.11048200	7.89247000
173.69998986	0.00000000	9.44266700	7.89247000
173.89998985	0.00000000	9.48572700	7.89247000
174.09998984	0.00000000	9.48572700	7.89247000
174.29998983	0.00000000	9.48572700	7.89247000
174.49998982	0.00000000	9.48572700	7.89247000
174.69998980	0.00000000	9.48572700	7.89247000
174.89998979	0.00000000	9.48572700	7.89247000
175.09998978	0.00000000	9.44266700	7.89247000
175.29998977	0.00000000	9.11048200	7.89247000
175.49998976	0.00000000	8.74138700	7.89247000
175.69998975	0.00000000	9.11048200	7.89247000
175.89998973	0.00000000	9.44266700	7.89247000
176.09998972	0.00000000	9.48572700	7.89247000
176.29998971	0.00000000	9.48572700	7.89247000
176.49998970	0.00000000	9.48572700	7.89247000
176.69998969	0.00000000	9.48572700	7.89247000
176.89998967	0.00000000	9.48572700	7.89247000
177.09998966	0.00000000	9.48572700	7.89247000
177.29998965	0.00000000	9.48572700	7.89247000
177.49998964	0.00000000	9.48572700	7.89247000
177.69998963	0.00000000	9.48572700	7.89247000
177.89998961	0.00000000	9.48572700	7.89247000
178.09998960	0.00000000	9.48572700	7.89247000
178.29998959	0.00000000	9.48572700	7.89247000
178.49998958	0.00000000	9.48572700	7.89247000
178.69998957	0.00000000	9.48572700	7.89247000
178.89998956	0.00000000	9.48572700	7.89247000
179.09998954	0.00000000	9.48572700	7.89247000
179.29998953	0.00000000	9.48572700	7.89247000
179.49998952	0.00000000	9.52879000	7.89247000
179.69998951	0.00000000	9.86097400	7.89247000
179.89998950	0.00000000	10.23007000	7.89247000
180.09998948	0.00000000	9.86097400	7.89247000
180.29998947	0.00000000	9.52879000	7.89247000
180.49998946	0.00000000	9.48572700	7.89247000
180.69998945	0.00000000	9.48572700	7.89247000
180.89998944	0.00000000	9.48572700	7.89247000
181.09998942	0.00000000	9.48572700	7.89247000
181.29998941	0.00000000	9.48572700	7.89247000
181.49998940	0.00000000	9.48572700	7.89247000
181.69998939	0.00000000	9.48572700	7.93553100
181.89998938	0.00000000	9.48572700	8.26771600
182.09998937	0.00000000	9.48572700	8.63681000
182.29998935	0.00000000	9.48572700	8.26771600
182.49998934	0.00000000	9.48572700	7.93553100
182.69998933	0.00000000	9.48572700	7.89247000
182.89998932	0.00000000	9.48572700	7.89247000
183.09998931	0.00000000	9.48572700	7.89247000
183.29998929	0.00000000	9.48572700	7.89247000
183.49998928	0.00000000	9.48572700	7.89247000
183.69998927	0.00000000	9.48572700	7.89247000
183.89998926	0.00000000	9.48572700	7.89247000
184.09998925	0.00000000	9.48572700	7.89247000
184.29998923	0.00000000	9.44266700	7.89247000
184.49998922	0.00000000	9.06742000	7.93553100
184.69998921	0.00000000	8.37229300	8.26771600
184.89998920	0.00000000	8.37229300	8.63681000
185.09998919	0.00000000	9.06742000	8.26771600
185.29998918	0.00000000	9.44266700	7.93553100
185.49998916	0.00000000	9.48572700	7.89247000
185.69998915	0.00000000	9.48572700	7.84940900
185.89998914	0.00000000	9.48572700	7.47416300
186.09998913	0.00000000	9.48572700	6.77903500
186.29998912	0.00000000	9.48572700	6.77903500
186.49998910	0.00000000	9.48572700	7.47416300
186.69998909	0.00000000	9.48572700	7.84940900
186.89998908	0.00000000	9.48572700	7.93553100
187.09998907	0.00000000	9.48572700	8.31077700
187.29998906	0.00000000	9.48572700	9.05511800
187.49998904	0.00000000	9.48572700	9.38115100
187.69998903	0.00000000	9.48572700	9.05511800
187.89998902	0.00000000	9.48572700	8.31077700
188.09998901	0.00000000	9.48572700	7.93553100
188.29998900	0.00000000	9.48572700	7.89247000
188.49998899	0.00000000	9.48572700	7.84940900
188.69998897	0.00000000	9.48572700	7.47416300
188.89998896	0.00000000	9.48572700	6.72982200
189.09998895	0.00000000	9.48572700	6.35457700
189.29998894	0.00000000	9.48572700	6.35457700
189.49998893	0.00000000	9.48572700	6.72982200
189.69998891	0.00000000	9.48572700	7.47416300
189.89998890	0.00000000	9.48572700	7.84940900
190.09998889	0.00000000	9.48572700	7.89247000
190.29998888	0.00000000	9.48572700	7.89247000
190.49998887	0.00000000	9.48572700	7.93553100
190.69998885	0.00000000	9.48572700	8.26771600
190.89998884	0.00000000	9.48572700	8.63681000
191.09998883	0.00000000	9.48572700	8.26771600
191.29998882	0.00000000	9.48572700	7.93553100
191.49998881	0.00000000	9.48572700	7.89247000
191.69998880	0.00000000	9.48572700	7.89247000
191.89998878	0.00000000	9.48572700	7.89247000
192.09998877	0.00000000	9.48572700	7.89247000
192.29998876	0.00000000	9.48572700	7.89247000
192.49998875	0.00000000	9.48572700	7.89247000
192.69998874	0.00000000	9.48572700	7.89247000
192.89998872	0.00000000	9.44266700	7.89247000
193.09998871	0.00000000	9.06742000	7.89247000
193.29998870	0.00000000	8.37229300	7.89247000
193.49998869	0.00000000	8.37229300	7.89247000
193.69998868	0.00000000	9.06742000	7.89247000
193.89998866	0.00000000	9.44266700	7.89247000
194.09998865	0.00000000	9.48572700	7.89247000
194.29998864	0.00000000	9.48572700	7.89247000
194.49998863	0.00000000	9.48572700	7.89247000
194.69998862	0.00000000	9.48572700	7.89247000
194.89998861	0.00000000	9.48572700	7.89247000
195.09998859	0.00000000	9.48572700	7.89247000
195.29998858	0.00000000	9.48572700	7.89247000
195.49998857	0.00000000	9.48572700	7.89247000
195.69998856	0.00000000	9.44266700	7.84940900
195.89998855	0.00000000	9.11048200	7.51722400
196.09998853	0.00000000	8.74138700	7.14812900
